Channel              :		CH1
Frequency            :		973.6Hz
Period               :		1.027ms
PK-PK                :		72.27mV
Probe attenuation    :		1X
Voltage per ADC value:		0.122070mV
Time interval        :		2.00000us

index		CH1_Voltage(mV)
1		46.875000
2		46.875000
3		44.921875
4		46.875000
5		42.968750
6		46.875000
7		42.968750
8		46.875000
9		42.968750
10		46.875000
11		42.968750
12		46.875000
13		42.968750
14		46.875000
15		42.968750
16		46.875000
17		41.015625
18		44.921875
19		42.968750
20		44.921875
21		41.015625
22		44.921875
23		41.015625
24		44.921875
25		41.015625
26		44.921875
27		41.015625
28		44.921875
29		41.015625
30		42.968750
31		41.015625
32		42.968750
33		41.015625
34		42.968750
35		39.062500
36		42.968750
37		39.062500
38		41.015625
39		37.109375
40		42.968750
41		37.109375
42		41.015625
43		37.109375
44		41.015625
45		37.109375
46		39.062500
47		37.109375
48		39.062500
49		35.156250
50		39.062500
51		35.156250
52		39.062500
53		35.156250
54		37.109375
55		33.203125
56		37.109375
57		35.156250
58		37.109375
59		33.203125
60		37.109375
61		33.203125
62		35.156250
63		33.203125
64		35.156250
65		31.250000
66		35.156250
67		31.250000
68		35.156250
69		31.250000
70		33.203125
71		31.250000
72		33.203125
73		29.296875
74		33.203125
75		29.296875
76		31.250000
77		27.343750
78		31.250000
79		27.343750
80		31.250000
81		27.343750
82		29.296875
83		25.390625
84		29.296875
85		25.390625
86		29.296875
87		25.390625
88		27.343750
89		23.437500
90		27.343750
91		23.437500
92		27.343750
93		21.484375
94		25.390625
95		21.484375
96		25.390625
97		21.484375
98		25.390625
99		19.531250
100		23.437500
101		19.531250
102		23.437500
103		19.531250
104		21.484375
105		17.578125
106		21.484375
107		17.578125
108		21.484375
109		15.625000
110		19.531250
111		15.625000
112		19.531250
113		15.625000
114		17.578125
115		15.625000
116		17.578125
117		13.671875
118		15.625000
119		13.671875
120		15.625000
121		11.718750
122		15.625000
123		9.765625
124		15.625000
125		9.765625
126		13.671875
127		9.765625
128		13.671875
129		9.765625
130		11.718750
131		7.812500
132		11.718750
133		7.812500
134		9.765625
135		5.859375
136		9.765625
137		5.859375
138		9.765625
139		3.906250
140		9.765625
141		3.906250
142		7.812500
143		3.906250
144		7.812500
145		3.906250
146		5.859375
147		1.953125
148		5.859375
149		1.953125
150		3.906250
151		0.000000
152		3.906250
153		0.000000
154		1.953125
155		0.000000
156		1.953125
157		-1.953125
158		1.953125
159		-1.953125
160		0.000000
161		-1.953125
162		0.000000
163		-3.906250
164		0.000000
165		-3.906250
166		-1.953125
167		-3.906250
168		-1.953125
169		-5.859375
170		-1.953125
171		-5.859375
172		-3.906250
173		-7.812500
174		-3.906250
175		-7.812500
176		-3.906250
177		-7.812500
178		-3.906250
179		-7.812500
180		-5.859375
181		-7.812500
182		-5.859375
183		-9.765625
184		-5.859375
185		-9.765625
186		-5.859375
187		-9.765625
188		-7.812500
189		-11.718750
190		-7.812500
191		-11.718750
192		-7.812500
193		-11.718750
194		-9.765625
195		-11.718750
196		-9.765625
197		-11.718750
198		-9.765625
199		-13.671875
200		-9.765625
201		-15.625000
202		-9.765625
203		-13.671875
204		-11.718750
205		-13.671875
206		-11.718750
207		-15.625000
208		-11.718750
209		-15.625000
210		-11.718750
211		-15.625000
212		-13.671875
213		-15.625000
214		-13.671875
215		-15.625000
216		-13.671875
217		-15.625000
218		-13.671875
219		-17.578125
220		-13.671875
221		-15.625000
222		-13.671875
223		-17.578125
224		-13.671875
225		-17.578125
226		-13.671875
227		-17.578125
228		-13.671875
229		-17.578125
230		-15.625000
231		-17.578125
232		-13.671875
233		-17.578125
234		-15.625000
235		-17.578125
236		-13.671875
237		-17.578125
238		-15.625000
239		-17.578125
240		-15.625000
241		-19.531250
242		-13.671875
243		-17.578125
244		-15.625000
245		-17.578125
246		-15.625000
247		-17.578125
248		-15.625000
249		-17.578125
250		-15.625000
251		-17.578125
252		-15.625000
253		-17.578125
254		-15.625000
255		-17.578125
256		-15.625000
257		-19.531250
258		-15.625000
259		-17.578125
260		-13.671875
261		-17.578125
262		-13.671875
263		-17.578125
264		-13.671875
265		-17.578125
266		-13.671875
267		-17.578125
268		-13.671875
269		-17.578125
270		-13.671875
271		-15.625000
272		-13.671875
273		-15.625000
274		-11.718750
275		-15.625000
276		-11.718750
277		-15.625000
278		-11.718750
279		-13.671875
280		-11.718750
281		-15.625000
282		-11.718750
283		-13.671875
284		-11.718750
285		-13.671875
286		-9.765625
287		-13.671875
288		-9.765625
289		-11.718750
290		-9.765625
291		-11.718750
292		-9.765625
293		-11.718750
294		-7.812500
295		-11.718750
296		-7.812500
297		-9.765625
298		-7.812500
299		-9.765625
300		-7.812500
301		-9.765625
302		-5.859375
303		-9.765625
304		-5.859375
305		-7.812500
306		-5.859375
307		-9.765625
308		-3.906250
309		-7.812500
310		-3.906250
311		-5.859375
312		-3.906250
313		-5.859375
314		-3.906250
315		-5.859375
316		-1.953125
317		-5.859375
318		-1.953125
319		-3.906250
320		0.000000
321		-3.906250
322		0.000000
323		-1.953125
324		0.000000
325		-1.953125
326		1.953125
327		-1.953125
328		1.953125
329		0.000000
330		1.953125
331		-1.953125
332		3.906250
333		1.953125
334		3.906250
335		1.953125
336		3.906250
337		1.953125
338		5.859375
339		3.906250
340		5.859375
341		3.906250
342		7.812500
343		3.906250
344		7.812500
345		5.859375
346		9.765625
347		5.859375
348		9.765625
349		7.812500
350		9.765625
351		7.812500
352		11.718750
353		7.812500
354		11.718750
355		9.765625
356		11.718750
357		9.765625
358		13.671875
359		11.718750
360		13.671875
361		11.718750
362		15.625000
363		11.718750
364		15.625000
365		13.671875
366		17.578125
367		13.671875
368		17.578125
369		13.671875
370		19.531250
371		15.625000
372		19.531250
373		17.578125
374		19.531250
375		17.578125
376		19.531250
377		17.578125
378		21.484375
379		19.531250
380		21.484375
381		19.531250
382		23.437500
383		21.484375
384		23.437500
385		21.484375
386		23.437500
387		21.484375
388		25.390625
389		23.437500
390		25.390625
391		23.437500
392		27.343750
393		23.437500
394		27.343750
395		25.390625
396		27.343750
397		25.390625
398		29.296875
399		25.390625
400		29.296875
401		27.343750
402		29.296875
403		27.343750
404		31.250000
405		29.296875
406		31.250000
407		29.296875
408		31.250000
409		29.296875
410		33.203125
411		31.250000
412		33.203125
413		31.250000
414		33.203125
415		31.250000
416		35.156250
417		33.203125
418		35.156250
419		33.203125
420		35.156250
421		33.203125
422		37.109375
423		35.156250
424		37.109375
425		35.156250
426		37.109375
427		35.156250
428		39.062500
429		35.156250
430		39.062500
431		37.109375
432		39.062500
433		37.109375
434		39.062500
435		37.109375
436		39.062500
437		37.109375
438		41.015625
439		39.062500
440		41.015625
441		39.062500
442		41.015625
443		39.062500
444		42.968750
445		39.062500
446		42.968750
447		39.062500
448		42.968750
449		41.015625
450		42.968750
451		41.015625
452		42.968750
453		41.015625
454		44.921875
455		41.015625
456		42.968750
457		41.015625
458		44.921875
459		41.015625
460		44.921875
461		41.015625
462		44.921875
463		42.968750
464		44.921875
465		42.968750
466		46.875000
467		42.968750
468		46.875000
469		42.968750
470		46.875000
471		42.968750
472		46.875000
473		44.921875
474		46.875000
475		42.968750
476		46.875000
477		42.968750
478		46.875000
479		44.921875
480		46.875000
481		44.921875
482		46.875000
483		44.921875
484		46.875000
485		44.921875
486		48.828125
487		42.968750
488		48.828125
489		44.921875
490		46.875000
491		44.921875
492		48.828125
493		44.921875
494		48.828125
495		44.921875
496		46.875000
497		44.921875
498		46.875000
499		44.921875
500		48.828125
501		44.921875
502		48.828125
503		44.921875
504		46.875000
505		44.921875
506		48.828125
507		44.921875
508		46.875000
509		42.968750
510		46.875000
511		44.921875
512		46.875000
513		44.921875
514		46.875000
515		44.921875
516		46.875000
517		42.968750
518		46.875000
519		42.968750
520		46.875000
521		42.968750
522		46.875000
523		42.968750
524		46.875000
525		41.015625
526		46.875000
527		41.015625
528		46.875000
529		42.968750
530		44.921875
531		42.968750
532		44.921875
533		41.015625
534		44.921875
535		41.015625
536		44.921875
537		39.062500
538		44.921875
539		41.015625
540		44.921875
541		41.015625
542		42.968750
543		41.015625
544		42.968750
545		41.015625
546		42.968750
547		39.062500
548		42.968750
549		39.062500
550		42.968750
551		37.109375
552		41.015625
553		37.109375
554		41.015625
555		37.109375
556		41.015625
557		37.109375
558		39.062500
559		37.109375
560		39.062500
561		35.156250
562		39.062500
563		37.109375
564		39.062500
565		35.156250
566		39.062500
567		35.156250
568		37.109375
569		33.203125
570		37.109375
571		33.203125
572		37.109375
573		33.203125
574		37.109375
575		33.203125
576		35.156250
577		31.250000
578		35.156250
579		31.250000
580		35.156250
581		31.250000
582		35.156250
583		31.250000
584		33.203125
585		29.296875
586		33.203125
587		29.296875
588		33.203125
589		29.296875
590		33.203125
591		27.343750
592		31.250000
593		25.390625
594		31.250000
595		27.343750
596		29.296875
597		25.390625
598		29.296875
599		25.390625
600		29.296875
601		23.437500
602		27.343750
603		23.437500
604		27.343750
605		23.437500
606		27.343750
607		23.437500
608		25.390625
609		21.484375
610		25.390625
611		21.484375
612		25.390625
613		19.531250
614		23.437500
615		19.531250
616		23.437500
617		17.578125
618		21.484375
619		17.578125
620		21.484375
621		15.625000
622		21.484375
623		17.578125
624		19.531250
625		15.625000
626		17.578125
627		15.625000
628		17.578125
629		13.671875
630		17.578125
631		13.671875
632		17.578125
633		11.718750
634		15.625000
635		11.718750
636		15.625000
637		11.718750
638		13.671875
639		9.765625
640		13.671875
641		9.765625
642		11.718750
643		7.812500
644		11.718750
645		7.812500
646		11.718750
647		7.812500
648		9.765625
649		5.859375
650		9.765625
651		5.859375
652		9.765625
653		5.859375
654		7.812500
655		3.906250
656		7.812500
657		3.906250
658		5.859375
659		3.906250
660		5.859375
661		1.953125
662		5.859375
663		1.953125
664		3.906250
665		0.000000
666		3.906250
667		-1.953125
668		3.906250
669		0.000000
670		1.953125
671		-1.953125
672		1.953125
673		-1.953125
674		1.953125
675		-1.953125
676		0.000000
677		-3.906250
678		0.000000
679		-3.906250
680		0.000000
681		-5.859375
682		0.000000
683		-5.859375
684		-1.953125
685		-5.859375
686		-1.953125
687		-5.859375
688		-3.906250
689		-7.812500
690		-3.906250
691		-7.812500
692		-5.859375
693		-7.812500
694		-5.859375
695		-9.765625
696		-5.859375
697		-9.765625
698		-5.859375
699		-9.765625
700		-7.812500
701		-9.765625
702		-7.812500
703		-11.718750
704		-7.812500
705		-13.671875
706		-7.812500
707		-11.718750
708		-9.765625
709		-11.718750
710		-9.765625
711		-13.671875
712		-9.765625
713		-13.671875
714		-9.765625
715		-13.671875
716		-11.718750
717		-13.671875
718		-11.718750
719		-15.625000
720		-11.718750
721		-15.625000
722		-11.718750
723		-15.625000
724		-11.718750
725		-15.625000
726		-13.671875
727		-17.578125
728		-13.671875
729		-17.578125
730		-13.671875
731		-17.578125
732		-13.671875
733		-17.578125
734		-13.671875
735		-17.578125
736		-13.671875
737		-17.578125
738		-13.671875
739		-17.578125
740		-13.671875
741		-17.578125
742		-15.625000
743		-17.578125
744		-15.625000
745		-17.578125
746		-15.625000
747		-17.578125
748		-15.625000
749		-17.578125
750		-15.625000
751		-17.578125
752		-15.625000
753		-17.578125
754		-15.625000
755		-17.578125
756		-15.625000
757		-19.531250
758		-15.625000
759		-17.578125
760		-15.625000
761		-17.578125
762		-15.625000
763		-17.578125
764		-15.625000
765		-17.578125
766		-15.625000
767		-17.578125
768		-15.625000
769		-17.578125
770		-15.625000
771		-17.578125
772		-15.625000
773		-19.531250
774		-13.671875
775		-17.578125
776		-15.625000
777		-17.578125
778		-13.671875
779		-17.578125
780		-13.671875
781		-15.625000
782		-13.671875
783		-15.625000
784		-13.671875
785		-15.625000
786		-13.671875
787		-15.625000
788		-13.671875
789		-15.625000
790		-11.718750
791		-15.625000
792		-11.718750
793		-13.671875
794		-11.718750
795		-15.625000
796		-11.718750
797		-13.671875
798		-9.765625
799		-13.671875
800		-9.765625
801		-13.671875
802		-9.765625
803		-11.718750
804		-9.765625
805		-11.718750
806		-9.765625
807		-11.718750
808		-7.812500
809		-11.718750
810		-7.812500
811		-11.718750
812		-7.812500
813		-9.765625
814		-5.859375
815		-9.765625
816		-5.859375
817		-7.812500
818		-5.859375
819		-7.812500
820		-5.859375
821		-7.812500
822		-3.906250
823		-7.812500
824		-3.906250
825		-5.859375
826		-3.906250
827		-5.859375
828		-3.906250
829		-5.859375
830		-1.953125
831		-3.906250
832		-1.953125
833		-3.906250
834		0.000000
835		-3.906250
836		0.000000
837		-1.953125
838		1.953125
839		-1.953125
840		1.953125
841		-1.953125
842		1.953125
843		0.000000
844		1.953125
845		0.000000
846		3.906250
847		0.000000
848		3.906250
849		1.953125
850		5.859375
851		1.953125
852		5.859375
853		3.906250
854		7.812500
855		3.906250
856		7.812500
857		5.859375
858		7.812500
859		5.859375
860		7.812500
861		5.859375
862		9.765625
863		5.859375
864		9.765625
865		7.812500
866		11.718750
867		7.812500
868		11.718750
869		9.765625
870		13.671875
871		9.765625
872		13.671875
873		11.718750
874		15.625000
875		11.718750
876		15.625000
877		13.671875
878		15.625000
879		13.671875
880		17.578125
881		13.671875
882		17.578125
883		15.625000
884		17.578125
885		15.625000
886		19.531250
887		17.578125
888		19.531250
889		17.578125
890		21.484375
891		17.578125
892		21.484375
893		19.531250
894		21.484375
895		19.531250
896		23.437500
897		19.531250
898		23.437500
899		21.484375
900		25.390625
901		21.484375
902		25.390625
903		23.437500
904		25.390625
905		23.437500
906		27.343750
907		23.437500
908		27.343750
909		25.390625
910		27.343750
911		25.390625
912		27.343750
913		25.390625
914		29.296875
915		27.343750
916		31.250000
917		27.343750
918		31.250000
919		29.296875
920		31.250000
921		29.296875
922		33.203125
923		29.296875
924		33.203125
925		29.296875
926		33.203125
927		31.250000
928		33.203125
929		31.250000
930		35.156250
931		31.250000
932		35.156250
933		33.203125
934		35.156250
935		33.203125
936		37.109375
937		33.203125
938		37.109375
939		35.156250
940		37.109375
941		35.156250
942		39.062500
943		35.156250
944		39.062500
945		37.109375
946		39.062500
947		35.156250
948		41.015625
949		37.109375
950		41.015625
951		37.109375
952		41.015625
953		39.062500
954		41.015625
955		39.062500
956		41.015625
957		39.062500
958		41.015625
959		39.062500
960		42.968750
961		41.015625
962		42.968750
963		39.062500
964		42.968750
965		41.015625
966		42.968750
967		41.015625
968		44.921875
969		41.015625
970		44.921875
971		41.015625
972		44.921875
973		41.015625
974		44.921875
975		41.015625
976		44.921875
977		42.968750
978		44.921875
979		42.968750
980		44.921875
981		42.968750
982		44.921875
983		42.968750
984		44.921875
985		42.968750
986		46.875000
987		42.968750
988		46.875000
989		42.968750
990		46.875000
991		42.968750
992		46.875000
993		44.921875
994		46.875000
995		44.921875
996		46.875000
997		42.968750
998		46.875000
999		44.921875
1000		46.875000
1001		44.921875
1002		46.875000
1003		44.921875
1004		46.875000
1005		44.921875
1006		46.875000
1007		44.921875
1008		46.875000
1009		44.921875
1010		46.875000
1011		44.921875
1012		46.875000
1013		42.968750
1014		46.875000
1015		44.921875
1016		46.875000
1017		44.921875
1018		46.875000
1019		44.921875
1020		46.875000
1021		44.921875
1022		46.875000
1023		44.921875
1024		46.875000
1025		42.968750
1026		46.875000
1027		44.921875
1028		46.875000
1029		42.968750
1030		46.875000
1031		42.968750
1032		46.875000
1033		42.968750
1034		46.875000
1035		42.968750
1036		46.875000
1037		42.968750
1038		44.921875
1039		42.968750
1040		44.921875
1041		42.968750
1042		44.921875
1043		41.015625
1044		46.875000
1045		42.968750
1046		44.921875
1047		41.015625
1048		44.921875
1049		41.015625
1050		44.921875
1051		41.015625
1052		44.921875
1053		41.015625
1054		42.968750
1055		41.015625
1056		42.968750
1057		39.062500
1058		42.968750
1059		39.062500
1060		42.968750
1061		39.062500
1062		41.015625
1063		37.109375
1064		41.015625
1065		39.062500
1066		41.015625
1067		37.109375
1068		41.015625
1069		37.109375
1070		41.015625
1071		37.109375
1072		39.062500
1073		37.109375
1074		39.062500
1075		35.156250
1076		39.062500
1077		35.156250
1078		39.062500
1079		35.156250
1080		37.109375
1081		33.203125
1082		37.109375
1083		33.203125
1084		37.109375
1085		33.203125
1086		37.109375
1087		33.203125
1088		35.156250
1089		33.203125
1090		35.156250
1091		31.250000
1092		35.156250
1093		31.250000
1094		35.156250
1095		31.250000
1096		33.203125
1097		29.296875
1098		33.203125
1099		29.296875
1100		33.203125
1101		29.296875
1102		31.250000
1103		29.296875
1104		31.250000
1105		27.343750
1106		31.250000
1107		27.343750
1108		29.296875
1109		25.390625
1110		29.296875
1111		25.390625
1112		27.343750
1113		25.390625
1114		27.343750
1115		23.437500
1116		27.343750
1117		23.437500
1118		25.390625
1119		23.437500
1120		25.390625
1121		21.484375
1122		25.390625
1123		21.484375
1124		23.437500
1125		21.484375
1126		23.437500
1127		19.531250
1128		23.437500
1129		19.531250
1130		21.484375
1131		17.578125
1132		21.484375
1133		17.578125
1134		19.531250
1135		15.625000
1136		19.531250
1137		15.625000
1138		19.531250
1139		15.625000
1140		17.578125
1141		13.671875
1142		17.578125
1143		13.671875
1144		17.578125
1145		13.671875
1146		15.625000
1147		11.718750
1148		15.625000
1149		11.718750
1150		15.625000
1151		9.765625
1152		13.671875
1153		9.765625
1154		13.671875
1155		9.765625
1156		11.718750
1157		7.812500
1158		11.718750
1159		7.812500
1160		11.718750
1161		7.812500
1162		9.765625
1163		5.859375
1164		9.765625
1165		5.859375
1166		9.765625
1167		5.859375
1168		7.812500
1169		3.906250
1170		7.812500
1171		3.906250
1172		7.812500
1173		1.953125
1174		5.859375
1175		1.953125
1176		5.859375
1177		1.953125
1178		3.906250
1179		0.000000
1180		1.953125
1181		0.000000
1182		1.953125
1183		-1.953125
1184		1.953125
1185		-1.953125
1186		1.953125
1187		-1.953125
1188		0.000000
1189		-3.906250
1190		0.000000
1191		-3.906250
1192		0.000000
1193		-5.859375
1194		-1.953125
1195		-3.906250
1196		-1.953125
1197		-5.859375
1198		-3.906250
1199		-7.812500
1200		-1.953125
1201		-7.812500
1202		-3.906250
1203		-7.812500
1204		-3.906250
1205		-7.812500
1206		-3.906250
1207		-9.765625
1208		-5.859375
1209		-9.765625
1210		-5.859375
1211		-9.765625
1212		-5.859375
1213		-9.765625
1214		-7.812500
1215		-11.718750
1216		-7.812500
1217		-11.718750
1218		-7.812500
1219		-11.718750
1220		-9.765625
1221		-11.718750
1222		-9.765625
1223		-13.671875
1224		-9.765625
1225		-13.671875
1226		-9.765625
1227		-13.671875
1228		-11.718750
1229		-13.671875
1230		-11.718750
1231		-13.671875
1232		-11.718750
1233		-15.625000
1234		-11.718750
1235		-15.625000
1236		-11.718750
1237		-15.625000
1238		-13.671875
1239		-15.625000
1240		-13.671875
1241		-15.625000
1242		-13.671875
1243		-17.578125
1244		-13.671875
1245		-17.578125
1246		-13.671875
1247		-17.578125
1248		-15.625000
1249		-17.578125
1250		-13.671875
1251		-17.578125
1252		-13.671875
1253		-17.578125
1254		-15.625000
1255		-17.578125
1256		-15.625000
1257		-17.578125
1258		-15.625000
1259		-17.578125
1260		-15.625000
1261		-19.531250
1262		-15.625000
1263		-17.578125
1264		-15.625000
1265		-19.531250
1266		-15.625000
1267		-19.531250
1268		-15.625000
1269		-17.578125
1270		-15.625000
1271		-19.531250
1272		-15.625000
1273		-19.531250
1274		-15.625000
1275		-19.531250
1276		-15.625000
1277		-19.531250
1278		-15.625000
1279		-17.578125
1280		-15.625000
1281		-17.578125
1282		-15.625000
1283		-19.531250
1284		-15.625000
1285		-17.578125
1286		-15.625000
1287		-17.578125
1288		-13.671875
1289		-17.578125
1290		-15.625000
1291		-17.578125
1292		-13.671875
1293		-17.578125
1294		-13.671875
1295		-17.578125
1296		-13.671875
1297		-15.625000
1298		-13.671875
1299		-17.578125
1300		-13.671875
1301		-15.625000
1302		-13.671875
1303		-15.625000
1304		-11.718750
1305		-15.625000
1306		-13.671875
1307		-15.625000
1308		-11.718750
1309		-13.671875
1310		-11.718750
1311		-15.625000
1312		-9.765625
1313		-13.671875
1314		-11.718750
1315		-13.671875
1316		-9.765625
1317		-13.671875
1318		-9.765625
1319		-13.671875
1320		-9.765625
1321		-11.718750
1322		-7.812500
1323		-11.718750
1324		-7.812500
1325		-11.718750
1326		-7.812500
1327		-9.765625
1328		-5.859375
1329		-9.765625
1330		-5.859375
1331		-9.765625
1332		-5.859375
1333		-9.765625
1334		-5.859375
1335		-7.812500
1336		-3.906250
1337		-7.812500
1338		-3.906250
1339		-7.812500
1340		-3.906250
1341		-5.859375
1342		-1.953125
1343		-5.859375
1344		-1.953125
1345		-5.859375
1346		0.000000
1347		-3.906250
1348		-1.953125
1349		-3.906250
1350		0.000000
1351		-1.953125
1352		0.000000
1353		-1.953125
1354		1.953125
1355		-1.953125
1356		1.953125
1357		0.000000
1358		3.906250
1359		0.000000
1360		3.906250
1361		1.953125
1362		3.906250
1363		1.953125
1364		3.906250
1365		3.906250
1366		5.859375
1367		1.953125
1368		7.812500
1369		3.906250
1370		7.812500
1371		3.906250
1372		7.812500
1373		5.859375
1374		9.765625
1375		5.859375
1376		9.765625
1377		7.812500
1378		11.718750
1379		7.812500
1380		11.718750
1381		9.765625
1382		11.718750
1383		9.765625
1384		13.671875
1385		9.765625
1386		13.671875
1387		11.718750
1388		15.625000
1389		11.718750
1390		15.625000
1391		11.718750
1392		15.625000
1393		13.671875
1394		17.578125
1395		13.671875
1396		17.578125
1397		15.625000
1398		17.578125
1399		15.625000
1400		19.531250
1401		15.625000
1402		19.531250
1403		17.578125
1404		21.484375
1405		17.578125
1406		21.484375
1407		19.531250
1408		23.437500
1409		19.531250
1410		23.437500
1411		21.484375
1412		23.437500
1413		21.484375
1414		25.390625
1415		21.484375
1416		25.390625
1417		21.484375
1418		25.390625
1419		23.437500
1420		27.343750
1421		25.390625
1422		27.343750
1423		25.390625
1424		27.343750
1425		25.390625
1426		29.296875
1427		25.390625
1428		29.296875
1429		27.343750
1430		31.250000
1431		27.343750
1432		31.250000
1433		27.343750
1434		33.203125
1435		29.296875
1436		33.203125
1437		29.296875
1438		33.203125
1439		31.250000
1440		33.203125
1441		31.250000
1442		35.156250
1443		31.250000
1444		35.156250
1445		31.250000
1446		35.156250
1447		33.203125
1448		35.156250
1449		33.203125
1450		37.109375
1451		33.203125
1452		37.109375
1453		33.203125
1454		37.109375
1455		35.156250
1456		39.062500
1457		35.156250
1458		39.062500
1459		35.156250
1460		39.062500
1461		37.109375
1462		39.062500
1463		37.109375
1464		41.015625
1465		37.109375
1466		39.062500
1467		37.109375
1468		41.015625
1469		39.062500
1470		41.015625
1471		39.062500
1472		41.015625
1473		39.062500
1474		42.968750
1475		39.062500
1476		42.968750
1477		39.062500
1478		42.968750
1479		41.015625
1480		42.968750
1481		41.015625
1482		42.968750
1483		41.015625
1484		42.968750
1485		41.015625
1486		44.921875
1487		41.015625
1488		44.921875
1489		41.015625
1490		44.921875
1491		42.968750
1492		44.921875
1493		42.968750
1494		44.921875
1495		42.968750
1496		44.921875
1497		42.968750
1498		46.875000
1499		42.968750
1500		44.921875
1501		42.968750
1502		46.875000
1503		42.968750
1504		46.875000
1505		42.968750
1506		46.875000
1507		42.968750
1508		46.875000
1509		42.968750
1510		46.875000
1511		42.968750
1512		46.875000
1513		42.968750
1514		46.875000
1515		44.921875
1516		46.875000
1517		44.921875
1518		46.875000
1519		44.921875
1520		46.875000
1521		44.921875
1522		46.875000
1523		44.921875
1524		46.875000
1525		42.968750
1526		46.875000
1527		42.968750
1528		46.875000
1529		42.968750
1530		46.875000
1531		44.921875
1532		46.875000
1533		44.921875
1534		46.875000
1535		44.921875
1536		46.875000
1537		44.921875
1538		46.875000
1539		42.968750
1540		46.875000
1541		42.968750
1542		46.875000
1543		42.968750
1544		46.875000
1545		42.968750
1546		46.875000
1547		42.968750
1548		46.875000
1549		42.968750
1550		44.921875
1551		41.015625
1552		44.921875
1553		42.968750
1554		44.921875
1555		42.968750
1556		44.921875
1557		41.015625
1558		44.921875
1559		41.015625
1560		44.921875
1561		41.015625
1562		44.921875
1563		41.015625
1564		44.921875
1565		41.015625
1566		42.968750
1567		41.015625
1568		42.968750
1569		39.062500
1570		42.968750
1571		39.062500
1572		42.968750
1573		39.062500
1574		42.968750
1575		39.062500
1576		41.015625
1577		37.109375
1578		41.015625
1579		37.109375
1580		41.015625
1581		37.109375
1582		41.015625
1583		37.109375
1584		39.062500
1585		37.109375
1586		41.015625
1587		35.156250
1588		39.062500
1589		35.156250
1590		39.062500
1591		35.156250
1592		37.109375
1593		35.156250
1594		37.109375
1595		33.203125
1596		37.109375
1597		33.203125
1598		37.109375
1599		33.203125
1600		35.156250
1601		31.250000
1602		35.156250
1603		31.250000
1604		35.156250
1605		31.250000
1606		35.156250
1607		31.250000
1608		33.203125
1609		29.296875
1610		33.203125
1611		29.296875
1612		33.203125
1613		29.296875
1614		31.250000
1615		29.296875
1616		31.250000
1617		27.343750
1618		31.250000
1619		25.390625
1620		29.296875
1621		25.390625
1622		29.296875
1623		25.390625
1624		29.296875
1625		25.390625
1626		27.343750
1627		23.437500
1628		27.343750
1629		23.437500
1630		27.343750
1631		23.437500
1632		27.343750
1633		21.484375
1634		25.390625
1635		21.484375
1636		25.390625
1637		19.531250
1638		23.437500
1639		19.531250
1640		23.437500
1641		19.531250
1642		21.484375
1643		17.578125
1644		21.484375
1645		17.578125
1646		21.484375
1647		15.625000
1648		21.484375
1649		15.625000
1650		19.531250
1651		15.625000
1652		17.578125
1653		13.671875
1654		17.578125
1655		13.671875
1656		17.578125
1657		13.671875
1658		15.625000
1659		11.718750
1660		15.625000
1661		11.718750
1662		15.625000
1663		11.718750
1664		15.625000
1665		9.765625
1666		13.671875
1667		9.765625
1668		11.718750
1669		7.812500
1670		11.718750
1671		7.812500
1672		11.718750
1673		7.812500
1674		9.765625
1675		5.859375
1676		9.765625
1677		5.859375
1678		9.765625
1679		5.859375
1680		7.812500
1681		3.906250
1682		7.812500
1683		3.906250
1684		5.859375
1685		1.953125
1686		5.859375
1687		1.953125
1688		5.859375
1689		1.953125
1690		3.906250
1691		0.000000
1692		3.906250
1693		0.000000
1694		1.953125
1695		-1.953125
1696		1.953125
1697		-1.953125
1698		1.953125
1699		-1.953125
1700		0.000000
1701		-1.953125
1702		0.000000
1703		-3.906250
1704		0.000000
1705		-3.906250
1706		0.000000
1707		-5.859375
1708		-1.953125
1709		-5.859375
1710		-3.906250
1711		-5.859375
1712		-3.906250
1713		-7.812500
1714		-3.906250
1715		-7.812500
1716		-3.906250
1717		-7.812500
1718		-5.859375
1719		-9.765625
1720		-5.859375
1721		-9.765625
1722		-5.859375
1723		-9.765625
1724		-5.859375
1725		-9.765625
1726		-7.812500
1727		-11.718750
1728		-7.812500
1729		-11.718750
1730		-7.812500
1731		-13.671875
1732		-7.812500
1733		-11.718750
1734		-9.765625
1735		-13.671875
1736		-9.765625
1737		-13.671875
1738		-9.765625
1739		-13.671875
1740		-11.718750
1741		-15.625000
1742		-11.718750
1743		-13.671875
1744		-11.718750
1745		-15.625000
1746		-11.718750
1747		-15.625000
1748		-11.718750
1749		-15.625000
1750		-11.718750
1751		-15.625000
1752		-13.671875
1753		-17.578125
1754		-11.718750
1755		-17.578125
1756		-13.671875
1757		-17.578125
1758		-13.671875
1759		-17.578125
1760		-13.671875
1761		-17.578125
1762		-13.671875
1763		-17.578125
1764		-15.625000
1765		-17.578125
1766		-13.671875
1767		-17.578125
1768		-15.625000
1769		-17.578125
1770		-15.625000
1771		-19.531250
1772		-15.625000
1773		-17.578125
1774		-15.625000
1775		-19.531250
1776		-15.625000
1777		-17.578125
1778		-15.625000
1779		-19.531250
1780		-15.625000
1781		-19.531250
1782		-15.625000
1783		-17.578125
1784		-15.625000
1785		-19.531250
1786		-15.625000
1787		-19.531250
1788		-15.625000
1789		-19.531250
1790		-15.625000
1791		-19.531250
1792		-15.625000
1793		-19.531250
1794		-15.625000
1795		-19.531250
1796		-15.625000
1797		-17.578125
1798		-15.625000
1799		-19.531250
1800		-13.671875
1801		-17.578125
1802		-15.625000
1803		-17.578125
1804		-15.625000
1805		-17.578125
1806		-13.671875
1807		-17.578125
1808		-13.671875
1809		-17.578125
1810		-13.671875
1811		-17.578125
1812		-13.671875
1813		-15.625000
1814		-13.671875
1815		-17.578125
1816		-11.718750
1817		-15.625000
1818		-13.671875
1819		-15.625000
1820		-13.671875
1821		-15.625000
1822		-11.718750
1823		-15.625000
1824		-11.718750
1825		-13.671875
1826		-11.718750
1827		-13.671875
1828		-9.765625
1829		-13.671875
1830		-9.765625
1831		-15.625000
1832		-9.765625
1833		-11.718750
1834		-9.765625
1835		-11.718750
1836		-9.765625
1837		-11.718750
1838		-7.812500
1839		-9.765625
1840		-7.812500
1841		-9.765625
1842		-7.812500
1843		-9.765625
1844		-7.812500
1845		-7.812500
1846		-5.859375
1847		-9.765625
1848		-5.859375
1849		-7.812500
1850		-3.906250
1851		-7.812500
1852		-3.906250
1853		-5.859375
1854		-3.906250
1855		-7.812500
1856		-1.953125
1857		-7.812500
1858		-1.953125
1859		-3.906250
1860		-1.953125
1861		-5.859375
1862		0.000000
1863		-3.906250
1864		0.000000
1865		-3.906250
1866		1.953125
1867		-1.953125
1868		0.000000
1869		0.000000
1870		1.953125
1871		0.000000
1872		1.953125
1873		-1.953125
1874		3.906250
1875		0.000000
1876		3.906250
1877		0.000000
1878		7.812500
1879		1.953125
1880		7.812500
1881		1.953125
1882		7.812500
1883		3.906250
1884		7.812500
1885		5.859375
1886		7.812500
1887		5.859375
1888		9.765625
1889		5.859375
1890		11.718750
1891		5.859375
1892		13.671875
1893		5.859375
1894		13.671875
1895		7.812500
1896		13.671875
1897		7.812500
1898		13.671875
1899		9.765625
1900		15.625000
1901		11.718750
1902		13.671875
1903		11.718750
1904		15.625000
1905		11.718750
1906		17.578125
1907		11.718750
1908		19.531250
1909		13.671875
1910		19.531250
1911		13.671875
1912		19.531250
1913		13.671875
1914		21.484375
1915		15.625000
1916		21.484375
1917		15.625000
1918		21.484375
1919		19.531250
1920		21.484375
1921		17.578125
1922		23.437500
1923		17.578125
1924		23.437500
1925		17.578125
1926		25.390625
1927		19.531250
1928		25.390625
1929		21.484375
1930		27.343750
1931		21.484375
1932		27.343750
1933		21.484375
1934		27.343750
1935		25.390625
1936		27.343750
1937		25.390625
1938		27.343750
1939		23.437500
1940		31.250000
1941		25.390625
1942		31.250000
1943		25.390625
1944		31.250000
1945		25.390625
1946		33.203125
1947		27.343750
1948		33.203125
1949		27.343750
1950		33.203125
1951		29.296875
1952		33.203125
1953		31.250000
1954		33.203125
1955		29.296875
1956		35.156250
1957		29.296875
1958		37.109375
1959		31.250000
1960		37.109375
1961		31.250000
1962		37.109375
1963		31.250000
1964		39.062500
1965		31.250000
1966		39.062500
1967		33.203125
1968		39.062500
1969		35.156250
1970		37.109375
1971		35.156250
1972		39.062500
1973		35.156250
1974		41.015625
1975		35.156250
1976		41.015625
1977		35.156250
1978		42.968750
1979		35.156250
1980		42.968750
1981		37.109375
1982		42.968750
1983		37.109375
1984		42.968750
1985		39.062500
1986		41.015625
1987		39.062500
1988		42.968750
1989		39.062500
1990		44.921875
1991		39.062500
1992		44.921875
1993		39.062500
1994		44.921875
1995		39.062500
1996		44.921875
1997		39.062500
1998		46.875000
1999		39.062500
2000		46.875000
2001		41.015625
2002		44.921875
2003		42.968750
2004		44.921875
2005		41.015625
2006		46.875000
2007		41.015625
2008		46.875000
2009		41.015625
2010		46.875000
2011		41.015625
2012		46.875000
2013		41.015625
2014		48.828125
2015		41.015625
2016		46.875000
2017		41.015625
2018		48.828125
2019		42.968750
2020		46.875000
2021		42.968750
2022		46.875000
2023		41.015625
2024		48.828125
2025		42.968750
2026		48.828125
2027		42.968750
2028		48.828125
2029		42.968750
2030		48.828125
2031		42.968750
2032		48.828125
2033		42.968750
2034		48.828125
2035		42.968750
2036		48.828125
2037		44.921875
2038		46.875000
2039		42.968750
2040		48.828125
2041		42.968750
2042		48.828125
2043		42.968750
2044		48.828125
2045		42.968750
2046		48.828125
2047		41.015625
2048		48.828125
2049		42.968750
2050		48.828125
2051		41.015625
2052		48.828125
2053		42.968750
2054		46.875000
2055		42.968750
2056		46.875000
2057		41.015625
2058		46.875000
2059		41.015625
2060		46.875000
2061		41.015625
2062		48.828125
2063		41.015625
2064		46.875000
2065		41.015625
2066		46.875000
2067		41.015625
2068		46.875000
2069		41.015625
2070		44.921875
2071		41.015625
2072		44.921875
2073		39.062500
2074		44.921875
2075		39.062500
2076		44.921875
2077		39.062500
2078		44.921875
2079		39.062500
2080		44.921875
2081		37.109375
2082		44.921875
2083		37.109375
2084		44.921875
2085		37.109375
2086		44.921875
2087		39.062500
2088		41.015625
2089		37.109375
2090		42.968750
2091		35.156250
2092		42.968750
2093		35.156250
2094		41.015625
2095		35.156250
2096		41.015625
2097		35.156250
2098		41.015625
2099		33.203125
2100		41.015625
2101		33.203125
2102		41.015625
2103		35.156250
2104		37.109375
2105		35.156250
2106		37.109375
2107		31.250000
2108		39.062500
2109		31.250000
2110		39.062500
2111		31.250000
2112		37.109375
2113		31.250000
2114		37.109375
2115		29.296875
2116		37.109375
2117		29.296875
2118		37.109375
2119		31.250000
2120		35.156250
2121		31.250000
2122		33.203125
2123		27.343750
2124		33.203125
2125		27.343750
2126		33.203125
2127		25.390625
2128		33.203125
2129		25.390625
2130		31.250000
2131		25.390625
2132		31.250000
2133		23.437500
2134		31.250000
2135		23.437500
2136		29.296875
2137		25.390625
2138		27.343750
2139		23.437500
2140		27.343750
2141		21.484375
2142		27.343750
2143		21.484375
2144		27.343750
2145		21.484375
2146		25.390625
2147		19.531250
2148		27.343750
2149		17.578125
2150		25.390625
2151		17.578125
2152		25.390625
2153		19.531250
2154		21.484375
2155		19.531250
2156		21.484375
2157		15.625000
2158		21.484375
2159		15.625000
2160		21.484375
2161		13.671875
2162		21.484375
2163		13.671875
2164		19.531250
2165		13.671875
2166		19.531250
2167		11.718750
2168		17.578125
2169		11.718750
2170		17.578125
2171		11.718750
2172		15.625000
2173		9.765625
2174		15.625000
2175		9.765625
2176		15.625000
2177		7.812500
2178		13.671875
2179		7.812500
2180		15.625000
2181		7.812500
2182		13.671875
2183		5.859375
2184		11.718750
2185		5.859375
2186		11.718750
2187		5.859375
2188		9.765625
2189		3.906250
2190		9.765625
2191		3.906250
2192		9.765625
2193		3.906250
2194		7.812500
2195		1.953125
2196		7.812500
2197		0.000000
2198		7.812500
2199		0.000000
2200		5.859375
2201		-1.953125
2202		5.859375
2203		0.000000
2204		3.906250
2205		0.000000
2206		1.953125
2207		-1.953125
2208		3.906250
2209		-3.906250
2210		1.953125
2211		-3.906250
2212		1.953125
2213		-5.859375
2214		1.953125
2215		-5.859375
2216		0.000000
2217		-5.859375
2218		0.000000
2219		-5.859375
2220		0.000000
2221		-5.859375
2222		-1.953125
2223		-7.812500
2224		-3.906250
2225		-7.812500
2226		-1.953125
2227		-9.765625
2228		-1.953125
2229		-9.765625
2230		-3.906250
2231		-9.765625
2232		-3.906250
2233		-11.718750
2234		-3.906250
2235		-9.765625
2236		-5.859375
2237		-9.765625
2238		-7.812500
2239		-11.718750
2240		-7.812500
2241		-13.671875
2242		-7.812500
2243		-13.671875
2244		-7.812500
2245		-15.625000
2246		-7.812500
2247		-15.625000
2248		-7.812500
2249		-15.625000
2250		-7.812500
2251		-15.625000
2252		-9.765625
2253		-15.625000
2254		-9.765625
2255		-13.671875
2256		-11.718750
2257		-17.578125
2258		-11.718750
2259		-17.578125
2260		-11.718750
2261		-17.578125
2262		-11.718750
2263		-17.578125
2264		-11.718750
2265		-17.578125
2266		-11.718750
2267		-19.531250
2268		-11.718750
2269		-19.531250
2270		-11.718750
2271		-17.578125
2272		-15.625000
2273		-17.578125
2274		-15.625000
2275		-19.531250
2276		-13.671875
2277		-19.531250
2278		-13.671875
2279		-19.531250
2280		-13.671875
2281		-19.531250
2282		-13.671875
2283		-19.531250
2284		-13.671875
2285		-21.484375
2286		-13.671875
2287		-19.531250
2288		-15.625000
2289		-19.531250
2290		-15.625000
2291		-19.531250
2292		-15.625000
2293		-21.484375
2294		-13.671875
2295		-21.484375
2296		-15.625000
2297		-19.531250
2298		-13.671875
2299		-21.484375
2300		-13.671875
2301		-21.484375
2302		-13.671875
2303		-21.484375
2304		-13.671875
2305		-17.578125
2306		-15.625000
2307		-19.531250
2308		-15.625000
2309		-19.531250
2310		-13.671875
2311		-19.531250
2312		-13.671875
2313		-21.484375
2314		-13.671875
2315		-19.531250
2316		-13.671875
2317		-19.531250
2318		-13.671875
2319		-19.531250
2320		-13.671875
2321		-17.578125
2322		-13.671875
2323		-17.578125
2324		-15.625000
2325		-17.578125
2326		-11.718750
2327		-19.531250
2328		-11.718750
2329		-17.578125
2330		-11.718750
2331		-17.578125
2332		-11.718750
2333		-17.578125
2334		-9.765625
2335		-17.578125
2336		-11.718750
2337		-15.625000
2338		-11.718750
2339		-13.671875
2340		-11.718750
2341		-13.671875
2342		-9.765625
2343		-13.671875
2344		-9.765625
2345		-15.625000
2346		-7.812500
2347		-13.671875
2348		-7.812500
2349		-13.671875
2350		-7.812500
2351		-13.671875
2352		-5.859375
2353		-13.671875
2354		-5.859375
2355		-9.765625
2356		-7.812500
2357		-9.765625
2358		-7.812500
2359		-11.718750
2360		-3.906250
2361		-11.718750
2362		-3.906250
2363		-9.765625
2364		-1.953125
2365		-9.765625
2366		-1.953125
2367		-7.812500
2368		-1.953125
2369		-7.812500
2370		-1.953125
2371		-5.859375
2372		-1.953125
2373		-3.906250
2374		-1.953125
2375		-5.859375
2376		0.000000
2377		-3.906250
2378		1.953125
2379		-3.906250
2380		1.953125
2381		-3.906250
2382		1.953125
2383		-1.953125
2384		3.906250
2385		-1.953125
2386		3.906250
2387		-1.953125
2388		5.859375
2389		1.953125
2390		3.906250
2391		1.953125
2392		3.906250
2393		0.000000
2394		7.812500
2395		1.953125
2396		7.812500
2397		1.953125
2398		7.812500
2399		3.906250
2400		9.765625
2401		3.906250
2402		9.765625
2403		3.906250
2404		11.718750
2405		7.812500
2406		9.765625
2407		7.812500
2408		11.718750
2409		5.859375
2410		13.671875
2411		7.812500
2412		15.625000
2413		7.812500
2414		15.625000
2415		9.765625
2416		15.625000
2417		9.765625
2418		17.578125
2419		11.718750
2420		17.578125
2421		11.718750
2422		17.578125
2423		15.625000
2424		17.578125
2425		15.625000
2426		19.531250
2427		13.671875
2428		19.531250
2429		15.625000
2430		21.484375
2431		15.625000
2432		23.437500
2433		15.625000
2434		23.437500
2435		17.578125
2436		23.437500
2437		17.578125
2438		25.390625
2439		21.484375
2440		23.437500
2441		21.484375
2442		23.437500
2443		19.531250
2444		27.343750
2445		21.484375
2446		27.343750
2447		21.484375
2448		29.296875
2449		23.437500
2450		29.296875
2451		23.437500
2452		29.296875
2453		23.437500
2454		31.250000
2455		25.390625
2456		29.296875
2457		27.343750
2458		29.296875
2459		27.343750
2460		33.203125
2461		27.343750
2462		33.203125
2463		25.390625
2464		33.203125
2465		27.343750
2466		35.156250
2467		29.296875
2468		35.156250
2469		29.296875
2470		35.156250
2471		31.250000
2472		35.156250
2473		33.203125
2474		35.156250
2475		33.203125
2476		35.156250
2477		31.250000
2478		39.062500
2479		31.250000
2480		39.062500
2481		33.203125
2482		39.062500
2483		33.203125
2484		39.062500
2485		33.203125
2486		39.062500
2487		35.156250
2488		41.015625
2489		37.109375
2490		39.062500
2491		37.109375
2492		39.062500
2493		35.156250
2494		42.968750
2495		35.156250
2496		42.968750
2497		37.109375
2498		42.968750
2499		37.109375
2500		42.968750
2501		37.109375
2502		44.921875
2503		37.109375
2504		44.921875
2505		37.109375
2506		42.968750
2507		41.015625
2508		42.968750
2509		39.062500
2510		44.921875
2511		39.062500
2512		44.921875
2513		39.062500
2514		46.875000
2515		39.062500
2516		46.875000
2517		39.062500
2518		46.875000
2519		41.015625
2520		46.875000
2521		41.015625
2522		46.875000
2523		42.968750
2524		44.921875
2525		42.968750
2526		44.921875
2527		41.015625
2528		46.875000
2529		41.015625
2530		46.875000
2531		41.015625
2532		48.828125
2533		42.968750
2534		48.828125
2535		41.015625
2536		48.828125
2537		42.968750
2538		48.828125
2539		42.968750
2540		46.875000
2541		42.968750
2542		46.875000
2543		42.968750
2544		48.828125
2545		41.015625
2546		48.828125
2547		41.015625
2548		48.828125
2549		41.015625
2550		48.828125
2551		42.968750
2552		48.828125
2553		41.015625
2554		48.828125
2555		42.968750
2556		48.828125
2557		44.921875
2558		46.875000
2559		44.921875
2560		46.875000
2561		41.015625
2562		48.828125
2563		42.968750
2564		46.875000
2565		41.015625
2566		48.828125
2567		41.015625
2568		46.875000
2569		41.015625
2570		46.875000
2571		41.015625
2572		46.875000
2573		42.968750
2574		46.875000
2575		42.968750
2576		44.921875
2577		41.015625
2578		46.875000
2579		41.015625
2580		46.875000
2581		39.062500
2582		46.875000
2583		39.062500
2584		46.875000
2585		39.062500
2586		46.875000
2587		39.062500
2588		44.921875
2589		39.062500
2590		44.921875
2591		41.015625
2592		42.968750
2593		39.062500
2594		42.968750
2595		39.062500
2596		44.921875
2597		37.109375
2598		42.968750
2599		37.109375
2600		42.968750
2601		37.109375
2602		42.968750
2603		37.109375
2604		42.968750
2605		37.109375
2606		42.968750
2607		37.109375
2608		39.062500
2609		37.109375
2610		39.062500
2611		35.156250
2612		41.015625
2613		33.203125
2614		41.015625
2615		33.203125
2616		41.015625
2617		33.203125
2618		39.062500
2619		33.203125
2620		39.062500
2621		33.203125
2622		39.062500
2623		33.203125
2624		37.109375
2625		33.203125
2626		35.156250
2627		31.250000
2628		35.156250
2629		29.296875
2630		37.109375
2631		29.296875
2632		35.156250
2633		27.343750
2634		35.156250
2635		29.296875
2636		35.156250
2637		27.343750
2638		33.203125
2639		27.343750
2640		33.203125
2641		29.296875
2642		31.250000
2643		27.343750
2644		29.296875
2645		25.390625
2646		31.250000
2647		23.437500
2648		31.250000
2649		23.437500
2650		29.296875
2651		21.484375
2652		29.296875
2653		21.484375
2654		29.296875
2655		21.484375
2656		27.343750
2657		23.437500
2658		25.390625
2659		21.484375
2660		25.390625
2661		19.531250
2662		25.390625
2663		19.531250
2664		25.390625
2665		17.578125
2666		25.390625
2667		17.578125
2668		23.437500
2669		15.625000
2670		23.437500
2671		15.625000
2672		23.437500
2673		15.625000
2674		21.484375
2675		15.625000
2676		17.578125
2677		13.671875
2678		17.578125
2679		13.671875
2680		19.531250
2681		11.718750
2682		19.531250
2683		9.765625
2684		17.578125
2685		9.765625
2686		17.578125
2687		9.765625
2688		15.625000
2689		9.765625
2690		15.625000
2691		9.765625
2692		11.718750
2693		9.765625
2694		11.718750
2695		7.812500
2696		13.671875
2697		5.859375
2698		11.718750
2699		3.906250
2700		11.718750
2701		3.906250
2702		9.765625
2703		3.906250
2704		11.718750
2705		1.953125
2706		9.765625
2707		3.906250
2708		7.812500
2709		3.906250
2710		5.859375
2711		0.000000
2712		5.859375
2713		0.000000
2714		5.859375
2715		-1.953125
2716		5.859375
2717		-1.953125
2718		3.906250
2719		-1.953125
2720		3.906250
2721		-3.906250
2722		3.906250
2723		-3.906250
2724		3.906250
2725		-1.953125
2726		0.000000
2727		-3.906250
2728		0.000000
2729		-5.859375
2730		0.000000
2731		-7.812500
2732		0.000000
2733		-7.812500
2734		0.000000
2735		-7.812500
2736		-1.953125
2737		-9.765625
2738		-1.953125
2739		-9.765625
2740		-3.906250
2741		-7.812500
2742		-3.906250
2743		-7.812500
2744		-5.859375
2745		-11.718750
2746		-3.906250
2747		-11.718750
2748		-5.859375
2749		-11.718750
2750		-5.859375
2751		-13.671875
2752		-5.859375
2753		-13.671875
2754		-7.812500
2755		-13.671875
2756		-7.812500
2757		-13.671875
2758		-7.812500
2759		-13.671875
2760		-9.765625
2761		-13.671875
2762		-9.765625
2763		-15.625000
2764		-9.765625
2765		-15.625000
2766		-9.765625
2767		-15.625000
2768		-9.765625
2769		-17.578125
2770		-9.765625
2771		-17.578125
2772		-11.718750
2773		-17.578125
2774		-11.718750
2775		-15.625000
2776		-13.671875
2777		-15.625000
2778		-13.671875
2779		-19.531250
2780		-11.718750
2781		-19.531250
2782		-11.718750
2783		-19.531250
2784		-13.671875
2785		-19.531250
2786		-13.671875
2787		-19.531250
2788		-13.671875
2789		-19.531250
2790		-13.671875
2791		-19.531250
2792		-13.671875
2793		-17.578125
2794		-15.625000
2795		-21.484375
2796		-13.671875
2797		-21.484375
2798		-13.671875
2799		-21.484375
2800		-13.671875
2801		-21.484375
2802		-15.625000
2803		-19.531250
2804		-13.671875
2805		-21.484375
2806		-13.671875
2807		-21.484375
2808		-15.625000
2809		-19.531250
2810		-17.578125
2811		-19.531250
2812		-17.578125
2813		-21.484375
2814		-13.671875
2815		-21.484375
2816		-13.671875
2817		-21.484375
2818		-13.671875
2819		-21.484375
2820		-13.671875
2821		-21.484375
2822		-13.671875
2823		-21.484375
2824		-13.671875
2825		-19.531250
2826		-15.625000
2827		-17.578125
2828		-15.625000
2829		-19.531250
2830		-13.671875
2831		-19.531250
2832		-13.671875
2833		-19.531250
2834		-13.671875
2835		-19.531250
2836		-13.671875
2837		-19.531250
2838		-13.671875
2839		-17.578125
2840		-11.718750
2841		-19.531250
2842		-11.718750
2843		-15.625000
2844		-13.671875
2845		-15.625000
2846		-11.718750
2847		-17.578125
2848		-11.718750
2849		-17.578125
2850		-9.765625
2851		-17.578125
2852		-9.765625
2853		-15.625000
2854		-9.765625
2855		-15.625000
2856		-9.765625
2857		-13.671875
2858		-7.812500
2859		-11.718750
2860		-9.765625
2861		-11.718750
2862		-9.765625
2863		-13.671875
2864		-7.812500
2865		-13.671875
2866		-5.859375
2867		-11.718750
2868		-5.859375
2869		-11.718750
2870		-5.859375
2871		-11.718750
2872		-3.906250
2873		-9.765625
2874		-3.906250
2875		-9.765625
2876		-3.906250
2877		-7.812500
2878		-3.906250
2879		-7.812500
2880		-1.953125
2881		-7.812500
2882		-1.953125
2883		-7.812500
2884		0.000000
2885		-5.859375
2886		0.000000
2887		-5.859375
2888		0.000000
2889		-5.859375
2890		0.000000
2891		-3.906250
2892		1.953125
2893		-1.953125
2894		0.000000
2895		-1.953125
2896		1.953125
2897		-1.953125
2898		3.906250
2899		-1.953125
2900		3.906250
2901		-1.953125
2902		5.859375
2903		0.000000
2904		5.859375
2905		0.000000
2906		7.812500
2907		0.000000
2908		7.812500
2909		3.906250
2910		7.812500
2911		5.859375
2912		7.812500
2913		3.906250
2914		9.765625
2915		3.906250
2916		9.765625
2917		5.859375
2918		11.718750
2919		5.859375
2920		11.718750
2921		5.859375
2922		13.671875
2923		7.812500
2924		13.671875
2925		7.812500
2926		13.671875
2927		11.718750
2928		13.671875
2929		11.718750
2930		15.625000
2931		9.765625
2932		15.625000
2933		11.718750
2934		17.578125
2935		11.718750
2936		17.578125
2937		11.718750
2938		19.531250
2939		13.671875
2940		19.531250
2941		13.671875
2942		21.484375
2943		17.578125
2944		19.531250
2945		17.578125
2946		19.531250
2947		17.578125
2948		23.437500
2949		17.578125
2950		23.437500
2951		17.578125
2952		25.390625
2953		19.531250
2954		25.390625
2955		19.531250
2956		25.390625
2957		19.531250
2958		27.343750
2959		21.484375
2960		27.343750
2961		23.437500
2962		25.390625
2963		23.437500
2964		27.343750
2965		23.437500
2966		29.296875
2967		23.437500
2968		29.296875
2969		23.437500
2970		31.250000
2971		25.390625
2972		31.250000
2973		25.390625
2974		31.250000
2975		27.343750
2976		33.203125
2977		29.296875
2978		33.203125
2979		29.296875
2980		33.203125
2981		29.296875
2982		35.156250
2983		29.296875
2984		35.156250
2985		29.296875
2986		37.109375
2987		29.296875
2988		37.109375
2989		33.203125
2990		35.156250
2991		31.250000
2992		37.109375
2993		33.203125
2994		37.109375
2995		35.156250
2996		37.109375
2997		33.203125
2998		41.015625
2999		33.203125
3000		39.062500
3001		35.156250
3002		41.015625
3003		33.203125
3004		41.015625
3005		35.156250
3006		39.062500
3007		35.156250
3008		41.015625
3009		37.109375
3010		41.015625
3011		37.109375
3012		41.015625
3013		39.062500
3014		41.015625
3015		37.109375
3016		42.968750
3017		37.109375
3018		42.968750
3019		39.062500
3020		42.968750
3021		39.062500
3022		44.921875
3023		39.062500
3024		42.968750
3025		39.062500
3026		44.921875
3027		41.015625
3028		42.968750
3029		41.015625
3030		42.968750
3031		39.062500
3032		44.921875
3033		39.062500
3034		46.875000
3035		41.015625
3036		44.921875
3037		41.015625
3038		44.921875
3039		42.968750
3040		46.875000
3041		41.015625
3042		44.921875
3043		42.968750
3044		46.875000
3045		42.968750
3046		44.921875
3047		42.968750
3048		46.875000
3049		41.015625
3050		46.875000
3051		42.968750
3052		46.875000
3053		42.968750
3054		46.875000
3055		42.968750
3056		46.875000
3057		42.968750
3058		46.875000
3059		42.968750
3060		46.875000
3061		44.921875
3062		46.875000
3063		42.968750
3064		44.921875
3065		42.968750
3066		46.875000
3067		42.968750
3068		46.875000
3069		42.968750
3070		46.875000
3071		42.968750
3072		46.875000
3073		42.968750
3074		46.875000
3075		42.968750
3076		46.875000
3077		42.968750
3078		46.875000
3079		42.968750
3080		44.921875
3081		42.968750
3082		46.875000
3083		42.968750
3084		44.921875
3085		42.968750
3086		44.921875
3087		42.968750
3088		44.921875
3089		41.015625
3090		44.921875
3091		41.015625
3092		44.921875
3093		41.015625
3094		44.921875
3095		41.015625
3096		42.968750
3097		41.015625
3098		42.968750
3099		41.015625
3100		44.921875
3101		41.015625
3102		42.968750
3103		39.062500
3104		42.968750
3105		39.062500
3106		42.968750
3107		39.062500
3108		42.968750
3109		39.062500
3110		42.968750
3111		37.109375
3112		41.015625
3113		39.062500
3114		41.015625
3115		39.062500
3116		41.015625
3117		37.109375
3118		41.015625
3119		37.109375
3120		39.062500
3121		35.156250
3122		39.062500
3123		35.156250
3124		39.062500
3125		35.156250
3126		39.062500
3127		35.156250
3128		39.062500
3129		35.156250
3130		37.109375
3131		33.203125
3132		37.109375
3133		33.203125
3134		37.109375
3135		33.203125
3136		35.156250
3137		33.203125
3138		35.156250
3139		31.250000
3140		35.156250
3141		31.250000
3142		35.156250
3143		31.250000
3144		33.203125
3145		31.250000
3146		33.203125
3147		29.296875
3148		31.250000
3149		27.343750
3150		33.203125
3151		29.296875
3152		31.250000
3153		27.343750
3154		31.250000
3155		27.343750
3156		29.296875
3157		27.343750
3158		29.296875
3159		25.390625
3160		29.296875
3161		25.390625
3162		29.296875
3163		25.390625
3164		27.343750
3165		23.437500
3166		27.343750
3167		23.437500
3168		25.390625
3169		21.484375
3170		25.390625
3171		21.484375
3172		25.390625
3173		21.484375
3174		25.390625
3175		19.531250
3176		23.437500
3177		19.531250
3178		23.437500
3179		19.531250
3180		21.484375
3181		17.578125
3182		21.484375
3183		17.578125
3184		21.484375
3185		15.625000
3186		19.531250
3187		15.625000
3188		19.531250
3189		15.625000
3190		19.531250
3191		13.671875
3192		17.578125
3193		13.671875
3194		17.578125
3195		13.671875
3196		15.625000
3197		11.718750
3198		15.625000
3199		9.765625
3200		15.625000
3201		9.765625
3202		13.671875
3203		9.765625
3204		13.671875
3205		9.765625
3206		13.671875
3207		7.812500
3208		11.718750
3209		7.812500
3210		11.718750
3211		5.859375
3212		9.765625
3213		5.859375
3214		9.765625
3215		3.906250
3216		9.765625
3217		3.906250
3218		7.812500
3219		3.906250
3220		7.812500
3221		3.906250
3222		5.859375
3223		1.953125
3224		5.859375
3225		1.953125
3226		5.859375
3227		0.000000
3228		3.906250
3229		0.000000
3230		3.906250
3231		0.000000
3232		1.953125
3233		-1.953125
3234		1.953125
3235		-1.953125
3236		1.953125
3237		-1.953125
3238		0.000000
3239		-3.906250
3240		0.000000
3241		-3.906250
3242		-1.953125
3243		-3.906250
3244		-1.953125
3245		-5.859375
3246		-1.953125
3247		-5.859375
3248		-3.906250
3249		-7.812500
3250		-3.906250
3251		-7.812500
3252		-3.906250
3253		-7.812500
3254		-5.859375
3255		-7.812500
3256		-5.859375
3257		-9.765625
3258		-5.859375
3259		-9.765625
3260		-5.859375
3261		-11.718750
3262		-5.859375
3263		-9.765625
3264		-7.812500
3265		-11.718750
3266		-7.812500
3267		-11.718750
3268		-7.812500
3269		-11.718750
3270		-7.812500
3271		-13.671875
3272		-9.765625
3273		-13.671875
3274		-9.765625
3275		-13.671875
3276		-11.718750
3277		-13.671875
3278		-11.718750
3279		-13.671875
3280		-11.718750
3281		-15.625000
3282		-11.718750
3283		-15.625000
3284		-11.718750
3285		-15.625000
3286		-11.718750
3287		-15.625000
3288		-13.671875
3289		-15.625000
3290		-13.671875
3291		-17.578125
3292		-13.671875
3293		-17.578125
3294		-13.671875
3295		-17.578125
3296		-13.671875
3297		-17.578125
3298		-15.625000
3299		-19.531250
3300		-13.671875
3301		-19.531250
3302		-15.625000
3303		-19.531250
3304		-15.625000
3305		-19.531250
3306		-15.625000
3307		-19.531250
3308		-15.625000
3309		-19.531250
3310		-15.625000
3311		-19.531250
3312		-15.625000
3313		-19.531250
3314		-17.578125
3315		-19.531250
3316		-15.625000
3317		-21.484375
3318		-15.625000
3319		-19.531250
3320		-17.578125
3321		-19.531250
3322		-15.625000
3323		-19.531250
3324		-17.578125
3325		-19.531250
3326		-17.578125
3327		-19.531250
3328		-15.625000
3329		-19.531250
3330		-15.625000
3331		-19.531250
3332		-17.578125
3333		-21.484375
3334		-15.625000
3335		-19.531250
3336		-15.625000
3337		-19.531250
3338		-15.625000
3339		-19.531250
3340		-15.625000
3341		-17.578125
3342		-15.625000
3343		-19.531250
3344		-15.625000
3345		-17.578125
3346		-15.625000
3347		-17.578125
3348		-15.625000
3349		-17.578125
3350		-13.671875
3351		-17.578125
3352		-13.671875
3353		-17.578125
3354		-13.671875
3355		-17.578125
3356		-13.671875
3357		-17.578125
3358		-13.671875
3359		-15.625000
3360		-13.671875
3361		-15.625000
3362		-11.718750
3363		-15.625000
3364		-11.718750
3365		-13.671875
3366		-11.718750
3367		-15.625000
3368		-11.718750
3369		-13.671875
3370		-9.765625
3371		-13.671875
3372		-9.765625
3373		-13.671875
3374		-9.765625
3375		-11.718750
3376		-9.765625
3377		-11.718750
3378		-7.812500
3379		-11.718750
3380		-7.812500
3381		-9.765625
3382		-7.812500
3383		-9.765625
3384		-5.859375
3385		-9.765625
3386		-5.859375
3387		-7.812500
3388		-5.859375
3389		-7.812500
3390		-5.859375
3391		-7.812500
3392		-3.906250
3393		-7.812500
3394		-3.906250
3395		-5.859375
3396		-1.953125
3397		-5.859375
3398		-1.953125
3399		-3.906250
3400		-1.953125
3401		-3.906250
3402		-1.953125
3403		-3.906250
3404		0.000000
3405		-3.906250
3406		0.000000
3407		-1.953125
3408		1.953125
3409		-1.953125
3410		1.953125
3411		-1.953125
3412		1.953125
3413		0.000000
3414		3.906250
3415		1.953125
3416		3.906250
3417		0.000000
3418		5.859375
3419		1.953125
3420		5.859375
3421		1.953125
3422		5.859375
3423		3.906250
3424		7.812500
3425		3.906250
3426		7.812500
3427		5.859375
3428		7.812500
3429		5.859375
3430		9.765625
3431		5.859375
3432		9.765625
3433		7.812500
3434		9.765625
3435		7.812500
3436		11.718750
3437		9.765625
3438		13.671875
3439		9.765625
3440		13.671875
3441		11.718750
3442		13.671875
3443		11.718750
3444		15.625000
3445		11.718750
3446		15.625000
3447		11.718750
3448		15.625000
3449		13.671875
3450		17.578125
3451		15.625000
3452		19.531250
3453		15.625000
3454		19.531250
3455		15.625000
3456		19.531250
3457		17.578125
3458		21.484375
3459		17.578125
3460		21.484375
3461		19.531250
3462		21.484375
3463		17.578125
3464		23.437500
3465		19.531250
3466		23.437500
3467		21.484375
3468		25.390625
3469		21.484375
3470		25.390625
3471		23.437500
3472		25.390625
3473		23.437500
3474		25.390625
3475		23.437500
3476		27.343750
3477		25.390625
3478		27.343750
3479		25.390625
3480		29.296875
3481		27.343750
3482		29.296875
3483		27.343750
3484		29.296875
3485		25.390625
3486		29.296875
3487		27.343750
3488		31.250000
3489		29.296875
3490		31.250000
3491		29.296875
3492		31.250000
3493		29.296875
3494		33.203125
3495		31.250000
3496		33.203125
3497		31.250000
3498		33.203125
3499		31.250000
3500		35.156250
3501		31.250000
3502		35.156250
3503		33.203125
3504		35.156250
3505		33.203125
3506		37.109375
3507		33.203125
3508		37.109375
3509		33.203125
3510		37.109375
3511		35.156250
3512		37.109375
3513		35.156250
3514		39.062500
3515		37.109375
3516		39.062500
3517		37.109375
3518		39.062500
3519		37.109375
3520		41.015625
3521		37.109375
3522		41.015625
3523		37.109375
3524		41.015625
3525		39.062500
3526		41.015625
3527		39.062500
3528		41.015625
3529		39.062500
3530		41.015625
3531		37.109375
3532		42.968750
3533		39.062500
3534		42.968750
3535		39.062500
3536		42.968750
3537		39.062500
3538		42.968750
3539		41.015625
3540		42.968750
3541		41.015625
3542		42.968750
3543		41.015625
3544		44.921875
3545		41.015625
3546		44.921875
3547		41.015625
3548		44.921875
3549		42.968750
3550		44.921875
3551		41.015625
3552		44.921875
3553		42.968750
3554		44.921875
3555		42.968750
3556		44.921875
3557		42.968750
3558		44.921875
3559		42.968750
3560		44.921875
3561		42.968750
3562		44.921875
3563		42.968750
3564		46.875000
3565		42.968750
3566		44.921875
3567		42.968750
3568		44.921875
3569		42.968750
3570		46.875000
3571		42.968750
3572		46.875000
3573		42.968750
3574		46.875000
3575		42.968750
3576		46.875000
3577		42.968750
3578		46.875000
3579		42.968750
3580		46.875000
3581		42.968750
3582		46.875000
3583		42.968750
3584		44.921875
3585		42.968750
3586		46.875000
3587		42.968750
3588		46.875000
3589		42.968750
3590		44.921875
3591		42.968750
3592		44.921875
3593		42.968750
3594		44.921875
3595		42.968750
3596		44.921875
3597		41.015625
3598		44.921875
3599		42.968750
3600		44.921875
3601		41.015625
3602		44.921875
3603		41.015625
3604		44.921875
3605		41.015625
3606		44.921875
3607		41.015625
3608		42.968750
3609		41.015625
3610		44.921875
3611		41.015625
3612		42.968750
3613		41.015625
3614		42.968750
3615		39.062500
3616		42.968750
3617		39.062500
3618		42.968750
3619		39.062500
3620		42.968750
3621		39.062500
3622		41.015625
3623		39.062500
3624		42.968750
3625		37.109375
3626		41.015625
3627		37.109375
3628		41.015625
3629		37.109375
3630		41.015625
3631		37.109375
3632		41.015625
3633		37.109375
3634		39.062500
3635		37.109375
3636		39.062500
3637		35.156250
3638		39.062500
3639		35.156250
3640		39.062500
3641		35.156250
3642		37.109375
3643		35.156250
3644		37.109375
3645		33.203125
3646		37.109375
3647		31.250000
3648		35.156250
3649		33.203125
3650		35.156250
3651		33.203125
3652		35.156250
3653		31.250000
3654		35.156250
3655		31.250000
3656		35.156250
3657		31.250000
3658		33.203125
3659		29.296875
3660		33.203125
3661		29.296875
3662		33.203125
3663		29.296875
3664		31.250000
3665		27.343750
3666		31.250000
3667		27.343750
3668		29.296875
3669		27.343750
3670		29.296875
3671		25.390625
3672		29.296875
3673		25.390625
3674		27.343750
3675		25.390625
3676		27.343750
3677		23.437500
3678		27.343750
3679		23.437500
3680		27.343750
3681		21.484375
3682		25.390625
3683		21.484375
3684		25.390625
3685		21.484375
3686		23.437500
3687		19.531250
3688		23.437500
3689		19.531250
3690		23.437500
3691		19.531250
3692		23.437500
3693		17.578125
3694		21.484375
3695		17.578125
3696		21.484375
3697		15.625000
3698		19.531250
3699		15.625000
3700		19.531250
3701		15.625000
3702		17.578125
3703		13.671875
3704		17.578125
3705		13.671875
3706		17.578125
3707		13.671875
3708		15.625000
3709		13.671875
3710		15.625000
3711		11.718750
3712		15.625000
3713		9.765625
3714		13.671875
3715		9.765625
3716		13.671875
3717		9.765625
3718		11.718750
3719		9.765625
3720		11.718750
3721		7.812500
3722		11.718750
3723		5.859375
3724		9.765625
3725		5.859375
3726		9.765625
3727		5.859375
3728		7.812500
3729		3.906250
3730		7.812500
3731		3.906250
3732		7.812500
3733		1.953125
3734		5.859375
3735		1.953125
3736		5.859375
3737		1.953125
3738		3.906250
3739		1.953125
3740		3.906250
3741		0.000000
3742		3.906250
3743		0.000000
3744		1.953125
3745		-1.953125
3746		1.953125
3747		-1.953125
3748		1.953125
3749		-3.906250
3750		0.000000
3751		-1.953125
3752		0.000000
3753		-3.906250
3754		-1.953125
3755		-3.906250
3756		-1.953125
3757		-5.859375
3758		-1.953125
3759		-5.859375
3760		-1.953125
3761		-5.859375
3762		-3.906250
3763		-7.812500
3764		-3.906250
3765		-7.812500
3766		-3.906250
3767		-7.812500
3768		-5.859375
3769		-9.765625
3770		-5.859375
3771		-11.718750
3772		-5.859375
3773		-9.765625
3774		-7.812500
3775		-9.765625
3776		-7.812500
3777		-11.718750
3778		-7.812500
3779		-11.718750
3780		-9.765625
3781		-11.718750
3782		-9.765625
3783		-13.671875
3784		-9.765625
3785		-13.671875
3786		-11.718750
3787		-13.671875
3788		-9.765625
3789		-15.625000
3790		-11.718750
3791		-15.625000
3792		-11.718750
3793		-15.625000
3794		-11.718750
3795		-15.625000
3796		-11.718750
3797		-15.625000
3798		-11.718750
3799		-17.578125
3800		-13.671875
3801		-15.625000
3802		-13.671875
3803		-17.578125
3804		-13.671875
3805		-17.578125
3806		-13.671875
3807		-17.578125
3808		-15.625000
3809		-17.578125
3810		-15.625000
3811		-19.531250
3812		-15.625000
3813		-19.531250
3814		-15.625000
3815		-19.531250
3816		-15.625000
3817		-19.531250
3818		-15.625000
3819		-19.531250
3820		-17.578125
3821		-19.531250
3822		-17.578125
3823		-19.531250
3824		-15.625000
3825		-19.531250
3826		-17.578125
3827		-19.531250
3828		-17.578125
3829		-19.531250
3830		-17.578125
3831		-19.531250
3832		-17.578125
3833		-19.531250
3834		-15.625000
3835		-19.531250
3836		-17.578125
3837		-21.484375
3838		-17.578125
3839		-19.531250
3840		-17.578125
3841		-19.531250
3842		-17.578125
3843		-19.531250
3844		-17.578125
3845		-19.531250
3846		-17.578125
3847		-19.531250
3848		-15.625000
3849		-19.531250
3850		-15.625000
3851		-19.531250
3852		-17.578125
3853		-19.531250
3854		-17.578125
3855		-19.531250
3856		-15.625000
3857		-19.531250
3858		-15.625000
3859		-19.531250
3860		-15.625000
3861		-17.578125
3862		-15.625000
3863		-19.531250
3864		-15.625000
3865		-17.578125
3866		-13.671875
3867		-17.578125
3868		-13.671875
3869		-17.578125
3870		-13.671875
3871		-15.625000
3872		-13.671875
3873		-15.625000
3874		-13.671875
3875		-15.625000
3876		-13.671875
3877		-15.625000
3878		-13.671875
3879		-15.625000
3880		-11.718750
3881		-15.625000
3882		-11.718750
3883		-15.625000
3884		-11.718750
3885		-13.671875
3886		-11.718750
3887		-13.671875
3888		-11.718750
3889		-13.671875
3890		-9.765625
3891		-11.718750
3892		-7.812500
3893		-11.718750
3894		-9.765625
3895		-11.718750
3896		-7.812500
3897		-11.718750
3898		-7.812500
3899		-9.765625
3900		-7.812500
3901		-9.765625
3902		-5.859375
3903		-9.765625
3904		-5.859375
3905		-9.765625
3906		-3.906250
3907		-7.812500
3908		-3.906250
3909		-5.859375
3910		-3.906250
3911		-5.859375
3912		-1.953125
3913		-5.859375
3914		-1.953125
3915		-5.859375
3916		-1.953125
3917		-3.906250
3918		0.000000
3919		-1.953125
3920		0.000000
3921		-1.953125
3922		1.953125
3923		-1.953125
3924		1.953125
3925		-1.953125
3926		1.953125
3927		0.000000
3928		1.953125
3929		0.000000
3930		3.906250
3931		0.000000
3932		3.906250
3933		1.953125
3934		5.859375
3935		1.953125
3936		5.859375
3937		3.906250
3938		5.859375
3939		3.906250
3940		7.812500
3941		3.906250
3942		7.812500
3943		5.859375
3944		9.765625
3945		5.859375
3946		9.765625
3947		7.812500
3948		11.718750
3949		7.812500
3950		11.718750
3951		7.812500
3952		13.671875
3953		9.765625
3954		13.671875
3955		11.718750
3956		13.671875
3957		11.718750
3958		15.625000
3959		11.718750
3960		15.625000
3961		13.671875
3962		15.625000
3963		13.671875
3964		17.578125
3965		15.625000
3966		19.531250
3967		15.625000
3968		19.531250
3969		15.625000
3970		19.531250
3971		17.578125
3972		19.531250
3973		15.625000
3974		21.484375
3975		17.578125
3976		21.484375
3977		19.531250
3978		23.437500
3979		19.531250
3980		23.437500
3981		21.484375
3982		23.437500
3983		21.484375
3984		25.390625
3985		21.484375
3986		25.390625
3987		23.437500
3988		25.390625
3989		23.437500
3990		27.343750
3991		25.390625
3992		27.343750
3993		25.390625
3994		29.296875
3995		25.390625
3996		29.296875
3997		27.343750
3998		29.296875
3999		27.343750
4000		31.250000
4001		27.343750
4002		31.250000
4003		29.296875
4004		31.250000
4005		29.296875
4006		33.203125
4007		29.296875
4008		33.203125
4009		31.250000
4010		33.203125
4011		31.250000
4012		33.203125
4013		31.250000
4014		35.156250
4015		31.250000
4016		35.156250
4017		31.250000
4018		37.109375
4019		33.203125
4020		35.156250
4021		35.156250
4022		37.109375
4023		33.203125
4024		37.109375
4025		35.156250
4026		39.062500
4027		35.156250
4028		39.062500
4029		37.109375
4030		39.062500
4031		35.156250
4032		39.062500
4033		37.109375
4034		41.015625
4035		37.109375
4036		41.015625
4037		39.062500
4038		41.015625
4039		37.109375
4040		41.015625
4041		39.062500
4042		41.015625
4043		39.062500
4044		42.968750
4045		39.062500
4046		42.968750
4047		39.062500
4048		42.968750
4049		39.062500
4050		42.968750
4051		41.015625
4052		42.968750
4053		41.015625
4054		42.968750
4055		41.015625
4056		42.968750
4057		39.062500
4058		44.921875
4059		41.015625
4060		44.921875
4061		41.015625
4062		44.921875
4063		41.015625
4064		44.921875
4065		42.968750
4066		44.921875
4067		41.015625
4068		44.921875
4069		41.015625
4070		44.921875
4071		42.968750
4072		44.921875
4073		42.968750
4074		46.875000
4075		42.968750
4076		44.921875
4077		42.968750
4078		44.921875
4079		42.968750
4080		46.875000
4081		42.968750
4082		46.875000
4083		42.968750
4084		46.875000
4085		42.968750
4086		46.875000
4087		42.968750
4088		44.921875
4089		42.968750
4090		46.875000
4091		42.968750
4092		46.875000
4093		42.968750
4094		44.921875
4095		42.968750
4096		46.875000
4097		42.968750
4098		44.921875
4099		42.968750
4100		44.921875
4101		42.968750
4102		46.875000
4103		42.968750
4104		44.921875
4105		42.968750
4106		44.921875
4107		41.015625
4108		44.921875
4109		42.968750
4110		44.921875
4111		41.015625
4112		44.921875
4113		41.015625
4114		44.921875
4115		41.015625
4116		44.921875
4117		41.015625
4118		44.921875
4119		41.015625
4120		44.921875
4121		41.015625
4122		42.968750
4123		39.062500
4124		42.968750
4125		41.015625
4126		42.968750
4127		39.062500
4128		42.968750
4129		39.062500
4130		42.968750
4131		39.062500
4132		42.968750
4133		39.062500
4134		42.968750
4135		37.109375
4136		41.015625
4137		39.062500
4138		41.015625
4139		39.062500
4140		41.015625
4141		37.109375
4142		41.015625
4143		37.109375
4144		41.015625
4145		37.109375
4146		39.062500
4147		37.109375
4148		39.062500
4149		35.156250
4150		39.062500
4151		35.156250
4152		39.062500
4153		33.203125
4154		39.062500
4155		35.156250
4156		37.109375
4157		33.203125
4158		37.109375
4159		33.203125
4160		37.109375
4161		33.203125
4162		35.156250
4163		31.250000
4164		35.156250
4165		31.250000
4166		35.156250
4167		31.250000
4168		33.203125
4169		29.296875
4170		35.156250
4171		31.250000
4172		33.203125
4173		29.296875
4174		31.250000
4175		27.343750
4176		33.203125
4177		27.343750
4178		31.250000
4179		27.343750
4180		31.250000
4181		27.343750
4182		29.296875
4183		25.390625
4184		29.296875
4185		25.390625
4186		29.296875
4187		25.390625
4188		27.343750
4189		25.390625
4190		27.343750
4191		23.437500
4192		27.343750
4193		21.484375
4194		25.390625
4195		21.484375
4196		25.390625
4197		21.484375
4198		25.390625
4199		21.484375
4200		23.437500
4201		19.531250
4202		23.437500
4203		19.531250
4204		23.437500
4205		19.531250
4206		21.484375
4207		17.578125
4208		21.484375
4209		17.578125
4210		19.531250
4211		15.625000
4212		19.531250
4213		15.625000
4214		19.531250
4215		15.625000
4216		19.531250
4217		13.671875
4218		17.578125
4219		13.671875
4220		15.625000
4221		13.671875
4222		15.625000
4223		11.718750
4224		15.625000
4225		11.718750
4226		15.625000
4227		9.765625
4228		13.671875
4229		9.765625
4230		13.671875
4231		9.765625
4232		11.718750
4233		7.812500
4234		11.718750
4235		7.812500
4236		9.765625
4237		5.859375
4238		9.765625
4239		5.859375
4240		7.812500
4241		3.906250
4242		7.812500
4243		3.906250
4244		7.812500
4245		3.906250
4246		7.812500
4247		1.953125
4248		5.859375
4249		1.953125
4250		5.859375
4251		1.953125
4252		3.906250
4253		0.000000
4254		3.906250
4255		0.000000
4256		3.906250
4257		0.000000
4258		1.953125
4259		-1.953125
4260		1.953125
4261		-1.953125
4262		1.953125
4263		-1.953125
4264		0.000000
4265		-3.906250
4266		0.000000
4267		-3.906250
4268		-1.953125
4269		-5.859375
4270		-1.953125
4271		-5.859375
4272		-3.906250
4273		-5.859375
4274		-3.906250
4275		-7.812500
4276		-3.906250
4277		-7.812500
4278		-3.906250
4279		-7.812500
4280		-3.906250
4281		-9.765625
4282		-5.859375
4283		-9.765625
4284		-5.859375
4285		-9.765625
4286		-5.859375
4287		-11.718750
4288		-5.859375
4289		-9.765625
4290		-7.812500
4291		-11.718750
4292		-7.812500
4293		-11.718750
4294		-9.765625
4295		-11.718750
4296		-9.765625
4297		-13.671875
4298		-9.765625
4299		-13.671875
4300		-9.765625
4301		-13.671875
4302		-11.718750
4303		-15.625000
4304		-11.718750
4305		-13.671875
4306		-11.718750
4307		-15.625000
4308		-13.671875
4309		-17.578125
4310		-11.718750
4311		-15.625000
4312		-13.671875
4313		-17.578125
4314		-13.671875
4315		-17.578125
4316		-13.671875
4317		-17.578125
4318		-13.671875
4319		-17.578125
4320		-13.671875
4321		-17.578125
4322		-13.671875
4323		-17.578125
4324		-15.625000
4325		-19.531250
4326		-13.671875
4327		-19.531250
4328		-15.625000
4329		-19.531250
4330		-15.625000
4331		-19.531250
4332		-15.625000
4333		-19.531250
4334		-15.625000
4335		-19.531250
4336		-15.625000
4337		-19.531250
4338		-15.625000
4339		-19.531250
4340		-17.578125
4341		-19.531250
4342		-17.578125
4343		-19.531250
4344		-15.625000
4345		-19.531250
4346		-15.625000
4347		-19.531250
4348		-17.578125
4349		-19.531250
4350		-17.578125
4351		-19.531250
4352		-15.625000
4353		-19.531250
4354		-15.625000
4355		-21.484375
4356		-15.625000
4357		-19.531250
4358		-17.578125
4359		-19.531250
4360		-17.578125
4361		-19.531250
4362		-17.578125
4363		-19.531250
4364		-17.578125
4365		-19.531250
4366		-15.625000
4367		-17.578125
4368		-15.625000
4369		-19.531250
4370		-15.625000
4371		-19.531250
4372		-15.625000
4373		-17.578125
4374		-15.625000
4375		-17.578125
4376		-15.625000
4377		-17.578125
4378		-13.671875
4379		-17.578125
4380		-13.671875
4381		-17.578125
4382		-13.671875
4383		-17.578125
4384		-13.671875
4385		-17.578125
4386		-13.671875
4387		-15.625000
4388		-11.718750
4389		-15.625000
4390		-13.671875
4391		-15.625000
4392		-11.718750
4393		-15.625000
4394		-11.718750
4395		-13.671875
4396		-11.718750
4397		-13.671875
4398		-9.765625
4399		-13.671875
4400		-9.765625
4401		-13.671875
4402		-9.765625
4403		-11.718750
4404		-9.765625
4405		-11.718750
4406		-9.765625
4407		-9.765625
4408		-7.812500
4409		-9.765625
4410		-7.812500
4411		-9.765625
4412		-5.859375
4413		-9.765625
4414		-5.859375
4415		-9.765625
4416		-5.859375
4417		-9.765625
4418		-5.859375
4419		-7.812500
4420		-3.906250
4421		-7.812500
4422		-3.906250
4423		-5.859375
4424		-3.906250
4425		-5.859375
4426		-3.906250
4427		-5.859375
4428		-1.953125
4429		-3.906250
4430		-1.953125
4431		-3.906250
4432		0.000000
4433		-3.906250
4434		0.000000
4435		-1.953125
4436		0.000000
4437		-1.953125
4438		1.953125
4439		-1.953125
4440		1.953125
4441		0.000000
4442		1.953125
4443		0.000000
4444		3.906250
4445		1.953125
4446		5.859375
4447		1.953125
4448		5.859375
4449		3.906250
4450		5.859375
4451		3.906250
4452		7.812500
4453		3.906250
4454		7.812500
4455		5.859375
4456		7.812500
4457		5.859375
4458		9.765625
4459		5.859375
4460		9.765625
4461		7.812500
4462		11.718750
4463		7.812500
4464		11.718750
4465		9.765625
4466		11.718750
4467		9.765625
4468		13.671875
4469		11.718750
4470		13.671875
4471		11.718750
4472		15.625000
4473		13.671875
4474		15.625000
4475		13.671875
4476		15.625000
4477		13.671875
4478		17.578125
4479		15.625000
4480		17.578125
4481		15.625000
4482		19.531250
4483		17.578125
4484		19.531250
4485		17.578125
4486		21.484375
4487		17.578125
4488		21.484375
4489		17.578125
4490		21.484375
4491		19.531250
4492		21.484375
4493		19.531250
4494		23.437500
4495		21.484375
4496		25.390625
4497		21.484375
4498		25.390625
4499		21.484375
4500		25.390625
4501		23.437500
4502		25.390625
4503		23.437500
4504		27.343750
4505		23.437500
4506		27.343750
4507		25.390625
4508		29.296875
4509		27.343750
4510		29.296875
4511		25.390625
4512		29.296875
4513		27.343750
4514		31.250000
4515		27.343750
4516		31.250000
4517		29.296875
4518		31.250000
4519		29.296875
4520		33.203125
4521		29.296875
4522		33.203125
4523		31.250000
4524		33.203125
4525		31.250000
4526		33.203125
4527		31.250000
4528		35.156250
4529		31.250000
4530		35.156250
4531		33.203125
4532		37.109375
4533		33.203125
4534		37.109375
4535		33.203125
4536		37.109375
4537		35.156250
4538		37.109375
4539		35.156250
4540		39.062500
4541		35.156250
4542		39.062500
4543		35.156250
4544		41.015625
4545		37.109375
4546		39.062500
4547		37.109375
4548		39.062500
4549		37.109375
4550		41.015625
4551		37.109375
4552		41.015625
4553		39.062500
4554		41.015625
4555		39.062500
4556		42.968750
4557		39.062500
4558		41.015625
4559		39.062500
4560		42.968750
4561		39.062500
4562		42.968750
4563		41.015625
4564		42.968750
4565		41.015625
4566		42.968750
4567		41.015625
4568		42.968750
4569		41.015625
4570		44.921875
4571		41.015625
4572		44.921875
4573		41.015625
4574		44.921875
4575		42.968750
4576		44.921875
4577		41.015625
4578		44.921875
4579		42.968750
4580		44.921875
4581		42.968750
4582		44.921875
4583		42.968750
4584		44.921875
4585		42.968750
4586		46.875000
4587		42.968750
4588		44.921875
4589		42.968750
4590		46.875000
4591		42.968750
4592		46.875000
4593		42.968750
4594		46.875000
4595		42.968750
4596		46.875000
4597		42.968750
4598		46.875000
4599		42.968750
4600		46.875000
4601		42.968750
4602		46.875000
4603		42.968750
4604		46.875000
4605		42.968750
4606		46.875000
4607		42.968750
4608		44.921875
4609		42.968750
4610		44.921875
4611		42.968750
4612		46.875000
4613		42.968750
4614		46.875000
4615		42.968750
4616		44.921875
4617		42.968750
4618		44.921875
4619		42.968750
4620		44.921875
4621		42.968750
4622		44.921875
4623		41.015625
4624		44.921875
4625		42.968750
4626		44.921875
4627		42.968750
4628		44.921875
4629		41.015625
4630		44.921875
4631		41.015625
4632		44.921875
4633		41.015625
4634		44.921875
4635		41.015625
4636		44.921875
4637		41.015625
4638		42.968750
4639		39.062500
4640		42.968750
4641		41.015625
4642		42.968750
4643		39.062500
4644		42.968750
4645		39.062500
4646		42.968750
4647		39.062500
4648		42.968750
4649		37.109375
4650		41.015625
4651		39.062500
4652		41.015625
4653		37.109375
4654		41.015625
4655		37.109375
4656		41.015625
4657		37.109375
4658		41.015625
4659		37.109375
4660		39.062500
4661		35.156250
4662		39.062500
4663		35.156250
4664		39.062500
4665		35.156250
4666		39.062500
4667		35.156250
4668		39.062500
4669		33.203125
4670		37.109375
4671		33.203125
4672		37.109375
4673		33.203125
4674		37.109375
4675		33.203125
4676		35.156250
4677		31.250000
4678		35.156250
4679		31.250000
4680		35.156250
4681		31.250000
4682		33.203125
4683		31.250000
4684		33.203125
4685		29.296875
4686		33.203125
4687		29.296875
4688		31.250000
4689		29.296875
4690		31.250000
4691		27.343750
4692		31.250000
4693		27.343750
4694		29.296875
4695		27.343750
4696		31.250000
4697		25.390625
4698		29.296875
4699		25.390625
4700		29.296875
4701		23.437500
4702		27.343750
4703		23.437500
4704		27.343750
4705		23.437500
4706		27.343750
4707		21.484375
4708		27.343750
4709		21.484375
4710		25.390625
4711		21.484375
4712		23.437500
4713		19.531250
4714		23.437500
4715		19.531250
4716		23.437500
4717		19.531250
4718		21.484375
4719		17.578125
4720		21.484375
4721		17.578125
4722		21.484375
4723		15.625000
4724		19.531250
4725		15.625000
4726		19.531250
4727		15.625000
4728		17.578125
4729		13.671875
4730		17.578125
4731		13.671875
4732		17.578125
4733		13.671875
4734		15.625000
4735		11.718750
4736		15.625000
4737		11.718750
4738		15.625000
4739		11.718750
4740		13.671875
4741		9.765625
4742		13.671875
4743		9.765625
4744		11.718750
4745		7.812500
4746		11.718750
4747		7.812500
4748		11.718750
4749		7.812500
4750		9.765625
4751		5.859375
4752		9.765625
4753		5.859375
4754		7.812500
4755		3.906250
4756		7.812500
4757		3.906250
4758		7.812500
4759		3.906250
4760		5.859375
4761		1.953125
4762		5.859375
4763		1.953125
4764		5.859375
4765		0.000000
4766		3.906250
4767		0.000000
4768		3.906250
4769		0.000000
4770		1.953125
4771		-1.953125
4772		1.953125
4773		-1.953125
4774		1.953125
4775		-3.906250
4776		1.953125
4777		-3.906250
4778		0.000000
4779		-3.906250
4780		-1.953125
4781		-3.906250
4782		-1.953125
4783		-5.859375
4784		-1.953125
4785		-5.859375
4786		-3.906250
4787		-5.859375
4788		-3.906250
4789		-7.812500
4790		-3.906250
4791		-7.812500
4792		-3.906250
4793		-7.812500
4794		-5.859375
4795		-9.765625
4796		-5.859375
4797		-9.765625
4798		-5.859375
4799		-9.765625
4800		-7.812500
4801		-11.718750
4802		-7.812500
4803		-11.718750
4804		-7.812500
4805		-11.718750
4806		-7.812500
4807		-11.718750
4808		-9.765625
4809		-11.718750
4810		-9.765625
4811		-13.671875
4812		-9.765625
4813		-15.625000
4814		-9.765625
4815		-15.625000
4816		-11.718750
4817		-15.625000
4818		-11.718750
4819		-15.625000
4820		-11.718750
4821		-15.625000
4822		-11.718750
4823		-15.625000
4824		-13.671875
4825		-15.625000
4826		-11.718750
4827		-15.625000
4828		-13.671875
4829		-17.578125
4830		-13.671875
4831		-17.578125
4832		-13.671875
4833		-17.578125
4834		-15.625000
4835		-17.578125
4836		-15.625000
4837		-17.578125
4838		-15.625000
4839		-19.531250
4840		-15.625000
4841		-19.531250
4842		-15.625000
4843		-19.531250
4844		-15.625000
4845		-19.531250
4846		-17.578125
4847		-19.531250
4848		-15.625000
4849		-19.531250
4850		-15.625000
4851		-19.531250
4852		-15.625000
4853		-19.531250
4854		-17.578125
4855		-19.531250
4856		-17.578125
4857		-19.531250
4858		-17.578125
4859		-19.531250
4860		-15.625000
4861		-19.531250
4862		-17.578125
4863		-21.484375
4864		-17.578125
4865		-19.531250
4866		-17.578125
4867		-19.531250
4868		-17.578125
4869		-19.531250
4870		-15.625000
4871		-19.531250
4872		-15.625000
4873		-19.531250
4874		-15.625000
4875		-19.531250
4876		-15.625000
4877		-19.531250
4878		-17.578125
4879		-19.531250
4880		-15.625000
4881		-19.531250
4882		-15.625000
4883		-19.531250
4884		-15.625000
4885		-17.578125
4886		-15.625000
4887		-17.578125
4888		-15.625000
4889		-17.578125
4890		-15.625000
4891		-17.578125
4892		-13.671875
4893		-17.578125
4894		-13.671875
4895		-15.625000
4896		-13.671875
4897		-17.578125
4898		-13.671875
4899		-15.625000
4900		-13.671875
4901		-15.625000
4902		-13.671875
4903		-15.625000
4904		-11.718750
4905		-15.625000
4906		-11.718750
4907		-15.625000
4908		-11.718750
4909		-13.671875
4910		-11.718750
4911		-13.671875
4912		-11.718750
4913		-13.671875
4914		-9.765625
4915		-13.671875
4916		-9.765625
4917		-11.718750
4918		-9.765625
4919		-11.718750
4920		-7.812500
4921		-11.718750
4922		-7.812500
4923		-9.765625
4924		-7.812500
4925		-9.765625
4926		-5.859375
4927		-9.765625
4928		-5.859375
4929		-7.812500
4930		-5.859375
4931		-9.765625
4932		-3.906250
4933		-7.812500
4934		-3.906250
4935		-5.859375
4936		-3.906250
4937		-5.859375
4938		-1.953125
4939		-5.859375
4940		-1.953125
4941		-3.906250
4942		-1.953125
4943		-3.906250
4944		0.000000
4945		-3.906250
4946		0.000000
4947		-1.953125
4948		1.953125
4949		-1.953125
4950		1.953125
4951		-1.953125
4952		1.953125
4953		0.000000
4954		1.953125
4955		0.000000
4956		3.906250
4957		1.953125
4958		3.906250
4959		0.000000
4960		5.859375
4961		3.906250
4962		5.859375
4963		3.906250
4964		5.859375
4965		3.906250
4966		7.812500
4967		5.859375
4968		7.812500
4969		5.859375
4970		7.812500
4971		5.859375
4972		9.765625
4973		7.812500
4974		9.765625
4975		7.812500
4976		11.718750
4977		7.812500
4978		11.718750
4979		9.765625
4980		13.671875
4981		9.765625
4982		13.671875
4983		11.718750
4984		15.625000
4985		11.718750
4986		15.625000
4987		11.718750
4988		15.625000
4989		13.671875
4990		17.578125
4991		13.671875
4992		17.578125
4993		13.671875
4994		19.531250
4995		15.625000
4996		19.531250
4997		17.578125
4998		19.531250
4999		17.578125
5000		21.484375
5001		19.531250
5002		21.484375
5003		19.531250
5004		21.484375
5005		19.531250
5006		23.437500
5007		19.531250
5008		23.437500
5009		21.484375
5010		25.390625
5011		21.484375
5012		25.390625
5013		23.437500
5014		25.390625
5015		23.437500
5016		27.343750
5017		23.437500
5018		27.343750
5019		25.390625
5020		27.343750
5021		25.390625
5022		29.296875
5023		25.390625
5024		29.296875
5025		27.343750
5026		31.250000
5027		27.343750
5028		31.250000
5029		29.296875
5030		31.250000
5031		29.296875
5032		31.250000
5033		29.296875
5034		33.203125
5035		29.296875
5036		33.203125
5037		29.296875
5038		35.156250
5039		31.250000
5040		33.203125
5041		31.250000
5042		35.156250
5043		31.250000
5044		35.156250
5045		33.203125
5046		35.156250
5047		33.203125
5048		37.109375
5049		33.203125
5050		37.109375
5051		33.203125
5052		37.109375
5053		35.156250
5054		39.062500
5055		35.156250
5056		39.062500
5057		37.109375
5058		39.062500
5059		37.109375
5060		39.062500
5061		35.156250
5062		39.062500
5063		37.109375
5064		39.062500
5065		37.109375
5066		41.015625
5067		39.062500
5068		41.015625
5069		39.062500
5070		41.015625
5071		39.062500
5072		42.968750
5073		39.062500
5074		42.968750
5075		39.062500
5076		42.968750
5077		41.015625
5078		42.968750
5079		41.015625
5080		42.968750
5081		41.015625
5082		44.921875
5083		41.015625
5084		44.921875
5085		41.015625
5086		44.921875
5087		41.015625
5088		44.921875
5089		41.015625
5090		44.921875
5091		41.015625
5092		44.921875
5093		42.968750
5094		44.921875
5095		42.968750
5096		44.921875
5097		42.968750
5098		44.921875
5099		41.015625
5100		46.875000
5101		42.968750
5102		44.921875
5103		42.968750
5104		44.921875
5105		42.968750
5106		44.921875
5107		42.968750
5108		46.875000
5109		42.968750
5110		46.875000
5111		42.968750
5112		46.875000
5113		42.968750
5114		46.875000
5115		42.968750
5116		46.875000
5117		42.968750
5118		46.875000
5119		42.968750
5120		46.875000
5121		42.968750
5122		46.875000
5123		42.968750
5124		46.875000
5125		42.968750
5126		46.875000
5127		42.968750
5128		46.875000
5129		42.968750
5130		44.921875
5131		42.968750
5132		44.921875
5133		42.968750
5134		44.921875
5135		42.968750
5136		44.921875
5137		42.968750
5138		44.921875
5139		42.968750
5140		44.921875
5141		42.968750
5142		44.921875
5143		41.015625
5144		44.921875
5145		41.015625
5146		44.921875
5147		41.015625
5148		44.921875
5149		41.015625
5150		44.921875
5151		41.015625
5152		42.968750
5153		41.015625
5154		42.968750
5155		41.015625
5156		42.968750
5157		39.062500
5158		42.968750
5159		39.062500
5160		42.968750
5161		39.062500
5162		42.968750
5163		39.062500
5164		41.015625
5165		37.109375
5166		41.015625
5167		37.109375
5168		41.015625
5169		37.109375
5170		41.015625
5171		37.109375
5172		41.015625
5173		37.109375
5174		39.062500
5175		37.109375
5176		39.062500
5177		35.156250
5178		39.062500
5179		35.156250
5180		37.109375
5181		35.156250
5182		37.109375
5183		33.203125
5184		37.109375
5185		33.203125
5186		37.109375
5187		33.203125
5188		35.156250
5189		33.203125
5190		35.156250
5191		31.250000
5192		35.156250
5193		31.250000
5194		35.156250
5195		29.296875
5196		35.156250
5197		31.250000
5198		33.203125
5199		29.296875
5200		33.203125
5201		29.296875
5202		31.250000
5203		29.296875
5204		31.250000
5205		27.343750
5206		31.250000
5207		27.343750
5208		29.296875
5209		27.343750
5210		29.296875
5211		25.390625
5212		29.296875
5213		25.390625
5214		27.343750
5215		25.390625
5216		27.343750
5217		23.437500
5218		27.343750
5219		23.437500
5220		27.343750
5221		23.437500
5222		25.390625
5223		21.484375
5224		25.390625
5225		21.484375
5226		25.390625
5227		21.484375
5228		23.437500
5229		19.531250
5230		23.437500
5231		19.531250
5232		21.484375
5233		17.578125
5234		21.484375
5235		17.578125
5236		21.484375
5237		15.625000
5238		19.531250
5239		15.625000
5240		19.531250
5241		15.625000
5242		17.578125
5243		13.671875
5244		17.578125
5245		13.671875
5246		17.578125
5247		13.671875
5248		15.625000
5249		11.718750
5250		15.625000
5251		11.718750
5252		15.625000
5253		9.765625
5254		13.671875
5255		9.765625
5256		13.671875
5257		9.765625
5258		11.718750
5259		7.812500
5260		11.718750
5261		7.812500
5262		11.718750
5263		7.812500
5264		9.765625
5265		5.859375
5266		9.765625
5267		3.906250
5268		9.765625
5269		3.906250
5270		7.812500
5271		3.906250
5272		7.812500
5273		1.953125
5274		5.859375
5275		1.953125
5276		5.859375
5277		1.953125
5278		3.906250
5279		0.000000
5280		5.859375
5281		0.000000
5282		3.906250
5283		-1.953125
5284		1.953125
5285		-1.953125
5286		1.953125
5287		-1.953125
5288		1.953125
5289		-1.953125
5290		0.000000
5291		-3.906250
5292		0.000000
5293		-3.906250
5294		-1.953125
5295		-5.859375
5296		-1.953125
5297		-5.859375
5298		-1.953125
5299		-5.859375
5300		-3.906250
5301		-7.812500
5302		-3.906250
5303		-7.812500
5304		-3.906250
5305		-7.812500
5306		-5.859375
5307		-7.812500
5308		-5.859375
5309		-9.765625
5310		-5.859375
5311		-9.765625
5312		-7.812500
5313		-11.718750
5314		-5.859375
5315		-9.765625
5316		-7.812500
5317		-11.718750
5318		-7.812500
5319		-11.718750
5320		-9.765625
5321		-11.718750
5322		-9.765625
5323		-13.671875
5324		-9.765625
5325		-13.671875
5326		-9.765625
5327		-13.671875
5328		-9.765625
5329		-15.625000
5330		-11.718750
5331		-13.671875
5332		-11.718750
5333		-15.625000
5334		-11.718750
5335		-15.625000
5336		-13.671875
5337		-15.625000
5338		-13.671875
5339		-15.625000
5340		-13.671875
5341		-17.578125
5342		-13.671875
5343		-17.578125
5344		-13.671875
5345		-17.578125
5346		-13.671875
5347		-17.578125
5348		-15.625000
5349		-17.578125
5350		-15.625000
5351		-19.531250
5352		-15.625000
5353		-19.531250
5354		-15.625000
5355		-19.531250
5356		-15.625000
5357		-19.531250
5358		-15.625000
5359		-19.531250
5360		-15.625000
5361		-19.531250
5362		-15.625000
5363		-19.531250
5364		-15.625000
5365		-19.531250
5366		-17.578125
5367		-19.531250
5368		-15.625000
5369		-19.531250
5370		-15.625000
5371		-19.531250
5372		-17.578125
5373		-19.531250
5374		-17.578125
5375		-19.531250
5376		-17.578125
5377		-19.531250
5378		-17.578125
5379		-19.531250
5380		-15.625000
5381		-19.531250
5382		-17.578125
5383		-19.531250
5384		-17.578125
5385		-19.531250
5386		-15.625000
5387		-19.531250
5388		-15.625000
5389		-19.531250
5390		-15.625000
5391		-19.531250
5392		-15.625000
5393		-19.531250
5394		-15.625000
5395		-19.531250
5396		-15.625000
5397		-19.531250
5398		-15.625000
5399		-17.578125
5400		-15.625000
5401		-17.578125
5402		-15.625000
5403		-17.578125
5404		-13.671875
5405		-17.578125
5406		-13.671875
5407		-17.578125
5408		-13.671875
5409		-17.578125
5410		-13.671875
5411		-17.578125
5412		-13.671875
5413		-15.625000
5414		-11.718750
5415		-15.625000
5416		-11.718750
5417		-15.625000
5418		-11.718750
5419		-15.625000
5420		-11.718750
5421		-15.625000
5422		-11.718750
5423		-13.671875
5424		-11.718750
5425		-13.671875
5426		-9.765625
5427		-13.671875
5428		-9.765625
5429		-11.718750
5430		-9.765625
5431		-11.718750
5432		-9.765625
5433		-11.718750
5434		-7.812500
5435		-11.718750
5436		-7.812500
5437		-9.765625
5438		-7.812500
5439		-9.765625
5440		-5.859375
5441		-9.765625
5442		-5.859375
5443		-7.812500
5444		-5.859375
5445		-7.812500
5446		-3.906250
5447		-7.812500
5448		-3.906250
5449		-5.859375
5450		-3.906250
5451		-5.859375
5452		-1.953125
5453		-5.859375
5454		-1.953125
5455		-3.906250
5456		-1.953125
5457		-3.906250
5458		-1.953125
5459		-3.906250
5460		0.000000
5461		-1.953125
5462		1.953125
5463		-1.953125
5464		1.953125
5465		0.000000
5466		1.953125
5467		0.000000
5468		1.953125
5469		0.000000
5470		3.906250
5471		1.953125
5472		3.906250
5473		1.953125
5474		5.859375
5475		3.906250
5476		7.812500
5477		3.906250
5478		7.812500
5479		3.906250
5480		7.812500
5481		3.906250
5482		7.812500
5483		5.859375
5484		9.765625
5485		5.859375
5486		11.718750
5487		7.812500
5488		11.718750
5489		7.812500
5490		11.718750
5491		9.765625
5492		13.671875
5493		9.765625
5494		13.671875
5495		11.718750
5496		13.671875
5497		11.718750
5498		13.671875
5499		13.671875
5500		15.625000
5501		13.671875
5502		15.625000
5503		13.671875
5504		17.578125
5505		15.625000
5506		17.578125
5507		15.625000
5508		19.531250
5509		17.578125
5510		19.531250
5511		17.578125
5512		21.484375
5513		17.578125
5514		21.484375
5515		19.531250
5516		21.484375
5517		19.531250
5518		21.484375
5519		19.531250
5520		23.437500
5521		19.531250
5522		23.437500
5523		21.484375
5524		25.390625
5525		21.484375
5526		25.390625
5527		23.437500
5528		27.343750
5529		23.437500
5530		27.343750
5531		23.437500
5532		27.343750
5533		25.390625
5534		27.343750
5535		25.390625
5536		29.296875
5537		27.343750
5538		29.296875
5539		27.343750
5540		29.296875
5541		27.343750
5542		31.250000
5543		27.343750
5544		31.250000
5545		29.296875
5546		33.203125
5547		29.296875
5548		33.203125
5549		31.250000
5550		33.203125
5551		31.250000
5552		33.203125
5553		31.250000
5554		35.156250
5555		31.250000
5556		35.156250
5557		33.203125
5558		37.109375
5559		33.203125
5560		37.109375
5561		33.203125
5562		37.109375
5563		33.203125
5564		37.109375
5565		35.156250
5566		37.109375
5567		35.156250
5568		39.062500
5569		35.156250
5570		39.062500
5571		37.109375
5572		39.062500
5573		37.109375
5574		39.062500
5575		37.109375
5576		39.062500
5577		37.109375
5578		41.015625
5579		37.109375
5580		41.015625
5581		37.109375
5582		42.968750
5583		39.062500
5584		41.015625
5585		39.062500
5586		41.015625
5587		39.062500
5588		42.968750
5589		39.062500
5590		42.968750
5591		39.062500
5592		42.968750
5593		41.015625
5594		42.968750
5595		41.015625
5596		42.968750
5597		41.015625
5598		42.968750
5599		41.015625
5600		44.921875
5601		41.015625
5602		42.968750
5603		42.968750
5604		44.921875
5605		41.015625
5606		44.921875
5607		41.015625
5608		44.921875
5609		42.968750
5610		44.921875
5611		42.968750
5612		44.921875
5613		42.968750
5614		44.921875
5615		42.968750
5616		46.875000
5617		42.968750
5618		44.921875
5619		42.968750
5620		44.921875
5621		42.968750
5622		46.875000
5623		42.968750
5624		46.875000
5625		42.968750
5626		44.921875
5627		42.968750
5628		46.875000
5629		42.968750
5630		44.921875
5631		42.968750
5632		46.875000
5633		42.968750
5634		44.921875
5635		42.968750
5636		44.921875
5637		41.015625
5638		46.875000
5639		42.968750
5640		44.921875
5641		42.968750
5642		44.921875
5643		42.968750
5644		44.921875
5645		42.968750
5646		46.875000
5647		41.015625
5648		44.921875
5649		41.015625
5650		44.921875
5651		42.968750
5652		44.921875
5653		41.015625
5654		44.921875
5655		41.015625
5656		44.921875
5657		41.015625
5658		44.921875
5659		41.015625
5660		44.921875
5661		41.015625
5662		44.921875
5663		41.015625
5664		42.968750
5665		39.062500
5666		42.968750
5667		39.062500
5668		42.968750
5669		39.062500
5670		42.968750
5671		39.062500
5672		42.968750
5673		39.062500
5674		42.968750
5675		39.062500
5676		41.015625
5677		37.109375
5678		41.015625
5679		37.109375
5680		41.015625
5681		37.109375
5682		41.015625
5683		37.109375
5684		41.015625
5685		37.109375
5686		39.062500
5687		35.156250
5688		39.062500
5689		35.156250
5690		39.062500
5691		35.156250
5692		39.062500
5693		35.156250
5694		39.062500
5695		35.156250
5696		37.109375
5697		33.203125
5698		37.109375
5699		33.203125
5700		37.109375
5701		33.203125
5702		35.156250
5703		31.250000
5704		35.156250
5705		31.250000
5706		35.156250
5707		31.250000
5708		33.203125
5709		29.296875
5710		33.203125
5711		29.296875
5712		33.203125
5713		29.296875
5714		33.203125
5715		27.343750
5716		33.203125
5717		27.343750
5718		31.250000
5719		27.343750
5720		29.296875
5721		25.390625
5722		29.296875
5723		25.390625
5724		29.296875
5725		25.390625
5726		29.296875
5727		25.390625
5728		27.343750
5729		23.437500
5730		27.343750
5731		23.437500
5732		27.343750
5733		21.484375
5734		25.390625
5735		23.437500
5736		25.390625
5737		21.484375
5738		23.437500
5739		21.484375
5740		23.437500
5741		19.531250
5742		23.437500
5743		19.531250
5744		21.484375
5745		19.531250
5746		21.484375
5747		17.578125
5748		21.484375
5749		15.625000
5750		19.531250
5751		17.578125
5752		19.531250
5753		15.625000
5754		17.578125
5755		15.625000
5756		17.578125
5757		13.671875
5758		17.578125
5759		13.671875
5760		17.578125
5761		11.718750
5762		15.625000
5763		11.718750
5764		13.671875
5765		11.718750
5766		13.671875
5767		9.765625
5768		13.671875
5769		9.765625
5770		11.718750
5771		7.812500
5772		11.718750
5773		7.812500
5774		11.718750
5775		7.812500
5776		9.765625
5777		5.859375
5778		9.765625
5779		5.859375
5780		9.765625
5781		3.906250
5782		7.812500
5783		3.906250
5784		7.812500
5785		3.906250
5786		5.859375
5787		1.953125
5788		5.859375
5789		1.953125
5790		5.859375
5791		0.000000
5792		3.906250
5793		0.000000
5794		3.906250
5795		0.000000
5796		1.953125
5797		-1.953125
5798		1.953125
5799		-1.953125
5800		1.953125
5801		-1.953125
5802		0.000000
5803		-1.953125
5804		0.000000
5805		-3.906250
5806		0.000000
5807		-3.906250
5808		-1.953125
5809		-5.859375
5810		-1.953125
5811		-5.859375
5812		-3.906250
5813		-5.859375
5814		-3.906250
5815		-7.812500
5816		-3.906250
5817		-7.812500
5818		-3.906250
5819		-7.812500
5820		-5.859375
5821		-9.765625
5822		-5.859375
5823		-9.765625
5824		-5.859375
5825		-9.765625
5826		-7.812500
5827		-9.765625
5828		-7.812500
5829		-11.718750
5830		-7.812500
5831		-11.718750
5832		-9.765625
5833		-13.671875
5834		-9.765625
5835		-11.718750
5836		-9.765625
5837		-13.671875
5838		-11.718750
5839		-13.671875
5840		-9.765625
5841		-15.625000
5842		-11.718750
5843		-15.625000
5844		-11.718750
5845		-15.625000
5846		-11.718750
5847		-15.625000
5848		-13.671875
5849		-15.625000
5850		-11.718750
5851		-15.625000
5852		-13.671875
5853		-17.578125
5854		-13.671875
5855		-19.531250
5856		-13.671875
5857		-17.578125
5858		-13.671875
5859		-17.578125
5860		-13.671875
5861		-17.578125
5862		-15.625000
5863		-17.578125
5864		-15.625000
5865		-19.531250
5866		-15.625000
5867		-19.531250
5868		-15.625000
5869		-19.531250
5870		-15.625000
5871		-19.531250
5872		-15.625000
5873		-19.531250
5874		-15.625000
5875		-19.531250
5876		-15.625000
5877		-19.531250
5878		-15.625000
5879		-19.531250
5880		-15.625000
5881		-19.531250
5882		-15.625000
5883		-21.484375
5884		-15.625000
5885		-19.531250
5886		-17.578125
5887		-19.531250
5888		-17.578125
5889		-19.531250
5890		-17.578125
5891		-21.484375
5892		-17.578125
5893		-19.531250
5894		-15.625000
5895		-19.531250
5896		-17.578125
5897		-19.531250
5898		-17.578125
5899		-19.531250
5900		-15.625000
5901		-19.531250
5902		-15.625000
5903		-19.531250
5904		-15.625000
5905		-19.531250
5906		-15.625000
5907		-19.531250
5908		-15.625000
5909		-19.531250
5910		-15.625000
5911		-17.578125
5912		-15.625000
5913		-19.531250
5914		-15.625000
5915		-17.578125
5916		-15.625000
5917		-17.578125
5918		-15.625000
5919		-17.578125
5920		-15.625000
5921		-17.578125
5922		-13.671875
5923		-17.578125
5924		-13.671875
5925		-17.578125
5926		-11.718750
5927		-15.625000
5928		-11.718750
5929		-15.625000
5930		-11.718750
5931		-15.625000
5932		-11.718750
5933		-15.625000
5934		-11.718750
5935		-15.625000
5936		-11.718750
5937		-13.671875
5938		-11.718750
5939		-13.671875
5940		-9.765625
5941		-13.671875
5942		-9.765625
5943		-13.671875
5944		-7.812500
5945		-11.718750
5946		-7.812500
5947		-11.718750
5948		-7.812500
5949		-11.718750
5950		-5.859375
5951		-9.765625
5952		-5.859375
5953		-9.765625
5954		-5.859375
5955		-7.812500
5956		-5.859375
5957		-7.812500
5958		-5.859375
5959		-7.812500
5960		-3.906250
5961		-7.812500
5962		-3.906250
5963		-7.812500
5964		-1.953125
5965		-5.859375
5966		-1.953125
5967		-3.906250
5968		-1.953125
5969		-3.906250
5970		-1.953125
5971		-3.906250
5972		0.000000
5973		-3.906250
5974		1.953125
5975		-1.953125
5976		1.953125
5977		-1.953125
5978		3.906250
5979		-1.953125
5980		3.906250
5981		0.000000
5982		3.906250
5983		0.000000
5984		5.859375
5985		1.953125
5986		5.859375
5987		1.953125
5988		5.859375
5989		1.953125
5990		7.812500
5991		3.906250
5992		7.812500
5993		3.906250
5994		9.765625
5995		3.906250
5996		9.765625
5997		5.859375
5998		9.765625
5999		5.859375
6000		11.718750
6001		7.812500
6002		11.718750
6003		9.765625
6004		11.718750
6005		9.765625
6006		11.718750
6007		9.765625
6008		15.625000
6009		11.718750
6010		15.625000
6011		11.718750
6012		15.625000
6013		11.718750
6014		17.578125
6015		13.671875
6016		17.578125
6017		13.671875
6018		19.531250
6019		13.671875
6020		17.578125
6021		15.625000
6022		19.531250
6023		17.578125
6024		21.484375
6025		17.578125
6026		21.484375
6027		17.578125
6028		21.484375
6029		17.578125
6030		23.437500
6031		19.531250
6032		23.437500
6033		19.531250
6034		25.390625
6035		19.531250
6036		25.390625
6037		23.437500
6038		25.390625
6039		23.437500
6040		25.390625
6041		23.437500
6042		25.390625
6043		25.390625
6044		27.343750
6045		25.390625
6046		27.343750
6047		25.390625
6048		29.296875
6049		27.343750
6050		29.296875
6051		27.343750
6052		31.250000
6053		27.343750
6054		31.250000
6055		29.296875
6056		31.250000
6057		29.296875
6058		33.203125
6059		29.296875
6060		33.203125
6061		31.250000
6062		33.203125
6063		31.250000
6064		33.203125
6065		31.250000
6066		35.156250
6067		33.203125
6068		35.156250
6069		33.203125
6070		35.156250
6071		33.203125
6072		35.156250
6073		33.203125
6074		37.109375
6075		35.156250
6076		37.109375
6077		35.156250
6078		37.109375
6079		35.156250
6080		37.109375
6081		37.109375
6082		39.062500
6083		37.109375
6084		39.062500
6085		37.109375
6086		39.062500
6087		37.109375
6088		39.062500
6089		37.109375
6090		41.015625
6091		39.062500
6092		41.015625
6093		39.062500
6094		41.015625
6095		39.062500
6096		41.015625
6097		39.062500
6098		41.015625
6099		39.062500
6100		42.968750
6101		41.015625
6102		42.968750
6103		41.015625
6104		42.968750
6105		41.015625
6106		42.968750
6107		41.015625
6108		42.968750
6109		41.015625
6110		42.968750
6111		41.015625
6112		44.921875
6113		41.015625
6114		44.921875
6115		42.968750
6116		44.921875
6117		42.968750
6118		44.921875
6119		42.968750
6120		44.921875
6121		42.968750
6122		44.921875
6123		42.968750
6124		44.921875
6125		42.968750
6126		44.921875
6127		42.968750
6128		44.921875
6129		42.968750
6130		44.921875
6131		42.968750
6132		44.921875
6133		42.968750
6134		44.921875
6135		42.968750
6136		44.921875
6137		42.968750
6138		46.875000
6139		42.968750
6140		44.921875
6141		41.015625
6142		48.828125
6143		41.015625
6144		48.828125
6145		41.015625
6146		48.828125
6147		42.968750
6148		44.921875
6149		42.968750
6150		46.875000
6151		42.968750
6152		44.921875
6153		42.968750
6154		44.921875
6155		42.968750
6156		44.921875
6157		41.015625
6158		46.875000
6159		39.062500
6160		48.828125
6161		39.062500
6162		48.828125
6163		39.062500
6164		46.875000
6165		42.968750
6166		44.921875
6167		42.968750
6168		44.921875
6169		41.015625
6170		44.921875
6171		41.015625
6172		44.921875
6173		41.015625
6174		42.968750
6175		37.109375
6176		46.875000
6177		37.109375
6178		46.875000
6179		37.109375
6180		46.875000
6181		41.015625
6182		42.968750
6183		39.062500
6184		42.968750
6185		39.062500
6186		41.015625
6187		39.062500
6188		41.015625
6189		39.062500
6190		41.015625
6191		35.156250
6192		44.921875
6193		35.156250
6194		44.921875
6195		33.203125
6196		42.968750
6197		35.156250
6198		42.968750
6199		37.109375
6200		39.062500
6201		37.109375
6202		39.062500
6203		35.156250
6204		39.062500
6205		35.156250
6206		39.062500
6207		35.156250
6208		37.109375
6209		31.250000
6210		41.015625
6211		31.250000
6212		41.015625
6213		29.296875
6214		39.062500
6215		33.203125
6216		35.156250
6217		31.250000
6218		35.156250
6219		31.250000
6220		33.203125
6221		31.250000
6222		33.203125
6223		31.250000
6224		33.203125
6225		27.343750
6226		35.156250
6227		25.390625
6228		35.156250
6229		25.390625
6230		35.156250
6231		27.343750
6232		31.250000
6233		27.343750
6234		29.296875
6235		27.343750
6236		29.296875
6237		25.390625
6238		29.296875
6239		25.390625
6240		27.343750
6241		21.484375
6242		31.250000
6243		21.484375
6244		31.250000
6245		19.531250
6246		29.296875
6247		19.531250
6248		29.296875
6249		21.484375
6250		25.390625
6251		21.484375
6252		23.437500
6253		21.484375
6254		23.437500
6255		19.531250
6256		23.437500
6257		19.531250
6258		21.484375
6259		15.625000
6260		25.390625
6261		15.625000
6262		23.437500
6263		13.671875
6264		23.437500
6265		15.625000
6266		19.531250
6267		15.625000
6268		17.578125
6269		15.625000
6270		17.578125
6271		13.671875
6272		17.578125
6273		13.671875
6274		15.625000
6275		9.765625
6276		17.578125
6277		7.812500
6278		17.578125
6279		7.812500
6280		17.578125
6281		9.765625
6282		15.625000
6283		9.765625
6284		11.718750
6285		9.765625
6286		11.718750
6287		7.812500
6288		11.718750
6289		7.812500
6290		9.765625
6291		5.859375
6292		9.765625
6293		1.953125
6294		11.718750
6295		1.953125
6296		11.718750
6297		1.953125
6298		9.765625
6299		3.906250
6300		5.859375
6301		3.906250
6302		5.859375
6303		1.953125
6304		3.906250
6305		1.953125
6306		3.906250
6307		0.000000
6308		3.906250
6309		-3.906250
6310		5.859375
6311		-3.906250
6312		3.906250
6313		-3.906250
6314		3.906250
6315		-1.953125
6316		0.000000
6317		-1.953125
6318		0.000000
6319		-3.906250
6320		-1.953125
6321		-3.906250
6322		-1.953125
6323		-5.859375
6324		-1.953125
6325		-5.859375
6326		-3.906250
6327		-9.765625
6328		-1.953125
6329		-9.765625
6330		-1.953125
6331		-7.812500
6332		-5.859375
6333		-7.812500
6334		-5.859375
6335		-7.812500
6336		-5.859375
6337		-9.765625
6338		-5.859375
6339		-9.765625
6340		-7.812500
6341		-9.765625
6342		-7.812500
6343		-11.718750
6344		-7.812500
6345		-13.671875
6346		-7.812500
6347		-13.671875
6348		-7.812500
6349		-11.718750
6350		-9.765625
6351		-13.671875
6352		-11.718750
6353		-13.671875
6354		-11.718750
6355		-13.671875
6356		-11.718750
6357		-13.671875
6358		-11.718750
6359		-15.625000
6360		-11.718750
6361		-17.578125
6362		-11.718750
6363		-17.578125
6364		-11.718750
6365		-15.625000
6366		-13.671875
6367		-15.625000
6368		-13.671875
6369		-15.625000
6370		-13.671875
6371		-17.578125
6372		-15.625000
6373		-17.578125
6374		-15.625000
6375		-17.578125
6376		-15.625000
6377		-17.578125
6378		-15.625000
6379		-17.578125
6380		-15.625000
6381		-17.578125
6382		-15.625000
6383		-19.531250
6384		-15.625000
6385		-17.578125
6386		-17.578125
6387		-19.531250
6388		-17.578125
6389		-19.531250
6390		-17.578125
6391		-19.531250
6392		-17.578125
6393		-19.531250
6394		-17.578125
6395		-19.531250
6396		-17.578125
6397		-19.531250
6398		-17.578125
6399		-19.531250
6400		-17.578125
6401		-19.531250
6402		-17.578125
6403		-19.531250
6404		-17.578125
6405		-19.531250
6406		-17.578125
6407		-19.531250
6408		-17.578125
6409		-19.531250
6410		-15.625000
6411		-19.531250
6412		-17.578125
6413		-19.531250
6414		-17.578125
6415		-19.531250
6416		-17.578125
6417		-19.531250
6418		-17.578125
6419		-17.578125
6420		-15.625000
6421		-19.531250
6422		-15.625000
6423		-17.578125
6424		-15.625000
6425		-17.578125
6426		-15.625000
6427		-17.578125
6428		-15.625000
6429		-17.578125
6430		-15.625000
6431		-17.578125
6432		-15.625000
6433		-17.578125
6434		-13.671875
6435		-17.578125
6436		-13.671875
6437		-15.625000
6438		-13.671875
6439		-15.625000
6440		-13.671875
6441		-15.625000
6442		-13.671875
6443		-15.625000
6444		-11.718750
6445		-15.625000
6446		-11.718750
6447		-13.671875
6448		-11.718750
6449		-13.671875
6450		-9.765625
6451		-13.671875
6452		-9.765625
6453		-11.718750
6454		-9.765625
6455		-11.718750
6456		-9.765625
6457		-11.718750
6458		-9.765625
6459		-11.718750
6460		-7.812500
6461		-11.718750
6462		-7.812500
6463		-9.765625
6464		-7.812500
6465		-9.765625
6466		-5.859375
6467		-9.765625
6468		-5.859375
6469		-7.812500
6470		-5.859375
6471		-7.812500
6472		-5.859375
6473		-5.859375
6474		-3.906250
6475		-5.859375
6476		-3.906250
6477		-5.859375
6478		-1.953125
6479		-5.859375
6480		-1.953125
6481		-3.906250
6482		-1.953125
6483		-3.906250
6484		0.000000
6485		-1.953125
6486		0.000000
6487		-1.953125
6488		0.000000
6489		0.000000
6490		1.953125
6491		0.000000
6492		1.953125
6493		-1.953125
6494		3.906250
6495		0.000000
6496		3.906250
6497		1.953125
6498		3.906250
6499		1.953125
6500		5.859375
6501		3.906250
6502		7.812500
6503		3.906250
6504		5.859375
6505		5.859375
6506		7.812500
6507		5.859375
6508		7.812500
6509		5.859375
6510		9.765625
6511		5.859375
6512		9.765625
6513		7.812500
6514		11.718750
6515		9.765625
6516		11.718750
6517		9.765625
6518		13.671875
6519		9.765625
6520		13.671875
6521		11.718750
6522		13.671875
6523		11.718750
6524		15.625000
6525		13.671875
6526		15.625000
6527		13.671875
6528		17.578125
6529		13.671875
6530		17.578125
6531		15.625000
6532		17.578125
6533		15.625000
6534		19.531250
6535		15.625000
6536		19.531250
6537		17.578125
6538		19.531250
6539		17.578125
6540		21.484375
6541		19.531250
6542		21.484375
6543		19.531250
6544		21.484375
6545		19.531250
6546		23.437500
6547		19.531250
6548		23.437500
6549		21.484375
6550		23.437500
6551		21.484375
6552		25.390625
6553		23.437500
6554		25.390625
6555		23.437500
6556		27.343750
6557		25.390625
6558		27.343750
6559		25.390625
6560		27.343750
6561		25.390625
6562		29.296875
6563		27.343750
6564		29.296875
6565		27.343750
6566		29.296875
6567		27.343750
6568		31.250000
6569		27.343750
6570		31.250000
6571		29.296875
6572		31.250000
6573		29.296875
6574		33.203125
6575		31.250000
6576		33.203125
6577		31.250000
6578		35.156250
6579		31.250000
6580		35.156250
6581		31.250000
6582		35.156250
6583		33.203125
6584		35.156250
6585		33.203125
6586		37.109375
6587		33.203125
6588		37.109375
6589		35.156250
6590		37.109375
6591		35.156250
6592		37.109375
6593		37.109375
6594		39.062500
6595		35.156250
6596		39.062500
6597		37.109375
6598		39.062500
6599		37.109375
6600		39.062500
6601		37.109375
6602		41.015625
6603		37.109375
6604		41.015625
6605		39.062500
6606		41.015625
6607		39.062500
6608		41.015625
6609		39.062500
6610		41.015625
6611		39.062500
6612		42.968750
6613		41.015625
6614		42.968750
6615		41.015625
6616		42.968750
6617		41.015625
6618		42.968750
6619		41.015625
6620		42.968750
6621		41.015625
6622		42.968750
6623		41.015625
6624		44.921875
6625		41.015625
6626		44.921875
6627		42.968750
6628		44.921875
6629		42.968750
6630		44.921875
6631		42.968750
6632		44.921875
6633		42.968750
6634		44.921875
6635		42.968750
6636		44.921875
6637		42.968750
6638		44.921875
6639		42.968750
6640		44.921875
6641		42.968750
6642		44.921875
6643		42.968750
6644		44.921875
6645		42.968750
6646		46.875000
6647		42.968750
6648		44.921875
6649		42.968750
6650		46.875000
6651		44.921875
6652		46.875000
6653		42.968750
6654		46.875000
6655		42.968750
6656		46.875000
6657		42.968750
6658		46.875000
6659		44.921875
6660		46.875000
6661		44.921875
6662		46.875000
6663		42.968750
6664		46.875000
6665		42.968750
6666		44.921875
6667		42.968750
6668		44.921875
6669		42.968750
6670		44.921875
6671		42.968750
6672		44.921875
6673		42.968750
6674		44.921875
6675		42.968750
6676		44.921875
6677		42.968750
6678		44.921875
6679		42.968750
6680		44.921875
6681		42.968750
6682		44.921875
6683		41.015625
6684		44.921875
6685		41.015625
6686		44.921875
6687		41.015625
6688		42.968750
6689		41.015625
6690		42.968750
6691		41.015625
6692		42.968750
6693		41.015625
6694		42.968750
6695		41.015625
6696		42.968750
6697		39.062500
6698		42.968750
6699		39.062500
6700		41.015625
6701		39.062500
6702		41.015625
6703		39.062500
6704		41.015625
6705		39.062500
6706		41.015625
6707		39.062500
6708		41.015625
6709		37.109375
6710		39.062500
6711		37.109375
6712		41.015625
6713		37.109375
6714		39.062500
6715		37.109375
6716		39.062500
6717		35.156250
6718		39.062500
6719		35.156250
6720		37.109375
6721		35.156250
6722		37.109375
6723		33.203125
6724		37.109375
6725		33.203125
6726		37.109375
6727		33.203125
6728		35.156250
6729		33.203125
6730		35.156250
6731		31.250000
6732		35.156250
6733		31.250000
6734		35.156250
6735		31.250000
6736		33.203125
6737		31.250000
6738		33.203125
6739		29.296875
6740		33.203125
6741		29.296875
6742		31.250000
6743		29.296875
6744		31.250000
6745		27.343750
6746		31.250000
6747		27.343750
6748		31.250000
6749		27.343750
6750		29.296875
6751		27.343750
6752		29.296875
6753		25.390625
6754		27.343750
6755		25.390625
6756		27.343750
6757		23.437500
6758		27.343750
6759		23.437500
6760		25.390625
6761		23.437500
6762		25.390625
6763		21.484375
6764		25.390625
6765		19.531250
6766		25.390625
6767		21.484375
6768		23.437500
6769		19.531250
6770		21.484375
6771		19.531250
6772		21.484375
6773		19.531250
6774		21.484375
6775		17.578125
6776		19.531250
6777		17.578125
6778		19.531250
6779		13.671875
6780		19.531250
6781		13.671875
6782		19.531250
6783		15.625000
6784		17.578125
6785		13.671875
6786		15.625000
6787		13.671875
6788		15.625000
6789		11.718750
6790		15.625000
6791		11.718750
6792		13.671875
6793		11.718750
6794		13.671875
6795		9.765625
6796		11.718750
6797		7.812500
6798		13.671875
6799		7.812500
6800		11.718750
6801		7.812500
6802		9.765625
6803		7.812500
6804		9.765625
6805		5.859375
6806		9.765625
6807		5.859375
6808		7.812500
6809		3.906250
6810		7.812500
6811		3.906250
6812		5.859375
6813		0.000000
6814		7.812500
6815		1.953125
6816		5.859375
6817		1.953125
6818		3.906250
6819		1.953125
6820		3.906250
6821		0.000000
6822		3.906250
6823		0.000000
6824		1.953125
6825		0.000000
6826		1.953125
6827		-1.953125
6828		0.000000
6829		-3.906250
6830		1.953125
6831		-3.906250
6832		1.953125
6833		-3.906250
6834		0.000000
6835		-3.906250
6836		-1.953125
6837		-3.906250
6838		-1.953125
6839		-5.859375
6840		-3.906250
6841		-5.859375
6842		-3.906250
6843		-5.859375
6844		-3.906250
6845		-7.812500
6846		-5.859375
6847		-9.765625
6848		-3.906250
6849		-9.765625
6850		-3.906250
6851		-9.765625
6852		-5.859375
6853		-9.765625
6854		-7.812500
6855		-9.765625
6856		-7.812500
6857		-9.765625
6858		-7.812500
6859		-11.718750
6860		-9.765625
6861		-11.718750
6862		-9.765625
6863		-13.671875
6864		-9.765625
6865		-13.671875
6866		-7.812500
6867		-13.671875
6868		-11.718750
6869		-13.671875
6870		-11.718750
6871		-13.671875
6872		-11.718750
6873		-13.671875
6874		-11.718750
6875		-15.625000
6876		-13.671875
6877		-15.625000
6878		-13.671875
6879		-15.625000
6880		-13.671875
6881		-17.578125
6882		-11.718750
6883		-17.578125
6884		-13.671875
6885		-17.578125
6886		-13.671875
6887		-17.578125
6888		-15.625000
6889		-17.578125
6890		-15.625000
6891		-17.578125
6892		-15.625000
6893		-17.578125
6894		-15.625000
6895		-17.578125
6896		-15.625000
6897		-19.531250
6898		-15.625000
6899		-19.531250
6900		-15.625000
6901		-19.531250
6902		-15.625000
6903		-19.531250
6904		-15.625000
6905		-19.531250
6906		-17.578125
6907		-19.531250
6908		-17.578125
6909		-19.531250
6910		-17.578125
6911		-19.531250
6912		-17.578125
6913		-21.484375
6914		-15.625000
6915		-21.484375
6916		-15.625000
6917		-21.484375
6918		-15.625000
6919		-19.531250
6920		-17.578125
6921		-19.531250
6922		-17.578125
6923		-19.531250
6924		-17.578125
6925		-17.578125
6926		-17.578125
6927		-19.531250
6928		-15.625000
6929		-19.531250
6930		-15.625000
6931		-19.531250
6932		-13.671875
6933		-19.531250
6934		-13.671875
6935		-17.578125
6936		-15.625000
6937		-17.578125
6938		-15.625000
6939		-17.578125
6940		-15.625000
6941		-17.578125
6942		-15.625000
6943		-17.578125
6944		-15.625000
6945		-15.625000
6946		-13.671875
6947		-15.625000
6948		-13.671875
6949		-15.625000
6950		-13.671875
6951		-15.625000
6952		-13.671875
6953		-15.625000
6954		-11.718750
6955		-15.625000
6956		-13.671875
6957		-13.671875
6958		-11.718750
6959		-13.671875
6960		-11.718750
6961		-13.671875
6962		-11.718750
6963		-13.671875
6964		-11.718750
6965		-13.671875
6966		-9.765625
6967		-11.718750
6968		-9.765625
6969		-11.718750
6970		-9.765625
6971		-11.718750
6972		-7.812500
6973		-9.765625
6974		-7.812500
6975		-9.765625
6976		-7.812500
6977		-9.765625
6978		-7.812500
6979		-7.812500
6980		-5.859375
6981		-9.765625
6982		-3.906250
6983		-7.812500
6984		-3.906250
6985		-5.859375
6986		-3.906250
6987		-5.859375
6988		-3.906250
6989		-5.859375
6990		-3.906250
6991		-3.906250
6992		-1.953125
6993		-3.906250
6994		-1.953125
6995		-3.906250
6996		-1.953125
6997		-1.953125
6998		0.000000
6999		-1.953125
7000		0.000000
7001		-1.953125
7002		1.953125
7003		0.000000
7004		1.953125
7005		0.000000
7006		1.953125
7007		0.000000
7008		3.906250
7009		1.953125
7010		3.906250
7011		1.953125
7012		5.859375
7013		3.906250
7014		5.859375
7015		3.906250
7016		5.859375
7017		3.906250
7018		7.812500
7019		5.859375
7020		7.812500
7021		5.859375
7022		7.812500
7023		7.812500
7024		9.765625
7025		7.812500
7026		9.765625
7027		7.812500
7028		11.718750
7029		9.765625
7030		11.718750
7031		9.765625
7032		11.718750
7033		11.718750
7034		13.671875
7035		11.718750
7036		13.671875
7037		13.671875
7038		15.625000
7039		13.671875
7040		15.625000
7041		13.671875
7042		15.625000
7043		15.625000
7044		17.578125
7045		15.625000
7046		17.578125
7047		15.625000
7048		19.531250
7049		17.578125
7050		19.531250
7051		17.578125
7052		19.531250
7053		19.531250
7054		21.484375
7055		19.531250
7056		21.484375
7057		21.484375
7058		23.437500
7059		21.484375
7060		23.437500
7061		21.484375
7062		23.437500
7063		23.437500
7064		25.390625
7065		23.437500
7066		25.390625
7067		23.437500
7068		27.343750
7069		25.390625
7070		27.343750
7071		25.390625
7072		27.343750
7073		25.390625
7074		29.296875
7075		27.343750
7076		29.296875
7077		27.343750
7078		29.296875
7079		27.343750
7080		31.250000
7081		29.296875
7082		31.250000
7083		29.296875
7084		31.250000
7085		29.296875
7086		33.203125
7087		31.250000
7088		33.203125
7089		31.250000
7090		33.203125
7091		33.203125
7092		35.156250
7093		33.203125
7094		35.156250
7095		33.203125
7096		35.156250
7097		33.203125
7098		35.156250
7099		35.156250
7100		37.109375
7101		35.156250
7102		37.109375
7103		35.156250
7104		37.109375
7105		35.156250
7106		39.062500
7107		37.109375
7108		39.062500
7109		37.109375
7110		39.062500
7111		37.109375
7112		39.062500
7113		37.109375
7114		39.062500
7115		39.062500
7116		41.015625
7117		39.062500
7118		41.015625
7119		39.062500
7120		41.015625
7121		39.062500
7122		41.015625
7123		39.062500
7124		42.968750
7125		41.015625
7126		42.968750
7127		41.015625
7128		42.968750
7129		41.015625
7130		42.968750
7131		41.015625
7132		42.968750
7133		41.015625
7134		44.921875
7135		41.015625
7136		44.921875
7137		41.015625
7138		44.921875
7139		42.968750
7140		44.921875
7141		42.968750
7142		44.921875
7143		42.968750
7144		44.921875
7145		42.968750
7146		44.921875
7147		42.968750
7148		44.921875
7149		42.968750
7150		44.921875
7151		42.968750
7152		44.921875
7153		42.968750
7154		44.921875
7155		42.968750
7156		46.875000
7157		42.968750
7158		44.921875
7159		42.968750
7160		46.875000
7161		42.968750
7162		44.921875
7163		44.921875
7164		46.875000
7165		44.921875
7166		46.875000
7167		44.921875
7168		46.875000
7169		42.968750
7170		46.875000
7171		42.968750
7172		46.875000
7173		42.968750
7174		46.875000
7175		44.921875
7176		46.875000
7177		42.968750
7178		46.875000
7179		42.968750
7180		46.875000
7181		42.968750
7182		44.921875
7183		42.968750
7184		46.875000
7185		42.968750
7186		44.921875
7187		42.968750
7188		44.921875
7189		42.968750
7190		44.921875
7191		42.968750
7192		44.921875
7193		42.968750
7194		44.921875
7195		42.968750
7196		44.921875
7197		42.968750
7198		44.921875
7199		41.015625
7200		44.921875
7201		41.015625
7202		44.921875
7203		41.015625
7204		42.968750
7205		41.015625
7206		42.968750
7207		41.015625
7208		42.968750
7209		41.015625
7210		42.968750
7211		41.015625
7212		42.968750
7213		39.062500
7214		42.968750
7215		39.062500
7216		41.015625
7217		39.062500
7218		41.015625
7219		39.062500
7220		41.015625
7221		39.062500
7222		41.015625
7223		39.062500
7224		41.015625
7225		37.109375
7226		39.062500
7227		37.109375
7228		39.062500
7229		37.109375
7230		39.062500
7231		37.109375
7232		39.062500
7233		35.156250
7234		37.109375
7235		35.156250
7236		37.109375
7237		35.156250
7238		37.109375
7239		35.156250
7240		37.109375
7241		33.203125
7242		35.156250
7243		33.203125
7244		35.156250
7245		33.203125
7246		35.156250
7247		31.250000
7248		35.156250
7249		31.250000
7250		33.203125
7251		31.250000
7252		33.203125
7253		29.296875
7254		33.203125
7255		29.296875
7256		31.250000
7257		29.296875
7258		31.250000
7259		29.296875
7260		31.250000
7261		27.343750
7262		29.296875
7263		27.343750
7264		29.296875
7265		25.390625
7266		29.296875
7267		25.390625
7268		27.343750
7269		25.390625
7270		27.343750
7271		23.437500
7272		27.343750
7273		23.437500
7274		25.390625
7275		23.437500
7276		25.390625
7277		21.484375
7278		23.437500
7279		21.484375
7280		23.437500
7281		21.484375
7282		23.437500
7283		19.531250
7284		23.437500
7285		19.531250
7286		21.484375
7287		17.578125
7288		21.484375
7289		17.578125
7290		19.531250
7291		17.578125
7292		19.531250
7293		15.625000
7294		19.531250
7295		15.625000
7296		17.578125
7297		15.625000
7298		17.578125
7299		13.671875
7300		15.625000
7301		13.671875
7302		15.625000
7303		11.718750
7304		15.625000
7305		11.718750
7306		13.671875
7307		11.718750
7308		13.671875
7309		9.765625
7310		13.671875
7311		9.765625
7312		11.718750
7313		7.812500
7314		11.718750
7315		7.812500
7316		9.765625
7317		7.812500
7318		9.765625
7319		5.859375
7320		9.765625
7321		5.859375
7322		7.812500
7323		3.906250
7324		7.812500
7325		3.906250
7326		5.859375
7327		3.906250
7328		5.859375
7329		1.953125
7330		5.859375
7331		1.953125
7332		3.906250
7333		1.953125
7334		3.906250
7335		0.000000
7336		3.906250
7337		0.000000
7338		1.953125
7339		-1.953125
7340		1.953125
7341		-1.953125
7342		0.000000
7343		-1.953125
7344		0.000000
7345		-1.953125
7346		0.000000
7347		-3.906250
7348		-1.953125
7349		-3.906250
7350		-1.953125
7351		-5.859375
7352		-1.953125
7353		-5.859375
7354		-3.906250
7355		-5.859375
7356		-3.906250
7357		-7.812500
7358		-3.906250
7359		-7.812500
7360		-5.859375
7361		-7.812500
7362		-5.859375
7363		-7.812500
7364		-5.859375
7365		-9.765625
7366		-7.812500
7367		-9.765625
7368		-7.812500
7369		-9.765625
7370		-7.812500
7371		-11.718750
7372		-7.812500
7373		-11.718750
7374		-9.765625
7375		-11.718750
7376		-9.765625
7377		-11.718750
7378		-9.765625
7379		-13.671875
7380		-9.765625
7381		-13.671875
7382		-11.718750
7383		-13.671875
7384		-11.718750
7385		-13.671875
7386		-11.718750
7387		-15.625000
7388		-11.718750
7389		-15.625000
7390		-11.718750
7391		-15.625000
7392		-13.671875
7393		-15.625000
7394		-13.671875
7395		-15.625000
7396		-13.671875
7397		-15.625000
7398		-13.671875
7399		-17.578125
7400		-13.671875
7401		-17.578125
7402		-15.625000
7403		-17.578125
7404		-15.625000
7405		-17.578125
7406		-15.625000
7407		-17.578125
7408		-15.625000
7409		-17.578125
7410		-15.625000
7411		-17.578125
7412		-15.625000
7413		-17.578125
7414		-15.625000
7415		-19.531250
7416		-15.625000
7417		-17.578125
7418		-15.625000
7419		-19.531250
7420		-15.625000
7421		-19.531250
7422		-15.625000
7423		-19.531250
7424		-17.578125
7425		-19.531250
7426		-15.625000
7427		-19.531250
7428		-17.578125
7429		-19.531250
7430		-17.578125
7431		-19.531250
7432		-15.625000
7433		-19.531250
7434		-15.625000
7435		-17.578125
7436		-15.625000
7437		-17.578125
7438		-15.625000
7439		-17.578125
7440		-15.625000
7441		-17.578125
7442		-15.625000
7443		-17.578125
7444		-15.625000
7445		-17.578125
7446		-15.625000
7447		-17.578125
7448		-15.625000
7449		-17.578125
7450		-15.625000
7451		-17.578125
7452		-15.625000
7453		-17.578125
7454		-13.671875
7455		-17.578125
7456		-13.671875
7457		-15.625000
7458		-13.671875
7459		-15.625000
7460		-13.671875
7461		-15.625000
7462		-13.671875
7463		-15.625000
7464		-13.671875
7465		-15.625000
7466		-11.718750
7467		-15.625000
7468		-11.718750
7469		-13.671875
7470		-11.718750
7471		-13.671875
7472		-11.718750
7473		-13.671875
7474		-11.718750
7475		-13.671875
7476		-9.765625
7477		-11.718750
7478		-9.765625
7479		-11.718750
7480		-9.765625
7481		-11.718750
7482		-9.765625
7483		-11.718750
7484		-7.812500
7485		-9.765625
7486		-7.812500
7487		-9.765625
7488		-7.812500
7489		-9.765625
7490		-7.812500
7491		-9.765625
7492		-5.859375
7493		-7.812500
7494		-5.859375
7495		-7.812500
7496		-5.859375
7497		-5.859375
7498		-3.906250
7499		-5.859375
7500		-3.906250
7501		-5.859375
7502		-3.906250
7503		-5.859375
7504		-1.953125
7505		-3.906250
7506		-1.953125
7507		-3.906250
7508		-1.953125
7509		-3.906250
7510		0.000000
7511		-1.953125
7512		0.000000
7513		-1.953125
7514		0.000000
7515		0.000000
7516		1.953125
7517		0.000000
7518		1.953125
7519		0.000000
7520		3.906250
7521		1.953125
7522		3.906250
7523		1.953125
7524		5.859375
7525		3.906250
7526		5.859375
7527		3.906250
7528		5.859375
7529		3.906250
7530		7.812500
7531		5.859375
7532		7.812500
7533		5.859375
7534		7.812500
7535		5.859375
7536		9.765625
7537		7.812500
7538		9.765625
7539		7.812500
7540		11.718750
7541		9.765625
7542		11.718750
7543		9.765625
7544		11.718750
7545		11.718750
7546		13.671875
7547		11.718750
7548		13.671875
7549		11.718750
7550		15.625000
7551		13.671875
7552		15.625000
7553		13.671875
7554		15.625000
7555		13.671875
7556		17.578125
7557		15.625000
7558		17.578125
7559		15.625000
7560		19.531250
7561		17.578125
7562		19.531250
7563		17.578125
7564		21.484375
7565		19.531250
7566		21.484375
7567		19.531250
7568		21.484375
7569		19.531250
7570		23.437500
7571		19.531250
7572		23.437500
7573		21.484375
7574		23.437500
7575		23.437500
7576		25.390625
7577		23.437500
7578		25.390625
7579		23.437500
7580		27.343750
7581		25.390625
7582		27.343750
7583		25.390625
7584		27.343750
7585		25.390625
7586		29.296875
7587		27.343750
7588		29.296875
7589		27.343750
7590		29.296875
7591		27.343750
7592		31.250000
7593		29.296875
7594		31.250000
7595		29.296875
7596		31.250000
7597		29.296875
7598		33.203125
7599		31.250000
7600		33.203125
7601		31.250000
7602		33.203125
7603		31.250000
7604		35.156250
7605		33.203125
7606		35.156250
7607		33.203125
7608		35.156250
7609		33.203125
7610		37.109375
7611		33.203125
7612		37.109375
7613		35.156250
7614		37.109375
7615		35.156250
7616		37.109375
7617		35.156250
7618		37.109375
7619		37.109375
7620		39.062500
7621		37.109375
7622		39.062500
7623		37.109375
7624		39.062500
7625		37.109375
7626		41.015625
7627		37.109375
7628		41.015625
7629		39.062500
7630		41.015625
7631		39.062500
7632		41.015625
7633		39.062500
7634		41.015625
7635		39.062500
7636		42.968750
7637		41.015625
7638		42.968750
7639		41.015625
7640		42.968750
7641		41.015625
7642		42.968750
7643		41.015625
7644		42.968750
7645		41.015625
7646		42.968750
7647		41.015625
7648		44.921875
7649		42.968750
7650		44.921875
7651		42.968750
7652		44.921875
7653		42.968750
7654		44.921875
7655		42.968750
7656		44.921875
7657		42.968750
7658		46.875000
7659		42.968750
7660		44.921875
7661		42.968750
7662		44.921875
7663		42.968750
7664		44.921875
7665		42.968750
7666		46.875000
7667		42.968750
7668		46.875000
7669		42.968750
7670		46.875000
7671		44.921875
7672		46.875000
7673		44.921875
7674		46.875000
7675		44.921875
7676		46.875000
7677		44.921875
7678		46.875000
7679		44.921875
7680		46.875000
7681		44.921875
7682		46.875000
7683		44.921875
7684		46.875000
7685		44.921875
7686		46.875000
7687		44.921875
7688		46.875000
7689		42.968750
7690		46.875000
7691		44.921875
7692		46.875000
7693		42.968750
7694		46.875000
7695		42.968750
7696		44.921875
7697		42.968750
7698		44.921875
7699		42.968750
7700		44.921875
7701		42.968750
7702		46.875000
7703		42.968750
7704		44.921875
7705		42.968750
7706		44.921875
7707		42.968750
7708		44.921875
7709		42.968750
7710		44.921875
7711		41.015625
7712		44.921875
7713		42.968750
7714		44.921875
7715		41.015625
7716		42.968750
7717		41.015625
7718		42.968750
7719		41.015625
7720		42.968750
7721		41.015625
7722		42.968750
7723		39.062500
7724		42.968750
7725		41.015625
7726		42.968750
7727		39.062500
7728		41.015625
7729		39.062500
7730		41.015625
7731		39.062500
7732		41.015625
7733		39.062500
7734		41.015625
7735		39.062500
7736		41.015625
7737		37.109375
7738		41.015625
7739		37.109375
7740		39.062500
7741		37.109375
7742		39.062500
7743		37.109375
7744		39.062500
7745		35.156250
7746		39.062500
7747		35.156250
7748		37.109375
7749		35.156250
7750		37.109375
7751		35.156250
7752		37.109375
7753		33.203125
7754		37.109375
7755		33.203125
7756		37.109375
7757		33.203125
7758		35.156250
7759		33.203125
7760		35.156250
7761		31.250000
7762		35.156250
7763		31.250000
7764		33.203125
7765		29.296875
7766		33.203125
7767		29.296875
7768		33.203125
7769		29.296875
7770		31.250000
7771		29.296875
7772		31.250000
7773		27.343750
7774		31.250000
7775		27.343750
7776		29.296875
7777		27.343750
7778		29.296875
7779		25.390625
7780		29.296875
7781		25.390625
7782		29.296875
7783		25.390625
7784		27.343750
7785		25.390625
7786		27.343750
7787		21.484375
7788		25.390625
7789		21.484375
7790		27.343750
7791		21.484375
7792		25.390625
7793		19.531250
7794		25.390625
7795		19.531250
7796		23.437500
7797		17.578125
7798		23.437500
7799		19.531250
7800		21.484375
7801		17.578125
7802		21.484375
7803		17.578125
7804		21.484375
7805		17.578125
7806		19.531250
7807		15.625000
7808		19.531250
7809		13.671875
7810		19.531250
7811		15.625000
7812		17.578125
7813		11.718750
7814		17.578125
7815		13.671875
7816		15.625000
7817		9.765625
7818		17.578125
7819		11.718750
7820		15.625000
7821		11.718750
7822		13.671875
7823		9.765625
7824		13.671875
7825		7.812500
7826		13.671875
7827		7.812500
7828		11.718750
7829		7.812500
7830		11.718750
7831		5.859375
7832		11.718750
7833		3.906250
7834		11.718750
7835		5.859375
7836		7.812500
7837		5.859375
7838		7.812500
7839		3.906250
7840		7.812500
7841		1.953125
7842		7.812500
7843		1.953125
7844		7.812500
7845		1.953125
7846		5.859375
7847		0.000000
7848		3.906250
7849		0.000000
7850		3.906250
7851		0.000000
7852		3.906250
7853		0.000000
7854		1.953125
7855		-1.953125
7856		1.953125
7857		-3.906250
7858		1.953125
7859		-5.859375
7860		0.000000
7861		-3.906250
7862		-1.953125
7863		-5.859375
7864		0.000000
7865		-3.906250
7866		-1.953125
7867		-7.812500
7868		0.000000
7869		-5.859375
7870		-3.906250
7871		-7.812500
7872		-3.906250
7873		-9.765625
7874		-3.906250
7875		-9.765625
7876		-1.953125
7877		-9.765625
7878		-3.906250
7879		-9.765625
7880		-5.859375
7881		-11.718750
7882		-3.906250
7883		-9.765625
7884		-7.812500
7885		-15.625000
7886		-5.859375
7887		-11.718750
7888		-7.812500
7889		-13.671875
7890		-9.765625
7891		-13.671875
7892		-7.812500
7893		-13.671875
7894		-7.812500
7895		-13.671875
7896		-9.765625
7897		-15.625000
7898		-9.765625
7899		-15.625000
7900		-7.812500
7901		-15.625000
7902		-9.765625
7903		-15.625000
7904		-11.718750
7905		-15.625000
7906		-13.671875
7907		-17.578125
7908		-11.718750
7909		-19.531250
7910		-9.765625
7911		-15.625000
7912		-13.671875
7913		-17.578125
7914		-13.671875
7915		-19.531250
7916		-11.718750
7917		-21.484375
7918		-11.718750
7919		-17.578125
7920		-15.625000
7921		-17.578125
7922		-15.625000
7923		-19.531250
7924		-13.671875
7925		-21.484375
7926		-11.718750
7927		-21.484375
7928		-13.671875
7929		-17.578125
7930		-15.625000
7931		-23.437500
7932		-13.671875
7933		-21.484375
7934		-13.671875
7935		-23.437500
7936		-11.718750
7937		-19.531250
7938		-15.625000
7939		-19.531250
7940		-15.625000
7941		-21.484375
7942		-13.671875
7943		-21.484375
7944		-13.671875
7945		-19.531250
7946		-15.625000
7947		-21.484375
7948		-15.625000
7949		-21.484375
7950		-11.718750
7951		-21.484375
7952		-13.671875
7953		-19.531250
7954		-15.625000
7955		-17.578125
7956		-15.625000
7957		-19.531250
7958		-13.671875
7959		-21.484375
7960		-11.718750
7961		-19.531250
7962		-13.671875
7963		-17.578125
7964		-15.625000
7965		-21.484375
7966		-11.718750
7967		-17.578125
7968		-13.671875
7969		-19.531250
7970		-11.718750
7971		-15.625000
7972		-13.671875
7973		-17.578125
7974		-11.718750
7975		-17.578125
7976		-9.765625
7977		-15.625000
7978		-11.718750
7979		-15.625000
7980		-13.671875
7981		-15.625000
7982		-9.765625
7983		-17.578125
7984		-7.812500
7985		-15.625000
7986		-7.812500
7987		-13.671875
7988		-11.718750
7989		-13.671875
7990		-9.765625
7991		-13.671875
7992		-7.812500
7993		-13.671875
7994		-5.859375
7995		-11.718750
7996		-7.812500
7997		-11.718750
7998		-7.812500
7999		-13.671875
8000		-3.906250
8001		-11.718750
8002		-3.906250
8003		-7.812500
8004		-5.859375
8005		-7.812500
8006		-5.859375
8007		-7.812500
8008		-3.906250
8009		-9.765625
8010		-1.953125
8011		-7.812500
8012		-1.953125
8013		-5.859375
8014		-3.906250
8015		-7.812500
8016		0.000000
8017		-7.812500
8018		1.953125
8019		-5.859375
8020		1.953125
8021		-3.906250
8022		0.000000
8023		-1.953125
8024		0.000000
8025		-3.906250
8026		3.906250
8027		-3.906250
8028		3.906250
8029		0.000000
8030		1.953125
8031		0.000000
8032		5.859375
8033		-1.953125
8034		7.812500
8035		0.000000
8036		7.812500
8037		1.953125
8038		5.859375
8039		3.906250
8040		5.859375
8041		3.906250
8042		7.812500
8043		3.906250
8044		9.765625
8045		5.859375
8046		9.765625
8047		5.859375
8048		9.765625
8049		5.859375
8050		13.671875
8051		7.812500
8052		11.718750
8053		7.812500
8054		13.671875
8055		9.765625
8056		13.671875
8057		9.765625
8058		13.671875
8059		9.765625
8060		17.578125
8061		9.765625
8062		17.578125
8063		11.718750
8064		15.625000
8065		11.718750
8066		17.578125
8067		15.625000
8068		17.578125
8069		13.671875
8070		19.531250
8071		15.625000
8072		19.531250
8073		17.578125
8074		19.531250
8075		17.578125
8076		21.484375
8077		15.625000
8078		23.437500
8079		17.578125
8080		21.484375
8081		19.531250
8082		23.437500
8083		19.531250
8084		25.390625
8085		21.484375
8086		23.437500
8087		21.484375
8088		25.390625
8089		23.437500
8090		25.390625
8091		23.437500
8092		25.390625
8093		23.437500
8094		27.343750
8095		23.437500
8096		29.296875
8097		25.390625
8098		27.343750
8099		25.390625
8100		31.250000
8101		27.343750
8102		29.296875
8103		27.343750
8104		31.250000
8105		29.296875
8106		31.250000
8107		29.296875
8108		33.203125
8109		29.296875
8110		33.203125
8111		31.250000
8112		33.203125
8113		31.250000
8114		33.203125
8115		31.250000
8116		35.156250
8117		33.203125
8118		35.156250
8119		33.203125
8120		35.156250
8121		33.203125
8122		35.156250
8123		33.203125
8124		37.109375
8125		33.203125
8126		37.109375
8127		35.156250
8128		37.109375
8129		35.156250
8130		39.062500
8131		35.156250
8132		39.062500
8133		37.109375
8134		39.062500
8135		37.109375
8136		39.062500
8137		37.109375
8138		41.015625
8139		39.062500
8140		41.015625
8141		37.109375
8142		42.968750
8143		37.109375
8144		42.968750
8145		39.062500
8146		42.968750
8147		39.062500
8148		42.968750
8149		39.062500
8150		42.968750
8151		39.062500
8152		44.921875
8153		39.062500
8154		44.921875
8155		41.015625
8156		42.968750
8157		41.015625
8158		42.968750
8159		41.015625
8160		46.875000
8161		41.015625
8162		46.875000
8163		41.015625
8164		46.875000
8165		41.015625
8166		46.875000
8167		41.015625
8168		46.875000
8169		42.968750
8170		46.875000
8171		42.968750
8172		46.875000
8173		42.968750
8174		46.875000
8175		42.968750
8176		46.875000
8177		42.968750
8178		46.875000
8179		42.968750
8180		46.875000
8181		42.968750
8182		48.828125
8183		42.968750
8184		48.828125
8185		42.968750
8186		48.828125
8187		44.921875
8188		46.875000
8189		44.921875
8190		46.875000
8191		42.968750
8192		46.875000
8193		42.968750
8194		48.828125
8195		42.968750
8196		48.828125
8197		42.968750
8198		48.828125
8199		42.968750
8200		48.828125
8201		42.968750
8202		48.828125
8203		42.968750
8204		48.828125
8205		44.921875
8206		46.875000
8207		42.968750
8208		46.875000
8209		42.968750
8210		46.875000
8211		42.968750
8212		46.875000
8213		42.968750
8214		46.875000
8215		41.015625
8216		46.875000
8217		41.015625
8218		46.875000
8219		42.968750
8220		46.875000
8221		42.968750
8222		46.875000
8223		42.968750
8224		44.921875
8225		41.015625
8226		44.921875
8227		41.015625
8228		44.921875
8229		41.015625
8230		44.921875
8231		39.062500
8232		46.875000
8233		41.015625
8234		44.921875
8235		39.062500
8236		44.921875
8237		39.062500
8238		44.921875
8239		41.015625
8240		42.968750
8241		39.062500
8242		42.968750
8243		39.062500
8244		42.968750
8245		39.062500
8246		42.968750
8247		39.062500
8248		42.968750
8249		37.109375
8250		42.968750
8251		37.109375
8252		41.015625
8253		37.109375
8254		41.015625
8255		37.109375
8256		41.015625
8257		37.109375
8258		39.062500
8259		35.156250
8260		39.062500
8261		35.156250
8262		39.062500
8263		35.156250
8264		39.062500
8265		33.203125
8266		39.062500
8267		33.203125
8268		37.109375
8269		33.203125
8270		37.109375
8271		33.203125
8272		37.109375
8273		33.203125
8274		35.156250
8275		29.296875
8276		35.156250
8277		31.250000
8278		35.156250
8279		31.250000
8280		33.203125
8281		27.343750
8282		35.156250
8283		29.296875
8284		31.250000
8285		29.296875
8286		31.250000
8287		27.343750
8288		31.250000
8289		27.343750
8290		29.296875
8291		27.343750
8292		29.296875
8293		25.390625
8294		29.296875
8295		25.390625
8296		29.296875
8297		23.437500
8298		27.343750
8299		21.484375
8300		29.296875
8301		23.437500
8302		25.390625
8303		23.437500
8304		25.390625
8305		21.484375
8306		25.390625
8307		21.484375
8308		23.437500
8309		19.531250
8310		23.437500
8311		19.531250
8312		21.484375
8313		19.531250
8314		21.484375
8315		15.625000
8316		21.484375
8317		17.578125
8318		21.484375
8319		15.625000
8320		19.531250
8321		15.625000
8322		19.531250
8323		15.625000
8324		17.578125
8325		13.671875
8326		17.578125
8327		13.671875
8328		17.578125
8329		13.671875
8330		15.625000
8331		11.718750
8332		15.625000
8333		9.765625
8334		15.625000
8335		9.765625
8336		13.671875
8337		9.765625
8338		13.671875
8339		9.765625
8340		11.718750
8341		7.812500
8342		11.718750
8343		5.859375
8344		11.718750
8345		7.812500
8346		9.765625
8347		5.859375
8348		9.765625
8349		3.906250
8350		9.765625
8351		3.906250
8352		7.812500
8353		3.906250
8354		7.812500
8355		1.953125
8356		5.859375
8357		1.953125
8358		3.906250
8359		1.953125
8360		3.906250
8361		0.000000
8362		3.906250
8363		0.000000
8364		3.906250
8365		-1.953125
8366		1.953125
8367		-1.953125
8368		1.953125
8369		-1.953125
8370		0.000000
8371		-3.906250
8372		0.000000
8373		-3.906250
8374		0.000000
8375		-3.906250
8376		-1.953125
8377		-3.906250
8378		-1.953125
8379		-5.859375
8380		-1.953125
8381		-5.859375
8382		-1.953125
8383		-7.812500
8384		-1.953125
8385		-7.812500
8386		-3.906250
8387		-7.812500
8388		-3.906250
8389		-9.765625
8390		-3.906250
8391		-7.812500
8392		-5.859375
8393		-9.765625
8394		-5.859375
8395		-9.765625
8396		-7.812500
8397		-11.718750
8398		-7.812500
8399		-11.718750
8400		-7.812500
8401		-11.718750
8402		-7.812500
8403		-11.718750
8404		-7.812500
8405		-11.718750
8406		-9.765625
8407		-11.718750
8408		-9.765625
8409		-13.671875
8410		-11.718750
8411		-13.671875
8412		-9.765625
8413		-13.671875
8414		-11.718750
8415		-15.625000
8416		-11.718750
8417		-15.625000
8418		-11.718750
8419		-15.625000
8420		-11.718750
8421		-15.625000
8422		-11.718750
8423		-17.578125
8424		-13.671875
8425		-15.625000
8426		-13.671875
8427		-17.578125
8428		-13.671875
8429		-17.578125
8430		-13.671875
8431		-17.578125
8432		-13.671875
8433		-17.578125
8434		-15.625000
8435		-17.578125
8436		-15.625000
8437		-17.578125
8438		-15.625000
8439		-19.531250
8440		-13.671875
8441		-17.578125
8442		-15.625000
8443		-17.578125
8444		-15.625000
8445		-19.531250
8446		-15.625000
8447		-19.531250
8448		-15.625000
8449		-19.531250
8450		-15.625000
8451		-19.531250
8452		-15.625000
8453		-19.531250
8454		-15.625000
8455		-19.531250
8456		-15.625000
8457		-19.531250
8458		-15.625000
8459		-17.578125
8460		-15.625000
8461		-19.531250
8462		-15.625000
8463		-19.531250
8464		-15.625000
8465		-17.578125
8466		-15.625000
8467		-17.578125
8468		-15.625000
8469		-19.531250
8470		-15.625000
8471		-17.578125
8472		-15.625000
8473		-17.578125
8474		-15.625000
8475		-17.578125
8476		-15.625000
8477		-17.578125
8478		-13.671875
8479		-17.578125
8480		-13.671875
8481		-17.578125
8482		-13.671875
8483		-17.578125
8484		-13.671875
8485		-15.625000
8486		-13.671875
8487		-15.625000
8488		-13.671875
8489		-15.625000
8490		-11.718750
8491		-15.625000
8492		-11.718750
8493		-13.671875
8494		-11.718750
8495		-15.625000
8496		-11.718750
8497		-13.671875
8498		-11.718750
8499		-13.671875
8500		-11.718750
8501		-13.671875
8502		-9.765625
8503		-13.671875
8504		-9.765625
8505		-11.718750
8506		-9.765625
8507		-13.671875
8508		-7.812500
8509		-9.765625
8510		-7.812500
8511		-9.765625
8512		-7.812500
8513		-9.765625
8514		-7.812500
8515		-9.765625
8516		-5.859375
8517		-9.765625
8518		-5.859375
8519		-7.812500
8520		-5.859375
8521		-7.812500
8522		-3.906250
8523		-7.812500
8524		-3.906250
8525		-5.859375
8526		-3.906250
8527		-5.859375
8528		-3.906250
8529		-5.859375
8530		-1.953125
8531		-5.859375
8532		-1.953125
8533		-3.906250
8534		0.000000
8535		-1.953125
8536		0.000000
8537		-1.953125
8538		0.000000
8539		-1.953125
8540		1.953125
8541		0.000000
8542		1.953125
8543		0.000000
8544		1.953125
8545		0.000000
8546		3.906250
8547		1.953125
8548		3.906250
8549		1.953125
8550		5.859375
8551		1.953125
8552		5.859375
8553		3.906250
8554		7.812500
8555		3.906250
8556		7.812500
8557		5.859375
8558		7.812500
8559		5.859375
8560		7.812500
8561		5.859375
8562		9.765625
8563		7.812500
8564		9.765625
8565		7.812500
8566		11.718750
8567		9.765625
8568		11.718750
8569		9.765625
8570		13.671875
8571		9.765625
8572		13.671875
8573		11.718750
8574		15.625000
8575		11.718750
8576		15.625000
8577		13.671875
8578		15.625000
8579		13.671875
8580		17.578125
8581		13.671875
8582		17.578125
8583		15.625000
8584		19.531250
8585		15.625000
8586		19.531250
8587		17.578125
8588		19.531250
8589		17.578125
8590		21.484375
8591		17.578125
8592		21.484375
8593		19.531250
8594		21.484375
8595		19.531250
8596		23.437500
8597		21.484375
8598		23.437500
8599		21.484375
8600		25.390625
8601		21.484375
8602		25.390625
8603		23.437500
8604		27.343750
8605		23.437500
8606		27.343750
8607		25.390625
8608		27.343750
8609		25.390625
8610		29.296875
8611		25.390625
8612		29.296875
8613		25.390625
8614		29.296875
8615		27.343750
8616		31.250000
8617		27.343750
8618		31.250000
8619		29.296875
8620		31.250000
8621		29.296875
8622		33.203125
8623		29.296875
8624		33.203125
8625		29.296875
8626		33.203125
8627		31.250000
8628		33.203125
8629		31.250000
8630		35.156250
8631		33.203125
8632		35.156250
8633		33.203125
8634		37.109375
8635		33.203125
8636		37.109375
8637		33.203125
8638		37.109375
8639		35.156250
8640		39.062500
8641		35.156250
8642		39.062500
8643		37.109375
8644		39.062500
8645		35.156250
8646		41.015625
8647		37.109375
8648		41.015625
8649		37.109375
8650		39.062500
8651		37.109375
8652		41.015625
8653		37.109375
8654		41.015625
8655		39.062500
8656		41.015625
8657		39.062500
8658		42.968750
8659		41.015625
8660		42.968750
8661		41.015625
8662		42.968750
8663		39.062500
8664		42.968750
8665		41.015625
8666		42.968750
8667		41.015625
8668		44.921875
8669		41.015625
8670		44.921875
8671		41.015625
8672		44.921875
8673		41.015625
8674		44.921875
8675		42.968750
8676		44.921875
8677		42.968750
8678		44.921875
8679		42.968750
8680		46.875000
8681		41.015625
8682		44.921875
8683		42.968750
8684		46.875000
8685		42.968750
8686		46.875000
8687		42.968750
8688		46.875000
8689		42.968750
8690		46.875000
8691		42.968750
8692		46.875000
8693		44.921875
8694		46.875000
8695		44.921875
8696		46.875000
8697		42.968750
8698		46.875000
8699		44.921875
8700		46.875000
8701		44.921875
8702		46.875000
8703		44.921875
8704		46.875000
8705		44.921875
8706		46.875000
8707		44.921875
8708		46.875000
8709		42.968750
8710		48.828125
8711		44.921875
8712		46.875000
8713		44.921875
8714		46.875000
8715		44.921875
8716		48.828125
8717		44.921875
8718		46.875000
8719		44.921875
8720		46.875000
8721		44.921875
8722		46.875000
8723		42.968750
8724		46.875000
8725		42.968750
8726		48.828125
8727		42.968750
8728		46.875000
8729		44.921875
8730		46.875000
8731		42.968750
8732		46.875000
8733		42.968750
8734		46.875000
8735		42.968750
8736		46.875000
8737		42.968750
8738		44.921875
8739		41.015625
8740		46.875000
8741		41.015625
8742		46.875000
8743		42.968750
8744		44.921875
8745		42.968750
8746		44.921875
8747		41.015625
8748		44.921875
8749		39.062500
8750		44.921875
8751		41.015625
8752		42.968750
8753		41.015625
8754		42.968750
8755		39.062500
8756		42.968750
8757		39.062500
8758		42.968750
8759		39.062500
8760		42.968750
8761		39.062500
8762		41.015625
8763		37.109375
8764		41.015625
8765		39.062500
8766		41.015625
8767		37.109375
8768		41.015625
8769		37.109375
8770		41.015625
8771		35.156250
8772		39.062500
8773		37.109375
8774		39.062500
8775		35.156250
8776		39.062500
8777		35.156250
8778		37.109375
8779		35.156250
8780		37.109375
8781		33.203125
8782		37.109375
8783		33.203125
8784		37.109375
8785		33.203125
8786		35.156250
8787		31.250000
8788		35.156250
8789		31.250000
8790		35.156250
8791		31.250000
8792		35.156250
8793		29.296875
8794		35.156250
8795		31.250000
8796		33.203125
8797		29.296875
8798		33.203125
8799		29.296875
8800		31.250000
8801		27.343750
8802		31.250000
8803		27.343750
8804		31.250000
8805		27.343750
8806		29.296875
8807		25.390625
8808		29.296875
8809		25.390625
8810		29.296875
8811		25.390625
8812		27.343750
8813		23.437500
8814		27.343750
8815		23.437500
8816		27.343750
8817		23.437500
8818		25.390625
8819		21.484375
8820		25.390625
8821		21.484375
8822		23.437500
8823		19.531250
8824		25.390625
8825		19.531250
8826		23.437500
8827		19.531250
8828		21.484375
8829		19.531250
8830		21.484375
8831		17.578125
8832		21.484375
8833		17.578125
8834		19.531250
8835		15.625000
8836		19.531250
8837		15.625000
8838		17.578125
8839		13.671875
8840		17.578125
8841		13.671875
8842		17.578125
8843		11.718750
8844		17.578125
8845		13.671875
8846		15.625000
8847		11.718750
8848		15.625000
8849		9.765625
8850		13.671875
8851		9.765625
8852		13.671875
8853		9.765625
8854		11.718750
8855		7.812500
8856		11.718750
8857		7.812500
8858		11.718750
8859		7.812500
8860		9.765625
8861		5.859375
8862		9.765625
8863		5.859375
8864		7.812500
8865		3.906250
8866		7.812500
8867		3.906250
8868		7.812500
8869		3.906250
8870		5.859375
8871		1.953125
8872		5.859375
8873		1.953125
8874		3.906250
8875		0.000000
8876		3.906250
8877		0.000000
8878		3.906250
8879		0.000000
8880		1.953125
8881		-1.953125
8882		1.953125
8883		-1.953125
8884		1.953125
8885		-1.953125
8886		0.000000
8887		-3.906250
8888		0.000000
8889		-3.906250
8890		0.000000
8891		-5.859375
8892		-1.953125
8893		-5.859375
8894		-1.953125
8895		-5.859375
8896		-1.953125
8897		-7.812500
8898		-3.906250
8899		-5.859375
8900		-3.906250
8901		-7.812500
8902		-3.906250
8903		-7.812500
8904		-5.859375
8905		-7.812500
8906		-5.859375
8907		-9.765625
8908		-5.859375
8909		-9.765625
8910		-5.859375
8911		-9.765625
8912		-7.812500
8913		-9.765625
8914		-7.812500
8915		-11.718750
8916		-7.812500
8917		-11.718750
8918		-7.812500
8919		-13.671875
8920		-7.812500
8921		-11.718750
8922		-9.765625
8923		-13.671875
8924		-9.765625
8925		-13.671875
8926		-9.765625
8927		-15.625000
8928		-9.765625
8929		-13.671875
8930		-11.718750
8931		-15.625000
8932		-11.718750
8933		-15.625000
8934		-11.718750
8935		-15.625000
8936		-11.718750
8937		-15.625000
8938		-13.671875
8939		-15.625000
8940		-13.671875
8941		-15.625000
8942		-13.671875
8943		-17.578125
8944		-13.671875
8945		-15.625000
8946		-13.671875
8947		-15.625000
8948		-13.671875
8949		-17.578125
8950		-13.671875
8951		-17.578125
8952		-13.671875
8953		-17.578125
8954		-13.671875
8955		-17.578125
8956		-15.625000
8957		-17.578125
8958		-13.671875
8959		-17.578125
8960		-13.671875
8961		-17.578125
8962		-13.671875
8963		-17.578125
8964		-15.625000
8965		-19.531250
8966		-15.625000
8967		-17.578125
8968		-15.625000
8969		-17.578125
8970		-15.625000
8971		-17.578125
8972		-15.625000
8973		-17.578125
8974		-13.671875
8975		-17.578125
8976		-13.671875
8977		-19.531250
8978		-15.625000
8979		-17.578125
8980		-15.625000
8981		-17.578125
8982		-13.671875
8983		-17.578125
8984		-15.625000
8985		-17.578125
8986		-15.625000
8987		-15.625000
8988		-13.671875
8989		-17.578125
8990		-13.671875
8991		-15.625000
8992		-13.671875
8993		-17.578125
8994		-13.671875
8995		-15.625000
8996		-13.671875
8997		-15.625000
8998		-13.671875
8999		-15.625000
9000		-11.718750
9001		-15.625000
9002		-11.718750
9003		-15.625000
9004		-11.718750
9005		-13.671875
9006		-11.718750
9007		-13.671875
9008		-9.765625
9009		-13.671875
9010		-9.765625
9011		-13.671875
9012		-9.765625
9013		-13.671875
9014		-9.765625
9015		-13.671875
9016		-9.765625
9017		-11.718750
9018		-9.765625
9019		-11.718750
9020		-7.812500
9021		-11.718750
9022		-7.812500
9023		-9.765625
9024		-7.812500
9025		-9.765625
9026		-5.859375
9027		-9.765625
9028		-5.859375
9029		-7.812500
9030		-5.859375
9031		-7.812500
9032		-5.859375
9033		-7.812500
9034		-3.906250
9035		-7.812500
9036		-3.906250
9037		-5.859375
9038		-3.906250
9039		-5.859375
9040		-1.953125
9041		-5.859375
9042		-1.953125
9043		-3.906250
9044		0.000000
9045		-3.906250
9046		0.000000
9047		-1.953125
9048		0.000000
9049		-1.953125
9050		1.953125
9051		-1.953125
9052		1.953125
9053		0.000000
9054		1.953125
9055		0.000000
9056		3.906250
9057		1.953125
9058		3.906250
9059		1.953125
9060		5.859375
9061		1.953125
9062		5.859375
9063		3.906250
9064		5.859375
9065		3.906250
9066		7.812500
9067		3.906250
9068		7.812500
9069		5.859375
9070		7.812500
9071		5.859375
9072		9.765625
9073		7.812500
9074		9.765625
9075		7.812500
9076		11.718750
9077		7.812500
9078		13.671875
9079		9.765625
9080		11.718750
9081		9.765625
9082		13.671875
9083		9.765625
9084		13.671875
9085		11.718750
9086		15.625000
9087		11.718750
9088		15.625000
9089		13.671875
9090		15.625000
9091		13.671875
9092		17.578125
9093		15.625000
9094		17.578125
9095		15.625000
9096		19.531250
9097		17.578125
9098		19.531250
9099		17.578125
9100		21.484375
9101		17.578125
9102		21.484375
9103		17.578125
9104		21.484375
9105		19.531250
9106		23.437500
9107		19.531250
9108		23.437500
9109		21.484375
9110		23.437500
9111		21.484375
9112		25.390625
9113		23.437500
9114		25.390625
9115		23.437500
9116		25.390625
9117		23.437500
9118		27.343750
9119		25.390625
9120		27.343750
9121		25.390625
9122		29.296875
9123		27.343750
9124		29.296875
9125		27.343750
9126		29.296875
9127		27.343750
9128		31.250000
9129		27.343750
9130		31.250000
9131		29.296875
9132		31.250000
9133		29.296875
9134		33.203125
9135		29.296875
9136		33.203125
9137		31.250000
9138		33.203125
9139		31.250000
9140		35.156250
9141		31.250000
9142		35.156250
9143		33.203125
9144		35.156250
9145		33.203125
9146		37.109375
9147		33.203125
9148		37.109375
9149		35.156250
9150		37.109375
9151		33.203125
9152		39.062500
9153		35.156250
9154		39.062500
9155		35.156250
9156		39.062500
9157		37.109375
9158		39.062500
9159		37.109375
9160		39.062500
9161		37.109375
9162		41.015625
9163		39.062500
9164		41.015625
9165		39.062500
9166		41.015625
9167		37.109375
9168		42.968750
9169		39.062500
9170		42.968750
9171		39.062500
9172		42.968750
9173		39.062500
9174		42.968750
9175		41.015625
9176		42.968750
9177		41.015625
9178		44.921875
9179		41.015625
9180		44.921875
9181		41.015625
9182		44.921875
9183		41.015625
9184		44.921875
9185		42.968750
9186		44.921875
9187		42.968750
9188		44.921875
9189		42.968750
9190		44.921875
9191		42.968750
9192		46.875000
9193		42.968750
9194		46.875000
9195		42.968750
9196		46.875000
9197		42.968750
9198		46.875000
9199		44.921875
9200		46.875000
9201		44.921875
9202		46.875000
9203		44.921875
9204		46.875000
9205		44.921875
9206		46.875000
9207		44.921875
9208		46.875000
9209		44.921875
9210		46.875000
9211		44.921875
9212		46.875000
9213		44.921875
9214		46.875000
9215		44.921875
9216		46.875000
9217		44.921875
9218		48.828125
9219		44.921875
9220		46.875000
9221		44.921875
9222		46.875000
9223		44.921875
9224		46.875000
9225		44.921875
9226		48.828125
9227		44.921875
9228		46.875000
9229		44.921875
9230		46.875000
9231		44.921875
9232		46.875000
9233		44.921875
9234		46.875000
9235		44.921875
9236		48.828125
9237		44.921875
9238		46.875000
9239		44.921875
9240		46.875000
9241		44.921875
9242		46.875000
9243		42.968750
9244		46.875000
9245		42.968750
9246		46.875000
9247		42.968750
9248		46.875000
9249		42.968750
9250		44.921875
9251		42.968750
9252		46.875000
9253		42.968750
9254		46.875000
9255		42.968750
9256		44.921875
9257		42.968750
9258		44.921875
9259		41.015625
9260		44.921875
9261		41.015625
9262		44.921875
9263		41.015625
9264		44.921875
9265		41.015625
9266		42.968750
9267		41.015625
9268		42.968750
9269		39.062500
9270		42.968750
9271		39.062500
9272		42.968750
9273		39.062500
9274		42.968750
9275		39.062500
9276		42.968750
9277		39.062500
9278		41.015625
9279		37.109375
9280		41.015625
9281		37.109375
9282		41.015625
9283		37.109375
9284		41.015625
9285		35.156250
9286		39.062500
9287		35.156250
9288		39.062500
9289		35.156250
9290		39.062500
9291		35.156250
9292		37.109375
9293		35.156250
9294		37.109375
9295		35.156250
9296		37.109375
9297		33.203125
9298		37.109375
9299		33.203125
9300		35.156250
9301		31.250000
9302		35.156250
9303		31.250000
9304		35.156250
9305		31.250000
9306		35.156250
9307		31.250000
9308		33.203125
9309		29.296875
9310		33.203125
9311		29.296875
9312		33.203125
9313		29.296875
9314		33.203125
9315		27.343750
9316		31.250000
9317		27.343750
9318		31.250000
9319		27.343750
9320		31.250000
9321		25.390625
9322		29.296875
9323		25.390625
9324		29.296875
9325		25.390625
9326		27.343750
9327		23.437500
9328		27.343750
9329		23.437500
9330		27.343750
9331		23.437500
9332		25.390625
9333		21.484375
9334		25.390625
9335		21.484375
9336		25.390625
9337		21.484375
9338		23.437500
9339		19.531250
9340		23.437500
9341		19.531250
9342		21.484375
9343		17.578125
9344		21.484375
9345		17.578125
9346		19.531250
9347		15.625000
9348		21.484375
9349		15.625000
9350		19.531250
9351		13.671875
9352		17.578125
9353		13.671875
9354		17.578125
9355		13.671875
9356		17.578125
9357		13.671875
9358		15.625000
9359		11.718750
9360		15.625000
9361		11.718750
9362		15.625000
9363		9.765625
9364		13.671875
9365		9.765625
9366		11.718750
9367		9.765625
9368		11.718750
9369		7.812500
9370		11.718750
9371		7.812500
9372		9.765625
9373		5.859375
9374		9.765625
9375		5.859375
9376		7.812500
9377		5.859375
9378		7.812500
9379		3.906250
9380		7.812500
9381		3.906250
9382		7.812500
9383		3.906250
9384		5.859375
9385		1.953125
9386		5.859375
9387		1.953125
9388		5.859375
9389		0.000000
9390		3.906250
9391		0.000000
9392		3.906250
9393		0.000000
9394		3.906250
9395		-1.953125
9396		1.953125
9397		-1.953125
9398		1.953125
9399		-1.953125
9400		0.000000
9401		-3.906250
9402		0.000000
9403		-3.906250
9404		0.000000
9405		-3.906250
9406		-1.953125
9407		-5.859375
9408		-1.953125
9409		-5.859375
9410		-1.953125
9411		-5.859375
9412		-3.906250
9413		-5.859375
9414		-3.906250
9415		-7.812500
9416		-3.906250
9417		-7.812500
9418		-5.859375
9419		-7.812500
9420		-5.859375
9421		-9.765625
9422		-5.859375
9423		-9.765625
9424		-5.859375
9425		-9.765625
9426		-7.812500
9427		-9.765625
9428		-7.812500
9429		-11.718750
9430		-7.812500
9431		-11.718750
9432		-7.812500
9433		-11.718750
9434		-9.765625
9435		-13.671875
9436		-9.765625
9437		-13.671875
9438		-9.765625
9439		-13.671875
9440		-9.765625
9441		-13.671875
9442		-11.718750
9443		-13.671875
9444		-11.718750
9445		-15.625000
9446		-11.718750
9447		-15.625000
9448		-11.718750
9449		-15.625000
9450		-13.671875
9451		-15.625000
9452		-13.671875
9453		-17.578125
9454		-13.671875
9455		-17.578125
9456		-13.671875
9457		-15.625000
9458		-13.671875
9459		-17.578125
9460		-13.671875
9461		-17.578125
9462		-13.671875
9463		-17.578125
9464		-13.671875
9465		-17.578125
9466		-13.671875
9467		-17.578125
9468		-15.625000
9469		-17.578125
9470		-15.625000
9471		-17.578125
9472		-15.625000
9473		-17.578125
9474		-15.625000
9475		-17.578125
9476		-15.625000
9477		-17.578125
9478		-15.625000
9479		-17.578125
9480		-15.625000
9481		-19.531250
9482		-13.671875
9483		-17.578125
9484		-15.625000
9485		-17.578125
9486		-15.625000
9487		-17.578125
9488		-15.625000
9489		-17.578125
9490		-15.625000
9491		-17.578125
9492		-15.625000
9493		-17.578125
9494		-13.671875
9495		-17.578125
9496		-13.671875
9497		-17.578125
9498		-13.671875
9499		-17.578125
9500		-13.671875
9501		-17.578125
9502		-13.671875
9503		-17.578125
9504		-13.671875
9505		-15.625000
9506		-13.671875
9507		-15.625000
9508		-13.671875
9509		-15.625000
9510		-13.671875
9511		-15.625000
9512		-13.671875
9513		-15.625000
9514		-11.718750
9515		-15.625000
9516		-11.718750
9517		-13.671875
9518		-11.718750
9519		-15.625000
9520		-9.765625
9521		-13.671875
9522		-9.765625
9523		-13.671875
9524		-9.765625
9525		-13.671875
9526		-9.765625
9527		-13.671875
9528		-9.765625
9529		-11.718750
9530		-7.812500
9531		-11.718750
9532		-7.812500
9533		-9.765625
9534		-7.812500
9535		-9.765625
9536		-7.812500
9537		-9.765625
9538		-5.859375
9539		-9.765625
9540		-5.859375
9541		-9.765625
9542		-5.859375
9543		-7.812500
9544		-5.859375
9545		-7.812500
9546		-3.906250
9547		-5.859375
9548		-3.906250
9549		-7.812500
9550		-1.953125
9551		-5.859375
9552		-1.953125
9553		-5.859375
9554		-1.953125
9555		-3.906250
9556		-1.953125
9557		-3.906250
9558		0.000000
9559		-1.953125
9560		0.000000
9561		-1.953125
9562		0.000000
9563		-1.953125
9564		1.953125
9565		-1.953125
9566		3.906250
9567		0.000000
9568		1.953125
9569		0.000000
9570		3.906250
9571		0.000000
9572		3.906250
9573		1.953125
9574		5.859375
9575		1.953125
9576		5.859375
9577		3.906250
9578		5.859375
9579		3.906250
9580		7.812500
9581		3.906250
9582		7.812500
9583		5.859375
9584		9.765625
9585		7.812500
9586		9.765625
9587		5.859375
9588		11.718750
9589		7.812500
9590		11.718750
9591		7.812500
9592		11.718750
9593		9.765625
9594		13.671875
9595		11.718750
9596		13.671875
9597		11.718750
9598		15.625000
9599		11.718750
9600		15.625000
9601		13.671875
9602		15.625000
9603		13.671875
9604		17.578125
9605		13.671875
9606		17.578125
9607		15.625000
9608		19.531250
9609		15.625000
9610		19.531250
9611		15.625000
9612		19.531250
9613		17.578125
9614		21.484375
9615		17.578125
9616		21.484375
9617		19.531250
9618		21.484375
9619		19.531250
9620		23.437500
9621		21.484375
9622		23.437500
9623		21.484375
9624		25.390625
9625		21.484375
9626		25.390625
9627		23.437500
9628		25.390625
9629		23.437500
9630		27.343750
9631		23.437500
9632		27.343750
9633		23.437500
9634		27.343750
9635		25.390625
9636		29.296875
9637		27.343750
9638		31.250000
9639		27.343750
9640		31.250000
9641		27.343750
9642		31.250000
9643		29.296875
9644		31.250000
9645		29.296875
9646		33.203125
9647		29.296875
9648		33.203125
9649		29.296875
9650		35.156250
9651		31.250000
9652		33.203125
9653		31.250000
9654		35.156250
9655		31.250000
9656		35.156250
9657		33.203125
9658		37.109375
9659		33.203125
9660		37.109375
9661		33.203125
9662		37.109375
9663		35.156250
9664		37.109375
9665		35.156250
9666		39.062500
9667		35.156250
9668		39.062500
9669		37.109375
9670		39.062500
9671		37.109375
9672		39.062500
9673		37.109375
9674		39.062500
9675		37.109375
9676		41.015625
9677		39.062500
9678		41.015625
9679		39.062500
9680		42.968750
9681		39.062500
9682		42.968750
9683		39.062500
9684		42.968750
9685		39.062500
9686		42.968750
9687		41.015625
9688		42.968750
9689		41.015625
9690		42.968750
9691		41.015625
9692		44.921875
9693		41.015625
9694		44.921875
9695		41.015625
9696		44.921875
9697		41.015625
9698		44.921875
9699		42.968750
9700		46.875000
9701		42.968750
9702		44.921875
9703		42.968750
9704		44.921875
9705		42.968750
9706		46.875000
9707		42.968750
9708		46.875000
9709		42.968750
9710		46.875000
9711		42.968750
9712		46.875000
9713		42.968750
9714		46.875000
9715		42.968750
9716		46.875000
9717		42.968750
9718		46.875000
9719		44.921875
9720		46.875000
9721		42.968750
9722		46.875000
9723		44.921875
9724		46.875000
9725		44.921875
9726		46.875000
9727		44.921875
9728		46.875000
9729		44.921875
9730		48.828125
9731		44.921875
9732		46.875000
9733		44.921875
9734		46.875000
9735		44.921875
9736		46.875000
9737		44.921875
9738		46.875000
9739		44.921875
9740		48.828125
9741		44.921875
9742		46.875000
9743		44.921875
9744		46.875000
9745		44.921875
9746		46.875000
9747		42.968750
9748		46.875000
9749		44.921875
9750		46.875000
9751		42.968750
9752		46.875000
9753		44.921875
9754		46.875000
9755		42.968750
9756		46.875000
9757		42.968750
9758		46.875000
9759		42.968750
9760		46.875000
9761		42.968750
9762		46.875000
9763		42.968750
9764		46.875000
9765		41.015625
9766		46.875000
9767		42.968750
9768		44.921875
9769		42.968750
9770		44.921875
9771		42.968750
9772		44.921875
9773		41.015625
9774		44.921875
9775		41.015625
9776		44.921875
9777		41.015625
9778		44.921875
9779		41.015625
9780		42.968750
9781		41.015625
9782		42.968750
9783		39.062500
9784		42.968750
9785		39.062500
9786		42.968750
9787		39.062500
9788		41.015625
9789		37.109375
9790		42.968750
9791		39.062500
9792		41.015625
9793		37.109375
9794		41.015625
9795		37.109375
9796		41.015625
9797		37.109375
9798		39.062500
9799		37.109375
9800		39.062500
9801		35.156250
9802		39.062500
9803		35.156250
9804		39.062500
9805		35.156250
9806		39.062500
9807		33.203125
9808		37.109375
9809		33.203125
9810		37.109375
9811		33.203125
9812		37.109375
9813		33.203125
9814		35.156250
9815		33.203125
9816		35.156250
9817		31.250000
9818		35.156250
9819		31.250000
9820		33.203125
9821		31.250000
9822		33.203125
9823		29.296875
9824		33.203125
9825		29.296875
9826		31.250000
9827		29.296875
9828		31.250000
9829		27.343750
9830		31.250000
9831		27.343750
9832		29.296875
9833		27.343750
9834		29.296875
9835		25.390625
9836		29.296875
9837		25.390625
9838		27.343750
9839		23.437500
9840		27.343750
9841		23.437500
9842		27.343750
9843		23.437500
9844		27.343750
9845		23.437500
9846		25.390625
9847		21.484375
9848		25.390625
9849		21.484375
9850		23.437500
9851		19.531250
9852		23.437500
9853		19.531250
9854		23.437500
9855		19.531250
9856		21.484375
9857		17.578125
9858		21.484375
9859		17.578125
9860		21.484375
9861		15.625000
9862		19.531250
9863		15.625000
9864		19.531250
9865		13.671875
9866		19.531250
9867		13.671875
9868		17.578125
9869		13.671875
9870		17.578125
9871		13.671875
9872		15.625000
9873		11.718750
9874		15.625000
9875		11.718750
9876		13.671875
9877		9.765625
9878		13.671875
9879		9.765625
9880		13.671875
9881		7.812500
9882		11.718750
9883		7.812500
9884		11.718750
9885		5.859375
9886		9.765625
9887		7.812500
9888		9.765625
9889		5.859375
9890		9.765625
9891		5.859375
9892		7.812500
9893		3.906250
9894		7.812500
9895		3.906250
9896		7.812500
9897		1.953125
9898		5.859375
9899		1.953125
9900		5.859375
9901		0.000000
9902		5.859375
9903		1.953125
9904		3.906250
9905		0.000000
9906		1.953125
9907		-1.953125
9908		1.953125
9909		-1.953125
9910		1.953125
9911		-1.953125
9912		1.953125
9913		-1.953125
9914		0.000000
9915		-3.906250
9916		0.000000
9917		-3.906250
9918		0.000000
9919		-3.906250
9920		0.000000
9921		-5.859375
9922		-1.953125
9923		-5.859375
9924		-3.906250
9925		-5.859375
9926		-3.906250
9927		-7.812500
9928		-3.906250
9929		-7.812500
9930		-3.906250
9931		-9.765625
9932		-5.859375
9933		-9.765625
9934		-5.859375
9935		-9.765625
9936		-5.859375
9937		-9.765625
9938		-7.812500
9939		-9.765625
9940		-7.812500
9941		-11.718750
9942		-7.812500
9943		-11.718750
9944		-7.812500
9945		-11.718750
9946		-9.765625
9947		-11.718750
9948		-9.765625
9949		-13.671875
9950		-9.765625
9951		-13.671875
9952		-9.765625
9953		-13.671875
9954		-9.765625
9955		-13.671875
9956		-11.718750
9957		-15.625000
9958		-11.718750
9959		-15.625000
9960		-11.718750
9961		-15.625000
9962		-11.718750
9963		-15.625000
9964		-13.671875
9965		-15.625000
9966		-13.671875
9967		-15.625000
9968		-13.671875
9969		-17.578125
9970		-13.671875
9971		-15.625000
9972		-13.671875
9973		-17.578125
9974		-13.671875
9975		-17.578125
9976		-13.671875
9977		-17.578125
9978		-13.671875
9979		-17.578125
9980		-13.671875
9981		-17.578125
9982		-15.625000
9983		-17.578125
9984		-15.625000
9985		-17.578125
9986		-15.625000
9987		-17.578125
9988		-15.625000
9989		-17.578125
9990		-15.625000
9991		-17.578125
9992		-15.625000
9993		-17.578125
9994		-15.625000
9995		-17.578125
9996		-15.625000
9997		-19.531250
9998		-15.625000
9999		-17.578125
10000		-15.625000
