Channel              :		CH1
Frequency            :		1.061kHz
Period               :		0.943ms
PK-PK                :		113.3mV
Probe attenuation    :		1X
Voltage per ADC value:		0.122070mV
Time interval        :		2.00000us

index		CH1_Voltage(mV)
1		25.390625
2		25.390625
3		19.531250
4		23.437500
5		19.531250
6		23.437500
7		17.578125
8		21.484375
9		15.625000
10		21.484375
11		15.625000
12		19.531250
13		13.671875
14		17.578125
15		9.765625
16		17.578125
17		9.765625
18		17.578125
19		9.765625
20		13.671875
21		7.812500
22		11.718750
23		7.812500
24		11.718750
25		5.859375
26		9.765625
27		3.906250
28		7.812500
29		3.906250
30		7.812500
31		0.000000
32		7.812500
33		-1.953125
34		5.859375
35		-1.953125
36		3.906250
37		-3.906250
38		1.953125
39		-3.906250
40		0.000000
41		-7.812500
42		0.000000
43		-5.859375
44		-1.953125
45		-7.812500
46		-3.906250
47		-9.765625
48		-3.906250
49		-11.718750
50		-5.859375
51		-13.671875
52		-5.859375
53		-13.671875
54		-9.765625
55		-15.625000
56		-9.765625
57		-15.625000
58		-11.718750
59		-17.578125
60		-11.718750
61		-19.531250
62		-15.625000
63		-21.484375
64		-15.625000
65		-23.437500
66		-15.625000
67		-23.437500
68		-17.578125
69		-25.390625
70		-19.531250
71		-25.390625
72		-19.531250
73		-27.343750
74		-21.484375
75		-29.296875
76		-23.437500
77		-29.296875
78		-25.390625
79		-31.250000
80		-27.343750
81		-33.203125
82		-27.343750
83		-33.203125
84		-27.343750
85		-35.156250
86		-27.343750
87		-37.109375
88		-29.296875
89		-37.109375
90		-29.296875
91		-37.109375
92		-31.250000
93		-39.062500
94		-31.250000
95		-39.062500
96		-35.156250
97		-41.015625
98		-35.156250
99		-42.968750
100		-35.156250
101		-42.968750
102		-37.109375
103		-44.921875
104		-37.109375
105		-44.921875
106		-39.062500
107		-46.875000
108		-39.062500
109		-46.875000
110		-39.062500
111		-46.875000
112		-42.968750
113		-46.875000
114		-42.968750
115		-46.875000
116		-42.968750
117		-48.828125
118		-42.968750
119		-50.781250
120		-44.921875
121		-50.781250
122		-44.921875
123		-50.781250
124		-44.921875
125		-50.781250
126		-46.875000
127		-50.781250
128		-46.875000
129		-50.781250
130		-46.875000
131		-54.687500
132		-46.875000
133		-54.687500
134		-46.875000
135		-54.687500
136		-44.921875
137		-54.687500
138		-48.828125
139		-54.687500
140		-46.875000
141		-54.687500
142		-46.875000
143		-54.687500
144		-48.828125
145		-52.734375
146		-50.781250
147		-52.734375
148		-50.781250
149		-54.687500
150		-48.828125
151		-54.687500
152		-46.875000
153		-56.640625
154		-48.828125
155		-54.687500
156		-46.875000
157		-54.687500
158		-46.875000
159		-54.687500
160		-46.875000
161		-52.734375
162		-48.828125
163		-52.734375
164		-48.828125
165		-54.687500
166		-46.875000
167		-54.687500
168		-46.875000
169		-52.734375
170		-44.921875
171		-52.734375
172		-44.921875
173		-52.734375
174		-44.921875
175		-52.734375
176		-44.921875
177		-50.781250
178		-42.968750
179		-48.828125
180		-44.921875
181		-50.781250
182		-42.968750
183		-48.828125
184		-42.968750
185		-48.828125
186		-41.015625
187		-48.828125
188		-41.015625
189		-48.828125
190		-41.015625
191		-46.875000
192		-39.062500
193		-46.875000
194		-39.062500
195		-42.968750
196		-39.062500
197		-42.968750
198		-39.062500
199		-42.968750
200		-35.156250
201		-42.968750
202		-35.156250
203		-41.015625
204		-35.156250
205		-41.015625
206		-33.203125
207		-41.015625
208		-31.250000
209		-39.062500
210		-31.250000
211		-37.109375
212		-31.250000
213		-35.156250
214		-31.250000
215		-35.156250
216		-29.296875
217		-35.156250
218		-27.343750
219		-33.203125
220		-25.390625
221		-31.250000
222		-23.437500
223		-31.250000
224		-23.437500
225		-29.296875
226		-21.484375
227		-27.343750
228		-21.484375
229		-25.390625
230		-21.484375
231		-23.437500
232		-19.531250
233		-25.390625
234		-17.578125
235		-23.437500
236		-15.625000
237		-21.484375
238		-13.671875
239		-19.531250
240		-13.671875
241		-19.531250
242		-11.718750
243		-17.578125
244		-11.718750
245		-15.625000
246		-9.765625
247		-13.671875
248		-9.765625
249		-13.671875
250		-5.859375
251		-11.718750
252		-3.906250
253		-11.718750
254		-3.906250
255		-9.765625
256		-1.953125
257		-7.812500
258		0.000000
259		-7.812500
260		0.000000
261		-3.906250
262		1.953125
263		-1.953125
264		1.953125
265		-1.953125
266		3.906250
267		-1.953125
268		5.859375
269		0.000000
270		7.812500
271		0.000000
272		7.812500
273		1.953125
274		9.765625
275		3.906250
276		11.718750
277		3.906250
278		11.718750
279		7.812500
280		11.718750
281		9.765625
282		13.671875
283		9.765625
284		17.578125
285		9.765625
286		17.578125
287		11.718750
288		19.531250
289		13.671875
290		21.484375
291		13.671875
292		21.484375
293		15.625000
294		23.437500
295		17.578125
296		23.437500
297		19.531250
298		23.437500
299		19.531250
300		25.390625
301		21.484375
302		27.343750
303		21.484375
304		29.296875
305		23.437500
306		29.296875
307		23.437500
308		31.250000
309		25.390625
310		31.250000
311		27.343750
312		33.203125
313		29.296875
314		33.203125
315		29.296875
316		33.203125
317		29.296875
318		37.109375
319		29.296875
320		39.062500
321		31.250000
322		37.109375
323		31.250000
324		39.062500
325		33.203125
326		41.015625
327		33.203125
328		41.015625
329		35.156250
330		41.015625
331		37.109375
332		41.015625
333		37.109375
334		42.968750
335		37.109375
336		44.921875
337		37.109375
338		44.921875
339		39.062500
340		46.875000
341		39.062500
342		46.875000
343		41.015625
344		46.875000
345		41.015625
346		48.828125
347		42.968750
348		46.875000
349		42.968750
350		48.828125
351		42.968750
352		50.781250
353		42.968750
354		50.781250
355		42.968750
356		50.781250
357		44.921875
358		50.781250
359		44.921875
360		50.781250
361		44.921875
362		52.734375
363		46.875000
364		50.781250
365		48.828125
366		50.781250
367		46.875000
368		54.687500
369		46.875000
370		54.687500
371		46.875000
372		54.687500
373		46.875000
374		54.687500
375		46.875000
376		54.687500
377		46.875000
378		54.687500
379		48.828125
380		54.687500
381		50.781250
382		52.734375
383		46.875000
384		54.687500
385		48.828125
386		56.640625
387		48.828125
388		54.687500
389		48.828125
390		54.687500
391		46.875000
392		54.687500
393		46.875000
394		54.687500
395		48.828125
396		54.687500
397		48.828125
398		52.734375
399		48.828125
400		52.734375
401		46.875000
402		54.687500
403		46.875000
404		54.687500
405		46.875000
406		54.687500
407		46.875000
408		52.734375
409		44.921875
410		52.734375
411		44.921875
412		52.734375
413		46.875000
414		52.734375
415		46.875000
416		50.781250
417		44.921875
418		50.781250
419		42.968750
420		50.781250
421		42.968750
422		50.781250
423		42.968750
424		48.828125
425		42.968750
426		50.781250
427		41.015625
428		48.828125
429		41.015625
430		48.828125
431		42.968750
432		44.921875
433		39.062500
434		44.921875
435		39.062500
436		44.921875
437		37.109375
438		44.921875
439		37.109375
440		44.921875
441		37.109375
442		44.921875
443		35.156250
444		42.968750
445		35.156250
446		41.015625
447		35.156250
448		39.062500
449		35.156250
450		39.062500
451		31.250000
452		39.062500
453		31.250000
454		39.062500
455		29.296875
456		37.109375
457		29.296875
458		35.156250
459		27.343750
460		35.156250
461		27.343750
462		35.156250
463		27.343750
464		33.203125
465		27.343750
466		29.296875
467		23.437500
468		29.296875
469		21.484375
470		31.250000
471		19.531250
472		29.296875
473		19.531250
474		27.343750
475		17.578125
476		25.390625
477		17.578125
478		25.390625
479		15.625000
480		23.437500
481		17.578125
482		19.531250
483		13.671875
484		19.531250
485		11.718750
486		19.531250
487		11.718750
488		19.531250
489		9.765625
490		17.578125
491		7.812500
492		15.625000
493		7.812500
494		13.671875
495		5.859375
496		11.718750
497		5.859375
498		11.718750
499		3.906250
500		7.812500
501		0.000000
502		7.812500
503		0.000000
504		7.812500
505		-1.953125
506		5.859375
507		-3.906250
508		5.859375
509		-3.906250
510		3.906250
511		-5.859375
512		1.953125
513		-5.859375
514		0.000000
515		-5.859375
516		-1.953125
517		-9.765625
518		-3.906250
519		-11.718750
520		-3.906250
521		-11.718750
522		-5.859375
523		-13.671875
524		-5.859375
525		-15.625000
526		-7.812500
527		-15.625000
528		-9.765625
529		-17.578125
530		-11.718750
531		-17.578125
532		-13.671875
533		-19.531250
534		-15.625000
535		-21.484375
536		-15.625000
537		-23.437500
538		-15.625000
539		-25.390625
540		-17.578125
541		-25.390625
542		-19.531250
543		-27.343750
544		-19.531250
545		-29.296875
546		-21.484375
547		-29.296875
548		-21.484375
549		-29.296875
550		-25.390625
551		-33.203125
552		-25.390625
553		-33.203125
554		-25.390625
555		-35.156250
556		-27.343750
557		-35.156250
558		-27.343750
559		-37.109375
560		-29.296875
561		-37.109375
562		-31.250000
563		-39.062500
564		-31.250000
565		-37.109375
566		-35.156250
567		-39.062500
568		-35.156250
569		-42.968750
570		-35.156250
571		-42.968750
572		-35.156250
573		-44.921875
574		-37.109375
575		-44.921875
576		-37.109375
577		-44.921875
578		-39.062500
579		-46.875000
580		-39.062500
581		-46.875000
582		-39.062500
583		-44.921875
584		-42.968750
585		-48.828125
586		-41.015625
587		-48.828125
588		-41.015625
589		-48.828125
590		-42.968750
591		-50.781250
592		-42.968750
593		-50.781250
594		-42.968750
595		-50.781250
596		-44.921875
597		-52.734375
598		-44.921875
599		-50.781250
600		-46.875000
601		-50.781250
602		-46.875000
603		-52.734375
604		-46.875000
605		-52.734375
606		-46.875000
607		-54.687500
608		-46.875000
609		-54.687500
610		-46.875000
611		-54.687500
612		-46.875000
613		-54.687500
614		-46.875000
615		-52.734375
616		-48.828125
617		-52.734375
618		-48.828125
619		-54.687500
620		-48.828125
621		-54.687500
622		-46.875000
623		-54.687500
624		-48.828125
625		-54.687500
626		-46.875000
627		-54.687500
628		-46.875000
629		-54.687500
630		-48.828125
631		-54.687500
632		-48.828125
633		-52.734375
634		-48.828125
635		-52.734375
636		-46.875000
637		-54.687500
638		-46.875000
639		-54.687500
640		-46.875000
641		-52.734375
642		-46.875000
643		-52.734375
644		-44.921875
645		-52.734375
646		-44.921875
647		-50.781250
648		-44.921875
649		-48.828125
650		-44.921875
651		-48.828125
652		-44.921875
653		-50.781250
654		-42.968750
655		-48.828125
656		-42.968750
657		-48.828125
658		-41.015625
659		-48.828125
660		-41.015625
661		-48.828125
662		-41.015625
663		-46.875000
664		-39.062500
665		-44.921875
666		-39.062500
667		-42.968750
668		-39.062500
669		-42.968750
670		-37.109375
671		-42.968750
672		-35.156250
673		-41.015625
674		-35.156250
675		-41.015625
676		-33.203125
677		-41.015625
678		-33.203125
679		-41.015625
680		-31.250000
681		-39.062500
682		-31.250000
683		-35.156250
684		-31.250000
685		-33.203125
686		-31.250000
687		-35.156250
688		-27.343750
689		-33.203125
690		-27.343750
691		-33.203125
692		-25.390625
693		-31.250000
694		-23.437500
695		-29.296875
696		-23.437500
697		-29.296875
698		-21.484375
699		-25.390625
700		-21.484375
701		-25.390625
702		-21.484375
703		-25.390625
704		-17.578125
705		-23.437500
706		-15.625000
707		-23.437500
708		-15.625000
709		-21.484375
710		-13.671875
711		-19.531250
712		-13.671875
713		-19.531250
714		-11.718750
715		-17.578125
716		-11.718750
717		-13.671875
718		-9.765625
719		-13.671875
720		-7.812500
721		-13.671875
722		-5.859375
723		-11.718750
724		-3.906250
725		-11.718750
726		-3.906250
727		-9.765625
728		-1.953125
729		-7.812500
730		0.000000
731		-5.859375
732		0.000000
733		-3.906250
734		0.000000
735		-1.953125
736		1.953125
737		-1.953125
738		5.859375
739		-1.953125
740		5.859375
741		0.000000
742		7.812500
743		1.953125
744		9.765625
745		1.953125
746		9.765625
747		3.906250
748		11.718750
749		5.859375
750		11.718750
751		7.812500
752		13.671875
753		9.765625
754		15.625000
755		9.765625
756		15.625000
757		9.765625
758		17.578125
759		11.718750
760		19.531250
761		13.671875
762		21.484375
763		13.671875
764		21.484375
765		15.625000
766		23.437500
767		19.531250
768		23.437500
769		19.531250
770		23.437500
771		19.531250
772		27.343750
773		21.484375
774		29.296875
775		21.484375
776		29.296875
777		23.437500
778		31.250000
779		23.437500
780		31.250000
781		25.390625
782		33.203125
783		27.343750
784		31.250000
785		29.296875
786		33.203125
787		29.296875
788		35.156250
789		29.296875
790		37.109375
791		31.250000
792		37.109375
793		31.250000
794		39.062500
795		33.203125
796		41.015625
797		33.203125
798		41.015625
799		33.203125
800		41.015625
801		37.109375
802		41.015625
803		37.109375
804		42.968750
805		37.109375
806		44.921875
807		37.109375
808		44.921875
809		39.062500
810		44.921875
811		39.062500
812		46.875000
813		39.062500
814		46.875000
815		41.015625
816		46.875000
817		42.968750
818		46.875000
819		44.921875
820		46.875000
821		42.968750
822		48.828125
823		42.968750
824		50.781250
825		42.968750
826		50.781250
827		44.921875
828		52.734375
829		44.921875
830		50.781250
831		44.921875
832		52.734375
833		46.875000
834		52.734375
835		48.828125
836		50.781250
837		46.875000
838		52.734375
839		46.875000
840		54.687500
841		46.875000
842		54.687500
843		46.875000
844		54.687500
845		46.875000
846		54.687500
847		46.875000
848		54.687500
849		46.875000
850		54.687500
851		50.781250
852		52.734375
853		50.781250
854		52.734375
855		48.828125
856		54.687500
857		48.828125
858		54.687500
859		48.828125
860		54.687500
861		48.828125
862		54.687500
863		48.828125
864		54.687500
865		48.828125
866		54.687500
867		48.828125
868		52.734375
869		48.828125
870		52.734375
871		46.875000
872		54.687500
873		46.875000
874		54.687500
875		46.875000
876		54.687500
877		46.875000
878		52.734375
879		46.875000
880		52.734375
881		46.875000
882		52.734375
883		46.875000
884		52.734375
885		46.875000
886		50.781250
887		44.921875
888		50.781250
889		44.921875
890		52.734375
891		44.921875
892		50.781250
893		42.968750
894		50.781250
895		42.968750
896		50.781250
897		42.968750
898		48.828125
899		41.015625
900		48.828125
901		42.968750
902		46.875000
903		42.968750
904		44.921875
905		39.062500
906		46.875000
907		39.062500
908		46.875000
909		39.062500
910		44.921875
911		37.109375
912		44.921875
913		37.109375
914		42.968750
915		35.156250
916		42.968750
917		35.156250
918		41.015625
919		35.156250
920		39.062500
921		33.203125
922		39.062500
923		31.250000
924		39.062500
925		31.250000
926		39.062500
927		29.296875
928		37.109375
929		27.343750
930		35.156250
931		27.343750
932		35.156250
933		27.343750
934		35.156250
935		27.343750
936		31.250000
937		25.390625
938		29.296875
939		23.437500
940		29.296875
941		21.484375
942		29.296875
943		19.531250
944		27.343750
945		19.531250
946		27.343750
947		17.578125
948		25.390625
949		15.625000
950		25.390625
951		17.578125
952		21.484375
953		15.625000
954		19.531250
955		13.671875
956		19.531250
957		11.718750
958		19.531250
959		9.765625
960		17.578125
961		9.765625
962		17.578125
963		7.812500
964		15.625000
965		7.812500
966		13.671875
967		5.859375
968		11.718750
969		5.859375
970		9.765625
971		3.906250
972		7.812500
973		1.953125
974		9.765625
975		0.000000
976		7.812500
977		-1.953125
978		5.859375
979		-3.906250
980		3.906250
981		-3.906250
982		3.906250
983		-5.859375
984		1.953125
985		-5.859375
986		-1.953125
987		-7.812500
988		-1.953125
989		-9.765625
990		-1.953125
991		-11.718750
992		-3.906250
993		-13.671875
994		-5.859375
995		-13.671875
996		-7.812500
997		-15.625000
998		-7.812500
999		-15.625000
1000		-9.765625
1001		-17.578125
1002		-9.765625
1003		-17.578125
1004		-13.671875
1005		-19.531250
1006		-15.625000
1007		-21.484375
1008		-13.671875
1009		-23.437500
1010		-15.625000
1011		-25.390625
1012		-17.578125
1013		-27.343750
1014		-17.578125
1015		-27.343750
1016		-19.531250
1017		-27.343750
1018		-21.484375
1019		-27.343750
1020		-23.437500
1021		-29.296875
1022		-25.390625
1023		-31.250000
1024		-25.390625
1025		-33.203125
1026		-25.390625
1027		-35.156250
1028		-27.343750
1029		-35.156250
1030		-29.296875
1031		-37.109375
1032		-29.296875
1033		-37.109375
1034		-29.296875
1035		-37.109375
1036		-33.203125
1037		-39.062500
1038		-33.203125
1039		-41.015625
1040		-35.156250
1041		-42.968750
1042		-33.203125
1043		-42.968750
1044		-35.156250
1045		-44.921875
1046		-37.109375
1047		-44.921875
1048		-37.109375
1049		-46.875000
1050		-37.109375
1051		-44.921875
1052		-39.062500
1053		-44.921875
1054		-41.015625
1055		-46.875000
1056		-42.968750
1057		-48.828125
1058		-41.015625
1059		-50.781250
1060		-42.968750
1061		-48.828125
1062		-42.968750
1063		-50.781250
1064		-42.968750
1065		-50.781250
1066		-42.968750
1067		-50.781250
1068		-44.921875
1069		-48.828125
1070		-46.875000
1071		-50.781250
1072		-46.875000
1073		-52.734375
1074		-46.875000
1075		-52.734375
1076		-44.921875
1077		-52.734375
1078		-46.875000
1079		-52.734375
1080		-46.875000
1081		-54.687500
1082		-46.875000
1083		-54.687500
1084		-46.875000
1085		-52.734375
1086		-46.875000
1087		-52.734375
1088		-48.828125
1089		-54.687500
1090		-48.828125
1091		-54.687500
1092		-46.875000
1093		-54.687500
1094		-46.875000
1095		-54.687500
1096		-46.875000
1097		-54.687500
1098		-46.875000
1099		-54.687500
1100		-46.875000
1101		-54.687500
1102		-46.875000
1103		-52.734375
1104		-48.828125
1105		-50.781250
1106		-48.828125
1107		-52.734375
1108		-46.875000
1109		-52.734375
1110		-44.921875
1111		-52.734375
1112		-44.921875
1113		-52.734375
1114		-44.921875
1115		-50.781250
1116		-44.921875
1117		-52.734375
1118		-44.921875
1119		-48.828125
1120		-44.921875
1121		-48.828125
1122		-44.921875
1123		-48.828125
1124		-42.968750
1125		-48.828125
1126		-41.015625
1127		-48.828125
1128		-41.015625
1129		-48.828125
1130		-41.015625
1131		-46.875000
1132		-39.062500
1133		-46.875000
1134		-39.062500
1135		-44.921875
1136		-39.062500
1137		-42.968750
1138		-39.062500
1139		-41.015625
1140		-37.109375
1141		-42.968750
1142		-35.156250
1143		-42.968750
1144		-35.156250
1145		-41.015625
1146		-35.156250
1147		-41.015625
1148		-33.203125
1149		-39.062500
1150		-31.250000
1151		-39.062500
1152		-31.250000
1153		-35.156250
1154		-31.250000
1155		-33.203125
1156		-31.250000
1157		-35.156250
1158		-27.343750
1159		-33.203125
1160		-25.390625
1161		-33.203125
1162		-25.390625
1163		-33.203125
1164		-23.437500
1165		-29.296875
1166		-23.437500
1167		-29.296875
1168		-21.484375
1169		-27.343750
1170		-21.484375
1171		-25.390625
1172		-21.484375
1173		-23.437500
1174		-17.578125
1175		-23.437500
1176		-15.625000
1177		-23.437500
1178		-15.625000
1179		-23.437500
1180		-13.671875
1181		-19.531250
1182		-13.671875
1183		-19.531250
1184		-11.718750
1185		-17.578125
1186		-9.765625
1187		-13.671875
1188		-9.765625
1189		-13.671875
1190		-9.765625
1191		-13.671875
1192		-5.859375
1193		-11.718750
1194		-3.906250
1195		-9.765625
1196		-1.953125
1197		-9.765625
1198		-1.953125
1199		-7.812500
1200		-1.953125
1201		-7.812500
1202		0.000000
1203		-3.906250
1204		1.953125
1205		-1.953125
1206		1.953125
1207		-1.953125
1208		5.859375
1209		-1.953125
1210		5.859375
1211		0.000000
1212		7.812500
1213		1.953125
1214		9.765625
1215		1.953125
1216		9.765625
1217		3.906250
1218		11.718750
1219		5.859375
1220		11.718750
1221		9.765625
1222		11.718750
1223		9.765625
1224		15.625000
1225		9.765625
1226		17.578125
1227		11.718750
1228		17.578125
1229		11.718750
1230		19.531250
1231		13.671875
1232		21.484375
1233		13.671875
1234		21.484375
1235		15.625000
1236		23.437500
1237		19.531250
1238		23.437500
1239		19.531250
1240		23.437500
1241		19.531250
1242		27.343750
1243		21.484375
1244		27.343750
1245		21.484375
1246		29.296875
1247		23.437500
1248		31.250000
1249		25.390625
1250		31.250000
1251		25.390625
1252		33.203125
1253		27.343750
1254		33.203125
1255		29.296875
1256		33.203125
1257		31.250000
1258		35.156250
1259		29.296875
1260		37.109375
1261		29.296875
1262		39.062500
1263		31.250000
1264		39.062500
1265		33.203125
1266		39.062500
1267		33.203125
1268		41.015625
1269		35.156250
1270		41.015625
1271		37.109375
1272		41.015625
1273		39.062500
1274		41.015625
1275		37.109375
1276		44.921875
1277		39.062500
1278		46.875000
1279		37.109375
1280		44.921875
1281		39.062500
1282		46.875000
1283		39.062500
1284		46.875000
1285		41.015625
1286		48.828125
1287		41.015625
1288		46.875000
1289		44.921875
1290		46.875000
1291		42.968750
1292		50.781250
1293		42.968750
1294		50.781250
1295		42.968750
1296		50.781250
1297		44.921875
1298		52.734375
1299		44.921875
1300		52.734375
1301		44.921875
1302		52.734375
1303		46.875000
1304		52.734375
1305		48.828125
1306		50.781250
1307		48.828125
1308		52.734375
1309		46.875000
1310		54.687500
1311		46.875000
1312		54.687500
1313		46.875000
1314		54.687500
1315		46.875000
1316		54.687500
1317		48.828125
1318		54.687500
1319		48.828125
1320		54.687500
1321		50.781250
1322		52.734375
1323		50.781250
1324		54.687500
1325		48.828125
1326		54.687500
1327		48.828125
1328		54.687500
1329		48.828125
1330		56.640625
1331		48.828125
1332		54.687500
1333		48.828125
1334		54.687500
1335		48.828125
1336		54.687500
1337		48.828125
1338		54.687500
1339		50.781250
1340		52.734375
1341		48.828125
1342		54.687500
1343		46.875000
1344		54.687500
1345		46.875000
1346		54.687500
1347		46.875000
1348		54.687500
1349		46.875000
1350		52.734375
1351		46.875000
1352		54.687500
1353		46.875000
1354		52.734375
1355		48.828125
1356		50.781250
1357		48.828125
1358		50.781250
1359		44.921875
1360		52.734375
1361		44.921875
1362		52.734375
1363		44.921875
1364		50.781250
1365		42.968750
1366		50.781250
1367		42.968750
1368		50.781250
1369		41.015625
1370		50.781250
1371		42.968750
1372		48.828125
1373		42.968750
1374		46.875000
1375		41.015625
1376		46.875000
1377		39.062500
1378		46.875000
1379		39.062500
1380		46.875000
1381		39.062500
1382		46.875000
1383		37.109375
1384		44.921875
1385		37.109375
1386		42.968750
1387		35.156250
1388		42.968750
1389		37.109375
1390		41.015625
1391		35.156250
1392		39.062500
1393		33.203125
1394		41.015625
1395		31.250000
1396		39.062500
1397		31.250000
1398		37.109375
1399		29.296875
1400		37.109375
1401		29.296875
1402		35.156250
1403		27.343750
1404		35.156250
1405		29.296875
1406		33.203125
1407		27.343750
1408		31.250000
1409		25.390625
1410		31.250000
1411		23.437500
1412		31.250000
1413		21.484375
1414		29.296875
1415		21.484375
1416		27.343750
1417		19.531250
1418		27.343750
1419		17.578125
1420		25.390625
1421		17.578125
1422		23.437500
1423		17.578125
1424		21.484375
1425		15.625000
1426		19.531250
1427		13.671875
1428		21.484375
1429		11.718750
1430		21.484375
1431		11.718750
1432		17.578125
1433		9.765625
1434		15.625000
1435		7.812500
1436		15.625000
1437		5.859375
1438		13.671875
1439		7.812500
1440		11.718750
1441		5.859375
1442		9.765625
1443		1.953125
1444		9.765625
1445		1.953125
1446		9.765625
1447		0.000000
1448		7.812500
1449		-1.953125
1450		5.859375
1451		-3.906250
1452		3.906250
1453		-3.906250
1454		1.953125
1455		-5.859375
1456		1.953125
1457		-5.859375
1458		-1.953125
1459		-7.812500
1460		-1.953125
1461		-9.765625
1462		-1.953125
1463		-11.718750
1464		-3.906250
1465		-13.671875
1466		-3.906250
1467		-13.671875
1468		-5.859375
1469		-15.625000
1470		-7.812500
1471		-15.625000
1472		-9.765625
1473		-15.625000
1474		-11.718750
1475		-19.531250
1476		-13.671875
1477		-21.484375
1478		-13.671875
1479		-21.484375
1480		-13.671875
1481		-23.437500
1482		-15.625000
1483		-25.390625
1484		-17.578125
1485		-25.390625
1486		-17.578125
1487		-27.343750
1488		-19.531250
1489		-27.343750
1490		-21.484375
1491		-27.343750
1492		-23.437500
1493		-31.250000
1494		-23.437500
1495		-31.250000
1496		-23.437500
1497		-33.203125
1498		-25.390625
1499		-33.203125
1500		-27.343750
1501		-37.109375
1502		-27.343750
1503		-37.109375
1504		-29.296875
1505		-39.062500
1506		-31.250000
1507		-37.109375
1508		-33.203125
1509		-39.062500
1510		-33.203125
1511		-41.015625
1512		-33.203125
1513		-41.015625
1514		-35.156250
1515		-41.015625
1516		-35.156250
1517		-42.968750
1518		-35.156250
1519		-44.921875
1520		-37.109375
1521		-44.921875
1522		-37.109375
1523		-42.968750
1524		-41.015625
1525		-44.921875
1526		-41.015625
1527		-48.828125
1528		-41.015625
1529		-48.828125
1530		-41.015625
1531		-48.828125
1532		-41.015625
1533		-48.828125
1534		-42.968750
1535		-48.828125
1536		-42.968750
1537		-50.781250
1538		-42.968750
1539		-50.781250
1540		-44.921875
1541		-48.828125
1542		-44.921875
1543		-50.781250
1544		-44.921875
1545		-50.781250
1546		-44.921875
1547		-52.734375
1548		-44.921875
1549		-52.734375
1550		-44.921875
1551		-52.734375
1552		-46.875000
1553		-52.734375
1554		-44.921875
1555		-52.734375
1556		-46.875000
1557		-50.781250
1558		-48.828125
1559		-52.734375
1560		-48.828125
1561		-54.687500
1562		-46.875000
1563		-52.734375
1564		-46.875000
1565		-54.687500
1566		-46.875000
1567		-52.734375
1568		-46.875000
1569		-54.687500
1570		-46.875000
1571		-52.734375
1572		-46.875000
1573		-52.734375
1574		-46.875000
1575		-50.781250
1576		-46.875000
1577		-52.734375
1578		-46.875000
1579		-52.734375
1580		-44.921875
1581		-52.734375
1582		-44.921875
1583		-52.734375
1584		-44.921875
1585		-52.734375
1586		-44.921875
1587		-50.781250
1588		-42.968750
1589		-50.781250
1590		-44.921875
1591		-48.828125
1592		-44.921875
1593		-48.828125
1594		-41.015625
1595		-48.828125
1596		-41.015625
1597		-48.828125
1598		-41.015625
1599		-46.875000
1600		-41.015625
1601		-46.875000
1602		-39.062500
1603		-46.875000
1604		-39.062500
1605		-44.921875
1606		-39.062500
1607		-42.968750
1608		-39.062500
1609		-41.015625
1610		-39.062500
1611		-42.968750
1612		-35.156250
1613		-41.015625
1614		-35.156250
1615		-41.015625
1616		-35.156250
1617		-41.015625
1618		-33.203125
1619		-39.062500
1620		-31.250000
1621		-39.062500
1622		-31.250000
1623		-35.156250
1624		-31.250000
1625		-35.156250
1626		-31.250000
1627		-33.203125
1628		-27.343750
1629		-35.156250
1630		-25.390625
1631		-33.203125
1632		-25.390625
1633		-33.203125
1634		-23.437500
1635		-31.250000
1636		-23.437500
1637		-29.296875
1638		-21.484375
1639		-29.296875
1640		-21.484375
1641		-25.390625
1642		-21.484375
1643		-23.437500
1644		-19.531250
1645		-23.437500
1646		-17.578125
1647		-23.437500
1648		-15.625000
1649		-21.484375
1650		-13.671875
1651		-21.484375
1652		-13.671875
1653		-19.531250
1654		-11.718750
1655		-17.578125
1656		-9.765625
1657		-15.625000
1658		-11.718750
1659		-13.671875
1660		-9.765625
1661		-11.718750
1662		-5.859375
1663		-11.718750
1664		-3.906250
1665		-11.718750
1666		-3.906250
1667		-9.765625
1668		-1.953125
1669		-7.812500
1670		0.000000
1671		-7.812500
1672		0.000000
1673		-5.859375
1674		0.000000
1675		-1.953125
1676		0.000000
1677		0.000000
1678		1.953125
1679		-1.953125
1680		5.859375
1681		0.000000
1682		5.859375
1683		0.000000
1684		7.812500
1685		1.953125
1686		9.765625
1687		3.906250
1688		11.718750
1689		5.859375
1690		11.718750
1691		7.812500
1692		11.718750
1693		9.765625
1694		13.671875
1695		9.765625
1696		15.625000
1697		9.765625
1698		17.578125
1699		11.718750
1700		19.531250
1701		13.671875
1702		19.531250
1703		15.625000
1704		21.484375
1705		15.625000
1706		23.437500
1707		15.625000
1708		23.437500
1709		19.531250
1710		23.437500
1711		21.484375
1712		25.390625
1713		21.484375
1714		27.343750
1715		21.484375
1716		29.296875
1717		23.437500
1718		29.296875
1719		23.437500
1720		31.250000
1721		25.390625
1722		33.203125
1723		25.390625
1724		33.203125
1725		29.296875
1726		33.203125
1727		29.296875
1728		33.203125
1729		29.296875
1730		37.109375
1731		29.296875
1732		37.109375
1733		31.250000
1734		39.062500
1735		31.250000
1736		39.062500
1737		33.203125
1738		41.015625
1739		33.203125
1740		42.968750
1741		37.109375
1742		41.015625
1743		37.109375
1744		41.015625
1745		39.062500
1746		44.921875
1747		37.109375
1748		44.921875
1749		39.062500
1750		46.875000
1751		39.062500
1752		46.875000
1753		41.015625
1754		48.828125
1755		41.015625
1756		48.828125
1757		41.015625
1758		46.875000
1759		44.921875
1760		46.875000
1761		44.921875
1762		48.828125
1763		42.968750
1764		50.781250
1765		44.921875
1766		50.781250
1767		44.921875
1768		52.734375
1769		44.921875
1770		52.734375
1771		44.921875
1772		52.734375
1773		46.875000
1774		52.734375
1775		48.828125
1776		50.781250
1777		48.828125
1778		52.734375
1779		46.875000
1780		54.687500
1781		48.828125
1782		54.687500
1783		46.875000
1784		54.687500
1785		48.828125
1786		56.640625
1787		48.828125
1788		54.687500
1789		48.828125
1790		56.640625
1791		48.828125
1792		56.640625
1793		50.781250
1794		54.687500
1795		50.781250
1796		54.687500
1797		48.828125
1798		54.687500
1799		50.781250
1800		54.687500
1801		50.781250
1802		54.687500
1803		50.781250
1804		54.687500
1805		50.781250
1806		56.640625
1807		50.781250
1808		54.687500
1809		50.781250
1810		54.687500
1811		50.781250
1812		54.687500
1813		48.828125
1814		54.687500
1815		46.875000
1816		54.687500
1817		48.828125
1818		54.687500
1819		48.828125
1820		54.687500
1821		46.875000
1822		54.687500
1823		46.875000
1824		54.687500
1825		46.875000
1826		52.734375
1827		48.828125
1828		50.781250
1829		46.875000
1830		52.734375
1831		44.921875
1832		52.734375
1833		44.921875
1834		52.734375
1835		44.921875
1836		50.781250
1837		44.921875
1838		50.781250
1839		42.968750
1840		50.781250
1841		42.968750
1842		48.828125
1843		42.968750
1844		46.875000
1845		42.968750
1846		46.875000
1847		41.015625
1848		46.875000
1849		39.062500
1850		46.875000
1851		39.062500
1852		44.921875
1853		37.109375
1854		44.921875
1855		37.109375
1856		44.921875
1857		37.109375
1858		42.968750
1859		37.109375
1860		41.015625
1861		37.109375
1862		41.015625
1863		35.156250
1864		39.062500
1865		33.203125
1866		39.062500
1867		33.203125
1868		37.109375
1869		31.250000
1870		39.062500
1871		29.296875
1872		37.109375
1873		29.296875
1874		37.109375
1875		29.296875
1876		33.203125
1877		29.296875
1878		31.250000
1879		27.343750
1880		31.250000
1881		25.390625
1882		29.296875
1883		25.390625
1884		29.296875
1885		23.437500
1886		27.343750
1887		21.484375
1888		27.343750
1889		19.531250
1890		25.390625
1891		19.531250
1892		23.437500
1893		19.531250
1894		23.437500
1895		17.578125
1896		21.484375
1897		15.625000
1898		21.484375
1899		15.625000
1900		19.531250
1901		13.671875
1902		17.578125
1903		11.718750
1904		15.625000
1905		9.765625
1906		15.625000
1907		7.812500
1908		15.625000
1909		7.812500
1910		13.671875
1911		7.812500
1912		11.718750
1913		5.859375
1914		9.765625
1915		3.906250
1916		9.765625
1917		1.953125
1918		7.812500
1919		1.953125
1920		5.859375
1921		0.000000
1922		3.906250
1923		-1.953125
1924		1.953125
1925		-3.906250
1926		1.953125
1927		-3.906250
1928		0.000000
1929		-5.859375
1930		-1.953125
1931		-5.859375
1932		-1.953125
1933		-7.812500
1934		-3.906250
1935		-9.765625
1936		-3.906250
1937		-11.718750
1938		-5.859375
1939		-11.718750
1940		-7.812500
1941		-13.671875
1942		-9.765625
1943		-15.625000
1944		-11.718750
1945		-15.625000
1946		-11.718750
1947		-17.578125
1948		-13.671875
1949		-19.531250
1950		-15.625000
1951		-19.531250
1952		-15.625000
1953		-21.484375
1954		-17.578125
1955		-23.437500
1956		-19.531250
1957		-23.437500
1958		-19.531250
1959		-25.390625
1960		-21.484375
1961		-25.390625
1962		-23.437500
1963		-29.296875
1964		-23.437500
1965		-29.296875
1966		-25.390625
1967		-29.296875
1968		-25.390625
1969		-31.250000
1970		-27.343750
1971		-33.203125
1972		-29.296875
1973		-33.203125
1974		-29.296875
1975		-35.156250
1976		-31.250000
1977		-35.156250
1978		-31.250000
1979		-37.109375
1980		-33.203125
1981		-37.109375
1982		-33.203125
1983		-39.062500
1984		-35.156250
1985		-39.062500
1986		-35.156250
1987		-41.015625
1988		-37.109375
1989		-41.015625
1990		-37.109375
1991		-42.968750
1992		-39.062500
1993		-42.968750
1994		-39.062500
1995		-42.968750
1996		-41.015625
1997		-44.921875
1998		-41.015625
1999		-44.921875
2000		-41.015625
2001		-44.921875
2002		-42.968750
2003		-46.875000
2004		-42.968750
2005		-46.875000
2006		-42.968750
2007		-46.875000
2008		-44.921875
2009		-48.828125
2010		-44.921875
2011		-48.828125
2012		-44.921875
2013		-48.828125
2014		-44.921875
2015		-48.828125
2016		-46.875000
2017		-50.781250
2018		-46.875000
2019		-50.781250
2020		-46.875000
2021		-50.781250
2022		-46.875000
2023		-50.781250
2024		-46.875000
2025		-50.781250
2026		-46.875000
2027		-50.781250
2028		-48.828125
2029		-50.781250
2030		-48.828125
2031		-52.734375
2032		-48.828125
2033		-50.781250
2034		-48.828125
2035		-50.781250
2036		-48.828125
2037		-52.734375
2038		-48.828125
2039		-50.781250
2040		-48.828125
2041		-50.781250
2042		-46.875000
2043		-52.734375
2044		-46.875000
2045		-50.781250
2046		-46.875000
2047		-50.781250
2048		-46.875000
2049		-50.781250
2050		-46.875000
2051		-50.781250
2052		-46.875000
2053		-50.781250
2054		-46.875000
2055		-48.828125
2056		-46.875000
2057		-48.828125
2058		-44.921875
2059		-48.828125
2060		-44.921875
2061		-48.828125
2062		-44.921875
2063		-46.875000
2064		-44.921875
2065		-46.875000
2066		-42.968750
2067		-46.875000
2068		-42.968750
2069		-44.921875
2070		-42.968750
2071		-44.921875
2072		-41.015625
2073		-44.921875
2074		-41.015625
2075		-42.968750
2076		-41.015625
2077		-42.968750
2078		-39.062500
2079		-42.968750
2080		-39.062500
2081		-41.015625
2082		-37.109375
2083		-41.015625
2084		-37.109375
2085		-41.015625
2086		-35.156250
2087		-39.062500
2088		-35.156250
2089		-37.109375
2090		-33.203125
2091		-37.109375
2092		-33.203125
2093		-35.156250
2094		-31.250000
2095		-35.156250
2096		-31.250000
2097		-33.203125
2098		-29.296875
2099		-33.203125
2100		-29.296875
2101		-31.250000
2102		-27.343750
2103		-31.250000
2104		-27.343750
2105		-29.296875
2106		-25.390625
2107		-29.296875
2108		-23.437500
2109		-27.343750
2110		-23.437500
2111		-25.390625
2112		-21.484375
2113		-23.437500
2114		-21.484375
2115		-23.437500
2116		-19.531250
2117		-23.437500
2118		-17.578125
2119		-21.484375
2120		-17.578125
2121		-19.531250
2122		-15.625000
2123		-17.578125
2124		-13.671875
2125		-17.578125
2126		-13.671875
2127		-15.625000
2128		-11.718750
2129		-13.671875
2130		-9.765625
2131		-13.671875
2132		-7.812500
2133		-11.718750
2134		-7.812500
2135		-9.765625
2136		-5.859375
2137		-9.765625
2138		-3.906250
2139		-7.812500
2140		-3.906250
2141		-5.859375
2142		-1.953125
2143		-3.906250
2144		0.000000
2145		-3.906250
2146		0.000000
2147		-1.953125
2148		1.953125
2149		-1.953125
2150		3.906250
2151		0.000000
2152		3.906250
2153		1.953125
2154		5.859375
2155		3.906250
2156		7.812500
2157		3.906250
2158		9.765625
2159		5.859375
2160		9.765625
2161		7.812500
2162		11.718750
2163		9.765625
2164		11.718750
2165		9.765625
2166		13.671875
2167		11.718750
2168		15.625000
2169		13.671875
2170		17.578125
2171		13.671875
2172		17.578125
2173		15.625000
2174		19.531250
2175		17.578125
2176		21.484375
2177		17.578125
2178		21.484375
2179		19.531250
2180		23.437500
2181		21.484375
2182		23.437500
2183		21.484375
2184		25.390625
2185		23.437500
2186		27.343750
2187		23.437500
2188		27.343750
2189		25.390625
2190		29.296875
2191		27.343750
2192		29.296875
2193		27.343750
2194		31.250000
2195		27.343750
2196		31.250000
2197		29.296875
2198		33.203125
2199		31.250000
2200		35.156250
2201		31.250000
2202		35.156250
2203		33.203125
2204		37.109375
2205		33.203125
2206		37.109375
2207		35.156250
2208		39.062500
2209		35.156250
2210		39.062500
2211		35.156250
2212		41.015625
2213		37.109375
2214		41.015625
2215		37.109375
2216		42.968750
2217		39.062500
2218		42.968750
2219		39.062500
2220		44.921875
2221		41.015625
2222		44.921875
2223		41.015625
2224		44.921875
2225		42.968750
2226		44.921875
2227		42.968750
2228		46.875000
2229		42.968750
2230		46.875000
2231		44.921875
2232		48.828125
2233		44.921875
2234		48.828125
2235		44.921875
2236		48.828125
2237		46.875000
2238		50.781250
2239		46.875000
2240		50.781250
2241		46.875000
2242		50.781250
2243		46.875000
2244		50.781250
2245		48.828125
2246		52.734375
2247		48.828125
2248		52.734375
2249		48.828125
2250		52.734375
2251		48.828125
2252		52.734375
2253		48.828125
2254		52.734375
2255		50.781250
2256		52.734375
2257		50.781250
2258		54.687500
2259		50.781250
2260		54.687500
2261		50.781250
2262		54.687500
2263		50.781250
2264		54.687500
2265		50.781250
2266		54.687500
2267		50.781250
2268		54.687500
2269		50.781250
2270		54.687500
2271		50.781250
2272		54.687500
2273		50.781250
2274		54.687500
2275		50.781250
2276		54.687500
2277		50.781250
2278		54.687500
2279		50.781250
2280		54.687500
2281		50.781250
2282		54.687500
2283		50.781250
2284		54.687500
2285		50.781250
2286		54.687500
2287		48.828125
2288		54.687500
2289		48.828125
2290		52.734375
2291		50.781250
2292		52.734375
2293		48.828125
2294		52.734375
2295		48.828125
2296		52.734375
2297		48.828125
2298		52.734375
2299		46.875000
2300		50.781250
2301		46.875000
2302		50.781250
2303		46.875000
2304		50.781250
2305		46.875000
2306		50.781250
2307		46.875000
2308		48.828125
2309		46.875000
2310		48.828125
2311		44.921875
2312		48.828125
2313		44.921875
2314		48.828125
2315		42.968750
2316		46.875000
2317		42.968750
2318		46.875000
2319		42.968750
2320		44.921875
2321		41.015625
2322		44.921875
2323		41.015625
2324		44.921875
2325		39.062500
2326		42.968750
2327		39.062500
2328		42.968750
2329		39.062500
2330		42.968750
2331		37.109375
2332		41.015625
2333		35.156250
2334		41.015625
2335		35.156250
2336		39.062500
2337		33.203125
2338		37.109375
2339		33.203125
2340		37.109375
2341		33.203125
2342		37.109375
2343		31.250000
2344		35.156250
2345		29.296875
2346		35.156250
2347		29.296875
2348		33.203125
2349		29.296875
2350		31.250000
2351		27.343750
2352		31.250000
2353		25.390625
2354		29.296875
2355		25.390625
2356		27.343750
2357		23.437500
2358		27.343750
2359		21.484375
2360		25.390625
2361		21.484375
2362		25.390625
2363		19.531250
2364		23.437500
2365		17.578125
2366		23.437500
2367		17.578125
2368		21.484375
2369		15.625000
2370		19.531250
2371		15.625000
2372		19.531250
2373		13.671875
2374		17.578125
2375		11.718750
2376		15.625000
2377		9.765625
2378		15.625000
2379		9.765625
2380		13.671875
2381		7.812500
2382		11.718750
2383		5.859375
2384		11.718750
2385		5.859375
2386		9.765625
2387		1.953125
2388		7.812500
2389		1.953125
2390		5.859375
2391		1.953125
2392		5.859375
2393		0.000000
2394		3.906250
2395		-1.953125
2396		1.953125
2397		-3.906250
2398		0.000000
2399		-3.906250
2400		0.000000
2401		-5.859375
2402		-1.953125
2403		-7.812500
2404		-1.953125
2405		-7.812500
2406		-3.906250
2407		-9.765625
2408		-5.859375
2409		-11.718750
2410		-7.812500
2411		-13.671875
2412		-9.765625
2413		-13.671875
2414		-9.765625
2415		-15.625000
2416		-11.718750
2417		-15.625000
2418		-13.671875
2419		-17.578125
2420		-13.671875
2421		-19.531250
2422		-15.625000
2423		-21.484375
2424		-17.578125
2425		-21.484375
2426		-17.578125
2427		-23.437500
2428		-19.531250
2429		-25.390625
2430		-19.531250
2431		-25.390625
2432		-21.484375
2433		-27.343750
2434		-23.437500
2435		-27.343750
2436		-23.437500
2437		-29.296875
2438		-25.390625
2439		-31.250000
2440		-27.343750
2441		-31.250000
2442		-27.343750
2443		-33.203125
2444		-27.343750
2445		-33.203125
2446		-29.296875
2447		-35.156250
2448		-31.250000
2449		-35.156250
2450		-33.203125
2451		-37.109375
2452		-33.203125
2453		-39.062500
2454		-33.203125
2455		-39.062500
2456		-35.156250
2457		-39.062500
2458		-35.156250
2459		-41.015625
2460		-37.109375
2461		-41.015625
2462		-37.109375
2463		-42.968750
2464		-39.062500
2465		-42.968750
2466		-39.062500
2467		-44.921875
2468		-41.015625
2469		-44.921875
2470		-41.015625
2471		-44.921875
2472		-41.015625
2473		-46.875000
2474		-42.968750
2475		-46.875000
2476		-42.968750
2477		-46.875000
2478		-42.968750
2479		-48.828125
2480		-42.968750
2481		-48.828125
2482		-44.921875
2483		-48.828125
2484		-44.921875
2485		-48.828125
2486		-44.921875
2487		-48.828125
2488		-46.875000
2489		-50.781250
2490		-46.875000
2491		-50.781250
2492		-46.875000
2493		-50.781250
2494		-46.875000
2495		-50.781250
2496		-46.875000
2497		-52.734375
2498		-46.875000
2499		-50.781250
2500		-48.828125
2501		-50.781250
2502		-46.875000
2503		-50.781250
2504		-48.828125
2505		-52.734375
2506		-46.875000
2507		-50.781250
2508		-48.828125
2509		-52.734375
2510		-46.875000
2511		-50.781250
2512		-48.828125
2513		-52.734375
2514		-46.875000
2515		-50.781250
2516		-46.875000
2517		-50.781250
2518		-46.875000
2519		-52.734375
2520		-46.875000
2521		-50.781250
2522		-46.875000
2523		-50.781250
2524		-46.875000
2525		-48.828125
2526		-46.875000
2527		-48.828125
2528		-44.921875
2529		-48.828125
2530		-44.921875
2531		-48.828125
2532		-44.921875
2533		-46.875000
2534		-44.921875
2535		-46.875000
2536		-42.968750
2537		-46.875000
2538		-42.968750
2539		-46.875000
2540		-42.968750
2541		-44.921875
2542		-42.968750
2543		-44.921875
2544		-41.015625
2545		-44.921875
2546		-41.015625
2547		-44.921875
2548		-39.062500
2549		-42.968750
2550		-39.062500
2551		-41.015625
2552		-37.109375
2553		-41.015625
2554		-37.109375
2555		-41.015625
2556		-37.109375
2557		-39.062500
2558		-35.156250
2559		-39.062500
2560		-35.156250
2561		-37.109375
2562		-33.203125
2563		-37.109375
2564		-31.250000
2565		-35.156250
2566		-31.250000
2567		-35.156250
2568		-31.250000
2569		-33.203125
2570		-29.296875
2571		-33.203125
2572		-27.343750
2573		-31.250000
2574		-27.343750
2575		-29.296875
2576		-27.343750
2577		-29.296875
2578		-25.390625
2579		-27.343750
2580		-23.437500
2581		-27.343750
2582		-21.484375
2583		-25.390625
2584		-21.484375
2585		-23.437500
2586		-19.531250
2587		-23.437500
2588		-17.578125
2589		-21.484375
2590		-17.578125
2591		-19.531250
2592		-15.625000
2593		-19.531250
2594		-15.625000
2595		-17.578125
2596		-13.671875
2597		-15.625000
2598		-11.718750
2599		-15.625000
2600		-11.718750
2601		-13.671875
2602		-9.765625
2603		-11.718750
2604		-7.812500
2605		-11.718750
2606		-7.812500
2607		-9.765625
2608		-5.859375
2609		-7.812500
2610		-3.906250
2611		-5.859375
2612		-3.906250
2613		-5.859375
2614		-1.953125
2615		-5.859375
2616		0.000000
2617		-1.953125
2618		0.000000
2619		-1.953125
2620		3.906250
2621		0.000000
2622		3.906250
2623		1.953125
2624		5.859375
2625		1.953125
2626		5.859375
2627		3.906250
2628		7.812500
2629		5.859375
2630		9.765625
2631		5.859375
2632		11.718750
2633		7.812500
2634		11.718750
2635		9.765625
2636		13.671875
2637		9.765625
2638		13.671875
2639		11.718750
2640		15.625000
2641		13.671875
2642		17.578125
2643		15.625000
2644		17.578125
2645		15.625000
2646		19.531250
2647		17.578125
2648		21.484375
2649		17.578125
2650		21.484375
2651		19.531250
2652		23.437500
2653		19.531250
2654		25.390625
2655		21.484375
2656		25.390625
2657		23.437500
2658		27.343750
2659		25.390625
2660		29.296875
2661		25.390625
2662		29.296875
2663		27.343750
2664		31.250000
2665		27.343750
2666		31.250000
2667		29.296875
2668		33.203125
2669		29.296875
2670		35.156250
2671		31.250000
2672		35.156250
2673		33.203125
2674		37.109375
2675		33.203125
2676		37.109375
2677		35.156250
2678		37.109375
2679		35.156250
2680		39.062500
2681		35.156250
2682		41.015625
2683		37.109375
2684		41.015625
2685		37.109375
2686		41.015625
2687		39.062500
2688		42.968750
2689		39.062500
2690		42.968750
2691		41.015625
2692		42.968750
2693		41.015625
2694		44.921875
2695		41.015625
2696		44.921875
2697		42.968750
2698		46.875000
2699		42.968750
2700		46.875000
2701		44.921875
2702		46.875000
2703		44.921875
2704		48.828125
2705		44.921875
2706		48.828125
2707		44.921875
2708		50.781250
2709		46.875000
2710		50.781250
2711		46.875000
2712		50.781250
2713		46.875000
2714		50.781250
2715		48.828125
2716		52.734375
2717		48.828125
2718		52.734375
2719		48.828125
2720		52.734375
2721		48.828125
2722		52.734375
2723		48.828125
2724		52.734375
2725		50.781250
2726		52.734375
2727		50.781250
2728		52.734375
2729		50.781250
2730		54.687500
2731		50.781250
2732		54.687500
2733		50.781250
2734		54.687500
2735		50.781250
2736		54.687500
2737		50.781250
2738		54.687500
2739		50.781250
2740		54.687500
2741		50.781250
2742		54.687500
2743		50.781250
2744		54.687500
2745		50.781250
2746		54.687500
2747		50.781250
2748		54.687500
2749		50.781250
2750		54.687500
2751		50.781250
2752		54.687500
2753		50.781250
2754		54.687500
2755		50.781250
2756		54.687500
2757		50.781250
2758		54.687500
2759		50.781250
2760		54.687500
2761		48.828125
2762		52.734375
2763		48.828125
2764		54.687500
2765		48.828125
2766		54.687500
2767		48.828125
2768		52.734375
2769		48.828125
2770		52.734375
2771		48.828125
2772		52.734375
2773		48.828125
2774		50.781250
2775		46.875000
2776		50.781250
2777		46.875000
2778		50.781250
2779		46.875000
2780		48.828125
2781		44.921875
2782		48.828125
2783		44.921875
2784		48.828125
2785		44.921875
2786		48.828125
2787		42.968750
2788		48.828125
2789		42.968750
2790		46.875000
2791		42.968750
2792		46.875000
2793		41.015625
2794		44.921875
2795		41.015625
2796		44.921875
2797		39.062500
2798		44.921875
2799		39.062500
2800		42.968750
2801		39.062500
2802		41.015625
2803		37.109375
2804		41.015625
2805		37.109375
2806		41.015625
2807		35.156250
2808		39.062500
2809		35.156250
2810		39.062500
2811		33.203125
2812		39.062500
2813		31.250000
2814		37.109375
2815		31.250000
2816		35.156250
2817		31.250000
2818		35.156250
2819		29.296875
2820		33.203125
2821		27.343750
2822		33.203125
2823		27.343750
2824		31.250000
2825		25.390625
2826		29.296875
2827		25.390625
2828		29.296875
2829		23.437500
2830		27.343750
2831		21.484375
2832		27.343750
2833		21.484375
2834		25.390625
2835		19.531250
2836		23.437500
2837		19.531250
2838		23.437500
2839		17.578125
2840		21.484375
2841		15.625000
2842		19.531250
2843		15.625000
2844		19.531250
2845		13.671875
2846		17.578125
2847		11.718750
2848		15.625000
2849		9.765625
2850		15.625000
2851		9.765625
2852		13.671875
2853		7.812500
2854		11.718750
2855		5.859375
2856		11.718750
2857		5.859375
2858		9.765625
2859		3.906250
2860		7.812500
2861		1.953125
2862		5.859375
2863		1.953125
2864		5.859375
2865		0.000000
2866		3.906250
2867		-1.953125
2868		1.953125
2869		-1.953125
2870		0.000000
2871		-5.859375
2872		0.000000
2873		-5.859375
2874		-1.953125
2875		-7.812500
2876		-3.906250
2877		-7.812500
2878		-3.906250
2879		-9.765625
2880		-5.859375
2881		-11.718750
2882		-7.812500
2883		-11.718750
2884		-9.765625
2885		-13.671875
2886		-9.765625
2887		-15.625000
2888		-11.718750
2889		-17.578125
2890		-13.671875
2891		-19.531250
2892		-13.671875
2893		-19.531250
2894		-15.625000
2895		-19.531250
2896		-15.625000
2897		-21.484375
2898		-17.578125
2899		-23.437500
2900		-17.578125
2901		-25.390625
2902		-19.531250
2903		-25.390625
2904		-21.484375
2905		-27.343750
2906		-23.437500
2907		-29.296875
2908		-23.437500
2909		-29.296875
2910		-25.390625
2911		-31.250000
2912		-27.343750
2913		-31.250000
2914		-27.343750
2915		-33.203125
2916		-29.296875
2917		-35.156250
2918		-29.296875
2919		-35.156250
2920		-31.250000
2921		-37.109375
2922		-31.250000
2923		-37.109375
2924		-33.203125
2925		-37.109375
2926		-33.203125
2927		-39.062500
2928		-35.156250
2929		-39.062500
2930		-35.156250
2931		-41.015625
2932		-37.109375
2933		-41.015625
2934		-37.109375
2935		-41.015625
2936		-39.062500
2937		-42.968750
2938		-39.062500
2939		-44.921875
2940		-39.062500
2941		-44.921875
2942		-41.015625
2943		-44.921875
2944		-41.015625
2945		-44.921875
2946		-42.968750
2947		-46.875000
2948		-42.968750
2949		-46.875000
2950		-42.968750
2951		-48.828125
2952		-42.968750
2953		-48.828125
2954		-44.921875
2955		-48.828125
2956		-44.921875
2957		-48.828125
2958		-44.921875
2959		-50.781250
2960		-44.921875
2961		-48.828125
2962		-46.875000
2963		-50.781250
2964		-46.875000
2965		-50.781250
2966		-46.875000
2967		-50.781250
2968		-46.875000
2969		-50.781250
2970		-46.875000
2971		-50.781250
2972		-46.875000
2973		-50.781250
2974		-46.875000
2975		-52.734375
2976		-46.875000
2977		-50.781250
2978		-46.875000
2979		-50.781250
2980		-46.875000
2981		-50.781250
2982		-46.875000
2983		-50.781250
2984		-46.875000
2985		-50.781250
2986		-46.875000
2987		-50.781250
2988		-46.875000
2989		-50.781250
2990		-46.875000
2991		-50.781250
2992		-46.875000
2993		-50.781250
2994		-46.875000
2995		-48.828125
2996		-46.875000
2997		-48.828125
2998		-44.921875
2999		-48.828125
3000		-44.921875
3001		-48.828125
3002		-44.921875
3003		-46.875000
3004		-44.921875
3005		-48.828125
3006		-42.968750
3007		-46.875000
3008		-42.968750
3009		-46.875000
3010		-42.968750
3011		-44.921875
3012		-41.015625
3013		-44.921875
3014		-41.015625
3015		-44.921875
3016		-41.015625
3017		-42.968750
3018		-39.062500
3019		-42.968750
3020		-39.062500
3021		-42.968750
3022		-39.062500
3023		-41.015625
3024		-37.109375
3025		-41.015625
3026		-37.109375
3027		-39.062500
3028		-35.156250
3029		-39.062500
3030		-35.156250
3031		-37.109375
3032		-33.203125
3033		-37.109375
3034		-33.203125
3035		-35.156250
3036		-31.250000
3037		-35.156250
3038		-31.250000
3039		-33.203125
3040		-29.296875
3041		-31.250000
3042		-29.296875
3043		-31.250000
3044		-27.343750
3045		-29.296875
3046		-27.343750
3047		-29.296875
3048		-25.390625
3049		-27.343750
3050		-25.390625
3051		-27.343750
3052		-23.437500
3053		-25.390625
3054		-21.484375
3055		-23.437500
3056		-21.484375
3057		-23.437500
3058		-19.531250
3059		-21.484375
3060		-17.578125
3061		-21.484375
3062		-17.578125
3063		-19.531250
3064		-15.625000
3065		-17.578125
3066		-13.671875
3067		-17.578125
3068		-13.671875
3069		-15.625000
3070		-11.718750
3071		-13.671875
3072		-9.765625
3073		-13.671875
3074		-7.812500
3075		-11.718750
3076		-7.812500
3077		-9.765625
3078		-5.859375
3079		-9.765625
3080		-5.859375
3081		-7.812500
3082		-3.906250
3083		-5.859375
3084		-1.953125
3085		-3.906250
3086		0.000000
3087		-3.906250
3088		0.000000
3089		-1.953125
3090		3.906250
3091		0.000000
3092		3.906250
3093		0.000000
3094		3.906250
3095		1.953125
3096		5.859375
3097		3.906250
3098		7.812500
3099		3.906250
3100		7.812500
3101		5.859375
3102		9.765625
3103		7.812500
3104		11.718750
3105		9.765625
3106		11.718750
3107		9.765625
3108		13.671875
3109		9.765625
3110		15.625000
3111		13.671875
3112		15.625000
3113		13.671875
3114		17.578125
3115		15.625000
3116		19.531250
3117		17.578125
3118		19.531250
3119		17.578125
3120		21.484375
3121		19.531250
3122		23.437500
3123		19.531250
3124		23.437500
3125		21.484375
3126		25.390625
3127		21.484375
3128		27.343750
3129		23.437500
3130		27.343750
3131		25.390625
3132		29.296875
3133		27.343750
3134		29.296875
3135		27.343750
3136		31.250000
3137		29.296875
3138		31.250000
3139		29.296875
3140		33.203125
3141		29.296875
3142		35.156250
3143		31.250000
3144		35.156250
3145		31.250000
3146		37.109375
3147		33.203125
3148		37.109375
3149		35.156250
3150		39.062500
3151		35.156250
3152		39.062500
3153		37.109375
3154		41.015625
3155		37.109375
3156		41.015625
3157		39.062500
3158		42.968750
3159		39.062500
3160		42.968750
3161		39.062500
3162		44.921875
3163		41.015625
3164		44.921875
3165		41.015625
3166		44.921875
3167		42.968750
3168		44.921875
3169		42.968750
3170		46.875000
3171		44.921875
3172		46.875000
3173		44.921875
3174		48.828125
3175		44.921875
3176		48.828125
3177		44.921875
3178		48.828125
3179		46.875000
3180		50.781250
3181		46.875000
3182		50.781250
3183		46.875000
3184		50.781250
3185		46.875000
3186		52.734375
3187		48.828125
3188		50.781250
3189		48.828125
3190		52.734375
3191		48.828125
3192		52.734375
3193		48.828125
3194		52.734375
3195		50.781250
3196		52.734375
3197		50.781250
3198		54.687500
3199		50.781250
3200		54.687500
3201		50.781250
3202		54.687500
3203		50.781250
3204		54.687500
3205		50.781250
3206		54.687500
3207		50.781250
3208		56.640625
3209		50.781250
3210		54.687500
3211		50.781250
3212		56.640625
3213		50.781250
3214		54.687500
3215		50.781250
3216		54.687500
3217		52.734375
3218		54.687500
3219		50.781250
3220		54.687500
3221		50.781250
3222		54.687500
3223		50.781250
3224		54.687500
3225		50.781250
3226		54.687500
3227		50.781250
3228		54.687500
3229		50.781250
3230		54.687500
3231		50.781250
3232		54.687500
3233		50.781250
3234		54.687500
3235		50.781250
3236		52.734375
3237		50.781250
3238		52.734375
3239		48.828125
3240		52.734375
3241		48.828125
3242		52.734375
3243		48.828125
3244		52.734375
3245		46.875000
3246		50.781250
3247		46.875000
3248		50.781250
3249		46.875000
3250		50.781250
3251		44.921875
3252		50.781250
3253		44.921875
3254		48.828125
3255		44.921875
3256		48.828125
3257		44.921875
3258		46.875000
3259		42.968750
3260		46.875000
3261		42.968750
3262		46.875000
3263		42.968750
3264		46.875000
3265		41.015625
3266		44.921875
3267		41.015625
3268		44.921875
3269		39.062500
3270		42.968750
3271		39.062500
3272		42.968750
3273		37.109375
3274		41.015625
3275		37.109375
3276		41.015625
3277		35.156250
3278		41.015625
3279		35.156250
3280		39.062500
3281		35.156250
3282		39.062500
3283		33.203125
3284		37.109375
3285		31.250000
3286		37.109375
3287		31.250000
3288		35.156250
3289		31.250000
3290		33.203125
3291		29.296875
3292		33.203125
3293		27.343750
3294		31.250000
3295		27.343750
3296		31.250000
3297		25.390625
3298		29.296875
3299		25.390625
3300		27.343750
3301		23.437500
3302		27.343750
3303		21.484375
3304		25.390625
3305		21.484375
3306		25.390625
3307		19.531250
3308		23.437500
3309		17.578125
3310		23.437500
3311		17.578125
3312		21.484375
3313		15.625000
3314		19.531250
3315		13.671875
3316		19.531250
3317		13.671875
3318		17.578125
3319		11.718750
3320		15.625000
3321		9.765625
3322		13.671875
3323		9.765625
3324		11.718750
3325		7.812500
3326		11.718750
3327		5.859375
3328		9.765625
3329		3.906250
3330		7.812500
3331		3.906250
3332		7.812500
3333		1.953125
3334		5.859375
3335		0.000000
3336		3.906250
3337		0.000000
3338		3.906250
3339		-1.953125
3340		1.953125
3341		-3.906250
3342		0.000000
3343		-3.906250
3344		0.000000
3345		-5.859375
3346		-1.953125
3347		-7.812500
3348		-3.906250
3349		-9.765625
3350		-3.906250
3351		-9.765625
3352		-5.859375
3353		-11.718750
3354		-5.859375
3355		-13.671875
3356		-7.812500
3357		-13.671875
3358		-9.765625
3359		-15.625000
3360		-11.718750
3361		-17.578125
3362		-13.671875
3363		-17.578125
3364		-13.671875
3365		-19.531250
3366		-15.625000
3367		-21.484375
3368		-17.578125
3369		-21.484375
3370		-17.578125
3371		-23.437500
3372		-19.531250
3373		-25.390625
3374		-21.484375
3375		-27.343750
3376		-21.484375
3377		-27.343750
3378		-23.437500
3379		-27.343750
3380		-25.390625
3381		-29.296875
3382		-25.390625
3383		-31.250000
3384		-27.343750
3385		-31.250000
3386		-27.343750
3387		-33.203125
3388		-29.296875
3389		-33.203125
3390		-31.250000
3391		-35.156250
3392		-31.250000
3393		-37.109375
3394		-31.250000
3395		-37.109375
3396		-33.203125
3397		-39.062500
3398		-33.203125
3399		-39.062500
3400		-35.156250
3401		-39.062500
3402		-35.156250
3403		-41.015625
3404		-37.109375
3405		-41.015625
3406		-37.109375
3407		-42.968750
3408		-39.062500
3409		-42.968750
3410		-39.062500
3411		-42.968750
3412		-41.015625
3413		-44.921875
3414		-41.015625
3415		-44.921875
3416		-41.015625
3417		-44.921875
3418		-42.968750
3419		-46.875000
3420		-42.968750
3421		-46.875000
3422		-42.968750
3423		-46.875000
3424		-44.921875
3425		-46.875000
3426		-44.921875
3427		-48.828125
3428		-42.968750
3429		-48.828125
3430		-44.921875
3431		-48.828125
3432		-44.921875
3433		-48.828125
3434		-46.875000
3435		-50.781250
3436		-46.875000
3437		-50.781250
3438		-46.875000
3439		-50.781250
3440		-46.875000
3441		-50.781250
3442		-46.875000
3443		-50.781250
3444		-46.875000
3445		-50.781250
3446		-46.875000
3447		-50.781250
3448		-46.875000
3449		-50.781250
3450		-46.875000
3451		-50.781250
3452		-46.875000
3453		-50.781250
3454		-46.875000
3455		-50.781250
3456		-46.875000
3457		-50.781250
3458		-46.875000
3459		-50.781250
3460		-46.875000
3461		-50.781250
3462		-46.875000
3463		-48.828125
3464		-46.875000
3465		-48.828125
3466		-46.875000
3467		-48.828125
3468		-44.921875
3469		-48.828125
3470		-44.921875
3471		-48.828125
3472		-44.921875
3473		-46.875000
3474		-44.921875
3475		-46.875000
3476		-44.921875
3477		-46.875000
3478		-42.968750
3479		-46.875000
3480		-42.968750
3481		-44.921875
3482		-42.968750
3483		-44.921875
3484		-41.015625
3485		-44.921875
3486		-41.015625
3487		-42.968750
3488		-41.015625
3489		-42.968750
3490		-39.062500
3491		-42.968750
3492		-39.062500
3493		-41.015625
3494		-37.109375
3495		-41.015625
3496		-37.109375
3497		-39.062500
3498		-37.109375
3499		-39.062500
3500		-35.156250
3501		-37.109375
3502		-33.203125
3503		-37.109375
3504		-33.203125
3505		-35.156250
3506		-31.250000
3507		-35.156250
3508		-31.250000
3509		-33.203125
3510		-31.250000
3511		-33.203125
3512		-29.296875
3513		-31.250000
3514		-27.343750
3515		-31.250000
3516		-27.343750
3517		-29.296875
3518		-25.390625
3519		-27.343750
3520		-25.390625
3521		-27.343750
3522		-23.437500
3523		-27.343750
3524		-21.484375
3525		-25.390625
3526		-21.484375
3527		-23.437500
3528		-19.531250
3529		-23.437500
3530		-17.578125
3531		-21.484375
3532		-17.578125
3533		-19.531250
3534		-15.625000
3535		-17.578125
3536		-15.625000
3537		-17.578125
3538		-13.671875
3539		-15.625000
3540		-11.718750
3541		-13.671875
3542		-11.718750
3543		-13.671875
3544		-7.812500
3545		-11.718750
3546		-7.812500
3547		-9.765625
3548		-5.859375
3549		-9.765625
3550		-5.859375
3551		-7.812500
3552		-3.906250
3553		-7.812500
3554		-1.953125
3555		-5.859375
3556		-1.953125
3557		-3.906250
3558		0.000000
3559		-1.953125
3560		1.953125
3561		-1.953125
3562		3.906250
3563		0.000000
3564		3.906250
3565		1.953125
3566		5.859375
3567		3.906250
3568		7.812500
3569		3.906250
3570		7.812500
3571		5.859375
3572		9.765625
3573		5.859375
3574		9.765625
3575		7.812500
3576		11.718750
3577		9.765625
3578		13.671875
3579		9.765625
3580		15.625000
3581		11.718750
3582		15.625000
3583		13.671875
3584		17.578125
3585		13.671875
3586		19.531250
3587		15.625000
3588		19.531250
3589		17.578125
3590		21.484375
3591		19.531250
3592		21.484375
3593		19.531250
3594		23.437500
3595		21.484375
3596		25.390625
3597		21.484375
3598		25.390625
3599		23.437500
3600		27.343750
3601		25.390625
3602		29.296875
3603		25.390625
3604		29.296875
3605		27.343750
3606		31.250000
3607		27.343750
3608		33.203125
3609		29.296875
3610		33.203125
3611		31.250000
3612		33.203125
3613		31.250000
3614		35.156250
3615		33.203125
3616		37.109375
3617		33.203125
3618		37.109375
3619		35.156250
3620		39.062500
3621		35.156250
3622		39.062500
3623		37.109375
3624		39.062500
3625		37.109375
3626		41.015625
3627		39.062500
3628		42.968750
3629		39.062500
3630		42.968750
3631		39.062500
3632		42.968750
3633		41.015625
3634		44.921875
3635		41.015625
3636		44.921875
3637		42.968750
3638		46.875000
3639		42.968750
3640		46.875000
3641		44.921875
3642		46.875000
3643		44.921875
3644		46.875000
3645		44.921875
3646		48.828125
3647		46.875000
3648		48.828125
3649		46.875000
3650		50.781250
3651		46.875000
3652		50.781250
3653		46.875000
3654		50.781250
3655		48.828125
3656		50.781250
3657		48.828125
3658		52.734375
3659		48.828125
3660		52.734375
3661		48.828125
3662		52.734375
3663		50.781250
3664		52.734375
3665		50.781250
3666		52.734375
3667		50.781250
3668		54.687500
3669		50.781250
3670		54.687500
3671		50.781250
3672		54.687500
3673		50.781250
3674		54.687500
3675		52.734375
3676		54.687500
3677		52.734375
3678		54.687500
3679		50.781250
3680		54.687500
3681		52.734375
3682		54.687500
3683		52.734375
3684		54.687500
3685		52.734375
3686		54.687500
3687		52.734375
3688		56.640625
3689		50.781250
3690		54.687500
3691		52.734375
3692		54.687500
3693		52.734375
3694		54.687500
3695		50.781250
3696		54.687500
3697		50.781250
3698		54.687500
3699		50.781250
3700		54.687500
3701		50.781250
3702		54.687500
3703		50.781250
3704		54.687500
3705		50.781250
3706		54.687500
3707		50.781250
3708		52.734375
3709		50.781250
3710		52.734375
3711		48.828125
3712		52.734375
3713		48.828125
3714		52.734375
3715		48.828125
3716		52.734375
3717		48.828125
3718		50.781250
3719		46.875000
3720		50.781250
3721		46.875000
3722		50.781250
3723		44.921875
3724		50.781250
3725		46.875000
3726		48.828125
3727		44.921875
3728		48.828125
3729		44.921875
3730		48.828125
3731		44.921875
3732		46.875000
3733		42.968750
3734		46.875000
3735		42.968750
3736		46.875000
3737		41.015625
3738		44.921875
3739		41.015625
3740		44.921875
3741		41.015625
3742		42.968750
3743		39.062500
3744		42.968750
3745		39.062500
3746		41.015625
3747		37.109375
3748		41.015625
3749		37.109375
3750		39.062500
3751		35.156250
3752		39.062500
3753		33.203125
3754		39.062500
3755		33.203125
3756		37.109375
3757		33.203125
3758		37.109375
3759		31.250000
3760		35.156250
3761		31.250000
3762		35.156250
3763		29.296875
3764		33.203125
3765		27.343750
3766		31.250000
3767		25.390625
3768		31.250000
3769		25.390625
3770		29.296875
3771		23.437500
3772		29.296875
3773		23.437500
3774		27.343750
3775		23.437500
3776		25.390625
3777		21.484375
3778		25.390625
3779		19.531250
3780		23.437500
3781		19.531250
3782		23.437500
3783		17.578125
3784		21.484375
3785		15.625000
3786		19.531250
3787		15.625000
3788		19.531250
3789		13.671875
3790		17.578125
3791		11.718750
3792		15.625000
3793		9.765625
3794		13.671875
3795		9.765625
3796		13.671875
3797		7.812500
3798		13.671875
3799		5.859375
3800		11.718750
3801		5.859375
3802		9.765625
3803		3.906250
3804		7.812500
3805		1.953125
3806		5.859375
3807		0.000000
3808		3.906250
3809		0.000000
3810		3.906250
3811		-1.953125
3812		1.953125
3813		-3.906250
3814		0.000000
3815		-5.859375
3816		0.000000
3817		-5.859375
3818		-1.953125
3819		-7.812500
3820		-1.953125
3821		-9.765625
3822		-3.906250
3823		-9.765625
3824		-5.859375
3825		-11.718750
3826		-5.859375
3827		-11.718750
3828		-9.765625
3829		-15.625000
3830		-9.765625
3831		-15.625000
3832		-11.718750
3833		-15.625000
3834		-13.671875
3835		-17.578125
3836		-13.671875
3837		-21.484375
3838		-15.625000
3839		-21.484375
3840		-17.578125
3841		-21.484375
3842		-17.578125
3843		-23.437500
3844		-19.531250
3845		-23.437500
3846		-21.484375
3847		-25.390625
3848		-21.484375
3849		-27.343750
3850		-23.437500
3851		-29.296875
3852		-23.437500
3853		-29.296875
3854		-25.390625
3855		-31.250000
3856		-27.343750
3857		-31.250000
3858		-27.343750
3859		-31.250000
3860		-27.343750
3861		-33.203125
3862		-29.296875
3863		-35.156250
3864		-31.250000
3865		-35.156250
3866		-31.250000
3867		-37.109375
3868		-33.203125
3869		-37.109375
3870		-33.203125
3871		-39.062500
3872		-35.156250
3873		-39.062500
3874		-35.156250
3875		-41.015625
3876		-35.156250
3877		-41.015625
3878		-37.109375
3879		-41.015625
3880		-39.062500
3881		-42.968750
3882		-39.062500
3883		-42.968750
3884		-39.062500
3885		-44.921875
3886		-41.015625
3887		-44.921875
3888		-41.015625
3889		-44.921875
3890		-42.968750
3891		-46.875000
3892		-42.968750
3893		-46.875000
3894		-42.968750
3895		-46.875000
3896		-42.968750
3897		-48.828125
3898		-44.921875
3899		-48.828125
3900		-44.921875
3901		-48.828125
3902		-44.921875
3903		-48.828125
3904		-44.921875
3905		-48.828125
3906		-44.921875
3907		-48.828125
3908		-46.875000
3909		-48.828125
3910		-46.875000
3911		-48.828125
3912		-46.875000
3913		-50.781250
3914		-46.875000
3915		-50.781250
3916		-46.875000
3917		-50.781250
3918		-46.875000
3919		-50.781250
3920		-46.875000
3921		-50.781250
3922		-46.875000
3923		-50.781250
3924		-46.875000
3925		-50.781250
3926		-46.875000
3927		-50.781250
3928		-46.875000
3929		-50.781250
3930		-44.921875
3931		-48.828125
3932		-46.875000
3933		-48.828125
3934		-46.875000
3935		-48.828125
3936		-44.921875
3937		-48.828125
3938		-44.921875
3939		-48.828125
3940		-44.921875
3941		-48.828125
3942		-44.921875
3943		-48.828125
3944		-44.921875
3945		-46.875000
3946		-44.921875
3947		-46.875000
3948		-42.968750
3949		-46.875000
3950		-42.968750
3951		-46.875000
3952		-41.015625
3953		-44.921875
3954		-41.015625
3955		-44.921875
3956		-41.015625
3957		-42.968750
3958		-41.015625
3959		-42.968750
3960		-39.062500
3961		-42.968750
3962		-39.062500
3963		-41.015625
3964		-39.062500
3965		-42.968750
3966		-37.109375
3967		-41.015625
3968		-37.109375
3969		-39.062500
3970		-35.156250
3971		-37.109375
3972		-35.156250
3973		-37.109375
3974		-33.203125
3975		-37.109375
3976		-33.203125
3977		-35.156250
3978		-31.250000
3979		-33.203125
3980		-31.250000
3981		-33.203125
3982		-29.296875
3983		-33.203125
3984		-27.343750
3985		-31.250000
3986		-27.343750
3987		-31.250000
3988		-25.390625
3989		-29.296875
3990		-25.390625
3991		-29.296875
3992		-23.437500
3993		-27.343750
3994		-23.437500
3995		-25.390625
3996		-21.484375
3997		-23.437500
3998		-19.531250
3999		-23.437500
4000		-17.578125
4001		-21.484375
4002		-17.578125
4003		-21.484375
4004		-17.578125
4005		-19.531250
4006		-15.625000
4007		-17.578125
4008		-13.671875
4009		-15.625000
4010		-11.718750
4011		-15.625000
4012		-11.718750
4013		-13.671875
4014		-9.765625
4015		-13.671875
4016		-7.812500
4017		-11.718750
4018		-7.812500
4019		-9.765625
4020		-5.859375
4021		-7.812500
4022		-3.906250
4023		-7.812500
4024		-3.906250
4025		-5.859375
4026		-1.953125
4027		-3.906250
4028		0.000000
4029		-3.906250
4030		0.000000
4031		-1.953125
4032		1.953125
4033		0.000000
4034		3.906250
4035		0.000000
4036		3.906250
4037		1.953125
4038		5.859375
4039		3.906250
4040		7.812500
4041		3.906250
4042		7.812500
4043		5.859375
4044		9.765625
4045		7.812500
4046		11.718750
4047		7.812500
4048		11.718750
4049		9.765625
4050		13.671875
4051		11.718750
4052		15.625000
4053		13.671875
4054		17.578125
4055		13.671875
4056		17.578125
4057		15.625000
4058		19.531250
4059		15.625000
4060		21.484375
4061		17.578125
4062		21.484375
4063		19.531250
4064		23.437500
4065		19.531250
4066		25.390625
4067		21.484375
4068		25.390625
4069		21.484375
4070		27.343750
4071		23.437500
4072		29.296875
4073		25.390625
4074		29.296875
4075		25.390625
4076		31.250000
4077		27.343750
4078		31.250000
4079		29.296875
4080		33.203125
4081		29.296875
4082		35.156250
4083		31.250000
4084		35.156250
4085		31.250000
4086		37.109375
4087		33.203125
4088		37.109375
4089		33.203125
4090		37.109375
4091		35.156250
4092		39.062500
4093		35.156250
4094		41.015625
4095		37.109375
4096		41.015625
4097		39.062500
4098		41.015625
4099		37.109375
4100		42.968750
4101		39.062500
4102		42.968750
4103		41.015625
4104		44.921875
4105		41.015625
4106		44.921875
4107		41.015625
4108		44.921875
4109		42.968750
4110		46.875000
4111		42.968750
4112		46.875000
4113		44.921875
4114		48.828125
4115		44.921875
4116		48.828125
4117		44.921875
4118		48.828125
4119		46.875000
4120		48.828125
4121		46.875000
4122		50.781250
4123		46.875000
4124		50.781250
4125		48.828125
4126		50.781250
4127		48.828125
4128		52.734375
4129		48.828125
4130		52.734375
4131		48.828125
4132		52.734375
4133		48.828125
4134		52.734375
4135		50.781250
4136		54.687500
4137		50.781250
4138		54.687500
4139		50.781250
4140		54.687500
4141		50.781250
4142		54.687500
4143		50.781250
4144		54.687500
4145		50.781250
4146		54.687500
4147		52.734375
4148		54.687500
4149		50.781250
4150		56.640625
4151		52.734375
4152		56.640625
4153		52.734375
4154		56.640625
4155		52.734375
4156		54.687500
4157		52.734375
4158		56.640625
4159		52.734375
4160		54.687500
4161		50.781250
4162		54.687500
4163		52.734375
4164		54.687500
4165		52.734375
4166		56.640625
4167		50.781250
4168		54.687500
4169		50.781250
4170		54.687500
4171		50.781250
4172		56.640625
4173		50.781250
4174		54.687500
4175		50.781250
4176		54.687500
4177		50.781250
4178		54.687500
4179		50.781250
4180		54.687500
4181		50.781250
4182		52.734375
4183		48.828125
4184		54.687500
4185		48.828125
4186		52.734375
4187		48.828125
4188		52.734375
4189		48.828125
4190		52.734375
4191		46.875000
4192		50.781250
4193		46.875000
4194		50.781250
4195		46.875000
4196		50.781250
4197		46.875000
4198		48.828125
4199		44.921875
4200		50.781250
4201		42.968750
4202		48.828125
4203		42.968750
4204		48.828125
4205		42.968750
4206		46.875000
4207		41.015625
4208		46.875000
4209		41.015625
4210		46.875000
4211		41.015625
4212		44.921875
4213		41.015625
4214		42.968750
4215		39.062500
4216		42.968750
4217		37.109375
4218		42.968750
4219		37.109375
4220		41.015625
4221		37.109375
4222		41.015625
4223		35.156250
4224		39.062500
4225		33.203125
4226		39.062500
4227		33.203125
4228		37.109375
4229		33.203125
4230		37.109375
4231		31.250000
4232		35.156250
4233		29.296875
4234		33.203125
4235		27.343750
4236		33.203125
4237		27.343750
4238		33.203125
4239		27.343750
4240		31.250000
4241		25.390625
4242		29.296875
4243		23.437500
4244		29.296875
4245		23.437500
4246		27.343750
4247		21.484375
4248		25.390625
4249		19.531250
4250		25.390625
4251		19.531250
4252		25.390625
4253		17.578125
4254		23.437500
4255		15.625000
4256		21.484375
4257		15.625000
4258		21.484375
4259		13.671875
4260		19.531250
4261		11.718750
4262		17.578125
4263		11.718750
4264		15.625000
4265		9.765625
4266		13.671875
4267		7.812500
4268		13.671875
4269		7.812500
4270		13.671875
4271		5.859375
4272		9.765625
4273		3.906250
4274		9.765625
4275		1.953125
4276		7.812500
4277		1.953125
4278		7.812500
4279		0.000000
4280		5.859375
4281		0.000000
4282		3.906250
4283		-1.953125
4284		1.953125
4285		-3.906250
4286		1.953125
4287		-5.859375
4288		0.000000
4289		-7.812500
4290		-1.953125
4291		-7.812500
4292		-1.953125
4293		-9.765625
4294		-3.906250
4295		-11.718750
4296		-5.859375
4297		-11.718750
4298		-7.812500
4299		-13.671875
4300		-9.765625
4301		-15.625000
4302		-9.765625
4303		-15.625000
4304		-9.765625
4305		-17.578125
4306		-11.718750
4307		-19.531250
4308		-13.671875
4309		-19.531250
4310		-15.625000
4311		-21.484375
4312		-15.625000
4313		-21.484375
4314		-17.578125
4315		-23.437500
4316		-19.531250
4317		-25.390625
4318		-21.484375
4319		-25.390625
4320		-21.484375
4321		-27.343750
4322		-23.437500
4323		-27.343750
4324		-23.437500
4325		-29.296875
4326		-25.390625
4327		-29.296875
4328		-27.343750
4329		-31.250000
4330		-27.343750
4331		-31.250000
4332		-29.296875
4333		-35.156250
4334		-29.296875
4335		-35.156250
4336		-31.250000
4337		-35.156250
4338		-31.250000
4339		-37.109375
4340		-33.203125
4341		-37.109375
4342		-33.203125
4343		-39.062500
4344		-35.156250
4345		-39.062500
4346		-35.156250
4347		-41.015625
4348		-37.109375
4349		-41.015625
4350		-37.109375
4351		-41.015625
4352		-39.062500
4353		-42.968750
4354		-39.062500
4355		-42.968750
4356		-39.062500
4357		-42.968750
4358		-41.015625
4359		-44.921875
4360		-41.015625
4361		-44.921875
4362		-42.968750
4363		-44.921875
4364		-42.968750
4365		-46.875000
4366		-42.968750
4367		-46.875000
4368		-42.968750
4369		-46.875000
4370		-44.921875
4371		-46.875000
4372		-44.921875
4373		-48.828125
4374		-44.921875
4375		-48.828125
4376		-44.921875
4377		-48.828125
4378		-44.921875
4379		-48.828125
4380		-46.875000
4381		-48.828125
4382		-46.875000
4383		-48.828125
4384		-46.875000
4385		-48.828125
4386		-46.875000
4387		-48.828125
4388		-46.875000
4389		-48.828125
4390		-46.875000
4391		-48.828125
4392		-46.875000
4393		-48.828125
4394		-46.875000
4395		-50.781250
4396		-46.875000
4397		-48.828125
4398		-46.875000
4399		-48.828125
4400		-46.875000
4401		-48.828125
4402		-46.875000
4403		-48.828125
4404		-46.875000
4405		-48.828125
4406		-44.921875
4407		-48.828125
4408		-44.921875
4409		-48.828125
4410		-44.921875
4411		-46.875000
4412		-44.921875
4413		-46.875000
4414		-44.921875
4415		-46.875000
4416		-44.921875
4417		-46.875000
4418		-42.968750
4419		-48.828125
4420		-41.015625
4421		-48.828125
4422		-39.062500
4423		-48.828125
4424		-39.062500
4425		-44.921875
4426		-41.015625
4427		-42.968750
4428		-39.062500
4429		-42.968750
4430		-39.062500
4431		-42.968750
4432		-39.062500
4433		-41.015625
4434		-37.109375
4435		-42.968750
4436		-35.156250
4437		-42.968750
4438		-33.203125
4439		-42.968750
4440		-33.203125
4441		-39.062500
4442		-35.156250
4443		-37.109375
4444		-33.203125
4445		-37.109375
4446		-33.203125
4447		-35.156250
4448		-31.250000
4449		-35.156250
4450		-31.250000
4451		-35.156250
4452		-27.343750
4453		-35.156250
4454		-25.390625
4455		-35.156250
4456		-25.390625
4457		-35.156250
4458		-25.390625
4459		-29.296875
4460		-25.390625
4461		-27.343750
4462		-25.390625
4463		-27.343750
4464		-23.437500
4465		-25.390625
4466		-21.484375
4467		-25.390625
4468		-21.484375
4469		-25.390625
4470		-17.578125
4471		-25.390625
4472		-15.625000
4473		-23.437500
4474		-13.671875
4475		-19.531250
4476		-15.625000
4477		-17.578125
4478		-13.671875
4479		-17.578125
4480		-13.671875
4481		-15.625000
4482		-11.718750
4483		-13.671875
4484		-11.718750
4485		-15.625000
4486		-5.859375
4487		-13.671875
4488		-3.906250
4489		-13.671875
4490		-3.906250
4491		-11.718750
4492		-3.906250
4493		-7.812500
4494		-3.906250
4495		-5.859375
4496		-1.953125
4497		-5.859375
4498		-1.953125
4499		-3.906250
4500		0.000000
4501		-1.953125
4502		1.953125
4503		-3.906250
4504		5.859375
4505		-3.906250
4506		5.859375
4507		-1.953125
4508		7.812500
4509		3.906250
4510		5.859375
4511		3.906250
4512		7.812500
4513		5.859375
4514		9.765625
4515		7.812500
4516		9.765625
4517		7.812500
4518		11.718750
4519		7.812500
4520		15.625000
4521		7.812500
4522		17.578125
4523		9.765625
4524		19.531250
4525		13.671875
4526		17.578125
4527		15.625000
4528		19.531250
4529		15.625000
4530		19.531250
4531		17.578125
4532		21.484375
4533		19.531250
4534		21.484375
4535		17.578125
4536		27.343750
4537		19.531250
4538		27.343750
4539		19.531250
4540		29.296875
4541		21.484375
4542		31.250000
4543		25.390625
4544		29.296875
4545		25.390625
4546		29.296875
4547		27.343750
4548		31.250000
4549		29.296875
4550		31.250000
4551		29.296875
4552		33.203125
4553		27.343750
4554		37.109375
4555		27.343750
4556		37.109375
4557		29.296875
4558		39.062500
4559		33.203125
4560		37.109375
4561		35.156250
4562		39.062500
4563		35.156250
4564		39.062500
4565		37.109375
4566		41.015625
4567		37.109375
4568		41.015625
4569		35.156250
4570		44.921875
4571		37.109375
4572		46.875000
4573		37.109375
4574		46.875000
4575		37.109375
4576		46.875000
4577		41.015625
4578		44.921875
4579		42.968750
4580		46.875000
4581		42.968750
4582		46.875000
4583		44.921875
4584		46.875000
4585		44.921875
4586		48.828125
4587		42.968750
4588		52.734375
4589		42.968750
4590		52.734375
4591		42.968750
4592		52.734375
4593		46.875000
4594		50.781250
4595		48.828125
4596		50.781250
4597		48.828125
4598		52.734375
4599		48.828125
4600		52.734375
4601		48.828125
4602		52.734375
4603		50.781250
4604		52.734375
4605		48.828125
4606		56.640625
4607		50.781250
4608		56.640625
4609		50.781250
4610		54.687500
4611		50.781250
4612		54.687500
4613		52.734375
4614		54.687500
4615		52.734375
4616		54.687500
4617		52.734375
4618		54.687500
4619		52.734375
4620		56.640625
4621		50.781250
4622		58.593750
4623		50.781250
4624		58.593750
4625		52.734375
4626		54.687500
4627		52.734375
4628		56.640625
4629		52.734375
4630		56.640625
4631		52.734375
4632		56.640625
4633		52.734375
4634		56.640625
4635		52.734375
4636		56.640625
4637		52.734375
4638		54.687500
4639		50.781250
4640		58.593750
4641		50.781250
4642		58.593750
4643		52.734375
4644		54.687500
4645		52.734375
4646		54.687500
4647		50.781250
4648		54.687500
4649		50.781250
4650		54.687500
4651		50.781250
4652		54.687500
4653		50.781250
4654		52.734375
4655		50.781250
4656		52.734375
4657		48.828125
4658		52.734375
4659		48.828125
4660		52.734375
4661		48.828125
4662		50.781250
4663		48.828125
4664		50.781250
4665		46.875000
4666		50.781250
4667		46.875000
4668		50.781250
4669		46.875000
4670		48.828125
4671		44.921875
4672		48.828125
4673		44.921875
4674		48.828125
4675		44.921875
4676		46.875000
4677		42.968750
4678		46.875000
4679		42.968750
4680		46.875000
4681		42.968750
4682		44.921875
4683		41.015625
4684		44.921875
4685		39.062500
4686		42.968750
4687		39.062500
4688		42.968750
4689		39.062500
4690		42.968750
4691		37.109375
4692		41.015625
4693		37.109375
4694		41.015625
4695		35.156250
4696		39.062500
4697		35.156250
4698		39.062500
4699		33.203125
4700		37.109375
4701		33.203125
4702		35.156250
4703		31.250000
4704		35.156250
4705		29.296875
4706		35.156250
4707		29.296875
4708		33.203125
4709		27.343750
4710		31.250000
4711		25.390625
4712		31.250000
4713		25.390625
4714		29.296875
4715		25.390625
4716		27.343750
4717		23.437500
4718		27.343750
4719		21.484375
4720		25.390625
4721		21.484375
4722		25.390625
4723		19.531250
4724		23.437500
4725		17.578125
4726		21.484375
4727		17.578125
4728		21.484375
4729		15.625000
4730		19.531250
4731		13.671875
4732		17.578125
4733		13.671875
4734		17.578125
4735		11.718750
4736		15.625000
4737		9.765625
4738		13.671875
4739		9.765625
4740		13.671875
4741		7.812500
4742		11.718750
4743		5.859375
4744		9.765625
4745		3.906250
4746		9.765625
4747		3.906250
4748		7.812500
4749		1.953125
4750		5.859375
4751		0.000000
4752		3.906250
4753		0.000000
4754		3.906250
4755		-1.953125
4756		3.906250
4757		-3.906250
4758		0.000000
4759		-3.906250
4760		-1.953125
4761		-5.859375
4762		-1.953125
4763		-7.812500
4764		-3.906250
4765		-9.765625
4766		-5.859375
4767		-9.765625
4768		-5.859375
4769		-11.718750
4770		-7.812500
4771		-13.671875
4772		-9.765625
4773		-13.671875
4774		-11.718750
4775		-15.625000
4776		-11.718750
4777		-17.578125
4778		-13.671875
4779		-19.531250
4780		-13.671875
4781		-19.531250
4782		-15.625000
4783		-21.484375
4784		-17.578125
4785		-21.484375
4786		-17.578125
4787		-23.437500
4788		-19.531250
4789		-25.390625
4790		-19.531250
4791		-25.390625
4792		-21.484375
4793		-27.343750
4794		-23.437500
4795		-29.296875
4796		-23.437500
4797		-29.296875
4798		-25.390625
4799		-31.250000
4800		-27.343750
4801		-31.250000
4802		-27.343750
4803		-33.203125
4804		-29.296875
4805		-33.203125
4806		-27.343750
4807		-35.156250
4808		-31.250000
4809		-35.156250
4810		-31.250000
4811		-37.109375
4812		-33.203125
4813		-37.109375
4814		-33.203125
4815		-39.062500
4816		-35.156250
4817		-39.062500
4818		-35.156250
4819		-39.062500
4820		-37.109375
4821		-42.968750
4822		-37.109375
4823		-42.968750
4824		-39.062500
4825		-42.968750
4826		-39.062500
4827		-42.968750
4828		-41.015625
4829		-44.921875
4830		-41.015625
4831		-44.921875
4832		-41.015625
4833		-44.921875
4834		-41.015625
4835		-44.921875
4836		-42.968750
4837		-46.875000
4838		-42.968750
4839		-48.828125
4840		-42.968750
4841		-48.828125
4842		-42.968750
4843		-46.875000
4844		-44.921875
4845		-48.828125
4846		-44.921875
4847		-48.828125
4848		-44.921875
4849		-48.828125
4850		-44.921875
4851		-48.828125
4852		-46.875000
4853		-48.828125
4854		-46.875000
4855		-50.781250
4856		-44.921875
4857		-48.828125
4858		-46.875000
4859		-50.781250
4860		-46.875000
4861		-50.781250
4862		-46.875000
4863		-50.781250
4864		-44.921875
4865		-48.828125
4866		-46.875000
4867		-48.828125
4868		-46.875000
4869		-48.828125
4870		-46.875000
4871		-50.781250
4872		-44.921875
4873		-50.781250
4874		-44.921875
4875		-48.828125
4876		-44.921875
4877		-48.828125
4878		-44.921875
4879		-48.828125
4880		-44.921875
4881		-48.828125
4882		-44.921875
4883		-46.875000
4884		-44.921875
4885		-46.875000
4886		-44.921875
4887		-46.875000
4888		-42.968750
4889		-46.875000
4890		-42.968750
4891		-44.921875
4892		-42.968750
4893		-44.921875
4894		-41.015625
4895		-44.921875
4896		-41.015625
4897		-44.921875
4898		-41.015625
4899		-42.968750
4900		-41.015625
4901		-42.968750
4902		-39.062500
4903		-41.015625
4904		-39.062500
4905		-41.015625
4906		-39.062500
4907		-41.015625
4908		-37.109375
4909		-39.062500
4910		-37.109375
4911		-39.062500
4912		-35.156250
4913		-39.062500
4914		-35.156250
4915		-37.109375
4916		-33.203125
4917		-37.109375
4918		-33.203125
4919		-35.156250
4920		-31.250000
4921		-33.203125
4922		-31.250000
4923		-33.203125
4924		-29.296875
4925		-31.250000
4926		-29.296875
4927		-31.250000
4928		-27.343750
4929		-29.296875
4930		-27.343750
4931		-29.296875
4932		-25.390625
4933		-27.343750
4934		-23.437500
4935		-25.390625
4936		-23.437500
4937		-25.390625
4938		-21.484375
4939		-23.437500
4940		-21.484375
4941		-23.437500
4942		-19.531250
4943		-21.484375
4944		-17.578125
4945		-19.531250
4946		-17.578125
4947		-19.531250
4948		-15.625000
4949		-17.578125
4950		-13.671875
4951		-17.578125
4952		-13.671875
4953		-15.625000
4954		-11.718750
4955		-13.671875
4956		-9.765625
4957		-13.671875
4958		-9.765625
4959		-11.718750
4960		-7.812500
4961		-9.765625
4962		-5.859375
4963		-7.812500
4964		-5.859375
4965		-7.812500
4966		-3.906250
4967		-5.859375
4968		-1.953125
4969		-3.906250
4970		-1.953125
4971		-3.906250
4972		0.000000
4973		-1.953125
4974		1.953125
4975		0.000000
4976		3.906250
4977		0.000000
4978		3.906250
4979		1.953125
4980		5.859375
4981		3.906250
4982		7.812500
4983		3.906250
4984		7.812500
4985		5.859375
4986		9.765625
4987		7.812500
4988		11.718750
4989		9.765625
4990		11.718750
4991		9.765625
4992		13.671875
4993		11.718750
4994		15.625000
4995		11.718750
4996		15.625000
4997		13.671875
4998		17.578125
4999		15.625000
5000		19.531250
5001		17.578125
5002		19.531250
5003		17.578125
5004		21.484375
5005		19.531250
5006		23.437500
5007		19.531250
5008		23.437500
5009		21.484375
5010		25.390625
5011		23.437500
5012		27.343750
5013		23.437500
5014		27.343750
5015		25.390625
5016		29.296875
5017		25.390625
5018		29.296875
5019		27.343750
5020		31.250000
5021		27.343750
5022		33.203125
5023		29.296875
5024		33.203125
5025		31.250000
5026		35.156250
5027		31.250000
5028		35.156250
5029		33.203125
5030		37.109375
5031		33.203125
5032		37.109375
5033		35.156250
5034		39.062500
5035		35.156250
5036		39.062500
5037		37.109375
5038		41.015625
5039		37.109375
5040		42.968750
5041		37.109375
5042		42.968750
5043		39.062500
5044		42.968750
5045		39.062500
5046		44.921875
5047		41.015625
5048		44.921875
5049		42.968750
5050		44.921875
5051		42.968750
5052		46.875000
5053		42.968750
5054		46.875000
5055		44.921875
5056		46.875000
5057		42.968750
5058		48.828125
5059		44.921875
5060		50.781250
5061		46.875000
5062		48.828125
5063		46.875000
5064		50.781250
5065		46.875000
5066		50.781250
5067		48.828125
5068		50.781250
5069		48.828125
5070		52.734375
5071		48.828125
5072		52.734375
5073		48.828125
5074		54.687500
5075		48.828125
5076		54.687500
5077		50.781250
5078		52.734375
5079		50.781250
5080		54.687500
5081		50.781250
5082		54.687500
5083		50.781250
5084		54.687500
5085		50.781250
5086		54.687500
5087		52.734375
5088		54.687500
5089		52.734375
5090		54.687500
5091		48.828125
5092		56.640625
5093		50.781250
5094		56.640625
5095		52.734375
5096		54.687500
5097		52.734375
5098		56.640625
5099		52.734375
5100		54.687500
5101		52.734375
5102		56.640625
5103		52.734375
5104		56.640625
5105		52.734375
5106		56.640625
5107		50.781250
5108		56.640625
5109		50.781250
5110		56.640625
5111		52.734375
5112		54.687500
5113		52.734375
5114		54.687500
5115		50.781250
5116		54.687500
5117		50.781250
5118		54.687500
5119		50.781250
5120		54.687500
5121		50.781250
5122		54.687500
5123		48.828125
5124		54.687500
5125		48.828125
5126		54.687500
5127		48.828125
5128		54.687500
5129		48.828125
5130		52.734375
5131		48.828125
5132		52.734375
5133		48.828125
5134		50.781250
5135		46.875000
5136		50.781250
5137		46.875000
5138		50.781250
5139		46.875000
5140		50.781250
5141		44.921875
5142		50.781250
5143		44.921875
5144		50.781250
5145		44.921875
5146		48.828125
5147		44.921875
5148		46.875000
5149		42.968750
5150		46.875000
5151		42.968750
5152		46.875000
5153		41.015625
5154		44.921875
5155		41.015625
5156		44.921875
5157		37.109375
5158		44.921875
5159		37.109375
5160		42.968750
5161		37.109375
5162		41.015625
5163		37.109375
5164		41.015625
5165		37.109375
5166		39.062500
5167		35.156250
5168		39.062500
5169		33.203125
5170		37.109375
5171		33.203125
5172		37.109375
5173		33.203125
5174		35.156250
5175		29.296875
5176		37.109375
5177		29.296875
5178		35.156250
5179		29.296875
5180		33.203125
5181		27.343750
5182		31.250000
5183		25.390625
5184		29.296875
5185		25.390625
5186		29.296875
5187		23.437500
5188		27.343750
5189		23.437500
5190		27.343750
5191		19.531250
5192		27.343750
5193		19.531250
5194		25.390625
5195		19.531250
5196		23.437500
5197		17.578125
5198		21.484375
5199		15.625000
5200		19.531250
5201		15.625000
5202		19.531250
5203		13.671875
5204		17.578125
5205		11.718750
5206		15.625000
5207		9.765625
5208		15.625000
5209		7.812500
5210		15.625000
5211		7.812500
5212		13.671875
5213		5.859375
5214		11.718750
5215		5.859375
5216		9.765625
5217		3.906250
5218		7.812500
5219		1.953125
5220		5.859375
5221		1.953125
5222		5.859375
5223		0.000000
5224		3.906250
5225		-1.953125
5226		3.906250
5227		-1.953125
5228		1.953125
5229		-3.906250
5230		0.000000
5231		-5.859375
5232		-1.953125
5233		-7.812500
5234		-3.906250
5235		-7.812500
5236		-3.906250
5237		-9.765625
5238		-5.859375
5239		-11.718750
5240		-7.812500
5241		-13.671875
5242		-7.812500
5243		-13.671875
5244		-9.765625
5245		-15.625000
5246		-11.718750
5247		-15.625000
5248		-13.671875
5249		-17.578125
5250		-13.671875
5251		-19.531250
5252		-15.625000
5253		-19.531250
5254		-17.578125
5255		-21.484375
5256		-17.578125
5257		-23.437500
5258		-19.531250
5259		-23.437500
5260		-19.531250
5261		-25.390625
5262		-21.484375
5263		-25.390625
5264		-23.437500
5265		-27.343750
5266		-23.437500
5267		-29.296875
5268		-25.390625
5269		-29.296875
5270		-27.343750
5271		-31.250000
5272		-27.343750
5273		-31.250000
5274		-29.296875
5275		-33.203125
5276		-29.296875
5277		-35.156250
5278		-31.250000
5279		-35.156250
5280		-31.250000
5281		-37.109375
5282		-33.203125
5283		-37.109375
5284		-33.203125
5285		-39.062500
5286		-35.156250
5287		-39.062500
5288		-35.156250
5289		-39.062500
5290		-37.109375
5291		-41.015625
5292		-37.109375
5293		-41.015625
5294		-39.062500
5295		-42.968750
5296		-39.062500
5297		-42.968750
5298		-39.062500
5299		-44.921875
5300		-41.015625
5301		-44.921875
5302		-41.015625
5303		-44.921875
5304		-41.015625
5305		-44.921875
5306		-42.968750
5307		-46.875000
5308		-42.968750
5309		-46.875000
5310		-42.968750
5311		-46.875000
5312		-44.921875
5313		-46.875000
5314		-44.921875
5315		-48.828125
5316		-44.921875
5317		-48.828125
5318		-44.921875
5319		-48.828125
5320		-44.921875
5321		-48.828125
5322		-46.875000
5323		-48.828125
5324		-46.875000
5325		-48.828125
5326		-46.875000
5327		-48.828125
5328		-46.875000
5329		-50.781250
5330		-46.875000
5331		-50.781250
5332		-46.875000
5333		-50.781250
5334		-46.875000
5335		-50.781250
5336		-46.875000
5337		-50.781250
5338		-46.875000
5339		-50.781250
5340		-46.875000
5341		-50.781250
5342		-46.875000
5343		-48.828125
5344		-46.875000
5345		-48.828125
5346		-46.875000
5347		-48.828125
5348		-44.921875
5349		-48.828125
5350		-46.875000
5351		-48.828125
5352		-44.921875
5353		-48.828125
5354		-44.921875
5355		-48.828125
5356		-44.921875
5357		-46.875000
5358		-44.921875
5359		-46.875000
5360		-44.921875
5361		-46.875000
5362		-42.968750
5363		-46.875000
5364		-42.968750
5365		-44.921875
5366		-42.968750
5367		-44.921875
5368		-41.015625
5369		-44.921875
5370		-41.015625
5371		-42.968750
5372		-41.015625
5373		-42.968750
5374		-39.062500
5375		-42.968750
5376		-39.062500
5377		-41.015625
5378		-39.062500
5379		-41.015625
5380		-37.109375
5381		-41.015625
5382		-37.109375
5383		-39.062500
5384		-35.156250
5385		-37.109375
5386		-35.156250
5387		-37.109375
5388		-33.203125
5389		-37.109375
5390		-33.203125
5391		-35.156250
5392		-31.250000
5393		-33.203125
5394		-31.250000
5395		-33.203125
5396		-29.296875
5397		-33.203125
5398		-27.343750
5399		-31.250000
5400		-27.343750
5401		-29.296875
5402		-25.390625
5403		-29.296875
5404		-25.390625
5405		-27.343750
5406		-23.437500
5407		-27.343750
5408		-23.437500
5409		-25.390625
5410		-21.484375
5411		-23.437500
5412		-21.484375
5413		-23.437500
5414		-19.531250
5415		-21.484375
5416		-17.578125
5417		-19.531250
5418		-17.578125
5419		-19.531250
5420		-15.625000
5421		-17.578125
5422		-13.671875
5423		-17.578125
5424		-13.671875
5425		-15.625000
5426		-11.718750
5427		-13.671875
5428		-9.765625
5429		-11.718750
5430		-9.765625
5431		-11.718750
5432		-7.812500
5433		-9.765625
5434		-5.859375
5435		-9.765625
5436		-5.859375
5437		-7.812500
5438		-3.906250
5439		-5.859375
5440		-1.953125
5441		-3.906250
5442		0.000000
5443		-3.906250
5444		0.000000
5445		-1.953125
5446		1.953125
5447		0.000000
5448		3.906250
5449		0.000000
5450		5.859375
5451		1.953125
5452		5.859375
5453		3.906250
5454		7.812500
5455		5.859375
5456		7.812500
5457		5.859375
5458		9.765625
5459		7.812500
5460		11.718750
5461		9.765625
5462		11.718750
5463		9.765625
5464		13.671875
5465		11.718750
5466		15.625000
5467		13.671875
5468		17.578125
5469		13.671875
5470		17.578125
5471		15.625000
5472		19.531250
5473		17.578125
5474		19.531250
5475		17.578125
5476		21.484375
5477		19.531250
5478		23.437500
5479		19.531250
5480		23.437500
5481		21.484375
5482		25.390625
5483		23.437500
5484		27.343750
5485		23.437500
5486		27.343750
5487		25.390625
5488		29.296875
5489		25.390625
5490		29.296875
5491		27.343750
5492		31.250000
5493		29.296875
5494		33.203125
5495		29.296875
5496		33.203125
5497		31.250000
5498		35.156250
5499		31.250000
5500		35.156250
5501		33.203125
5502		37.109375
5503		33.203125
5504		37.109375
5505		35.156250
5506		39.062500
5507		35.156250
5508		39.062500
5509		37.109375
5510		41.015625
5511		37.109375
5512		41.015625
5513		39.062500
5514		42.968750
5515		39.062500
5516		42.968750
5517		41.015625
5518		42.968750
5519		41.015625
5520		44.921875
5521		41.015625
5522		44.921875
5523		42.968750
5524		46.875000
5525		42.968750
5526		46.875000
5527		44.921875
5528		46.875000
5529		44.921875
5530		48.828125
5531		44.921875
5532		48.828125
5533		46.875000
5534		48.828125
5535		46.875000
5536		50.781250
5537		46.875000
5538		50.781250
5539		48.828125
5540		50.781250
5541		48.828125
5542		50.781250
5543		48.828125
5544		52.734375
5545		48.828125
5546		52.734375
5547		50.781250
5548		52.734375
5549		50.781250
5550		52.734375
5551		50.781250
5552		54.687500
5553		50.781250
5554		54.687500
5555		50.781250
5556		54.687500
5557		50.781250
5558		54.687500
5559		50.781250
5560		54.687500
5561		50.781250
5562		54.687500
5563		52.734375
5564		54.687500
5565		52.734375
5566		54.687500
5567		52.734375
5568		54.687500
5569		52.734375
5570		54.687500
5571		52.734375
5572		54.687500
5573		52.734375
5574		54.687500
5575		52.734375
5576		54.687500
5577		52.734375
5578		54.687500
5579		52.734375
5580		54.687500
5581		52.734375
5582		54.687500
5583		52.734375
5584		54.687500
5585		52.734375
5586		54.687500
5587		50.781250
5588		54.687500
5589		50.781250
5590		54.687500
5591		50.781250
5592		54.687500
5593		50.781250
5594		54.687500
5595		48.828125
5596		54.687500
5597		48.828125
5598		52.734375
5599		48.828125
5600		52.734375
5601		48.828125
5602		52.734375
5603		48.828125
5604		52.734375
5605		46.875000
5606		50.781250
5607		46.875000
5608		50.781250
5609		46.875000
5610		50.781250
5611		46.875000
5612		48.828125
5613		44.921875
5614		48.828125
5615		44.921875
5616		48.828125
5617		42.968750
5618		46.875000
5619		42.968750
5620		46.875000
5621		42.968750
5622		46.875000
5623		41.015625
5624		44.921875
5625		41.015625
5626		44.921875
5627		41.015625
5628		42.968750
5629		39.062500
5630		42.968750
5631		39.062500
5632		41.015625
5633		37.109375
5634		41.015625
5635		37.109375
5636		39.062500
5637		35.156250
5638		39.062500
5639		35.156250
5640		39.062500
5641		33.203125
5642		37.109375
5643		33.203125
5644		37.109375
5645		31.250000
5646		35.156250
5647		29.296875
5648		33.203125
5649		29.296875
5650		33.203125
5651		27.343750
5652		31.250000
5653		27.343750
5654		31.250000
5655		25.390625
5656		29.296875
5657		25.390625
5658		29.296875
5659		23.437500
5660		27.343750
5661		21.484375
5662		25.390625
5663		21.484375
5664		25.390625
5665		19.531250
5666		23.437500
5667		17.578125
5668		21.484375
5669		17.578125
5670		21.484375
5671		15.625000
5672		19.531250
5673		13.671875
5674		17.578125
5675		11.718750
5676		17.578125
5677		11.718750
5678		15.625000
5679		9.765625
5680		15.625000
5681		9.765625
5682		13.671875
5683		7.812500
5684		11.718750
5685		5.859375
5686		9.765625
5687		5.859375
5688		7.812500
5689		3.906250
5690		7.812500
5691		1.953125
5692		5.859375
5693		1.953125
5694		3.906250
5695		0.000000
5696		3.906250
5697		-1.953125
5698		1.953125
5699		-3.906250
5700		0.000000
5701		-3.906250
5702		0.000000
5703		-5.859375
5704		-1.953125
5705		-7.812500
5706		-3.906250
5707		-7.812500
5708		-5.859375
5709		-9.765625
5710		-5.859375
5711		-11.718750
5712		-7.812500
5713		-13.671875
5714		-9.765625
5715		-13.671875
5716		-9.765625
5717		-15.625000
5718		-11.718750
5719		-17.578125
5720		-13.671875
5721		-17.578125
5722		-15.625000
5723		-19.531250
5724		-15.625000
5725		-19.531250
5726		-17.578125
5727		-21.484375
5728		-19.531250
5729		-23.437500
5730		-19.531250
5731		-25.390625
5732		-21.484375
5733		-25.390625
5734		-21.484375
5735		-27.343750
5736		-23.437500
5737		-27.343750
5738		-25.390625
5739		-29.296875
5740		-25.390625
5741		-31.250000
5742		-27.343750
5743		-31.250000
5744		-27.343750
5745		-33.203125
5746		-29.296875
5747		-33.203125
5748		-29.296875
5749		-35.156250
5750		-31.250000
5751		-35.156250
5752		-31.250000
5753		-37.109375
5754		-33.203125
5755		-37.109375
5756		-33.203125
5757		-39.062500
5758		-35.156250
5759		-39.062500
5760		-35.156250
5761		-41.015625
5762		-37.109375
5763		-41.015625
5764		-37.109375
5765		-42.968750
5766		-39.062500
5767		-42.968750
5768		-39.062500
5769		-42.968750
5770		-39.062500
5771		-44.921875
5772		-41.015625
5773		-44.921875
5774		-41.015625
5775		-44.921875
5776		-42.968750
5777		-44.921875
5778		-42.968750
5779		-46.875000
5780		-42.968750
5781		-46.875000
5782		-44.921875
5783		-46.875000
5784		-44.921875
5785		-48.828125
5786		-44.921875
5787		-48.828125
5788		-44.921875
5789		-48.828125
5790		-44.921875
5791		-48.828125
5792		-44.921875
5793		-48.828125
5794		-46.875000
5795		-48.828125
5796		-46.875000
5797		-50.781250
5798		-46.875000
5799		-50.781250
5800		-46.875000
5801		-50.781250
5802		-46.875000
5803		-50.781250
5804		-46.875000
5805		-50.781250
5806		-46.875000
5807		-50.781250
5808		-46.875000
5809		-50.781250
5810		-46.875000
5811		-50.781250
5812		-46.875000
5813		-50.781250
5814		-46.875000
5815		-50.781250
5816		-46.875000
5817		-48.828125
5818		-46.875000
5819		-48.828125
5820		-46.875000
5821		-48.828125
5822		-46.875000
5823		-48.828125
5824		-44.921875
5825		-48.828125
5826		-44.921875
5827		-48.828125
5828		-44.921875
5829		-46.875000
5830		-44.921875
5831		-46.875000
5832		-44.921875
5833		-46.875000
5834		-42.968750
5835		-46.875000
5836		-42.968750
5837		-46.875000
5838		-42.968750
5839		-44.921875
5840		-41.015625
5841		-44.921875
5842		-41.015625
5843		-44.921875
5844		-41.015625
5845		-42.968750
5846		-39.062500
5847		-42.968750
5848		-39.062500
5849		-41.015625
5850		-39.062500
5851		-41.015625
5852		-37.109375
5853		-39.062500
5854		-35.156250
5855		-39.062500
5856		-35.156250
5857		-37.109375
5858		-35.156250
5859		-37.109375
5860		-33.203125
5861		-37.109375
5862		-33.203125
5863		-35.156250
5864		-31.250000
5865		-33.203125
5866		-31.250000
5867		-33.203125
5868		-29.296875
5869		-33.203125
5870		-29.296875
5871		-31.250000
5872		-27.343750
5873		-29.296875
5874		-27.343750
5875		-29.296875
5876		-25.390625
5877		-29.296875
5878		-23.437500
5879		-25.390625
5880		-23.437500
5881		-25.390625
5882		-21.484375
5883		-23.437500
5884		-19.531250
5885		-23.437500
5886		-19.531250
5887		-21.484375
5888		-17.578125
5889		-19.531250
5890		-17.578125
5891		-19.531250
5892		-15.625000
5893		-17.578125
5894		-13.671875
5895		-15.625000
5896		-13.671875
5897		-15.625000
5898		-11.718750
5899		-13.671875
5900		-9.765625
5901		-11.718750
5902		-9.765625
5903		-11.718750
5904		-7.812500
5905		-9.765625
5906		-5.859375
5907		-7.812500
5908		-3.906250
5909		-7.812500
5910		-3.906250
5911		-5.859375
5912		-1.953125
5913		-3.906250
5914		0.000000
5915		-3.906250
5916		1.953125
5917		-1.953125
5918		1.953125
5919		0.000000
5920		3.906250
5921		0.000000
5922		5.859375
5923		1.953125
5924		5.859375
5925		3.906250
5926		7.812500
5927		5.859375
5928		9.765625
5929		5.859375
5930		9.765625
5931		7.812500
5932		11.718750
5933		9.765625
5934		13.671875
5935		9.765625
5936		13.671875
5937		11.718750
5938		15.625000
5939		13.671875
5940		17.578125
5941		13.671875
5942		17.578125
5943		15.625000
5944		19.531250
5945		17.578125
5946		21.484375
5947		17.578125
5948		21.484375
5949		19.531250
5950		23.437500
5951		19.531250
5952		23.437500
5953		21.484375
5954		25.390625
5955		23.437500
5956		27.343750
5957		23.437500
5958		27.343750
5959		25.390625
5960		29.296875
5961		27.343750
5962		31.250000
5963		27.343750
5964		31.250000
5965		29.296875
5966		33.203125
5967		29.296875
5968		33.203125
5969		31.250000
5970		35.156250
5971		31.250000
5972		35.156250
5973		33.203125
5974		37.109375
5975		33.203125
5976		37.109375
5977		35.156250
5978		39.062500
5979		35.156250
5980		39.062500
5981		37.109375
5982		41.015625
5983		37.109375
5984		41.015625
5985		39.062500
5986		42.968750
5987		39.062500
5988		42.968750
5989		41.015625
5990		42.968750
5991		41.015625
5992		44.921875
5993		42.968750
5994		44.921875
5995		42.968750
5996		46.875000
5997		42.968750
5998		46.875000
5999		44.921875
6000		46.875000
6001		44.921875
6002		48.828125
6003		44.921875
6004		48.828125
6005		46.875000
6006		48.828125
6007		46.875000
6008		50.781250
6009		46.875000
6010		50.781250
6011		48.828125
6012		50.781250
6013		48.828125
6014		50.781250
6015		48.828125
6016		52.734375
6017		48.828125
6018		52.734375
6019		48.828125
6020		52.734375
6021		50.781250
6022		52.734375
6023		50.781250
6024		54.687500
6025		50.781250
6026		54.687500
6027		50.781250
6028		54.687500
6029		50.781250
6030		54.687500
6031		52.734375
6032		54.687500
6033		52.734375
6034		54.687500
6035		52.734375
6036		54.687500
6037		52.734375
6038		54.687500
6039		52.734375
6040		54.687500
6041		52.734375
6042		54.687500
6043		52.734375
6044		54.687500
6045		52.734375
6046		54.687500
6047		52.734375
6048		54.687500
6049		52.734375
6050		54.687500
6051		52.734375
6052		54.687500
6053		52.734375
6054		54.687500
6055		52.734375
6056		54.687500
6057		52.734375
6058		54.687500
6059		50.781250
6060		54.687500
6061		50.781250
6062		54.687500
6063		50.781250
6064		54.687500
6065		48.828125
6066		54.687500
6067		50.781250
6068		52.734375
6069		48.828125
6070		54.687500
6071		48.828125
6072		52.734375
6073		46.875000
6074		54.687500
6075		48.828125
6076		50.781250
6077		46.875000
6078		50.781250
6079		46.875000
6080		50.781250
6081		46.875000
6082		50.781250
6083		44.921875
6084		48.828125
6085		42.968750
6086		48.828125
6087		44.921875
6088		48.828125
6089		42.968750
6090		46.875000
6091		42.968750
6092		48.828125
6093		41.015625
6094		48.828125
6095		41.015625
6096		44.921875
6097		41.015625
6098		44.921875
6099		39.062500
6100		42.968750
6101		39.062500
6102		42.968750
6103		37.109375
6104		41.015625
6105		37.109375
6106		41.015625
6107		35.156250
6108		41.015625
6109		35.156250
6110		39.062500
6111		33.203125
6112		41.015625
6113		33.203125
6114		37.109375
6115		33.203125
6116		35.156250
6117		29.296875
6118		37.109375
6119		29.296875
6120		33.203125
6121		29.296875
6122		33.203125
6123		27.343750
6124		31.250000
6125		25.390625
6126		31.250000
6127		25.390625
6128		29.296875
6129		23.437500
6130		27.343750
6131		23.437500
6132		27.343750
6133		21.484375
6134		25.390625
6135		17.578125
6136		27.343750
6137		17.578125
6138		23.437500
6139		17.578125
6140		21.484375
6141		15.625000
6142		21.484375
6143		15.625000
6144		19.531250
6145		13.671875
6146		19.531250
6147		11.718750
6148		15.625000
6149		9.765625
6150		15.625000
6151		7.812500
6152		13.671875
6153		7.812500
6154		13.671875
6155		5.859375
6156		11.718750
6157		3.906250
6158		9.765625
6159		1.953125
6160		11.718750
6161		0.000000
6162		9.765625
6163		1.953125
6164		5.859375
6165		0.000000
6166		3.906250
6167		-3.906250
6168		3.906250
6169		-1.953125
6170		3.906250
6171		-3.906250
6172		1.953125
6173		-5.859375
6174		-1.953125
6175		-9.765625
6176		0.000000
6177		-9.765625
6178		-1.953125
6179		-9.765625
6180		-3.906250
6181		-9.765625
6182		-7.812500
6183		-13.671875
6184		-7.812500
6185		-17.578125
6186		-7.812500
6187		-13.671875
6188		-9.765625
6189		-15.625000
6190		-11.718750
6191		-21.484375
6192		-11.718750
6193		-19.531250
6194		-11.718750
6195		-21.484375
6196		-13.671875
6197		-21.484375
6198		-17.578125
6199		-21.484375
6200		-19.531250
6201		-25.390625
6202		-17.578125
6203		-27.343750
6204		-19.531250
6205		-25.390625
6206		-23.437500
6207		-27.343750
6208		-23.437500
6209		-31.250000
6210		-21.484375
6211		-31.250000
6212		-23.437500
6213		-31.250000
6214		-27.343750
6215		-31.250000
6216		-29.296875
6217		-33.203125
6218		-27.343750
6219		-37.109375
6220		-27.343750
6221		-35.156250
6222		-31.250000
6223		-37.109375
6224		-33.203125
6225		-41.015625
6226		-31.250000
6227		-41.015625
6228		-31.250000
6229		-41.015625
6230		-33.203125
6231		-39.062500
6232		-37.109375
6233		-42.968750
6234		-37.109375
6235		-44.921875
6236		-35.156250
6237		-42.968750
6238		-37.109375
6239		-42.968750
6240		-39.062500
6241		-44.921875
6242		-41.015625
6243		-46.875000
6244		-37.109375
6245		-46.875000
6246		-39.062500
6247		-46.875000
6248		-42.968750
6249		-46.875000
6250		-42.968750
6251		-48.828125
6252		-41.015625
6253		-50.781250
6254		-41.015625
6255		-48.828125
6256		-42.968750
6257		-48.828125
6258		-44.921875
6259		-50.781250
6260		-42.968750
6261		-48.828125
6262		-44.921875
6263		-50.781250
6264		-41.015625
6265		-48.828125
6266		-46.875000
6267		-50.781250
6268		-44.921875
6269		-52.734375
6270		-44.921875
6271		-52.734375
6272		-46.875000
6273		-50.781250
6274		-46.875000
6275		-52.734375
6276		-44.921875
6277		-52.734375
6278		-44.921875
6279		-52.734375
6280		-46.875000
6281		-50.781250
6282		-46.875000
6283		-50.781250
6284		-46.875000
6285		-50.781250
6286		-44.921875
6287		-52.734375
6288		-42.968750
6289		-50.781250
6290		-46.875000
6291		-50.781250
6292		-44.921875
6293		-52.734375
6294		-42.968750
6295		-50.781250
6296		-42.968750
6297		-48.828125
6298		-44.921875
6299		-48.828125
6300		-44.921875
6301		-48.828125
6302		-42.968750
6303		-48.828125
6304		-41.015625
6305		-48.828125
6306		-42.968750
6307		-46.875000
6308		-42.968750
6309		-48.828125
6310		-39.062500
6311		-46.875000
6312		-39.062500
6313		-46.875000
6314		-39.062500
6315		-42.968750
6316		-41.015625
6317		-42.968750
6318		-39.062500
6319		-42.968750
6320		-39.062500
6321		-42.968750
6322		-35.156250
6323		-41.015625
6324		-37.109375
6325		-39.062500
6326		-35.156250
6327		-42.968750
6328		-31.250000
6329		-39.062500
6330		-31.250000
6331		-37.109375
6332		-33.203125
6333		-35.156250
6334		-33.203125
6335		-35.156250
6336		-29.296875
6337		-37.109375
6338		-27.343750
6339		-35.156250
6340		-29.296875
6341		-31.250000
6342		-27.343750
6343		-31.250000
6344		-27.343750
6345		-29.296875
6346		-25.390625
6347		-33.203125
6348		-23.437500
6349		-27.343750
6350		-23.437500
6351		-25.390625
6352		-23.437500
6353		-27.343750
6354		-19.531250
6355		-25.390625
6356		-19.531250
6357		-23.437500
6358		-19.531250
6359		-23.437500
6360		-15.625000
6361		-19.531250
6362		-15.625000
6363		-19.531250
6364		-15.625000
6365		-17.578125
6366		-13.671875
6367		-15.625000
6368		-11.718750
6369		-15.625000
6370		-11.718750
6371		-13.671875
6372		-7.812500
6373		-13.671875
6374		-7.812500
6375		-11.718750
6376		-5.859375
6377		-11.718750
6378		-5.859375
6379		-7.812500
6380		-3.906250
6381		-7.812500
6382		-3.906250
6383		-5.859375
6384		-1.953125
6385		-3.906250
6386		0.000000
6387		-1.953125
6388		1.953125
6389		-1.953125
6390		1.953125
6391		0.000000
6392		3.906250
6393		1.953125
6394		5.859375
6395		1.953125
6396		5.859375
6397		3.906250
6398		7.812500
6399		5.859375
6400		9.765625
6401		5.859375
6402		9.765625
6403		7.812500
6404		11.718750
6405		9.765625
6406		13.671875
6407		9.765625
6408		13.671875
6409		11.718750
6410		15.625000
6411		13.671875
6412		17.578125
6413		15.625000
6414		19.531250
6415		15.625000
6416		19.531250
6417		17.578125
6418		21.484375
6419		17.578125
6420		23.437500
6421		19.531250
6422		23.437500
6423		19.531250
6424		25.390625
6425		21.484375
6426		25.390625
6427		23.437500
6428		27.343750
6429		23.437500
6430		29.296875
6431		23.437500
6432		29.296875
6433		27.343750
6434		29.296875
6435		27.343750
6436		33.203125
6437		27.343750
6438		33.203125
6439		29.296875
6440		35.156250
6441		29.296875
6442		35.156250
6443		31.250000
6444		37.109375
6445		31.250000
6446		37.109375
6447		33.203125
6448		39.062500
6449		35.156250
6450		39.062500
6451		35.156250
6452		39.062500
6453		35.156250
6454		41.015625
6455		37.109375
6456		42.968750
6457		37.109375
6458		42.968750
6459		37.109375
6460		44.921875
6461		39.062500
6462		44.921875
6463		41.015625
6464		44.921875
6465		41.015625
6466		44.921875
6467		42.968750
6468		46.875000
6469		42.968750
6470		48.828125
6471		42.968750
6472		48.828125
6473		42.968750
6474		48.828125
6475		44.921875
6476		50.781250
6477		44.921875
6478		50.781250
6479		46.875000
6480		50.781250
6481		44.921875
6482		50.781250
6483		46.875000
6484		50.781250
6485		48.828125
6486		52.734375
6487		48.828125
6488		52.734375
6489		48.828125
6490		52.734375
6491		46.875000
6492		54.687500
6493		48.828125
6494		52.734375
6495		48.828125
6496		54.687500
6497		50.781250
6498		54.687500
6499		50.781250
6500		54.687500
6501		50.781250
6502		54.687500
6503		50.781250
6504		54.687500
6505		50.781250
6506		54.687500
6507		50.781250
6508		54.687500
6509		50.781250
6510		54.687500
6511		50.781250
6512		56.640625
6513		52.734375
6514		54.687500
6515		50.781250
6516		54.687500
6517		52.734375
6518		54.687500
6519		50.781250
6520		54.687500
6521		50.781250
6522		56.640625
6523		50.781250
6524		54.687500
6525		48.828125
6526		56.640625
6527		50.781250
6528		54.687500
6529		50.781250
6530		54.687500
6531		50.781250
6532		54.687500
6533		50.781250
6534		52.734375
6535		50.781250
6536		52.734375
6537		48.828125
6538		52.734375
6539		48.828125
6540		52.734375
6541		48.828125
6542		52.734375
6543		46.875000
6544		52.734375
6545		46.875000
6546		50.781250
6547		46.875000
6548		50.781250
6549		46.875000
6550		50.781250
6551		46.875000
6552		48.828125
6553		44.921875
6554		48.828125
6555		44.921875
6556		48.828125
6557		44.921875
6558		48.828125
6559		42.968750
6560		48.828125
6561		42.968750
6562		46.875000
6563		41.015625
6564		46.875000
6565		41.015625
6566		44.921875
6567		41.015625
6568		44.921875
6569		39.062500
6570		42.968750
6571		39.062500
6572		42.968750
6573		39.062500
6574		41.015625
6575		35.156250
6576		41.015625
6577		35.156250
6578		41.015625
6579		35.156250
6580		39.062500
6581		33.203125
6582		39.062500
6583		33.203125
6584		37.109375
6585		31.250000
6586		37.109375
6587		31.250000
6588		35.156250
6589		29.296875
6590		33.203125
6591		29.296875
6592		33.203125
6593		25.390625
6594		33.203125
6595		27.343750
6596		31.250000
6597		23.437500
6598		29.296875
6599		25.390625
6600		29.296875
6601		23.437500
6602		27.343750
6603		21.484375
6604		25.390625
6605		21.484375
6606		25.390625
6607		17.578125
6608		23.437500
6609		17.578125
6610		21.484375
6611		15.625000
6612		19.531250
6613		15.625000
6614		19.531250
6615		13.671875
6616		17.578125
6617		13.671875
6618		17.578125
6619		11.718750
6620		15.625000
6621		9.765625
6622		13.671875
6623		7.812500
6624		13.671875
6625		7.812500
6626		11.718750
6627		5.859375
6628		11.718750
6629		3.906250
6630		9.765625
6631		1.953125
6632		7.812500
6633		1.953125
6634		5.859375
6635		0.000000
6636		3.906250
6637		-1.953125
6638		3.906250
6639		-1.953125
6640		1.953125
6641		-3.906250
6642		0.000000
6643		-5.859375
6644		0.000000
6645		-5.859375
6646		-1.953125
6647		-7.812500
6648		-3.906250
6649		-9.765625
6650		-3.906250
6651		-9.765625
6652		-7.812500
6653		-11.718750
6654		-7.812500
6655		-13.671875
6656		-9.765625
6657		-15.625000
6658		-11.718750
6659		-17.578125
6660		-11.718750
6661		-17.578125
6662		-13.671875
6663		-19.531250
6664		-15.625000
6665		-19.531250
6666		-15.625000
6667		-21.484375
6668		-17.578125
6669		-23.437500
6670		-19.531250
6671		-25.390625
6672		-19.531250
6673		-25.390625
6674		-21.484375
6675		-27.343750
6676		-23.437500
6677		-27.343750
6678		-23.437500
6679		-29.296875
6680		-25.390625
6681		-29.296875
6682		-25.390625
6683		-31.250000
6684		-27.343750
6685		-31.250000
6686		-29.296875
6687		-35.156250
6688		-29.296875
6689		-35.156250
6690		-29.296875
6691		-35.156250
6692		-31.250000
6693		-37.109375
6694		-33.203125
6695		-37.109375
6696		-33.203125
6697		-39.062500
6698		-35.156250
6699		-39.062500
6700		-35.156250
6701		-41.015625
6702		-37.109375
6703		-41.015625
6704		-37.109375
6705		-42.968750
6706		-37.109375
6707		-42.968750
6708		-39.062500
6709		-42.968750
6710		-39.062500
6711		-44.921875
6712		-41.015625
6713		-44.921875
6714		-41.015625
6715		-46.875000
6716		-42.968750
6717		-46.875000
6718		-41.015625
6719		-46.875000
6720		-42.968750
6721		-48.828125
6722		-42.968750
6723		-48.828125
6724		-44.921875
6725		-48.828125
6726		-44.921875
6727		-48.828125
6728		-44.921875
6729		-48.828125
6730		-46.875000
6731		-50.781250
6732		-46.875000
6733		-50.781250
6734		-46.875000
6735		-50.781250
6736		-46.875000
6737		-50.781250
6738		-46.875000
6739		-50.781250
6740		-46.875000
6741		-50.781250
6742		-46.875000
6743		-52.734375
6744		-46.875000
6745		-50.781250
6746		-48.828125
6747		-52.734375
6748		-48.828125
6749		-50.781250
6750		-48.828125
6751		-50.781250
6752		-48.828125
6753		-50.781250
6754		-48.828125
6755		-52.734375
6756		-46.875000
6757		-52.734375
6758		-46.875000
6759		-52.734375
6760		-46.875000
6761		-50.781250
6762		-46.875000
6763		-50.781250
6764		-46.875000
6765		-50.781250
6766		-46.875000
6767		-50.781250
6768		-44.921875
6769		-48.828125
6770		-46.875000
6771		-48.828125
6772		-44.921875
6773		-48.828125
6774		-44.921875
6775		-48.828125
6776		-44.921875
6777		-46.875000
6778		-44.921875
6779		-48.828125
6780		-42.968750
6781		-46.875000
6782		-42.968750
6783		-46.875000
6784		-41.015625
6785		-44.921875
6786		-42.968750
6787		-44.921875
6788		-41.015625
6789		-44.921875
6790		-41.015625
6791		-42.968750
6792		-39.062500
6793		-42.968750
6794		-39.062500
6795		-41.015625
6796		-39.062500
6797		-41.015625
6798		-37.109375
6799		-39.062500
6800		-35.156250
6801		-41.015625
6802		-35.156250
6803		-37.109375
6804		-33.203125
6805		-37.109375
6806		-33.203125
6807		-37.109375
6808		-31.250000
6809		-35.156250
6810		-31.250000
6811		-35.156250
6812		-29.296875
6813		-33.203125
6814		-29.296875
6815		-31.250000
6816		-27.343750
6817		-31.250000
6818		-27.343750
6819		-29.296875
6820		-25.390625
6821		-29.296875
6822		-25.390625
6823		-27.343750
6824		-23.437500
6825		-27.343750
6826		-21.484375
6827		-25.390625
6828		-21.484375
6829		-23.437500
6830		-19.531250
6831		-23.437500
6832		-17.578125
6833		-21.484375
6834		-17.578125
6835		-19.531250
6836		-15.625000
6837		-17.578125
6838		-15.625000
6839		-17.578125
6840		-13.671875
6841		-15.625000
6842		-11.718750
6843		-13.671875
6844		-9.765625
6845		-13.671875
6846		-9.765625
6847		-11.718750
6848		-7.812500
6849		-9.765625
6850		-5.859375
6851		-9.765625
6852		-3.906250
6853		-7.812500
6854		-3.906250
6855		-5.859375
6856		-1.953125
6857		-5.859375
6858		0.000000
6859		-3.906250
6860		0.000000
6861		-1.953125
6862		1.953125
6863		-1.953125
6864		1.953125
6865		0.000000
6866		3.906250
6867		1.953125
6868		5.859375
6869		3.906250
6870		7.812500
6871		3.906250
6872		7.812500
6873		5.859375
6874		9.765625
6875		5.859375
6876		11.718750
6877		7.812500
6878		13.671875
6879		9.765625
6880		13.671875
6881		11.718750
6882		15.625000
6883		11.718750
6884		15.625000
6885		13.671875
6886		17.578125
6887		15.625000
6888		19.531250
6889		15.625000
6890		19.531250
6891		17.578125
6892		21.484375
6893		17.578125
6894		23.437500
6895		19.531250
6896		23.437500
6897		21.484375
6898		25.390625
6899		21.484375
6900		27.343750
6901		23.437500
6902		27.343750
6903		25.390625
6904		29.296875
6905		25.390625
6906		29.296875
6907		27.343750
6908		31.250000
6909		27.343750
6910		31.250000
6911		29.296875
6912		33.203125
6913		29.296875
6914		33.203125
6915		31.250000
6916		35.156250
6917		31.250000
6918		37.109375
6919		33.203125
6920		37.109375
6921		35.156250
6922		37.109375
6923		35.156250
6924		39.062500
6925		35.156250
6926		39.062500
6927		37.109375
6928		41.015625
6929		37.109375
6930		41.015625
6931		39.062500
6932		42.968750
6933		39.062500
6934		42.968750
6935		39.062500
6936		44.921875
6937		41.015625
6938		44.921875
6939		41.015625
6940		44.921875
6941		42.968750
6942		46.875000
6943		42.968750
6944		46.875000
6945		42.968750
6946		46.875000
6947		44.921875
6948		46.875000
6949		44.921875
6950		48.828125
6951		44.921875
6952		48.828125
6953		46.875000
6954		48.828125
6955		46.875000
6956		50.781250
6957		46.875000
6958		50.781250
6959		46.875000
6960		50.781250
6961		48.828125
6962		50.781250
6963		48.828125
6964		52.734375
6965		48.828125
6966		52.734375
6967		48.828125
6968		52.734375
6969		48.828125
6970		52.734375
6971		48.828125
6972		52.734375
6973		50.781250
6974		52.734375
6975		50.781250
6976		54.687500
6977		50.781250
6978		54.687500
6979		50.781250
6980		54.687500
6981		50.781250
6982		54.687500
6983		50.781250
6984		54.687500
6985		50.781250
6986		54.687500
6987		50.781250
6988		54.687500
6989		50.781250
6990		54.687500
6991		50.781250
6992		54.687500
6993		50.781250
6994		54.687500
6995		50.781250
6996		52.734375
6997		50.781250
6998		52.734375
6999		50.781250
7000		52.734375
7001		48.828125
7002		52.734375
7003		48.828125
7004		52.734375
7005		48.828125
7006		52.734375
7007		48.828125
7008		52.734375
7009		48.828125
7010		52.734375
7011		48.828125
7012		50.781250
7013		48.828125
7014		50.781250
7015		46.875000
7016		50.781250
7017		46.875000
7018		50.781250
7019		46.875000
7020		50.781250
7021		44.921875
7022		48.828125
7023		42.968750
7024		48.828125
7025		44.921875
7026		48.828125
7027		42.968750
7028		48.828125
7029		42.968750
7030		46.875000
7031		42.968750
7032		46.875000
7033		41.015625
7034		44.921875
7035		41.015625
7036		44.921875
7037		41.015625
7038		44.921875
7039		39.062500
7040		42.968750
7041		39.062500
7042		42.968750
7043		37.109375
7044		41.015625
7045		37.109375
7046		41.015625
7047		35.156250
7048		39.062500
7049		35.156250
7050		39.062500
7051		35.156250
7052		37.109375
7053		33.203125
7054		37.109375
7055		31.250000
7056		35.156250
7057		31.250000
7058		35.156250
7059		29.296875
7060		33.203125
7061		27.343750
7062		33.203125
7063		27.343750
7064		31.250000
7065		25.390625
7066		31.250000
7067		25.390625
7068		29.296875
7069		23.437500
7070		29.296875
7071		23.437500
7072		27.343750
7073		21.484375
7074		25.390625
7075		21.484375
7076		23.437500
7077		19.531250
7078		23.437500
7079		17.578125
7080		21.484375
7081		15.625000
7082		19.531250
7083		15.625000
7084		19.531250
7085		13.671875
7086		19.531250
7087		13.671875
7088		17.578125
7089		11.718750
7090		15.625000
7091		9.765625
7092		13.671875
7093		9.765625
7094		11.718750
7095		7.812500
7096		11.718750
7097		5.859375
7098		9.765625
7099		3.906250
7100		7.812500
7101		3.906250
7102		7.812500
7103		1.953125
7104		5.859375
7105		0.000000
7106		3.906250
7107		-1.953125
7108		3.906250
7109		-1.953125
7110		1.953125
7111		-3.906250
7112		0.000000
7113		-5.859375
7114		0.000000
7115		-5.859375
7116		-1.953125
7117		-7.812500
7118		-3.906250
7119		-9.765625
7120		-5.859375
7121		-9.765625
7122		-5.859375
7123		-11.718750
7124		-7.812500
7125		-15.625000
7126		-9.765625
7127		-13.671875
7128		-11.718750
7129		-15.625000
7130		-11.718750
7131		-17.578125
7132		-13.671875
7133		-19.531250
7134		-13.671875
7135		-19.531250
7136		-15.625000
7137		-21.484375
7138		-15.625000
7139		-23.437500
7140		-19.531250
7141		-23.437500
7142		-19.531250
7143		-25.390625
7144		-21.484375
7145		-27.343750
7146		-21.484375
7147		-27.343750
7148		-23.437500
7149		-29.296875
7150		-23.437500
7151		-29.296875
7152		-25.390625
7153		-31.250000
7154		-27.343750
7155		-31.250000
7156		-27.343750
7157		-33.203125
7158		-29.296875
7159		-35.156250
7160		-31.250000
7161		-35.156250
7162		-31.250000
7163		-37.109375
7164		-33.203125
7165		-37.109375
7166		-33.203125
7167		-39.062500
7168		-35.156250
7169		-39.062500
7170		-35.156250
7171		-41.015625
7172		-35.156250
7173		-41.015625
7174		-37.109375
7175		-42.968750
7176		-37.109375
7177		-42.968750
7178		-39.062500
7179		-42.968750
7180		-39.062500
7181		-44.921875
7182		-41.015625
7183		-44.921875
7184		-41.015625
7185		-46.875000
7186		-41.015625
7187		-46.875000
7188		-42.968750
7189		-46.875000
7190		-42.968750
7191		-46.875000
7192		-44.921875
7193		-48.828125
7194		-44.921875
7195		-48.828125
7196		-44.921875
7197		-48.828125
7198		-44.921875
7199		-48.828125
7200		-46.875000
7201		-50.781250
7202		-46.875000
7203		-50.781250
7204		-46.875000
7205		-50.781250
7206		-46.875000
7207		-50.781250
7208		-48.828125
7209		-50.781250
7210		-46.875000
7211		-52.734375
7212		-46.875000
7213		-52.734375
7214		-48.828125
7215		-50.781250
7216		-48.828125
7217		-52.734375
7218		-48.828125
7219		-52.734375
7220		-48.828125
7221		-52.734375
7222		-46.875000
7223		-52.734375
7224		-48.828125
7225		-52.734375
7226		-48.828125
7227		-52.734375
7228		-48.828125
7229		-52.734375
7230		-48.828125
7231		-50.781250
7232		-48.828125
7233		-50.781250
7234		-46.875000
7235		-50.781250
7236		-46.875000
7237		-50.781250
7238		-46.875000
7239		-50.781250
7240		-46.875000
7241		-48.828125
7242		-46.875000
7243		-50.781250
7244		-44.921875
7245		-48.828125
7246		-44.921875
7247		-48.828125
7248		-44.921875
7249		-46.875000
7250		-44.921875
7251		-46.875000
7252		-44.921875
7253		-46.875000
7254		-42.968750
7255		-46.875000
7256		-42.968750
7257		-44.921875
7258		-41.015625
7259		-44.921875
7260		-41.015625
7261		-42.968750
7262		-41.015625
7263		-42.968750
7264		-39.062500
7265		-42.968750
7266		-39.062500
7267		-41.015625
7268		-37.109375
7269		-41.015625
7270		-37.109375
7271		-39.062500
7272		-35.156250
7273		-39.062500
7274		-35.156250
7275		-37.109375
7276		-33.203125
7277		-37.109375
7278		-33.203125
7279		-35.156250
7280		-31.250000
7281		-35.156250
7282		-31.250000
7283		-33.203125
7284		-29.296875
7285		-33.203125
7286		-29.296875
7287		-31.250000
7288		-27.343750
7289		-31.250000
7290		-25.390625
7291		-29.296875
7292		-25.390625
7293		-29.296875
7294		-23.437500
7295		-27.343750
7296		-23.437500
7297		-25.390625
7298		-21.484375
7299		-23.437500
7300		-19.531250
7301		-23.437500
7302		-19.531250
7303		-21.484375
7304		-17.578125
7305		-21.484375
7306		-15.625000
7307		-19.531250
7308		-15.625000
7309		-17.578125
7310		-13.671875
7311		-17.578125
7312		-11.718750
7313		-15.625000
7314		-11.718750
7315		-13.671875
7316		-9.765625
7317		-13.671875
7318		-7.812500
7319		-11.718750
7320		-7.812500
7321		-9.765625
7322		-5.859375
7323		-7.812500
7324		-3.906250
7325		-7.812500
7326		-3.906250
7327		-5.859375
7328		-1.953125
7329		-3.906250
7330		0.000000
7331		-3.906250
7332		1.953125
7333		-1.953125
7334		1.953125
7335		0.000000
7336		3.906250
7337		1.953125
7338		5.859375
7339		1.953125
7340		5.859375
7341		3.906250
7342		7.812500
7343		5.859375
7344		9.765625
7345		5.859375
7346		9.765625
7347		7.812500
7348		11.718750
7349		9.765625
7350		13.671875
7351		9.765625
7352		13.671875
7353		11.718750
7354		15.625000
7355		11.718750
7356		17.578125
7357		13.671875
7358		17.578125
7359		15.625000
7360		19.531250
7361		17.578125
7362		21.484375
7363		17.578125
7364		21.484375
7365		19.531250
7366		23.437500
7367		21.484375
7368		25.390625
7369		21.484375
7370		25.390625
7371		23.437500
7372		27.343750
7373		23.437500
7374		27.343750
7375		25.390625
7376		29.296875
7377		25.390625
7378		29.296875
7379		27.343750
7380		31.250000
7381		27.343750
7382		33.203125
7383		29.296875
7384		33.203125
7385		31.250000
7386		35.156250
7387		31.250000
7388		35.156250
7389		33.203125
7390		37.109375
7391		33.203125
7392		37.109375
7393		35.156250
7394		39.062500
7395		35.156250
7396		39.062500
7397		37.109375
7398		41.015625
7399		35.156250
7400		41.015625
7401		39.062500
7402		42.968750
7403		39.062500
7404		42.968750
7405		41.015625
7406		44.921875
7407		41.015625
7408		44.921875
7409		41.015625
7410		44.921875
7411		42.968750
7412		46.875000
7413		42.968750
7414		46.875000
7415		42.968750
7416		46.875000
7417		44.921875
7418		48.828125
7419		44.921875
7420		48.828125
7421		44.921875
7422		48.828125
7423		46.875000
7424		50.781250
7425		46.875000
7426		50.781250
7427		46.875000
7428		50.781250
7429		46.875000
7430		50.781250
7431		46.875000
7432		50.781250
7433		46.875000
7434		52.734375
7435		48.828125
7436		52.734375
7437		48.828125
7438		52.734375
7439		48.828125
7440		54.687500
7441		50.781250
7442		52.734375
7443		50.781250
7444		52.734375
7445		50.781250
7446		54.687500
7447		50.781250
7448		54.687500
7449		50.781250
7450		54.687500
7451		50.781250
7452		54.687500
7453		50.781250
7454		54.687500
7455		50.781250
7456		54.687500
7457		50.781250
7458		54.687500
7459		50.781250
7460		54.687500
7461		50.781250
7462		54.687500
7463		50.781250
7464		54.687500
7465		50.781250
7466		54.687500
7467		50.781250
7468		54.687500
7469		50.781250
7470		54.687500
7471		50.781250
7472		52.734375
7473		48.828125
7474		54.687500
7475		50.781250
7476		52.734375
7477		48.828125
7478		52.734375
7479		48.828125
7480		52.734375
7481		48.828125
7482		52.734375
7483		48.828125
7484		52.734375
7485		46.875000
7486		52.734375
7487		46.875000
7488		50.781250
7489		44.921875
7490		50.781250
7491		46.875000
7492		48.828125
7493		46.875000
7494		48.828125
7495		44.921875
7496		48.828125
7497		44.921875
7498		48.828125
7499		42.968750
7500		48.828125
7501		42.968750
7502		46.875000
7503		42.968750
7504		46.875000
7505		42.968750
7506		44.921875
7507		41.015625
7508		44.921875
7509		41.015625
7510		44.921875
7511		39.062500
7512		42.968750
7513		39.062500
7514		42.968750
7515		37.109375
7516		41.015625
7517		37.109375
7518		41.015625
7519		35.156250
7520		39.062500
7521		35.156250
7522		39.062500
7523		33.203125
7524		37.109375
7525		33.203125
7526		37.109375
7527		33.203125
7528		35.156250
7529		31.250000
7530		35.156250
7531		29.296875
7532		33.203125
7533		29.296875
7534		33.203125
7535		27.343750
7536		31.250000
7537		25.390625
7538		31.250000
7539		25.390625
7540		29.296875
7541		23.437500
7542		27.343750
7543		23.437500
7544		27.343750
7545		21.484375
7546		25.390625
7547		19.531250
7548		25.390625
7549		19.531250
7550		23.437500
7551		17.578125
7552		21.484375
7553		17.578125
7554		19.531250
7555		15.625000
7556		19.531250
7557		13.671875
7558		17.578125
7559		13.671875
7560		17.578125
7561		11.718750
7562		15.625000
7563		9.765625
7564		15.625000
7565		9.765625
7566		11.718750
7567		7.812500
7568		11.718750
7569		5.859375
7570		9.765625
7571		3.906250
7572		9.765625
7573		3.906250
7574		7.812500
7575		1.953125
7576		5.859375
7577		0.000000
7578		3.906250
7579		-1.953125
7580		3.906250
7581		-1.953125
7582		1.953125
7583		-3.906250
7584		0.000000
7585		-5.859375
7586		-1.953125
7587		-5.859375
7588		-1.953125
7589		-7.812500
7590		-3.906250
7591		-9.765625
7592		-5.859375
7593		-11.718750
7594		-7.812500
7595		-11.718750
7596		-7.812500
7597		-13.671875
7598		-9.765625
7599		-15.625000
7600		-9.765625
7601		-17.578125
7602		-11.718750
7603		-17.578125
7604		-13.671875
7605		-19.531250
7606		-15.625000
7607		-21.484375
7608		-15.625000
7609		-21.484375
7610		-17.578125
7611		-23.437500
7612		-17.578125
7613		-23.437500
7614		-19.531250
7615		-25.390625
7616		-21.484375
7617		-27.343750
7618		-21.484375
7619		-27.343750
7620		-23.437500
7621		-29.296875
7622		-25.390625
7623		-29.296875
7624		-25.390625
7625		-31.250000
7626		-27.343750
7627		-31.250000
7628		-29.296875
7629		-33.203125
7630		-29.296875
7631		-35.156250
7632		-29.296875
7633		-35.156250
7634		-31.250000
7635		-37.109375
7636		-33.203125
7637		-37.109375
7638		-33.203125
7639		-39.062500
7640		-33.203125
7641		-39.062500
7642		-35.156250
7643		-41.015625
7644		-37.109375
7645		-41.015625
7646		-37.109375
7647		-42.968750
7648		-39.062500
7649		-42.968750
7650		-39.062500
7651		-42.968750
7652		-39.062500
7653		-44.921875
7654		-41.015625
7655		-44.921875
7656		-41.015625
7657		-44.921875
7658		-41.015625
7659		-46.875000
7660		-42.968750
7661		-46.875000
7662		-42.968750
7663		-48.828125
7664		-42.968750
7665		-48.828125
7666		-44.921875
7667		-48.828125
7668		-44.921875
7669		-48.828125
7670		-44.921875
7671		-48.828125
7672		-44.921875
7673		-48.828125
7674		-46.875000
7675		-50.781250
7676		-46.875000
7677		-50.781250
7678		-46.875000
7679		-50.781250
7680		-46.875000
7681		-50.781250
7682		-46.875000
7683		-50.781250
7684		-46.875000
7685		-50.781250
7686		-48.828125
7687		-52.734375
7688		-46.875000
7689		-52.734375
7690		-48.828125
7691		-50.781250
7692		-46.875000
7693		-50.781250
7694		-48.828125
7695		-50.781250
7696		-48.828125
7697		-52.734375
7698		-48.828125
7699		-52.734375
7700		-48.828125
7701		-50.781250
7702		-46.875000
7703		-50.781250
7704		-46.875000
7705		-50.781250
7706		-46.875000
7707		-50.781250
7708		-46.875000
7709		-50.781250
7710		-44.921875
7711		-48.828125
7712		-46.875000
7713		-50.781250
7714		-44.921875
7715		-48.828125
7716		-44.921875
7717		-48.828125
7718		-44.921875
7719		-46.875000
7720		-44.921875
7721		-46.875000
7722		-42.968750
7723		-46.875000
7724		-42.968750
7725		-46.875000
7726		-42.968750
7727		-44.921875
7728		-41.015625
7729		-44.921875
7730		-39.062500
7731		-44.921875
7732		-41.015625
7733		-42.968750
7734		-39.062500
7735		-42.968750
7736		-39.062500
7737		-41.015625
7738		-37.109375
7739		-41.015625
7740		-37.109375
7741		-41.015625
7742		-35.156250
7743		-39.062500
7744		-35.156250
7745		-37.109375
7746		-35.156250
7747		-37.109375
7748		-33.203125
7749		-37.109375
7750		-31.250000
7751		-35.156250
7752		-31.250000
7753		-33.203125
7754		-29.296875
7755		-33.203125
7756		-29.296875
7757		-31.250000
7758		-27.343750
7759		-31.250000
7760		-27.343750
7761		-29.296875
7762		-25.390625
7763		-29.296875
7764		-23.437500
7765		-27.343750
7766		-23.437500
7767		-27.343750
7768		-21.484375
7769		-25.390625
7770		-21.484375
7771		-23.437500
7772		-19.531250
7773		-21.484375
7774		-17.578125
7775		-21.484375
7776		-17.578125
7777		-19.531250
7778		-15.625000
7779		-17.578125
7780		-13.671875
7781		-17.578125
7782		-13.671875
7783		-15.625000
7784		-11.718750
7785		-13.671875
7786		-9.765625
7787		-13.671875
7788		-9.765625
7789		-11.718750
7790		-7.812500
7791		-9.765625
7792		-5.859375
7793		-9.765625
7794		-3.906250
7795		-7.812500
7796		-3.906250
7797		-5.859375
7798		-1.953125
7799		-5.859375
7800		0.000000
7801		-3.906250
7802		0.000000
7803		-1.953125
7804		1.953125
7805		-1.953125
7806		3.906250
7807		0.000000
7808		3.906250
7809		1.953125
7810		5.859375
7811		3.906250
7812		7.812500
7813		3.906250
7814		9.765625
7815		5.859375
7816		9.765625
7817		7.812500
7818		11.718750
7819		7.812500
7820		11.718750
7821		9.765625
7822		13.671875
7823		11.718750
7824		15.625000
7825		13.671875
7826		17.578125
7827		13.671875
7828		17.578125
7829		15.625000
7830		19.531250
7831		15.625000
7832		21.484375
7833		17.578125
7834		21.484375
7835		19.531250
7836		23.437500
7837		19.531250
7838		23.437500
7839		21.484375
7840		25.390625
7841		21.484375
7842		25.390625
7843		23.437500
7844		27.343750
7845		25.390625
7846		29.296875
7847		25.390625
7848		31.250000
7849		27.343750
7850		31.250000
7851		27.343750
7852		33.203125
7853		29.296875
7854		33.203125
7855		29.296875
7856		35.156250
7857		31.250000
7858		35.156250
7859		33.203125
7860		37.109375
7861		33.203125
7862		37.109375
7863		35.156250
7864		39.062500
7865		33.203125
7866		39.062500
7867		37.109375
7868		41.015625
7869		37.109375
7870		41.015625
7871		39.062500
7872		42.968750
7873		39.062500
7874		42.968750
7875		39.062500
7876		42.968750
7877		41.015625
7878		42.968750
7879		41.015625
7880		44.921875
7881		41.015625
7882		46.875000
7883		42.968750
7884		46.875000
7885		42.968750
7886		46.875000
7887		42.968750
7888		46.875000
7889		44.921875
7890		48.828125
7891		44.921875
7892		48.828125
7893		44.921875
7894		48.828125
7895		46.875000
7896		50.781250
7897		46.875000
7898		50.781250
7899		46.875000
7900		50.781250
7901		48.828125
7902		52.734375
7903		48.828125
7904		50.781250
7905		48.828125
7906		52.734375
7907		48.828125
7908		52.734375
7909		48.828125
7910		52.734375
7911		50.781250
7912		52.734375
7913		50.781250
7914		52.734375
7915		50.781250
7916		54.687500
7917		50.781250
7918		54.687500
7919		50.781250
7920		54.687500
7921		50.781250
7922		54.687500
7923		50.781250
7924		54.687500
7925		50.781250
7926		54.687500
7927		50.781250
7928		54.687500
7929		50.781250
7930		54.687500
7931		50.781250
7932		54.687500
7933		50.781250
7934		54.687500
7935		50.781250
7936		54.687500
7937		50.781250
7938		54.687500
7939		50.781250
7940		54.687500
7941		50.781250
7942		54.687500
7943		50.781250
7944		54.687500
7945		50.781250
7946		52.734375
7947		50.781250
7948		52.734375
7949		48.828125
7950		52.734375
7951		48.828125
7952		52.734375
7953		48.828125
7954		52.734375
7955		48.828125
7956		52.734375
7957		48.828125
7958		50.781250
7959		46.875000
7960		50.781250
7961		46.875000
7962		50.781250
7963		46.875000
7964		50.781250
7965		44.921875
7966		48.828125
7967		44.921875
7968		48.828125
7969		44.921875
7970		48.828125
7971		44.921875
7972		46.875000
7973		42.968750
7974		46.875000
7975		42.968750
7976		46.875000
7977		41.015625
7978		46.875000
7979		41.015625
7980		44.921875
7981		39.062500
7982		42.968750
7983		39.062500
7984		42.968750
7985		39.062500
7986		42.968750
7987		37.109375
7988		41.015625
7989		37.109375
7990		41.015625
7991		35.156250
7992		39.062500
7993		35.156250
7994		39.062500
7995		33.203125
7996		37.109375
7997		33.203125
7998		37.109375
7999		31.250000
8000		37.109375
8001		31.250000
8002		35.156250
8003		29.296875
8004		33.203125
8005		29.296875
8006		33.203125
8007		27.343750
8008		31.250000
8009		27.343750
8010		31.250000
8011		25.390625
8012		29.296875
8013		23.437500
8014		27.343750
8015		21.484375
8016		27.343750
8017		21.484375
8018		25.390625
8019		19.531250
8020		23.437500
8021		19.531250
8022		23.437500
8023		17.578125
8024		21.484375
8025		15.625000
8026		19.531250
8027		13.671875
8028		19.531250
8029		13.671875
8030		17.578125
8031		13.671875
8032		15.625000
8033		11.718750
8034		15.625000
8035		9.765625
8036		13.671875
8037		7.812500
8038		11.718750
8039		5.859375
8040		11.718750
8041		5.859375
8042		9.765625
8043		3.906250
8044		7.812500
8045		1.953125
8046		7.812500
8047		1.953125
8048		5.859375
8049		0.000000
8050		3.906250
8051		-1.953125
8052		3.906250
8053		-1.953125
8054		1.953125
8055		-3.906250
8056		0.000000
8057		-5.859375
8058		0.000000
8059		-5.859375
8060		-1.953125
8061		-7.812500
8062		-3.906250
8063		-9.765625
8064		-5.859375
8065		-11.718750
8066		-5.859375
8067		-11.718750
8068		-7.812500
8069		-13.671875
8070		-9.765625
8071		-15.625000
8072		-11.718750
8073		-17.578125
8074		-11.718750
8075		-17.578125
8076		-13.671875
8077		-19.531250
8078		-15.625000
8079		-19.531250
8080		-15.625000
8081		-21.484375
8082		-17.578125
8083		-23.437500
8084		-17.578125
8085		-25.390625
8086		-19.531250
8087		-25.390625
8088		-21.484375
8089		-27.343750
8090		-23.437500
8091		-27.343750
8092		-23.437500
8093		-29.296875
8094		-25.390625
8095		-29.296875
8096		-25.390625
8097		-31.250000
8098		-27.343750
8099		-31.250000
8100		-29.296875
8101		-33.203125
8102		-29.296875
8103		-35.156250
8104		-31.250000
8105		-35.156250
8106		-31.250000
8107		-37.109375
8108		-33.203125
8109		-37.109375
8110		-33.203125
8111		-39.062500
8112		-35.156250
8113		-39.062500
8114		-35.156250
8115		-41.015625
8116		-37.109375
8117		-41.015625
8118		-37.109375
8119		-42.968750
8120		-39.062500
8121		-42.968750
8122		-39.062500
8123		-42.968750
8124		-39.062500
8125		-44.921875
8126		-41.015625
8127		-44.921875
8128		-41.015625
8129		-44.921875
8130		-41.015625
8131		-46.875000
8132		-42.968750
8133		-46.875000
8134		-42.968750
8135		-46.875000
8136		-44.921875
8137		-48.828125
8138		-44.921875
8139		-48.828125
8140		-44.921875
8141		-48.828125
8142		-44.921875
8143		-48.828125
8144		-44.921875
8145		-48.828125
8146		-46.875000
8147		-50.781250
8148		-46.875000
8149		-50.781250
8150		-46.875000
8151		-50.781250
8152		-46.875000
8153		-50.781250
8154		-46.875000
8155		-50.781250
8156		-46.875000
8157		-52.734375
8158		-46.875000
8159		-50.781250
8160		-46.875000
8161		-50.781250
8162		-46.875000
8163		-50.781250
8164		-46.875000
8165		-50.781250
8166		-48.828125
8167		-52.734375
8168		-46.875000
8169		-50.781250
8170		-46.875000
8171		-50.781250
8172		-46.875000
8173		-50.781250
8174		-46.875000
8175		-50.781250
8176		-46.875000
8177		-50.781250
8178		-46.875000
8179		-50.781250
8180		-46.875000
8181		-48.828125
8182		-46.875000
8183		-48.828125
8184		-44.921875
8185		-48.828125
8186		-44.921875
8187		-48.828125
8188		-44.921875
8189		-48.828125
8190		-44.921875
8191		-48.828125
8192		-42.968750
8193		-46.875000
8194		-42.968750
8195		-46.875000
8196		-42.968750
8197		-44.921875
8198		-42.968750
8199		-44.921875
8200		-41.015625
8201		-44.921875
8202		-41.015625
8203		-42.968750
8204		-39.062500
8205		-42.968750
8206		-39.062500
8207		-41.015625
8208		-39.062500
8209		-41.015625
8210		-37.109375
8211		-41.015625
8212		-37.109375
8213		-39.062500
8214		-35.156250
8215		-39.062500
8216		-35.156250
8217		-39.062500
8218		-33.203125
8219		-37.109375
8220		-33.203125
8221		-37.109375
8222		-31.250000
8223		-33.203125
8224		-31.250000
8225		-33.203125
8226		-29.296875
8227		-33.203125
8228		-27.343750
8229		-31.250000
8230		-27.343750
8231		-29.296875
8232		-25.390625
8233		-29.296875
8234		-25.390625
8235		-27.343750
8236		-23.437500
8237		-27.343750
8238		-21.484375
8239		-25.390625
8240		-21.484375
8241		-23.437500
8242		-19.531250
8243		-23.437500
8244		-19.531250
8245		-21.484375
8246		-17.578125
8247		-21.484375
8248		-15.625000
8249		-19.531250
8250		-15.625000
8251		-17.578125
8252		-13.671875
8253		-15.625000
8254		-11.718750
8255		-15.625000
8256		-11.718750
8257		-13.671875
8258		-9.765625
8259		-11.718750
8260		-7.812500
8261		-11.718750
8262		-7.812500
8263		-9.765625
8264		-5.859375
8265		-9.765625
8266		-3.906250
8267		-7.812500
8268		-3.906250
8269		-5.859375
8270		-1.953125
8271		-3.906250
8272		0.000000
8273		-3.906250
8274		1.953125
8275		-1.953125
8276		1.953125
8277		-1.953125
8278		3.906250
8279		1.953125
8280		5.859375
8281		1.953125
8282		5.859375
8283		3.906250
8284		7.812500
8285		3.906250
8286		9.765625
8287		5.859375
8288		9.765625
8289		7.812500
8290		11.718750
8291		9.765625
8292		13.671875
8293		9.765625
8294		13.671875
8295		11.718750
8296		15.625000
8297		11.718750
8298		17.578125
8299		13.671875
8300		17.578125
8301		15.625000
8302		19.531250
8303		15.625000
8304		19.531250
8305		17.578125
8306		21.484375
8307		19.531250
8308		23.437500
8309		19.531250
8310		23.437500
8311		21.484375
8312		25.390625
8313		21.484375
8314		27.343750
8315		23.437500
8316		27.343750
8317		25.390625
8318		29.296875
8319		25.390625
8320		29.296875
8321		27.343750
8322		31.250000
8323		27.343750
8324		31.250000
8325		29.296875
8326		33.203125
8327		31.250000
8328		35.156250
8329		31.250000
8330		35.156250
8331		31.250000
8332		37.109375
8333		33.203125
8334		37.109375
8335		33.203125
8336		39.062500
8337		35.156250
8338		39.062500
8339		37.109375
8340		41.015625
8341		37.109375
8342		41.015625
8343		37.109375
8344		41.015625
8345		39.062500
8346		42.968750
8347		39.062500
8348		42.968750
8349		41.015625
8350		44.921875
8351		41.015625
8352		44.921875
8353		41.015625
8354		44.921875
8355		42.968750
8356		46.875000
8357		42.968750
8358		46.875000
8359		42.968750
8360		46.875000
8361		44.921875
8362		48.828125
8363		44.921875
8364		48.828125
8365		46.875000
8366		48.828125
8367		46.875000
8368		50.781250
8369		46.875000
8370		50.781250
8371		46.875000
8372		50.781250
8373		46.875000
8374		50.781250
8375		48.828125
8376		50.781250
8377		46.875000
8378		52.734375
8379		48.828125
8380		52.734375
8381		48.828125
8382		52.734375
8383		48.828125
8384		52.734375
8385		50.781250
8386		54.687500
8387		48.828125
8388		52.734375
8389		50.781250
8390		54.687500
8391		50.781250
8392		52.734375
8393		50.781250
8394		54.687500
8395		50.781250
8396		54.687500
8397		50.781250
8398		54.687500
8399		50.781250
8400		54.687500
8401		50.781250
8402		54.687500
8403		50.781250
8404		54.687500
8405		50.781250
8406		54.687500
8407		50.781250
8408		54.687500
8409		50.781250
8410		52.734375
8411		50.781250
8412		54.687500
8413		50.781250
8414		52.734375
8415		50.781250
8416		52.734375
8417		50.781250
8418		52.734375
8419		48.828125
8420		52.734375
8421		48.828125
8422		52.734375
8423		48.828125
8424		52.734375
8425		46.875000
8426		52.734375
8427		46.875000
8428		50.781250
8429		46.875000
8430		50.781250
8431		46.875000
8432		50.781250
8433		44.921875
8434		48.828125
8435		44.921875
8436		48.828125
8437		44.921875
8438		48.828125
8439		44.921875
8440		48.828125
8441		42.968750
8442		46.875000
8443		42.968750
8444		46.875000
8445		42.968750
8446		46.875000
8447		41.015625
8448		44.921875
8449		41.015625
8450		44.921875
8451		41.015625
8452		42.968750
8453		39.062500
8454		42.968750
8455		39.062500
8456		42.968750
8457		37.109375
8458		41.015625
8459		37.109375
8460		41.015625
8461		35.156250
8462		39.062500
8463		35.156250
8464		39.062500
8465		33.203125
8466		39.062500
8467		33.203125
8468		37.109375
8469		31.250000
8470		35.156250
8471		31.250000
8472		35.156250
8473		29.296875
8474		33.203125
8475		29.296875
8476		33.203125
8477		27.343750
8478		31.250000
8479		25.390625
8480		29.296875
8481		25.390625
8482		29.296875
8483		23.437500
8484		27.343750
8485		23.437500
8486		27.343750
8487		21.484375
8488		25.390625
8489		19.531250
8490		23.437500
8491		19.531250
8492		23.437500
8493		17.578125
8494		21.484375
8495		15.625000
8496		21.484375
8497		13.671875
8498		19.531250
8499		13.671875
8500		17.578125
8501		13.671875
8502		15.625000
8503		11.718750
8504		15.625000
8505		9.765625
8506		13.671875
8507		7.812500
8508		13.671875
8509		7.812500
8510		11.718750
8511		5.859375
8512		9.765625
8513		3.906250
8514		7.812500
8515		1.953125
8516		7.812500
8517		1.953125
8518		5.859375
8519		-1.953125
8520		3.906250
8521		0.000000
8522		1.953125
8523		-3.906250
8524		1.953125
8525		-3.906250
8526		0.000000
8527		-5.859375
8528		-1.953125
8529		-5.859375
8530		-1.953125
8531		-9.765625
8532		-3.906250
8533		-9.765625
8534		-5.859375
8535		-11.718750
8536		-7.812500
8537		-11.718750
8538		-7.812500
8539		-13.671875
8540		-9.765625
8541		-15.625000
8542		-11.718750
8543		-15.625000
8544		-11.718750
8545		-17.578125
8546		-13.671875
8547		-19.531250
8548		-15.625000
8549		-21.484375
8550		-15.625000
8551		-21.484375
8552		-17.578125
8553		-25.390625
8554		-19.531250
8555		-25.390625
8556		-19.531250
8557		-25.390625
8558		-21.484375
8559		-27.343750
8560		-23.437500
8561		-27.343750
8562		-23.437500
8563		-29.296875
8564		-25.390625
8565		-31.250000
8566		-27.343750
8567		-31.250000
8568		-27.343750
8569		-31.250000
8570		-29.296875
8571		-33.203125
8572		-29.296875
8573		-35.156250
8574		-31.250000
8575		-35.156250
8576		-31.250000
8577		-37.109375
8578		-33.203125
8579		-37.109375
8580		-33.203125
8581		-41.015625
8582		-35.156250
8583		-39.062500
8584		-35.156250
8585		-41.015625
8586		-37.109375
8587		-41.015625
8588		-37.109375
8589		-42.968750
8590		-39.062500
8591		-42.968750
8592		-39.062500
8593		-44.921875
8594		-41.015625
8595		-44.921875
8596		-41.015625
8597		-44.921875
8598		-41.015625
8599		-46.875000
8600		-42.968750
8601		-46.875000
8602		-42.968750
8603		-46.875000
8604		-44.921875
8605		-48.828125
8606		-42.968750
8607		-48.828125
8608		-44.921875
8609		-48.828125
8610		-46.875000
8611		-50.781250
8612		-46.875000
8613		-50.781250
8614		-46.875000
8615		-50.781250
8616		-46.875000
8617		-50.781250
8618		-46.875000
8619		-50.781250
8620		-48.828125
8621		-52.734375
8622		-48.828125
8623		-52.734375
8624		-48.828125
8625		-52.734375
8626		-48.828125
8627		-52.734375
8628		-48.828125
8629		-52.734375
8630		-48.828125
8631		-52.734375
8632		-48.828125
8633		-52.734375
8634		-48.828125
8635		-52.734375
8636		-48.828125
8637		-52.734375
8638		-48.828125
8639		-52.734375
8640		-48.828125
8641		-52.734375
8642		-48.828125
8643		-52.734375
8644		-48.828125
8645		-52.734375
8646		-48.828125
8647		-50.781250
8648		-48.828125
8649		-52.734375
8650		-46.875000
8651		-50.781250
8652		-48.828125
8653		-50.781250
8654		-46.875000
8655		-50.781250
8656		-46.875000
8657		-48.828125
8658		-46.875000
8659		-48.828125
8660		-44.921875
8661		-48.828125
8662		-44.921875
8663		-48.828125
8664		-44.921875
8665		-48.828125
8666		-44.921875
8667		-48.828125
8668		-42.968750
8669		-46.875000
8670		-42.968750
8671		-46.875000
8672		-42.968750
8673		-44.921875
8674		-41.015625
8675		-44.921875
8676		-41.015625
8677		-44.921875
8678		-39.062500
8679		-42.968750
8680		-39.062500
8681		-42.968750
8682		-37.109375
8683		-41.015625
8684		-37.109375
8685		-41.015625
8686		-37.109375
8687		-39.062500
8688		-35.156250
8689		-39.062500
8690		-35.156250
8691		-39.062500
8692		-33.203125
8693		-37.109375
8694		-33.203125
8695		-37.109375
8696		-31.250000
8697		-35.156250
8698		-31.250000
8699		-33.203125
8700		-29.296875
8701		-33.203125
8702		-29.296875
8703		-31.250000
8704		-27.343750
8705		-31.250000
8706		-25.390625
8707		-31.250000
8708		-25.390625
8709		-27.343750
8710		-23.437500
8711		-27.343750
8712		-23.437500
8713		-25.390625
8714		-21.484375
8715		-23.437500
8716		-19.531250
8717		-23.437500
8718		-17.578125
8719		-21.484375
8720		-17.578125
8721		-19.531250
8722		-15.625000
8723		-19.531250
8724		-15.625000
8725		-17.578125
8726		-13.671875
8727		-15.625000
8728		-11.718750
8729		-15.625000
8730		-9.765625
8731		-13.671875
8732		-9.765625
8733		-11.718750
8734		-7.812500
8735		-9.765625
8736		-7.812500
8737		-9.765625
8738		-5.859375
8739		-7.812500
8740		-3.906250
8741		-5.859375
8742		-1.953125
8743		-5.859375
8744		-1.953125
8745		-3.906250
8746		0.000000
8747		-3.906250
8748		1.953125
8749		-1.953125
8750		3.906250
8751		0.000000
8752		3.906250
8753		1.953125
8754		5.859375
8755		1.953125
8756		7.812500
8757		3.906250
8758		7.812500
8759		5.859375
8760		9.765625
8761		5.859375
8762		11.718750
8763		7.812500
8764		11.718750
8765		9.765625
8766		13.671875
8767		11.718750
8768		13.671875
8769		11.718750
8770		15.625000
8771		13.671875
8772		17.578125
8773		13.671875
8774		19.531250
8775		15.625000
8776		19.531250
8777		17.578125
8778		21.484375
8779		17.578125
8780		23.437500
8781		19.531250
8782		23.437500
8783		21.484375
8784		25.390625
8785		21.484375
8786		25.390625
8787		23.437500
8788		27.343750
8789		23.437500
8790		27.343750
8791		25.390625
8792		29.296875
8793		27.343750
8794		29.296875
8795		27.343750
8796		31.250000
8797		29.296875
8798		33.203125
8799		29.296875
8800		33.203125
8801		31.250000
8802		35.156250
8803		31.250000
8804		35.156250
8805		33.203125
8806		37.109375
8807		33.203125
8808		37.109375
8809		35.156250
8810		39.062500
8811		35.156250
8812		39.062500
8813		37.109375
8814		41.015625
8815		37.109375
8816		41.015625
8817		37.109375
8818		42.968750
8819		39.062500
8820		42.968750
8821		39.062500
8822		42.968750
8823		39.062500
8824		44.921875
8825		39.062500
8826		46.875000
8827		42.968750
8828		46.875000
8829		42.968750
8830		46.875000
8831		42.968750
8832		46.875000
8833		42.968750
8834		46.875000
8835		44.921875
8836		48.828125
8837		44.921875
8838		48.828125
8839		44.921875
8840		50.781250
8841		44.921875
8842		52.734375
8843		44.921875
8844		50.781250
8845		46.875000
8846		50.781250
8847		46.875000
8848		50.781250
8849		48.828125
8850		50.781250
8851		48.828125
8852		50.781250
8853		48.828125
8854		52.734375
8855		48.828125
8856		52.734375
8857		46.875000
8858		54.687500
8859		46.875000
8860		54.687500
8861		48.828125
8862		54.687500
8863		46.875000
8864		54.687500
8865		48.828125
8866		52.734375
8867		48.828125
8868		54.687500
8869		48.828125
8870		54.687500
8871		50.781250
8872		52.734375
8873		46.875000
8874		54.687500
8875		48.828125
8876		54.687500
8877		46.875000
8878		56.640625
8879		48.828125
8880		54.687500
8881		48.828125
8882		54.687500
8883		48.828125
8884		54.687500
8885		48.828125
8886		54.687500
8887		48.828125
8888		52.734375
8889		46.875000
8890		52.734375
8891		46.875000
8892		52.734375
8893		46.875000
8894		54.687500
8895		44.921875
8896		52.734375
8897		46.875000
8898		52.734375
8899		44.921875
8900		52.734375
8901		44.921875
8902		50.781250
8903		46.875000
8904		48.828125
8905		44.921875
8906		48.828125
8907		42.968750
8908		48.828125
8909		42.968750
8910		50.781250
8911		42.968750
8912		48.828125
8913		41.015625
8914		48.828125
8915		41.015625
8916		48.828125
8917		41.015625
8918		46.875000
8919		41.015625
8920		44.921875
8921		41.015625
8922		42.968750
8923		37.109375
8924		44.921875
8925		37.109375
8926		42.968750
8927		37.109375
8928		42.968750
8929		35.156250
8930		42.968750
8931		35.156250
8932		41.015625
8933		33.203125
8934		41.015625
8935		33.203125
8936		39.062500
8937		33.203125
8938		37.109375
8939		31.250000
8940		37.109375
8941		29.296875
8942		37.109375
8943		29.296875
8944		35.156250
8945		27.343750
8946		33.203125
8947		27.343750
8948		33.203125
8949		25.390625
8950		31.250000
8951		25.390625
8952		31.250000
8953		25.390625
8954		29.296875
8955		23.437500
8956		27.343750
8957		19.531250
8958		27.343750
8959		19.531250
8960		27.343750
8961		17.578125
8962		25.390625
8963		15.625000
8964		23.437500
8965		15.625000
8966		21.484375
8967		15.625000
8968		21.484375
8969		13.671875
8970		19.531250
8971		13.671875
8972		17.578125
8973		9.765625
8974		15.625000
8975		9.765625
8976		17.578125
8977		7.812500
8978		15.625000
8979		5.859375
8980		13.671875
8981		5.859375
8982		11.718750
8983		3.906250
8984		11.718750
8985		1.953125
8986		9.765625
8987		1.953125
8988		5.859375
8989		1.953125
8990		3.906250
8991		-1.953125
8992		5.859375
8993		-3.906250
8994		3.906250
8995		-5.859375
8996		1.953125
8997		-5.859375
8998		1.953125
8999		-7.812500
9000		0.000000
9001		-9.765625
9002		-1.953125
9003		-7.812500
9004		-3.906250
9005		-9.765625
9006		-5.859375
9007		-13.671875
9008		-5.859375
9009		-15.625000
9010		-7.812500
9011		-15.625000
9012		-9.765625
9013		-17.578125
9014		-9.765625
9015		-19.531250
9016		-11.718750
9017		-19.531250
9018		-13.671875
9019		-21.484375
9020		-13.671875
9021		-21.484375
9022		-17.578125
9023		-23.437500
9024		-17.578125
9025		-25.390625
9026		-17.578125
9027		-27.343750
9028		-19.531250
9029		-27.343750
9030		-21.484375
9031		-29.296875
9032		-21.484375
9033		-31.250000
9034		-23.437500
9035		-31.250000
9036		-23.437500
9037		-31.250000
9038		-27.343750
9039		-31.250000
9040		-29.296875
9041		-35.156250
9042		-29.296875
9043		-35.156250
9044		-27.343750
9045		-37.109375
9046		-29.296875
9047		-39.062500
9048		-31.250000
9049		-39.062500
9050		-31.250000
9051		-39.062500
9052		-33.203125
9053		-41.015625
9054		-35.156250
9055		-41.015625
9056		-37.109375
9057		-42.968750
9058		-37.109375
9059		-42.968750
9060		-37.109375
9061		-44.921875
9062		-39.062500
9063		-46.875000
9064		-37.109375
9065		-46.875000
9066		-39.062500
9067		-46.875000
9068		-41.015625
9069		-48.828125
9070		-39.062500
9071		-46.875000
9072		-42.968750
9073		-46.875000
9074		-44.921875
9075		-50.781250
9076		-42.968750
9077		-50.781250
9078		-42.968750
9079		-50.781250
9080		-44.921875
9081		-52.734375
9082		-44.921875
9083		-52.734375
9084		-44.921875
9085		-52.734375
9086		-44.921875
9087		-50.781250
9088		-44.921875
9089		-50.781250
9090		-48.828125
9091		-52.734375
9092		-46.875000
9093		-54.687500
9094		-46.875000
9095		-54.687500
9096		-46.875000
9097		-54.687500
9098		-46.875000
9099		-54.687500
9100		-46.875000
9101		-54.687500
9102		-46.875000
9103		-54.687500
9104		-48.828125
9105		-52.734375
9106		-48.828125
9107		-52.734375
9108		-48.828125
9109		-54.687500
9110		-46.875000
9111		-54.687500
9112		-46.875000
9113		-54.687500
9114		-46.875000
9115		-54.687500
9116		-46.875000
9117		-54.687500
9118		-46.875000
9119		-54.687500
9120		-46.875000
9121		-52.734375
9122		-48.828125
9123		-50.781250
9124		-48.828125
9125		-52.734375
9126		-44.921875
9127		-52.734375
9128		-44.921875
9129		-52.734375
9130		-44.921875
9131		-50.781250
9132		-44.921875
9133		-50.781250
9134		-42.968750
9135		-50.781250
9136		-42.968750
9137		-48.828125
9138		-42.968750
9139		-46.875000
9140		-44.921875
9141		-46.875000
9142		-42.968750
9143		-48.828125
9144		-41.015625
9145		-46.875000
9146		-41.015625
9147		-46.875000
9148		-39.062500
9149		-46.875000
9150		-39.062500
9151		-44.921875
9152		-37.109375
9153		-44.921875
9154		-37.109375
9155		-41.015625
9156		-37.109375
9157		-41.015625
9158		-37.109375
9159		-41.015625
9160		-33.203125
9161		-41.015625
9162		-33.203125
9163		-39.062500
9164		-31.250000
9165		-39.062500
9166		-31.250000
9167		-37.109375
9168		-29.296875
9169		-37.109375
9170		-29.296875
9171		-35.156250
9172		-27.343750
9173		-31.250000
9174		-27.343750
9175		-31.250000
9176		-25.390625
9177		-31.250000
9178		-23.437500
9179		-31.250000
9180		-23.437500
9181		-29.296875
9182		-21.484375
9183		-27.343750
9184		-19.531250
9185		-27.343750
9186		-19.531250
9187		-25.390625
9188		-17.578125
9189		-23.437500
9190		-19.531250
9191		-21.484375
9192		-17.578125
9193		-21.484375
9194		-13.671875
9195		-21.484375
9196		-13.671875
9197		-19.531250
9198		-11.718750
9199		-17.578125
9200		-9.765625
9201		-15.625000
9202		-9.765625
9203		-15.625000
9204		-7.812500
9205		-11.718750
9206		-7.812500
9207		-9.765625
9208		-5.859375
9209		-9.765625
9210		-3.906250
9211		-9.765625
9212		-1.953125
9213		-7.812500
9214		0.000000
9215		-7.812500
9216		0.000000
9217		-5.859375
9218		1.953125
9219		-3.906250
9220		3.906250
9221		-1.953125
9222		3.906250
9223		0.000000
9224		3.906250
9225		1.953125
9226		5.859375
9227		1.953125
9228		7.812500
9229		1.953125
9230		9.765625
9231		3.906250
9232		11.718750
9233		5.859375
9234		11.718750
9235		5.859375
9236		15.625000
9237		7.812500
9238		15.625000
9239		11.718750
9240		15.625000
9241		11.718750
9242		15.625000
9243		11.718750
9244		19.531250
9245		11.718750
9246		21.484375
9247		13.671875
9248		21.484375
9249		15.625000
9250		23.437500
9251		17.578125
9252		23.437500
9253		17.578125
9254		25.390625
9255		19.531250
9256		27.343750
9257		23.437500
9258		25.390625
9259		23.437500
9260		29.296875
9261		21.484375
9262		31.250000
9263		23.437500
9264		31.250000
9265		25.390625
9266		33.203125
9267		27.343750
9268		33.203125
9269		27.343750
9270		33.203125
9271		27.343750
9272		35.156250
9273		31.250000
9274		35.156250
9275		31.250000
9276		35.156250
9277		31.250000
9278		39.062500
9279		31.250000
9280		41.015625
9281		33.203125
9282		41.015625
9283		33.203125
9284		41.015625
9285		35.156250
9286		42.968750
9287		35.156250
9288		42.968750
9289		37.109375
9290		42.968750
9291		39.062500
9292		42.968750
9293		37.109375
9294		46.875000
9295		39.062500
9296		46.875000
9297		39.062500
9298		46.875000
9299		41.015625
9300		46.875000
9301		41.015625
9302		48.828125
9303		41.015625
9304		48.828125
9305		42.968750
9306		48.828125
9307		44.921875
9308		48.828125
9309		44.921875
9310		50.781250
9311		42.968750
9312		50.781250
9313		44.921875
9314		52.734375
9315		44.921875
9316		52.734375
9317		44.921875
9318		52.734375
9319		44.921875
9320		52.734375
9321		46.875000
9322		52.734375
9323		46.875000
9324		52.734375
9325		48.828125
9326		52.734375
9327		46.875000
9328		54.687500
9329		46.875000
9330		54.687500
9331		46.875000
9332		54.687500
9333		46.875000
9334		54.687500
9335		46.875000
9336		54.687500
9337		48.828125
9338		54.687500
9339		48.828125
9340		54.687500
9341		50.781250
9342		52.734375
9343		48.828125
9344		54.687500
9345		46.875000
9346		56.640625
9347		48.828125
9348		54.687500
9349		46.875000
9350		54.687500
9351		48.828125
9352		54.687500
9353		46.875000
9354		54.687500
9355		46.875000
9356		54.687500
9357		48.828125
9358		52.734375
9359		48.828125
9360		52.734375
9361		46.875000
9362		54.687500
9363		46.875000
9364		54.687500
9365		46.875000
9366		52.734375
9367		44.921875
9368		52.734375
9369		44.921875
9370		52.734375
9371		44.921875
9372		52.734375
9373		44.921875
9374		50.781250
9375		46.875000
9376		48.828125
9377		42.968750
9378		48.828125
9379		42.968750
9380		50.781250
9381		42.968750
9382		50.781250
9383		41.015625
9384		48.828125
9385		41.015625
9386		48.828125
9387		41.015625
9388		46.875000
9389		39.062500
9390		46.875000
9391		41.015625
9392		44.921875
9393		41.015625
9394		42.968750
9395		37.109375
9396		44.921875
9397		37.109375
9398		42.968750
9399		35.156250
9400		42.968750
9401		35.156250
9402		42.968750
9403		33.203125
9404		41.015625
9405		33.203125
9406		39.062500
9407		33.203125
9408		39.062500
9409		33.203125
9410		37.109375
9411		29.296875
9412		37.109375
9413		27.343750
9414		37.109375
9415		27.343750
9416		35.156250
9417		27.343750
9418		35.156250
9419		25.390625
9420		33.203125
9421		25.390625
9422		31.250000
9423		23.437500
9424		31.250000
9425		23.437500
9426		27.343750
9427		21.484375
9428		27.343750
9429		19.531250
9430		27.343750
9431		17.578125
9432		25.390625
9433		17.578125
9434		25.390625
9435		15.625000
9436		23.437500
9437		15.625000
9438		21.484375
9439		13.671875
9440		21.484375
9441		13.671875
9442		17.578125
9443		11.718750
9444		17.578125
9445		9.765625
9446		15.625000
9447		7.812500
9448		15.625000
9449		7.812500
9450		13.671875
9451		5.859375
9452		13.671875
9453		3.906250
9454		11.718750
9455		1.953125
9456		9.765625
9457		1.953125
9458		9.765625
9459		1.953125
9460		5.859375
9461		-1.953125
9462		5.859375
9463		-1.953125
9464		3.906250
9465		-3.906250
9466		3.906250
9467		-3.906250
9468		1.953125
9469		-5.859375
9470		0.000000
9471		-7.812500
9472		0.000000
9473		-9.765625
9474		-1.953125
9475		-9.765625
9476		-5.859375
9477		-11.718750
9478		-5.859375
9479		-13.671875
9480		-5.859375
9481		-15.625000
9482		-7.812500
9483		-17.578125
9484		-9.765625
9485		-17.578125
9486		-9.765625
9487		-19.531250
9488		-11.718750
9489		-19.531250
9490		-13.671875
9491		-19.531250
9492		-15.625000
9493		-21.484375
9494		-17.578125
9495		-23.437500
9496		-17.578125
9497		-25.390625
9498		-19.531250
9499		-27.343750
9500		-19.531250
9501		-27.343750
9502		-21.484375
9503		-29.296875
9504		-23.437500
9505		-29.296875
9506		-23.437500
9507		-31.250000
9508		-25.390625
9509		-31.250000
9510		-27.343750
9511		-35.156250
9512		-27.343750
9513		-35.156250
9514		-27.343750
9515		-37.109375
9516		-29.296875
9517		-37.109375
9518		-29.296875
9519		-39.062500
9520		-31.250000
9521		-39.062500
9522		-33.203125
9523		-41.015625
9524		-33.203125
9525		-39.062500
9526		-35.156250
9527		-41.015625
9528		-37.109375
9529		-42.968750
9530		-37.109375
9531		-44.921875
9532		-37.109375
9533		-44.921875
9534		-37.109375
9535		-46.875000
9536		-39.062500
9537		-46.875000
9538		-39.062500
9539		-46.875000
9540		-39.062500
9541		-46.875000
9542		-41.015625
9543		-46.875000
9544		-42.968750
9545		-48.828125
9546		-42.968750
9547		-50.781250
9548		-42.968750
9549		-50.781250
9550		-42.968750
9551		-50.781250
9552		-44.921875
9553		-52.734375
9554		-42.968750
9555		-52.734375
9556		-46.875000
9557		-52.734375
9558		-46.875000
9559		-50.781250
9560		-46.875000
9561		-50.781250
9562		-48.828125
9563		-54.687500
9564		-46.875000
9565		-54.687500
9566		-46.875000
9567		-54.687500
9568		-46.875000
9569		-54.687500
9570		-46.875000
9571		-54.687500
9572		-46.875000
9573		-54.687500
9574		-46.875000
9575		-52.734375
9576		-48.828125
9577		-52.734375
9578		-48.828125
9579		-54.687500
9580		-46.875000
9581		-54.687500
9582		-46.875000
9583		-54.687500
9584		-46.875000
9585		-54.687500
9586		-46.875000
9587		-54.687500
9588		-46.875000
9589		-52.734375
9590		-46.875000
9591		-54.687500
9592		-46.875000
9593		-50.781250
9594		-48.828125
9595		-52.734375
9596		-46.875000
9597		-52.734375
9598		-46.875000
9599		-52.734375
9600		-44.921875
9601		-52.734375
9602		-44.921875
9603		-50.781250
9604		-44.921875
9605		-50.781250
9606		-42.968750
9607		-50.781250
9608		-42.968750
9609		-48.828125
9610		-44.921875
9611		-46.875000
9612		-42.968750
9613		-48.828125
9614		-41.015625
9615		-48.828125
9616		-41.015625
9617		-46.875000
9618		-41.015625
9619		-46.875000
9620		-39.062500
9621		-44.921875
9622		-37.109375
9623		-44.921875
9624		-37.109375
9625		-44.921875
9626		-37.109375
9627		-41.015625
9628		-37.109375
9629		-41.015625
9630		-35.156250
9631		-41.015625
9632		-33.203125
9633		-41.015625
9634		-33.203125
9635		-39.062500
9636		-31.250000
9637		-37.109375
9638		-29.296875
9639		-37.109375
9640		-29.296875
9641		-35.156250
9642		-29.296875
9643		-33.203125
9644		-29.296875
9645		-31.250000
9646		-27.343750
9647		-31.250000
9648		-23.437500
9649		-31.250000
9650		-23.437500
9651		-29.296875
9652		-23.437500
9653		-29.296875
9654		-21.484375
9655		-27.343750
9656		-21.484375
9657		-25.390625
9658		-19.531250
9659		-25.390625
9660		-19.531250
9661		-21.484375
9662		-17.578125
9663		-21.484375
9664		-15.625000
9665		-21.484375
9666		-13.671875
9667		-19.531250
9668		-13.671875
9669		-19.531250
9670		-11.718750
9671		-17.578125
9672		-9.765625
9673		-15.625000
9674		-9.765625
9675		-13.671875
9676		-7.812500
9677		-11.718750
9678		-7.812500
9679		-9.765625
9680		-5.859375
9681		-9.765625
9682		-1.953125
9683		-9.765625
9684		-1.953125
9685		-7.812500
9686		0.000000
9687		-5.859375
9688		0.000000
9689		-5.859375
9690		1.953125
9691		-3.906250
9692		3.906250
9693		0.000000
9694		3.906250
9695		0.000000
9696		3.906250
9697		0.000000
9698		7.812500
9699		1.953125
9700		7.812500
9701		3.906250
9702		9.765625
9703		3.906250
9704		11.718750
9705		5.859375
9706		11.718750
9707		5.859375
9708		13.671875
9709		7.812500
9710		13.671875
9711		11.718750
9712		15.625000
9713		11.718750
9714		17.578125
9715		11.718750
9716		19.531250
9717		13.671875
9718		19.531250
9719		15.625000
9720		21.484375
9721		15.625000
9722		23.437500
9723		17.578125
9724		25.390625
9725		19.531250
9726		25.390625
9727		21.484375
9728		25.390625
9729		23.437500
9730		27.343750
9731		21.484375
9732		29.296875
9733		23.437500
9734		31.250000
9735		25.390625
9736		31.250000
9737		25.390625
9738		33.203125
9739		27.343750
9740		33.203125
9741		27.343750
9742		35.156250
9743		29.296875
9744		35.156250
9745		31.250000
9746		35.156250
9747		31.250000
9748		39.062500
9749		31.250000
9750		39.062500
9751		31.250000
9752		41.015625
9753		33.203125
9754		41.015625
9755		35.156250
9756		41.015625
9757		35.156250
9758		42.968750
9759		37.109375
9760		42.968750
9761		39.062500
9762		42.968750
9763		39.062500
9764		44.921875
9765		39.062500
9766		44.921875
9767		39.062500
9768		46.875000
9769		41.015625
9770		48.828125
9771		41.015625
9772		46.875000
9773		41.015625
9774		48.828125
9775		42.968750
9776		48.828125
9777		44.921875
9778		48.828125
9779		44.921875
9780		48.828125
9781		42.968750
9782		50.781250
9783		44.921875
9784		50.781250
9785		44.921875
9786		50.781250
9787		44.921875
9788		52.734375
9789		44.921875
9790		52.734375
9791		46.875000
9792		52.734375
9793		46.875000
9794		52.734375
9795		48.828125
9796		52.734375
9797		46.875000
9798		54.687500
9799		46.875000
9800		54.687500
9801		46.875000
9802		54.687500
9803		48.828125
9804		54.687500
9805		48.828125
9806		54.687500
9807		48.828125
9808		54.687500
9809		48.828125
9810		54.687500
9811		50.781250
9812		52.734375
9813		50.781250
9814		52.734375
9815		48.828125
9816		56.640625
9817		48.828125
9818		54.687500
9819		48.828125
9820		54.687500
9821		48.828125
9822		54.687500
9823		48.828125
9824		54.687500
9825		48.828125
9826		54.687500
9827		48.828125
9828		54.687500
9829		48.828125
9830		52.734375
9831		46.875000
9832		54.687500
9833		46.875000
9834		54.687500
9835		46.875000
9836		52.734375
9837		46.875000
9838		52.734375
9839		46.875000
9840		52.734375
9841		44.921875
9842		52.734375
9843		44.921875
9844		52.734375
9845		46.875000
9846		48.828125
9847		46.875000
9848		48.828125
9849		42.968750
9850		50.781250
9851		42.968750
9852		50.781250
9853		42.968750
9854		48.828125
9855		42.968750
9856		48.828125
9857		41.015625
9858		46.875000
9859		41.015625
9860		46.875000
9861		41.015625
9862		44.921875
9863		41.015625
9864		44.921875
9865		39.062500
9866		44.921875
9867		37.109375
9868		44.921875
9869		37.109375
9870		42.968750
9871		35.156250
9872		42.968750
9873		35.156250
9874		41.015625
9875		33.203125
9876		41.015625
9877		35.156250
9878		39.062500
9879		33.203125
9880		37.109375
9881		31.250000
9882		37.109375
9883		29.296875
9884		37.109375
9885		29.296875
9886		37.109375
9887		27.343750
9888		35.156250
9889		27.343750
9890		33.203125
9891		25.390625
9892		33.203125
9893		25.390625
9894		31.250000
9895		25.390625
9896		29.296875
9897		23.437500
9898		27.343750
9899		19.531250
9900		27.343750
9901		19.531250
9902		27.343750
9903		19.531250
9904		25.390625
9905		17.578125
9906		23.437500
9907		15.625000
9908		23.437500
9909		13.671875
9910		21.484375
9911		13.671875
9912		21.484375
9913		13.671875
9914		17.578125
9915		9.765625
9916		17.578125
9917		9.765625
9918		17.578125
9919		7.812500
9920		15.625000
9921		7.812500
9922		13.671875
9923		5.859375
9924		13.671875
9925		3.906250
9926		11.718750
9927		3.906250
9928		9.765625
9929		3.906250
9930		5.859375
9931		1.953125
9932		5.859375
9933		-1.953125
9934		5.859375
9935		-1.953125
9936		3.906250
9937		-3.906250
9938		1.953125
9939		-5.859375
9940		1.953125
9941		-7.812500
9942		0.000000
9943		-7.812500
9944		-1.953125
9945		-7.812500
9946		-3.906250
9947		-9.765625
9948		-5.859375
9949		-13.671875
9950		-5.859375
9951		-13.671875
9952		-5.859375
9953		-13.671875
9954		-7.812500
9955		-17.578125
9956		-9.765625
9957		-17.578125
9958		-9.765625
9959		-19.531250
9960		-11.718750
9961		-19.531250
9962		-13.671875
9963		-19.531250
9964		-15.625000
9965		-21.484375
9966		-17.578125
9967		-25.390625
9968		-17.578125
9969		-25.390625
9970		-17.578125
9971		-27.343750
9972		-19.531250
9973		-29.296875
9974		-21.484375
9975		-29.296875
9976		-23.437500
9977		-31.250000
9978		-23.437500
9979		-29.296875
9980		-27.343750
9981		-31.250000
9982		-27.343750
9983		-35.156250
9984		-27.343750
9985		-35.156250
9986		-27.343750
9987		-37.109375
9988		-29.296875
9989		-37.109375
9990		-31.250000
9991		-39.062500
9992		-31.250000
9993		-39.062500
9994		-33.203125
9995		-41.015625
9996		-33.203125
9997		-41.015625
9998		-37.109375
9999		-42.968750
10000		-37.109375
