Channel              :		CH1
Frequency            :		1.060kHz
Period               :		0.944ms
PK-PK                :		99.61mV
Probe attenuation    :		1X
Voltage per ADC value:		0.122070mV
Time interval        :		2.00000us

index		CH1_Voltage(mV)
1		31.250000
2		31.250000
3		37.109375
4		31.250000
5		37.109375
6		29.296875
7		35.156250
8		27.343750
9		35.156250
10		27.343750
11		35.156250
12		25.390625
13		33.203125
14		27.343750
15		31.250000
16		25.390625
17		29.296875
18		23.437500
19		29.296875
20		21.484375
21		29.296875
22		19.531250
23		27.343750
24		19.531250
25		27.343750
26		17.578125
27		25.390625
28		17.578125
29		23.437500
30		17.578125
31		23.437500
32		15.625000
33		19.531250
34		15.625000
35		19.531250
36		11.718750
37		19.531250
38		11.718750
39		19.531250
40		9.765625
41		17.578125
42		9.765625
43		15.625000
44		7.812500
45		13.671875
46		5.859375
47		13.671875
48		7.812500
49		11.718750
50		5.859375
51		9.765625
52		1.953125
53		9.765625
54		1.953125
55		9.765625
56		0.000000
57		7.812500
58		0.000000
59		5.859375
60		-1.953125
61		5.859375
62		-3.906250
63		3.906250
64		-1.953125
65		3.906250
66		-3.906250
67		0.000000
68		-7.812500
69		0.000000
70		-7.812500
71		0.000000
72		-9.765625
73		-1.953125
74		-9.765625
75		-1.953125
76		-9.765625
77		-3.906250
78		-11.718750
79		-3.906250
80		-13.671875
81		-5.859375
82		-11.718750
83		-7.812500
84		-13.671875
85		-9.765625
86		-15.625000
87		-9.765625
88		-17.578125
89		-11.718750
90		-17.578125
91		-11.718750
92		-19.531250
93		-13.671875
94		-19.531250
95		-13.671875
96		-21.484375
97		-15.625000
98		-21.484375
99		-17.578125
100		-21.484375
101		-17.578125
102		-23.437500
103		-17.578125
104		-25.390625
105		-17.578125
106		-25.390625
107		-19.531250
108		-27.343750
109		-19.531250
110		-27.343750
111		-21.484375
112		-29.296875
113		-21.484375
114		-29.296875
115		-21.484375
116		-27.343750
117		-25.390625
118		-29.296875
119		-25.390625
120		-31.250000
121		-23.437500
122		-31.250000
123		-25.390625
124		-33.203125
125		-25.390625
126		-33.203125
127		-25.390625
128		-33.203125
129		-27.343750
130		-33.203125
131		-25.390625
132		-33.203125
133		-27.343750
134		-33.203125
135		-29.296875
136		-35.156250
137		-27.343750
138		-35.156250
139		-29.296875
140		-37.109375
141		-29.296875
142		-37.109375
143		-29.296875
144		-37.109375
145		-29.296875
146		-37.109375
147		-29.296875
148		-35.156250
149		-31.250000
150		-35.156250
151		-31.250000
152		-35.156250
153		-31.250000
154		-37.109375
155		-29.296875
156		-39.062500
157		-31.250000
158		-37.109375
159		-31.250000
160		-37.109375
161		-31.250000
162		-37.109375
163		-29.296875
164		-37.109375
165		-29.296875
166		-35.156250
167		-31.250000
168		-35.156250
169		-31.250000
170		-37.109375
171		-29.296875
172		-37.109375
173		-29.296875
174		-37.109375
175		-29.296875
176		-37.109375
177		-29.296875
178		-35.156250
179		-29.296875
180		-35.156250
181		-29.296875
182		-35.156250
183		-29.296875
184		-33.203125
185		-29.296875
186		-35.156250
187		-25.390625
188		-33.203125
189		-27.343750
190		-33.203125
191		-25.390625
192		-33.203125
193		-25.390625
194		-33.203125
195		-25.390625
196		-31.250000
197		-23.437500
198		-31.250000
199		-23.437500
200		-27.343750
201		-25.390625
202		-27.343750
203		-23.437500
204		-29.296875
205		-21.484375
206		-29.296875
207		-21.484375
208		-27.343750
209		-21.484375
210		-25.390625
211		-19.531250
212		-25.390625
213		-19.531250
214		-25.390625
215		-17.578125
216		-23.437500
217		-19.531250
218		-21.484375
219		-17.578125
220		-23.437500
221		-15.625000
222		-21.484375
223		-15.625000
224		-21.484375
225		-13.671875
226		-19.531250
227		-11.718750
228		-17.578125
229		-11.718750
230		-17.578125
231		-9.765625
232		-15.625000
233		-9.765625
234		-13.671875
235		-9.765625
236		-13.671875
237		-9.765625
238		-13.671875
239		-5.859375
240		-11.718750
241		-5.859375
242		-11.718750
243		-3.906250
244		-9.765625
245		-3.906250
246		-9.765625
247		-1.953125
248		-7.812500
249		0.000000
250		-5.859375
251		-1.953125
252		-3.906250
253		0.000000
254		-3.906250
255		3.906250
256		-3.906250
257		3.906250
258		-1.953125
259		3.906250
260		-1.953125
261		5.859375
262		0.000000
263		7.812500
264		0.000000
265		7.812500
266		1.953125
267		9.765625
268		3.906250
269		9.765625
270		5.859375
271		11.718750
272		5.859375
273		13.671875
274		5.859375
275		13.671875
276		7.812500
277		15.625000
278		9.765625
279		15.625000
280		9.765625
281		17.578125
282		11.718750
283		17.578125
284		13.671875
285		17.578125
286		15.625000
287		19.531250
288		15.625000
289		23.437500
290		15.625000
291		23.437500
292		17.578125
293		25.390625
294		17.578125
295		25.390625
296		19.531250
297		25.390625
298		19.531250
299		27.343750
300		21.484375
301		27.343750
302		25.390625
303		27.343750
304		25.390625
305		31.250000
306		25.390625
307		31.250000
308		25.390625
309		33.203125
310		27.343750
311		35.156250
312		27.343750
313		35.156250
314		29.296875
315		37.109375
316		29.296875
317		37.109375
318		33.203125
319		37.109375
320		33.203125
321		37.109375
322		33.203125
323		41.015625
324		35.156250
325		41.015625
326		35.156250
327		42.968750
328		35.156250
329		44.921875
330		37.109375
331		44.921875
332		37.109375
333		44.921875
334		41.015625
335		42.968750
336		41.015625
337		44.921875
338		39.062500
339		46.875000
340		41.015625
341		48.828125
342		41.015625
343		48.828125
344		42.968750
345		48.828125
346		42.968750
347		48.828125
348		42.968750
349		50.781250
350		44.921875
351		50.781250
352		46.875000
353		48.828125
354		46.875000
355		52.734375
356		44.921875
357		52.734375
358		46.875000
359		52.734375
360		46.875000
361		54.687500
362		46.875000
363		54.687500
364		48.828125
365		54.687500
366		48.828125
367		54.687500
368		50.781250
369		54.687500
370		50.781250
371		54.687500
372		48.828125
373		56.640625
374		48.828125
375		56.640625
376		50.781250
377		56.640625
378		50.781250
379		56.640625
380		50.781250
381		56.640625
382		50.781250
383		58.593750
384		50.781250
385		56.640625
386		52.734375
387		56.640625
388		50.781250
389		58.593750
390		50.781250
391		58.593750
392		50.781250
393		58.593750
394		50.781250
395		58.593750
396		50.781250
397		58.593750
398		50.781250
399		58.593750
400		52.734375
401		58.593750
402		52.734375
403		56.640625
404		52.734375
405		56.640625
406		50.781250
407		58.593750
408		50.781250
409		58.593750
410		50.781250
411		58.593750
412		50.781250
413		58.593750
414		50.781250
415		56.640625
416		48.828125
417		58.593750
418		52.734375
419		56.640625
420		52.734375
421		54.687500
422		48.828125
423		56.640625
424		48.828125
425		56.640625
426		48.828125
427		54.687500
428		48.828125
429		54.687500
430		46.875000
431		54.687500
432		46.875000
433		54.687500
434		46.875000
435		52.734375
436		48.828125
437		50.781250
438		44.921875
439		52.734375
440		44.921875
441		52.734375
442		44.921875
443		50.781250
444		42.968750
445		50.781250
446		42.968750
447		50.781250
448		42.968750
449		48.828125
450		41.015625
451		48.828125
452		42.968750
453		46.875000
454		42.968750
455		44.921875
456		39.062500
457		46.875000
458		39.062500
459		46.875000
460		37.109375
461		44.921875
462		37.109375
463		44.921875
464		35.156250
465		42.968750
466		35.156250
467		42.968750
468		35.156250
469		41.015625
470		35.156250
471		39.062500
472		33.203125
473		39.062500
474		31.250000
475		39.062500
476		29.296875
477		37.109375
478		31.250000
479		37.109375
480		27.343750
481		35.156250
482		27.343750
483		35.156250
484		25.390625
485		33.203125
486		27.343750
487		31.250000
488		25.390625
489		29.296875
490		23.437500
491		31.250000
492		21.484375
493		29.296875
494		21.484375
495		27.343750
496		17.578125
497		27.343750
498		17.578125
499		25.390625
500		17.578125
501		23.437500
502		17.578125
503		21.484375
504		17.578125
505		19.531250
506		13.671875
507		21.484375
508		13.671875
509		19.531250
510		9.765625
511		19.531250
512		9.765625
513		17.578125
514		9.765625
515		15.625000
516		7.812500
517		13.671875
518		7.812500
519		15.625000
520		7.812500
521		9.765625
522		3.906250
523		9.765625
524		1.953125
525		9.765625
526		1.953125
527		9.765625
528		0.000000
529		7.812500
530		-1.953125
531		7.812500
532		-1.953125
533		5.859375
534		-3.906250
535		3.906250
536		-1.953125
537		1.953125
538		-3.906250
539		0.000000
540		-5.859375
541		0.000000
542		-7.812500
543		0.000000
544		-9.765625
545		-1.953125
546		-9.765625
547		-1.953125
548		-9.765625
549		-1.953125
550		-11.718750
551		-5.859375
552		-11.718750
553		-5.859375
554		-13.671875
555		-9.765625
556		-13.671875
557		-9.765625
558		-17.578125
559		-9.765625
560		-17.578125
561		-9.765625
562		-17.578125
563		-9.765625
564		-19.531250
565		-11.718750
566		-21.484375
567		-13.671875
568		-21.484375
569		-13.671875
570		-21.484375
571		-17.578125
572		-21.484375
573		-17.578125
574		-23.437500
575		-17.578125
576		-25.390625
577		-17.578125
578		-25.390625
579		-19.531250
580		-27.343750
581		-19.531250
582		-27.343750
583		-21.484375
584		-29.296875
585		-21.484375
586		-27.343750
587		-21.484375
588		-27.343750
589		-23.437500
590		-29.296875
591		-23.437500
592		-31.250000
593		-23.437500
594		-31.250000
595		-23.437500
596		-33.203125
597		-25.390625
598		-33.203125
599		-25.390625
600		-33.203125
601		-25.390625
602		-33.203125
603		-27.343750
604		-31.250000
605		-29.296875
606		-33.203125
607		-27.343750
608		-35.156250
609		-27.343750
610		-35.156250
611		-27.343750
612		-35.156250
613		-29.296875
614		-37.109375
615		-29.296875
616		-37.109375
617		-29.296875
618		-37.109375
619		-29.296875
620		-35.156250
621		-31.250000
622		-35.156250
623		-31.250000
624		-37.109375
625		-29.296875
626		-37.109375
627		-29.296875
628		-37.109375
629		-29.296875
630		-37.109375
631		-31.250000
632		-37.109375
633		-29.296875
634		-37.109375
635		-29.296875
636		-37.109375
637		-31.250000
638		-35.156250
639		-31.250000
640		-37.109375
641		-29.296875
642		-37.109375
643		-29.296875
644		-37.109375
645		-29.296875
646		-37.109375
647		-29.296875
648		-35.156250
649		-27.343750
650		-35.156250
651		-29.296875
652		-35.156250
653		-29.296875
654		-33.203125
655		-29.296875
656		-33.203125
657		-29.296875
658		-35.156250
659		-27.343750
660		-33.203125
661		-25.390625
662		-33.203125
663		-25.390625
664		-33.203125
665		-25.390625
666		-31.250000
667		-25.390625
668		-31.250000
669		-23.437500
670		-31.250000
671		-23.437500
672		-27.343750
673		-25.390625
674		-29.296875
675		-23.437500
676		-29.296875
677		-21.484375
678		-29.296875
679		-19.531250
680		-27.343750
681		-19.531250
682		-27.343750
683		-19.531250
684		-25.390625
685		-17.578125
686		-25.390625
687		-17.578125
688		-21.484375
689		-17.578125
690		-21.484375
691		-17.578125
692		-21.484375
693		-15.625000
694		-21.484375
695		-13.671875
696		-21.484375
697		-11.718750
698		-19.531250
699		-11.718750
700		-19.531250
701		-11.718750
702		-17.578125
703		-9.765625
704		-13.671875
705		-11.718750
706		-13.671875
707		-9.765625
708		-15.625000
709		-5.859375
710		-11.718750
711		-5.859375
712		-11.718750
713		-3.906250
714		-11.718750
715		-3.906250
716		-9.765625
717		-3.906250
718		-7.812500
719		-1.953125
720		-7.812500
721		-1.953125
722		-5.859375
723		-1.953125
724		-3.906250
725		1.953125
726		-5.859375
727		3.906250
728		-1.953125
729		3.906250
730		-3.906250
731		5.859375
732		-1.953125
733		5.859375
734		0.000000
735		7.812500
736		0.000000
737		7.812500
738		3.906250
739		7.812500
740		5.859375
741		9.765625
742		5.859375
743		11.718750
744		5.859375
745		13.671875
746		7.812500
747		15.625000
748		9.765625
749		15.625000
750		9.765625
751		17.578125
752		9.765625
753		17.578125
754		11.718750
755		19.531250
756		15.625000
757		19.531250
758		15.625000
759		21.484375
760		15.625000
761		23.437500
762		15.625000
763		23.437500
764		17.578125
765		25.390625
766		19.531250
767		25.390625
768		19.531250
769		27.343750
770		19.531250
771		27.343750
772		23.437500
773		27.343750
774		25.390625
775		29.296875
776		23.437500
777		31.250000
778		25.390625
779		33.203125
780		25.390625
781		33.203125
782		27.343750
783		35.156250
784		27.343750
785		35.156250
786		29.296875
787		37.109375
788		33.203125
789		35.156250
790		33.203125
791		37.109375
792		33.203125
793		39.062500
794		33.203125
795		41.015625
796		33.203125
797		41.015625
798		35.156250
799		42.968750
800		35.156250
801		42.968750
802		37.109375
803		42.968750
804		39.062500
805		42.968750
806		41.015625
807		42.968750
808		39.062500
809		46.875000
810		39.062500
811		46.875000
812		41.015625
813		46.875000
814		41.015625
815		48.828125
816		41.015625
817		50.781250
818		42.968750
819		50.781250
820		42.968750
821		50.781250
822		46.875000
823		48.828125
824		46.875000
825		50.781250
826		44.921875
827		52.734375
828		44.921875
829		52.734375
830		46.875000
831		52.734375
832		46.875000
833		54.687500
834		46.875000
835		54.687500
836		46.875000
837		54.687500
838		48.828125
839		54.687500
840		50.781250
841		54.687500
842		50.781250
843		56.640625
844		50.781250
845		56.640625
846		48.828125
847		56.640625
848		50.781250
849		58.593750
850		50.781250
851		56.640625
852		48.828125
853		58.593750
854		50.781250
855		58.593750
856		52.734375
857		56.640625
858		52.734375
859		56.640625
860		50.781250
861		58.593750
862		52.734375
863		58.593750
864		50.781250
865		58.593750
866		50.781250
867		58.593750
868		50.781250
869		58.593750
870		52.734375
871		58.593750
872		52.734375
873		56.640625
874		52.734375
875		56.640625
876		52.734375
877		58.593750
878		50.781250
879		58.593750
880		50.781250
881		58.593750
882		50.781250
883		58.593750
884		50.781250
885		58.593750
886		50.781250
887		58.593750
888		50.781250
889		56.640625
890		52.734375
891		54.687500
892		50.781250
893		54.687500
894		48.828125
895		56.640625
896		48.828125
897		56.640625
898		48.828125
899		54.687500
900		46.875000
901		54.687500
902		46.875000
903		54.687500
904		46.875000
905		54.687500
906		48.828125
907		52.734375
908		48.828125
909		50.781250
910		44.921875
911		52.734375
912		44.921875
913		52.734375
914		44.921875
915		50.781250
916		44.921875
917		50.781250
918		42.968750
919		48.828125
920		42.968750
921		48.828125
922		42.968750
923		48.828125
924		42.968750
925		46.875000
926		39.062500
927		46.875000
928		39.062500
929		46.875000
930		39.062500
931		44.921875
932		37.109375
933		44.921875
934		37.109375
935		44.921875
936		35.156250
937		44.921875
938		35.156250
939		42.968750
940		35.156250
941		39.062500
942		35.156250
943		39.062500
944		31.250000
945		39.062500
946		31.250000
947		39.062500
948		29.296875
949		37.109375
950		29.296875
951		37.109375
952		27.343750
953		35.156250
954		25.390625
955		35.156250
956		27.343750
957		31.250000
958		27.343750
959		31.250000
960		23.437500
961		31.250000
962		23.437500
963		31.250000
964		21.484375
965		29.296875
966		19.531250
967		27.343750
968		19.531250
969		27.343750
970		17.578125
971		25.390625
972		17.578125
973		23.437500
974		17.578125
975		21.484375
976		15.625000
977		19.531250
978		13.671875
979		21.484375
980		11.718750
981		19.531250
982		11.718750
983		17.578125
984		9.765625
985		17.578125
986		7.812500
987		15.625000
988		7.812500
989		13.671875
990		7.812500
991		11.718750
992		7.812500
993		11.718750
994		3.906250
995		11.718750
996		1.953125
997		9.765625
998		1.953125
999		9.765625
1000		0.000000
1001		7.812500
1002		-1.953125
1003		5.859375
1004		-1.953125
1005		5.859375
1006		-1.953125
1007		3.906250
1008		-1.953125
1009		1.953125
1010		-5.859375
1011		0.000000
1012		-5.859375
1013		1.953125
1014		-7.812500
1015		0.000000
1016		-9.765625
1017		-1.953125
1018		-9.765625
1019		-3.906250
1020		-11.718750
1021		-3.906250
1022		-11.718750
1023		-3.906250
1024		-11.718750
1025		-7.812500
1026		-11.718750
1027		-9.765625
1028		-15.625000
1029		-7.812500
1030		-15.625000
1031		-9.765625
1032		-17.578125
1033		-11.718750
1034		-19.531250
1035		-11.718750
1036		-19.531250
1037		-11.718750
1038		-19.531250
1039		-13.671875
1040		-19.531250
1041		-15.625000
1042		-19.531250
1043		-17.578125
1044		-23.437500
1045		-17.578125
1046		-25.390625
1047		-15.625000
1048		-25.390625
1049		-17.578125
1050		-25.390625
1051		-19.531250
1052		-27.343750
1053		-19.531250
1054		-27.343750
1055		-19.531250
1056		-27.343750
1057		-21.484375
1058		-27.343750
1059		-23.437500
1060		-29.296875
1061		-23.437500
1062		-29.296875
1063		-23.437500
1064		-31.250000
1065		-23.437500
1066		-31.250000
1067		-25.390625
1068		-33.203125
1069		-25.390625
1070		-33.203125
1071		-25.390625
1072		-33.203125
1073		-25.390625
1074		-31.250000
1075		-29.296875
1076		-31.250000
1077		-29.296875
1078		-35.156250
1079		-27.343750
1080		-35.156250
1081		-27.343750
1082		-35.156250
1083		-27.343750
1084		-35.156250
1085		-29.296875
1086		-35.156250
1087		-29.296875
1088		-37.109375
1089		-29.296875
1090		-35.156250
1091		-31.250000
1092		-35.156250
1093		-31.250000
1094		-35.156250
1095		-29.296875
1096		-37.109375
1097		-29.296875
1098		-37.109375
1099		-29.296875
1100		-37.109375
1101		-29.296875
1102		-37.109375
1103		-29.296875
1104		-37.109375
1105		-31.250000
1106		-37.109375
1107		-29.296875
1108		-35.156250
1109		-31.250000
1110		-35.156250
1111		-31.250000
1112		-37.109375
1113		-29.296875
1114		-37.109375
1115		-29.296875
1116		-37.109375
1117		-27.343750
1118		-37.109375
1119		-29.296875
1120		-35.156250
1121		-27.343750
1122		-35.156250
1123		-27.343750
1124		-33.203125
1125		-29.296875
1126		-33.203125
1127		-29.296875
1128		-33.203125
1129		-25.390625
1130		-33.203125
1131		-25.390625
1132		-33.203125
1133		-25.390625
1134		-33.203125
1135		-25.390625
1136		-31.250000
1137		-25.390625
1138		-31.250000
1139		-23.437500
1140		-31.250000
1141		-25.390625
1142		-29.296875
1143		-25.390625
1144		-27.343750
1145		-23.437500
1146		-29.296875
1147		-21.484375
1148		-29.296875
1149		-21.484375
1150		-29.296875
1151		-21.484375
1152		-27.343750
1153		-19.531250
1154		-25.390625
1155		-19.531250
1156		-25.390625
1157		-17.578125
1158		-21.484375
1159		-19.531250
1160		-21.484375
1161		-17.578125
1162		-23.437500
1163		-15.625000
1164		-21.484375
1165		-15.625000
1166		-21.484375
1167		-13.671875
1168		-19.531250
1169		-11.718750
1170		-19.531250
1171		-11.718750
1172		-17.578125
1173		-11.718750
1174		-17.578125
1175		-9.765625
1176		-13.671875
1177		-9.765625
1178		-15.625000
1179		-7.812500
1180		-13.671875
1181		-5.859375
1182		-13.671875
1183		-5.859375
1184		-11.718750
1185		-3.906250
1186		-9.765625
1187		-1.953125
1188		-9.765625
1189		-1.953125
1190		-9.765625
1191		-1.953125
1192		-5.859375
1193		-1.953125
1194		-3.906250
1195		0.000000
1196		-5.859375
1197		1.953125
1198		-3.906250
1199		3.906250
1200		-1.953125
1201		3.906250
1202		-1.953125
1203		5.859375
1204		0.000000
1205		7.812500
1206		0.000000
1207		7.812500
1208		3.906250
1209		7.812500
1210		5.859375
1211		7.812500
1212		5.859375
1213		11.718750
1214		5.859375
1215		11.718750
1216		5.859375
1217		13.671875
1218		7.812500
1219		13.671875
1220		9.765625
1221		15.625000
1222		9.765625
1223		17.578125
1224		11.718750
1225		17.578125
1226		13.671875
1227		17.578125
1228		15.625000
1229		19.531250
1230		13.671875
1231		21.484375
1232		15.625000
1233		23.437500
1234		15.625000
1235		25.390625
1236		17.578125
1237		25.390625
1238		19.531250
1239		27.343750
1240		19.531250
1241		27.343750
1242		23.437500
1243		27.343750
1244		25.390625
1245		27.343750
1246		23.437500
1247		31.250000
1248		23.437500
1249		31.250000
1250		25.390625
1251		33.203125
1252		27.343750
1253		35.156250
1254		27.343750
1255		35.156250
1256		29.296875
1257		37.109375
1258		31.250000
1259		35.156250
1260		33.203125
1261		37.109375
1262		33.203125
1263		39.062500
1264		33.203125
1265		39.062500
1266		33.203125
1267		41.015625
1268		35.156250
1269		42.968750
1270		35.156250
1271		42.968750
1272		37.109375
1273		44.921875
1274		37.109375
1275		42.968750
1276		39.062500
1277		42.968750
1278		41.015625
1279		44.921875
1280		41.015625
1281		46.875000
1282		41.015625
1283		48.828125
1284		41.015625
1285		48.828125
1286		41.015625
1287		48.828125
1288		42.968750
1289		50.781250
1290		42.968750
1291		50.781250
1292		46.875000
1293		50.781250
1294		46.875000
1295		50.781250
1296		44.921875
1297		52.734375
1298		46.875000
1299		52.734375
1300		46.875000
1301		54.687500
1302		46.875000
1303		54.687500
1304		46.875000
1305		54.687500
1306		46.875000
1307		54.687500
1308		48.828125
1309		56.640625
1310		50.781250
1311		54.687500
1312		50.781250
1313		54.687500
1314		48.828125
1315		56.640625
1316		50.781250
1317		56.640625
1318		50.781250
1319		56.640625
1320		50.781250
1321		56.640625
1322		50.781250
1323		58.593750
1324		50.781250
1325		58.593750
1326		52.734375
1327		56.640625
1328		52.734375
1329		56.640625
1330		50.781250
1331		58.593750
1332		52.734375
1333		58.593750
1334		50.781250
1335		58.593750
1336		52.734375
1337		58.593750
1338		52.734375
1339		58.593750
1340		50.781250
1341		58.593750
1342		50.781250
1343		58.593750
1344		54.687500
1345		56.640625
1346		52.734375
1347		56.640625
1348		50.781250
1349		58.593750
1350		50.781250
1351		58.593750
1352		50.781250
1353		58.593750
1354		50.781250
1355		58.593750
1356		50.781250
1357		58.593750
1358		50.781250
1359		58.593750
1360		52.734375
1361		54.687500
1362		52.734375
1363		54.687500
1364		50.781250
1365		56.640625
1366		48.828125
1367		56.640625
1368		48.828125
1369		56.640625
1370		48.828125
1371		56.640625
1372		46.875000
1373		54.687500
1374		46.875000
1375		54.687500
1376		48.828125
1377		52.734375
1378		48.828125
1379		52.734375
1380		46.875000
1381		52.734375
1382		44.921875
1383		52.734375
1384		44.921875
1385		52.734375
1386		44.921875
1387		50.781250
1388		42.968750
1389		50.781250
1390		42.968750
1391		50.781250
1392		42.968750
1393		48.828125
1394		42.968750
1395		46.875000
1396		42.968750
1397		46.875000
1398		39.062500
1399		46.875000
1400		39.062500
1401		46.875000
1402		39.062500
1403		44.921875
1404		37.109375
1405		44.921875
1406		37.109375
1407		42.968750
1408		35.156250
1409		42.968750
1410		37.109375
1411		41.015625
1412		35.156250
1413		39.062500
1414		33.203125
1415		39.062500
1416		33.203125
1417		39.062500
1418		31.250000
1419		39.062500
1420		29.296875
1421		37.109375
1422		29.296875
1423		37.109375
1424		27.343750
1425		35.156250
1426		27.343750
1427		33.203125
1428		27.343750
1429		31.250000
1430		25.390625
1431		29.296875
1432		25.390625
1433		31.250000
1434		21.484375
1435		29.296875
1436		21.484375
1437		29.296875
1438		21.484375
1439		27.343750
1440		19.531250
1441		27.343750
1442		17.578125
1443		25.390625
1444		19.531250
1445		21.484375
1446		17.578125
1447		21.484375
1448		15.625000
1449		21.484375
1450		13.671875
1451		21.484375
1452		11.718750
1453		19.531250
1454		11.718750
1455		19.531250
1456		9.765625
1457		17.578125
1458		7.812500
1459		15.625000
1460		9.765625
1461		13.671875
1462		7.812500
1463		11.718750
1464		5.859375
1465		11.718750
1466		1.953125
1467		9.765625
1468		1.953125
1469		9.765625
1470		0.000000
1471		7.812500
1472		0.000000
1473		7.812500
1474		-1.953125
1475		5.859375
1476		-1.953125
1477		5.859375
1478		-1.953125
1479		1.953125
1480		-3.906250
1481		0.000000
1482		-5.859375
1483		1.953125
1484		-5.859375
1485		0.000000
1486		-7.812500
1487		0.000000
1488		-9.765625
1489		-1.953125
1490		-9.765625
1491		-1.953125
1492		-11.718750
1493		-3.906250
1494		-9.765625
1495		-7.812500
1496		-11.718750
1497		-7.812500
1498		-13.671875
1499		-7.812500
1500		-15.625000
1501		-7.812500
1502		-17.578125
1503		-9.765625
1504		-17.578125
1505		-11.718750
1506		-19.531250
1507		-11.718750
1508		-19.531250
1509		-11.718750
1510		-19.531250
1511		-13.671875
1512		-19.531250
1513		-15.625000
1514		-21.484375
1515		-15.625000
1516		-23.437500
1517		-15.625000
1518		-23.437500
1519		-15.625000
1520		-25.390625
1521		-17.578125
1522		-25.390625
1523		-19.531250
1524		-27.343750
1525		-19.531250
1526		-27.343750
1527		-21.484375
1528		-25.390625
1529		-23.437500
1530		-27.343750
1531		-23.437500
1532		-29.296875
1533		-21.484375
1534		-29.296875
1535		-23.437500
1536		-31.250000
1537		-23.437500
1538		-31.250000
1539		-25.390625
1540		-33.203125
1541		-25.390625
1542		-31.250000
1543		-25.390625
1544		-31.250000
1545		-25.390625
1546		-31.250000
1547		-29.296875
1548		-33.203125
1549		-27.343750
1550		-35.156250
1551		-27.343750
1552		-35.156250
1553		-29.296875
1554		-35.156250
1555		-27.343750
1556		-35.156250
1557		-27.343750
1558		-35.156250
1559		-29.296875
1560		-37.109375
1561		-29.296875
1562		-33.203125
1563		-31.250000
1564		-35.156250
1565		-31.250000
1566		-35.156250
1567		-31.250000
1568		-35.156250
1569		-31.250000
1570		-35.156250
1571		-31.250000
1572		-37.109375
1573		-31.250000
1574		-35.156250
1575		-31.250000
1576		-37.109375
1577		-29.296875
1578		-35.156250
1579		-31.250000
1580		-35.156250
1581		-31.250000
1582		-37.109375
1583		-29.296875
1584		-33.203125
1585		-31.250000
1586		-35.156250
1587		-29.296875
1588		-35.156250
1589		-29.296875
1590		-33.203125
1591		-29.296875
1592		-35.156250
1593		-27.343750
1594		-33.203125
1595		-29.296875
1596		-31.250000
1597		-29.296875
1598		-33.203125
1599		-27.343750
1600		-31.250000
1601		-27.343750
1602		-31.250000
1603		-27.343750
1604		-31.250000
1605		-27.343750
1606		-29.296875
1607		-27.343750
1608		-29.296875
1609		-25.390625
1610		-29.296875
1611		-25.390625
1612		-27.343750
1613		-25.390625
1614		-27.343750
1615		-25.390625
1616		-27.343750
1617		-23.437500
1618		-27.343750
1619		-23.437500
1620		-25.390625
1621		-21.484375
1622		-25.390625
1623		-21.484375
1624		-23.437500
1625		-19.531250
1626		-23.437500
1627		-19.531250
1628		-23.437500
1629		-19.531250
1630		-21.484375
1631		-17.578125
1632		-21.484375
1633		-17.578125
1634		-19.531250
1635		-15.625000
1636		-19.531250
1637		-15.625000
1638		-17.578125
1639		-13.671875
1640		-17.578125
1641		-13.671875
1642		-15.625000
1643		-11.718750
1644		-15.625000
1645		-11.718750
1646		-13.671875
1647		-9.765625
1648		-13.671875
1649		-9.765625
1650		-13.671875
1651		-7.812500
1652		-11.718750
1653		-7.812500
1654		-9.765625
1655		-5.859375
1656		-9.765625
1657		-3.906250
1658		-7.812500
1659		-3.906250
1660		-5.859375
1661		-1.953125
1662		-5.859375
1663		-1.953125
1664		-3.906250
1665		0.000000
1666		-3.906250
1667		0.000000
1668		-1.953125
1669		1.953125
1670		-1.953125
1671		3.906250
1672		0.000000
1673		3.906250
1674		0.000000
1675		5.859375
1676		1.953125
1677		5.859375
1678		3.906250
1679		7.812500
1680		3.906250
1681		7.812500
1682		5.859375
1683		11.718750
1684		5.859375
1685		9.765625
1686		7.812500
1687		11.718750
1688		9.765625
1689		13.671875
1690		9.765625
1691		15.625000
1692		11.718750
1693		15.625000
1694		11.718750
1695		15.625000
1696		13.671875
1697		17.578125
1698		15.625000
1699		19.531250
1700		15.625000
1701		19.531250
1702		17.578125
1703		21.484375
1704		19.531250
1705		23.437500
1706		19.531250
1707		23.437500
1708		19.531250
1709		25.390625
1710		21.484375
1711		25.390625
1712		23.437500
1713		27.343750
1714		23.437500
1715		27.343750
1716		25.390625
1717		31.250000
1718		25.390625
1719		29.296875
1720		25.390625
1721		31.250000
1722		27.343750
1723		31.250000
1724		29.296875
1725		33.203125
1726		31.250000
1727		35.156250
1728		31.250000
1729		35.156250
1730		33.203125
1731		37.109375
1732		33.203125
1733		37.109375
1734		33.203125
1735		39.062500
1736		35.156250
1737		39.062500
1738		37.109375
1739		41.015625
1740		37.109375
1741		41.015625
1742		37.109375
1743		41.015625
1744		39.062500
1745		42.968750
1746		39.062500
1747		42.968750
1748		41.015625
1749		44.921875
1750		41.015625
1751		44.921875
1752		41.015625
1753		46.875000
1754		42.968750
1755		46.875000
1756		42.968750
1757		46.875000
1758		44.921875
1759		48.828125
1760		44.921875
1761		48.828125
1762		44.921875
1763		48.828125
1764		46.875000
1765		50.781250
1766		46.875000
1767		50.781250
1768		48.828125
1769		50.781250
1770		48.828125
1771		52.734375
1772		48.828125
1773		52.734375
1774		48.828125
1775		52.734375
1776		50.781250
1777		52.734375
1778		50.781250
1779		52.734375
1780		50.781250
1781		54.687500
1782		50.781250
1783		54.687500
1784		50.781250
1785		54.687500
1786		52.734375
1787		56.640625
1788		52.734375
1789		56.640625
1790		52.734375
1791		56.640625
1792		52.734375
1793		56.640625
1794		52.734375
1795		56.640625
1796		52.734375
1797		56.640625
1798		54.687500
1799		56.640625
1800		52.734375
1801		56.640625
1802		54.687500
1803		56.640625
1804		52.734375
1805		56.640625
1806		54.687500
1807		58.593750
1808		52.734375
1809		58.593750
1810		54.687500
1811		58.593750
1812		54.687500
1813		58.593750
1814		54.687500
1815		58.593750
1816		54.687500
1817		56.640625
1818		54.687500
1819		58.593750
1820		52.734375
1821		58.593750
1822		54.687500
1823		56.640625
1824		52.734375
1825		56.640625
1826		52.734375
1827		56.640625
1828		52.734375
1829		56.640625
1830		52.734375
1831		56.640625
1832		52.734375
1833		56.640625
1834		52.734375
1835		56.640625
1836		52.734375
1837		56.640625
1838		50.781250
1839		54.687500
1840		50.781250
1841		54.687500
1842		50.781250
1843		54.687500
1844		50.781250
1845		54.687500
1846		48.828125
1847		54.687500
1848		48.828125
1849		52.734375
1850		48.828125
1851		52.734375
1852		48.828125
1853		52.734375
1854		48.828125
1855		50.781250
1856		46.875000
1857		50.781250
1858		46.875000
1859		50.781250
1860		44.921875
1861		48.828125
1862		44.921875
1863		48.828125
1864		44.921875
1865		48.828125
1866		44.921875
1867		46.875000
1868		42.968750
1869		46.875000
1870		41.015625
1871		46.875000
1872		41.015625
1873		44.921875
1874		41.015625
1875		44.921875
1876		39.062500
1877		42.968750
1878		39.062500
1879		42.968750
1880		37.109375
1881		42.968750
1882		37.109375
1883		41.015625
1884		35.156250
1885		39.062500
1886		35.156250
1887		39.062500
1888		33.203125
1889		37.109375
1890		33.203125
1891		37.109375
1892		31.250000
1893		35.156250
1894		31.250000
1895		35.156250
1896		29.296875
1897		33.203125
1898		29.296875
1899		33.203125
1900		27.343750
1901		31.250000
1902		27.343750
1903		29.296875
1904		25.390625
1905		29.296875
1906		25.390625
1907		27.343750
1908		23.437500
1909		27.343750
1910		23.437500
1911		25.390625
1912		21.484375
1913		25.390625
1914		19.531250
1915		25.390625
1916		19.531250
1917		23.437500
1918		17.578125
1919		21.484375
1920		15.625000
1921		19.531250
1922		15.625000
1923		19.531250
1924		13.671875
1925		17.578125
1926		11.718750
1927		17.578125
1928		11.718750
1929		15.625000
1930		9.765625
1931		13.671875
1932		9.765625
1933		13.671875
1934		7.812500
1935		11.718750
1936		7.812500
1937		11.718750
1938		5.859375
1939		9.765625
1940		1.953125
1941		7.812500
1942		3.906250
1943		7.812500
1944		1.953125
1945		5.859375
1946		0.000000
1947		3.906250
1948		0.000000
1949		3.906250
1950		-1.953125
1951		1.953125
1952		-3.906250
1953		1.953125
1954		-3.906250
1955		0.000000
1956		-5.859375
1957		0.000000
1958		-5.859375
1959		-1.953125
1960		-7.812500
1961		-3.906250
1962		-7.812500
1963		-3.906250
1964		-9.765625
1965		-5.859375
1966		-9.765625
1967		-7.812500
1968		-11.718750
1969		-7.812500
1970		-11.718750
1971		-9.765625
1972		-13.671875
1973		-9.765625
1974		-15.625000
1975		-11.718750
1976		-15.625000
1977		-11.718750
1978		-17.578125
1979		-13.671875
1980		-17.578125
1981		-13.671875
1982		-17.578125
1983		-15.625000
1984		-19.531250
1985		-15.625000
1986		-21.484375
1987		-17.578125
1988		-21.484375
1989		-17.578125
1990		-21.484375
1991		-17.578125
1992		-23.437500
1993		-19.531250
1994		-23.437500
1995		-19.531250
1996		-25.390625
1997		-21.484375
1998		-25.390625
1999		-21.484375
2000		-25.390625
2001		-21.484375
2002		-27.343750
2003		-23.437500
2004		-27.343750
2005		-23.437500
2006		-27.343750
2007		-23.437500
2008		-29.296875
2009		-25.390625
2010		-29.296875
2011		-25.390625
2012		-29.296875
2013		-25.390625
2014		-31.250000
2015		-27.343750
2016		-31.250000
2017		-27.343750
2018		-33.203125
2019		-27.343750
2020		-33.203125
2021		-27.343750
2022		-33.203125
2023		-27.343750
2024		-33.203125
2025		-29.296875
2026		-33.203125
2027		-29.296875
2028		-33.203125
2029		-29.296875
2030		-35.156250
2031		-29.296875
2032		-33.203125
2033		-31.250000
2034		-33.203125
2035		-31.250000
2036		-33.203125
2037		-29.296875
2038		-33.203125
2039		-31.250000
2040		-35.156250
2041		-31.250000
2042		-35.156250
2043		-31.250000
2044		-35.156250
2045		-31.250000
2046		-33.203125
2047		-31.250000
2048		-35.156250
2049		-29.296875
2050		-33.203125
2051		-31.250000
2052		-35.156250
2053		-31.250000
2054		-35.156250
2055		-31.250000
2056		-33.203125
2057		-29.296875
2058		-33.203125
2059		-31.250000
2060		-33.203125
2061		-29.296875
2062		-33.203125
2063		-29.296875
2064		-33.203125
2065		-29.296875
2066		-33.203125
2067		-29.296875
2068		-31.250000
2069		-29.296875
2070		-33.203125
2071		-27.343750
2072		-31.250000
2073		-27.343750
2074		-31.250000
2075		-27.343750
2076		-29.296875
2077		-25.390625
2078		-31.250000
2079		-25.390625
2080		-29.296875
2081		-25.390625
2082		-29.296875
2083		-25.390625
2084		-27.343750
2085		-23.437500
2086		-27.343750
2087		-23.437500
2088		-27.343750
2089		-23.437500
2090		-25.390625
2091		-21.484375
2092		-25.390625
2093		-21.484375
2094		-23.437500
2095		-21.484375
2096		-23.437500
2097		-19.531250
2098		-23.437500
2099		-17.578125
2100		-21.484375
2101		-17.578125
2102		-21.484375
2103		-17.578125
2104		-21.484375
2105		-15.625000
2106		-19.531250
2107		-15.625000
2108		-17.578125
2109		-13.671875
2110		-17.578125
2111		-13.671875
2112		-15.625000
2113		-13.671875
2114		-15.625000
2115		-11.718750
2116		-13.671875
2117		-9.765625
2118		-13.671875
2119		-9.765625
2120		-11.718750
2121		-7.812500
2122		-11.718750
2123		-7.812500
2124		-9.765625
2125		-5.859375
2126		-9.765625
2127		-5.859375
2128		-7.812500
2129		-3.906250
2130		-7.812500
2131		-3.906250
2132		-5.859375
2133		-1.953125
2134		-3.906250
2135		-1.953125
2136		-3.906250
2137		0.000000
2138		-3.906250
2139		1.953125
2140		-1.953125
2141		1.953125
2142		0.000000
2143		3.906250
2144		0.000000
2145		5.859375
2146		1.953125
2147		5.859375
2148		3.906250
2149		5.859375
2150		3.906250
2151		7.812500
2152		5.859375
2153		9.765625
2154		5.859375
2155		9.765625
2156		7.812500
2157		11.718750
2158		7.812500
2159		13.671875
2160		9.765625
2161		13.671875
2162		11.718750
2163		15.625000
2164		11.718750
2165		15.625000
2166		11.718750
2167		17.578125
2168		15.625000
2169		19.531250
2170		15.625000
2171		19.531250
2172		17.578125
2173		21.484375
2174		17.578125
2175		23.437500
2176		19.531250
2177		23.437500
2178		21.484375
2179		23.437500
2180		21.484375
2181		25.390625
2182		23.437500
2183		27.343750
2184		23.437500
2185		27.343750
2186		25.390625
2187		29.296875
2188		25.390625
2189		29.296875
2190		25.390625
2191		31.250000
2192		27.343750
2193		33.203125
2194		29.296875
2195		33.203125
2196		29.296875
2197		35.156250
2198		31.250000
2199		35.156250
2200		31.250000
2201		35.156250
2202		33.203125
2203		37.109375
2204		33.203125
2205		39.062500
2206		35.156250
2207		39.062500
2208		35.156250
2209		41.015625
2210		37.109375
2211		41.015625
2212		37.109375
2213		41.015625
2214		39.062500
2215		42.968750
2216		39.062500
2217		42.968750
2218		41.015625
2219		42.968750
2220		41.015625
2221		44.921875
2222		41.015625
2223		46.875000
2224		42.968750
2225		46.875000
2226		42.968750
2227		46.875000
2228		44.921875
2229		48.828125
2230		44.921875
2231		48.828125
2232		44.921875
2233		50.781250
2234		46.875000
2235		50.781250
2236		46.875000
2237		50.781250
2238		46.875000
2239		52.734375
2240		48.828125
2241		52.734375
2242		48.828125
2243		52.734375
2244		48.828125
2245		52.734375
2246		50.781250
2247		52.734375
2248		50.781250
2249		54.687500
2250		50.781250
2251		54.687500
2252		52.734375
2253		54.687500
2254		50.781250
2255		54.687500
2256		52.734375
2257		56.640625
2258		52.734375
2259		56.640625
2260		52.734375
2261		56.640625
2262		52.734375
2263		56.640625
2264		52.734375
2265		56.640625
2266		52.734375
2267		56.640625
2268		54.687500
2269		56.640625
2270		54.687500
2271		56.640625
2272		54.687500
2273		58.593750
2274		54.687500
2275		58.593750
2276		52.734375
2277		58.593750
2278		52.734375
2279		58.593750
2280		54.687500
2281		58.593750
2282		52.734375
2283		58.593750
2284		54.687500
2285		58.593750
2286		54.687500
2287		58.593750
2288		52.734375
2289		58.593750
2290		54.687500
2291		58.593750
2292		54.687500
2293		56.640625
2294		54.687500
2295		56.640625
2296		54.687500
2297		56.640625
2298		54.687500
2299		56.640625
2300		52.734375
2301		58.593750
2302		52.734375
2303		56.640625
2304		52.734375
2305		56.640625
2306		52.734375
2307		56.640625
2308		50.781250
2309		56.640625
2310		50.781250
2311		54.687500
2312		50.781250
2313		54.687500
2314		50.781250
2315		54.687500
2316		48.828125
2317		54.687500
2318		50.781250
2319		52.734375
2320		48.828125
2321		52.734375
2322		48.828125
2323		52.734375
2324		46.875000
2325		52.734375
2326		48.828125
2327		50.781250
2328		46.875000
2329		50.781250
2330		46.875000
2331		50.781250
2332		44.921875
2333		48.828125
2334		44.921875
2335		48.828125
2336		44.921875
2337		48.828125
2338		42.968750
2339		46.875000
2340		42.968750
2341		46.875000
2342		42.968750
2343		46.875000
2344		41.015625
2345		44.921875
2346		41.015625
2347		44.921875
2348		39.062500
2349		42.968750
2350		39.062500
2351		42.968750
2352		37.109375
2353		41.015625
2354		37.109375
2355		41.015625
2356		35.156250
2357		41.015625
2358		35.156250
2359		39.062500
2360		33.203125
2361		37.109375
2362		33.203125
2363		37.109375
2364		31.250000
2365		35.156250
2366		31.250000
2367		35.156250
2368		29.296875
2369		33.203125
2370		29.296875
2371		33.203125
2372		27.343750
2373		31.250000
2374		27.343750
2375		29.296875
2376		25.390625
2377		29.296875
2378		23.437500
2379		29.296875
2380		23.437500
2381		27.343750
2382		21.484375
2383		25.390625
2384		21.484375
2385		25.390625
2386		19.531250
2387		23.437500
2388		19.531250
2389		23.437500
2390		17.578125
2391		21.484375
2392		15.625000
2393		19.531250
2394		15.625000
2395		19.531250
2396		13.671875
2397		17.578125
2398		11.718750
2399		17.578125
2400		11.718750
2401		15.625000
2402		9.765625
2403		13.671875
2404		9.765625
2405		13.671875
2406		7.812500
2407		11.718750
2408		5.859375
2409		9.765625
2410		5.859375
2411		9.765625
2412		3.906250
2413		7.812500
2414		3.906250
2415		7.812500
2416		1.953125
2417		5.859375
2418		0.000000
2419		3.906250
2420		0.000000
2421		3.906250
2422		-1.953125
2423		1.953125
2424		-1.953125
2425		1.953125
2426		-3.906250
2427		0.000000
2428		-3.906250
2429		-1.953125
2430		-5.859375
2431		-1.953125
2432		-7.812500
2433		-1.953125
2434		-9.765625
2435		-3.906250
2436		-9.765625
2437		-5.859375
2438		-9.765625
2439		-7.812500
2440		-11.718750
2441		-7.812500
2442		-13.671875
2443		-9.765625
2444		-13.671875
2445		-9.765625
2446		-15.625000
2447		-11.718750
2448		-15.625000
2449		-11.718750
2450		-17.578125
2451		-13.671875
2452		-17.578125
2453		-13.671875
2454		-19.531250
2455		-15.625000
2456		-19.531250
2457		-15.625000
2458		-21.484375
2459		-15.625000
2460		-21.484375
2461		-17.578125
2462		-23.437500
2463		-17.578125
2464		-23.437500
2465		-19.531250
2466		-23.437500
2467		-19.531250
2468		-25.390625
2469		-19.531250
2470		-25.390625
2471		-21.484375
2472		-27.343750
2473		-23.437500
2474		-27.343750
2475		-23.437500
2476		-27.343750
2477		-23.437500
2478		-27.343750
2479		-23.437500
2480		-29.296875
2481		-25.390625
2482		-29.296875
2483		-25.390625
2484		-29.296875
2485		-25.390625
2486		-31.250000
2487		-27.343750
2488		-31.250000
2489		-27.343750
2490		-31.250000
2491		-27.343750
2492		-31.250000
2493		-27.343750
2494		-33.203125
2495		-27.343750
2496		-31.250000
2497		-29.296875
2498		-33.203125
2499		-29.296875
2500		-35.156250
2501		-29.296875
2502		-33.203125
2503		-29.296875
2504		-33.203125
2505		-29.296875
2506		-35.156250
2507		-29.296875
2508		-33.203125
2509		-31.250000
2510		-33.203125
2511		-31.250000
2512		-33.203125
2513		-31.250000
2514		-33.203125
2515		-31.250000
2516		-33.203125
2517		-31.250000
2518		-33.203125
2519		-29.296875
2520		-33.203125
2521		-31.250000
2522		-33.203125
2523		-29.296875
2524		-33.203125
2525		-29.296875
2526		-33.203125
2527		-29.296875
2528		-33.203125
2529		-29.296875
2530		-33.203125
2531		-29.296875
2532		-33.203125
2533		-29.296875
2534		-33.203125
2535		-29.296875
2536		-33.203125
2537		-27.343750
2538		-31.250000
2539		-29.296875
2540		-31.250000
2541		-27.343750
2542		-31.250000
2543		-27.343750
2544		-31.250000
2545		-27.343750
2546		-29.296875
2547		-25.390625
2548		-31.250000
2549		-25.390625
2550		-29.296875
2551		-25.390625
2552		-29.296875
2553		-25.390625
2554		-27.343750
2555		-25.390625
2556		-27.343750
2557		-23.437500
2558		-27.343750
2559		-21.484375
2560		-25.390625
2561		-21.484375
2562		-25.390625
2563		-21.484375
2564		-23.437500
2565		-21.484375
2566		-23.437500
2567		-19.531250
2568		-23.437500
2569		-19.531250
2570		-21.484375
2571		-17.578125
2572		-21.484375
2573		-17.578125
2574		-21.484375
2575		-15.625000
2576		-19.531250
2577		-15.625000
2578		-19.531250
2579		-13.671875
2580		-17.578125
2581		-13.671875
2582		-17.578125
2583		-13.671875
2584		-15.625000
2585		-11.718750
2586		-15.625000
2587		-11.718750
2588		-13.671875
2589		-9.765625
2590		-13.671875
2591		-7.812500
2592		-11.718750
2593		-7.812500
2594		-9.765625
2595		-5.859375
2596		-9.765625
2597		-5.859375
2598		-7.812500
2599		-3.906250
2600		-7.812500
2601		-3.906250
2602		-5.859375
2603		-1.953125
2604		-5.859375
2605		-1.953125
2606		-3.906250
2607		0.000000
2608		-3.906250
2609		0.000000
2610		-1.953125
2611		1.953125
2612		-1.953125
2613		3.906250
2614		0.000000
2615		3.906250
2616		1.953125
2617		5.859375
2618		1.953125
2619		5.859375
2620		3.906250
2621		7.812500
2622		5.859375
2623		9.765625
2624		5.859375
2625		9.765625
2626		7.812500
2627		11.718750
2628		7.812500
2629		11.718750
2630		9.765625
2631		13.671875
2632		9.765625
2633		13.671875
2634		11.718750
2635		15.625000
2636		11.718750
2637		17.578125
2638		13.671875
2639		17.578125
2640		15.625000
2641		19.531250
2642		17.578125
2643		21.484375
2644		17.578125
2645		21.484375
2646		17.578125
2647		23.437500
2648		19.531250
2649		23.437500
2650		21.484375
2651		25.390625
2652		21.484375
2653		27.343750
2654		23.437500
2655		27.343750
2656		23.437500
2657		27.343750
2658		25.390625
2659		29.296875
2660		27.343750
2661		31.250000
2662		27.343750
2663		31.250000
2664		29.296875
2665		33.203125
2666		29.296875
2667		33.203125
2668		31.250000
2669		35.156250
2670		31.250000
2671		37.109375
2672		33.203125
2673		37.109375
2674		33.203125
2675		37.109375
2676		35.156250
2677		39.062500
2678		35.156250
2679		39.062500
2680		37.109375
2681		41.015625
2682		37.109375
2683		41.015625
2684		39.062500
2685		42.968750
2686		39.062500
2687		42.968750
2688		39.062500
2689		42.968750
2690		41.015625
2691		44.921875
2692		41.015625
2693		44.921875
2694		42.968750
2695		46.875000
2696		42.968750
2697		46.875000
2698		44.921875
2699		48.828125
2700		44.921875
2701		48.828125
2702		44.921875
2703		48.828125
2704		46.875000
2705		50.781250
2706		46.875000
2707		50.781250
2708		46.875000
2709		50.781250
2710		48.828125
2711		50.781250
2712		48.828125
2713		52.734375
2714		48.828125
2715		52.734375
2716		50.781250
2717		52.734375
2718		50.781250
2719		54.687500
2720		50.781250
2721		54.687500
2722		50.781250
2723		54.687500
2724		52.734375
2725		54.687500
2726		50.781250
2727		56.640625
2728		52.734375
2729		56.640625
2730		52.734375
2731		56.640625
2732		52.734375
2733		56.640625
2734		52.734375
2735		58.593750
2736		52.734375
2737		58.593750
2738		54.687500
2739		58.593750
2740		54.687500
2741		56.640625
2742		54.687500
2743		58.593750
2744		54.687500
2745		58.593750
2746		54.687500
2747		58.593750
2748		54.687500
2749		58.593750
2750		54.687500
2751		58.593750
2752		54.687500
2753		58.593750
2754		54.687500
2755		58.593750
2756		54.687500
2757		58.593750
2758		54.687500
2759		58.593750
2760		54.687500
2761		58.593750
2762		54.687500
2763		58.593750
2764		54.687500
2765		58.593750
2766		54.687500
2767		58.593750
2768		54.687500
2769		58.593750
2770		52.734375
2771		58.593750
2772		52.734375
2773		56.640625
2774		52.734375
2775		56.640625
2776		52.734375
2777		56.640625
2778		52.734375
2779		56.640625
2780		52.734375
2781		54.687500
2782		50.781250
2783		54.687500
2784		50.781250
2785		54.687500
2786		50.781250
2787		54.687500
2788		50.781250
2789		54.687500
2790		50.781250
2791		52.734375
2792		48.828125
2793		52.734375
2794		48.828125
2795		52.734375
2796		48.828125
2797		50.781250
2798		46.875000
2799		50.781250
2800		46.875000
2801		50.781250
2802		46.875000
2803		50.781250
2804		44.921875
2805		48.828125
2806		44.921875
2807		48.828125
2808		44.921875
2809		48.828125
2810		42.968750
2811		46.875000
2812		42.968750
2813		46.875000
2814		41.015625
2815		44.921875
2816		41.015625
2817		44.921875
2818		39.062500
2819		44.921875
2820		39.062500
2821		42.968750
2822		37.109375
2823		42.968750
2824		37.109375
2825		41.015625
2826		37.109375
2827		41.015625
2828		35.156250
2829		39.062500
2830		35.156250
2831		39.062500
2832		33.203125
2833		37.109375
2834		31.250000
2835		37.109375
2836		31.250000
2837		35.156250
2838		31.250000
2839		35.156250
2840		29.296875
2841		33.203125
2842		27.343750
2843		33.203125
2844		27.343750
2845		31.250000
2846		25.390625
2847		31.250000
2848		25.390625
2849		29.296875
2850		23.437500
2851		27.343750
2852		23.437500
2853		27.343750
2854		21.484375
2855		25.390625
2856		21.484375
2857		25.390625
2858		19.531250
2859		23.437500
2860		17.578125
2861		23.437500
2862		17.578125
2863		21.484375
2864		15.625000
2865		19.531250
2866		13.671875
2867		19.531250
2868		11.718750
2869		17.578125
2870		11.718750
2871		15.625000
2872		11.718750
2873		15.625000
2874		9.765625
2875		13.671875
2876		9.765625
2877		13.671875
2878		7.812500
2879		11.718750
2880		5.859375
2881		9.765625
2882		5.859375
2883		9.765625
2884		3.906250
2885		7.812500
2886		3.906250
2887		5.859375
2888		1.953125
2889		5.859375
2890		0.000000
2891		3.906250
2892		0.000000
2893		3.906250
2894		-1.953125
2895		1.953125
2896		-1.953125
2897		1.953125
2898		-3.906250
2899		0.000000
2900		-5.859375
2901		-1.953125
2902		-5.859375
2903		-1.953125
2904		-7.812500
2905		-3.906250
2906		-7.812500
2907		-3.906250
2908		-9.765625
2909		-5.859375
2910		-9.765625
2911		-5.859375
2912		-11.718750
2913		-7.812500
2914		-13.671875
2915		-9.765625
2916		-13.671875
2917		-9.765625
2918		-15.625000
2919		-11.718750
2920		-15.625000
2921		-11.718750
2922		-15.625000
2923		-13.671875
2924		-17.578125
2925		-13.671875
2926		-19.531250
2927		-13.671875
2928		-19.531250
2929		-15.625000
2930		-21.484375
2931		-15.625000
2932		-21.484375
2933		-17.578125
2934		-21.484375
2935		-17.578125
2936		-23.437500
2937		-19.531250
2938		-25.390625
2939		-19.531250
2940		-23.437500
2941		-21.484375
2942		-25.390625
2943		-21.484375
2944		-25.390625
2945		-21.484375
2946		-27.343750
2947		-21.484375
2948		-27.343750
2949		-23.437500
2950		-27.343750
2951		-23.437500
2952		-27.343750
2953		-25.390625
2954		-29.296875
2955		-25.390625
2956		-29.296875
2957		-25.390625
2958		-29.296875
2959		-27.343750
2960		-31.250000
2961		-27.343750
2962		-31.250000
2963		-27.343750
2964		-31.250000
2965		-27.343750
2966		-31.250000
2967		-27.343750
2968		-33.203125
2969		-27.343750
2970		-31.250000
2971		-29.296875
2972		-33.203125
2973		-29.296875
2974		-33.203125
2975		-29.296875
2976		-33.203125
2977		-29.296875
2978		-33.203125
2979		-29.296875
2980		-33.203125
2981		-29.296875
2982		-33.203125
2983		-29.296875
2984		-33.203125
2985		-29.296875
2986		-33.203125
2987		-29.296875
2988		-33.203125
2989		-29.296875
2990		-33.203125
2991		-29.296875
2992		-33.203125
2993		-29.296875
2994		-33.203125
2995		-29.296875
2996		-33.203125
2997		-29.296875
2998		-33.203125
2999		-29.296875
3000		-33.203125
3001		-29.296875
3002		-33.203125
3003		-29.296875
3004		-31.250000
3005		-29.296875
3006		-33.203125
3007		-29.296875
3008		-31.250000
3009		-29.296875
3010		-31.250000
3011		-27.343750
3012		-31.250000
3013		-27.343750
3014		-31.250000
3015		-27.343750
3016		-29.296875
3017		-27.343750
3018		-29.296875
3019		-25.390625
3020		-29.296875
3021		-25.390625
3022		-29.296875
3023		-25.390625
3024		-27.343750
3025		-25.390625
3026		-27.343750
3027		-23.437500
3028		-27.343750
3029		-23.437500
3030		-25.390625
3031		-23.437500
3032		-25.390625
3033		-21.484375
3034		-23.437500
3035		-21.484375
3036		-23.437500
3037		-19.531250
3038		-23.437500
3039		-19.531250
3040		-21.484375
3041		-19.531250
3042		-21.484375
3043		-17.578125
3044		-21.484375
3045		-15.625000
3046		-19.531250
3047		-15.625000
3048		-19.531250
3049		-15.625000
3050		-17.578125
3051		-15.625000
3052		-17.578125
3053		-13.671875
3054		-15.625000
3055		-11.718750
3056		-15.625000
3057		-9.765625
3058		-13.671875
3059		-9.765625
3060		-13.671875
3061		-9.765625
3062		-13.671875
3063		-7.812500
3064		-11.718750
3065		-7.812500
3066		-9.765625
3067		-5.859375
3068		-9.765625
3069		-5.859375
3070		-7.812500
3071		-3.906250
3072		-5.859375
3073		-3.906250
3074		-5.859375
3075		-1.953125
3076		-3.906250
3077		0.000000
3078		-3.906250
3079		0.000000
3080		-1.953125
3081		1.953125
3082		-1.953125
3083		1.953125
3084		0.000000
3085		3.906250
3086		1.953125
3087		3.906250
3088		1.953125
3089		5.859375
3090		3.906250
3091		7.812500
3092		3.906250
3093		7.812500
3094		5.859375
3095		9.765625
3096		5.859375
3097		9.765625
3098		7.812500
3099		11.718750
3100		7.812500
3101		13.671875
3102		9.765625
3103		13.671875
3104		11.718750
3105		15.625000
3106		11.718750
3107		17.578125
3108		13.671875
3109		17.578125
3110		15.625000
3111		19.531250
3112		15.625000
3113		19.531250
3114		17.578125
3115		21.484375
3116		17.578125
3117		21.484375
3118		19.531250
3119		23.437500
3120		19.531250
3121		25.390625
3122		21.484375
3123		25.390625
3124		21.484375
3125		27.343750
3126		23.437500
3127		27.343750
3128		25.390625
3129		29.296875
3130		25.390625
3131		29.296875
3132		27.343750
3133		31.250000
3134		29.296875
3135		33.203125
3136		29.296875
3137		33.203125
3138		31.250000
3139		35.156250
3140		31.250000
3141		35.156250
3142		33.203125
3143		35.156250
3144		33.203125
3145		37.109375
3146		35.156250
3147		39.062500
3148		35.156250
3149		39.062500
3150		35.156250
3151		41.015625
3152		37.109375
3153		41.015625
3154		39.062500
3155		42.968750
3156		39.062500
3157		42.968750
3158		39.062500
3159		42.968750
3160		41.015625
3161		44.921875
3162		41.015625
3163		44.921875
3164		42.968750
3165		46.875000
3166		42.968750
3167		46.875000
3168		42.968750
3169		48.828125
3170		44.921875
3171		48.828125
3172		44.921875
3173		48.828125
3174		46.875000
3175		50.781250
3176		46.875000
3177		50.781250
3178		48.828125
3179		50.781250
3180		48.828125
3181		52.734375
3182		48.828125
3183		52.734375
3184		48.828125
3185		52.734375
3186		50.781250
3187		52.734375
3188		50.781250
3189		54.687500
3190		50.781250
3191		54.687500
3192		52.734375
3193		54.687500
3194		52.734375
3195		54.687500
3196		50.781250
3197		56.640625
3198		52.734375
3199		56.640625
3200		52.734375
3201		56.640625
3202		52.734375
3203		56.640625
3204		54.687500
3205		58.593750
3206		54.687500
3207		56.640625
3208		54.687500
3209		58.593750
3210		52.734375
3211		58.593750
3212		54.687500
3213		58.593750
3214		54.687500
3215		58.593750
3216		54.687500
3217		58.593750
3218		54.687500
3219		58.593750
3220		54.687500
3221		58.593750
3222		54.687500
3223		58.593750
3224		56.640625
3225		58.593750
3226		56.640625
3227		58.593750
3228		56.640625
3229		58.593750
3230		54.687500
3231		60.546875
3232		54.687500
3233		58.593750
3234		54.687500
3235		58.593750
3236		54.687500
3237		58.593750
3238		54.687500
3239		58.593750
3240		54.687500
3241		58.593750
3242		54.687500
3243		58.593750
3244		54.687500
3245		58.593750
3246		52.734375
3247		58.593750
3248		52.734375
3249		56.640625
3250		52.734375
3251		56.640625
3252		52.734375
3253		56.640625
3254		52.734375
3255		56.640625
3256		52.734375
3257		54.687500
3258		52.734375
3259		54.687500
3260		50.781250
3261		54.687500
3262		50.781250
3263		54.687500
3264		50.781250
3265		52.734375
3266		48.828125
3267		52.734375
3268		48.828125
3269		52.734375
3270		48.828125
3271		52.734375
3272		48.828125
3273		52.734375
3274		46.875000
3275		50.781250
3276		46.875000
3277		50.781250
3278		46.875000
3279		48.828125
3280		44.921875
3281		48.828125
3282		44.921875
3283		48.828125
3284		44.921875
3285		46.875000
3286		42.968750
3287		46.875000
3288		42.968750
3289		44.921875
3290		41.015625
3291		44.921875
3292		41.015625
3293		44.921875
3294		39.062500
3295		42.968750
3296		39.062500
3297		42.968750
3298		37.109375
3299		41.015625
3300		37.109375
3301		41.015625
3302		37.109375
3303		39.062500
3304		35.156250
3305		39.062500
3306		33.203125
3307		39.062500
3308		33.203125
3309		37.109375
3310		31.250000
3311		35.156250
3312		31.250000
3313		35.156250
3314		29.296875
3315		33.203125
3316		27.343750
3317		31.250000
3318		27.343750
3319		31.250000
3320		25.390625
3321		29.296875
3322		25.390625
3323		29.296875
3324		23.437500
3325		29.296875
3326		23.437500
3327		27.343750
3328		21.484375
3329		25.390625
3330		21.484375
3331		25.390625
3332		19.531250
3333		23.437500
3334		17.578125
3335		23.437500
3336		17.578125
3337		21.484375
3338		15.625000
3339		19.531250
3340		13.671875
3341		19.531250
3342		13.671875
3343		17.578125
3344		11.718750
3345		15.625000
3346		9.765625
3347		15.625000
3348		9.765625
3349		13.671875
3350		7.812500
3351		13.671875
3352		7.812500
3353		11.718750
3354		5.859375
3355		9.765625
3356		5.859375
3357		9.765625
3358		3.906250
3359		7.812500
3360		1.953125
3361		5.859375
3362		1.953125
3363		5.859375
3364		0.000000
3365		3.906250
3366		0.000000
3367		3.906250
3368		-1.953125
3369		1.953125
3370		-3.906250
3371		1.953125
3372		-3.906250
3373		0.000000
3374		-5.859375
3375		-1.953125
3376		-5.859375
3377		-1.953125
3378		-7.812500
3379		-3.906250
3380		-9.765625
3381		-5.859375
3382		-9.765625
3383		-5.859375
3384		-11.718750
3385		-5.859375
3386		-11.718750
3387		-7.812500
3388		-13.671875
3389		-9.765625
3390		-13.671875
3391		-9.765625
3392		-15.625000
3393		-11.718750
3394		-15.625000
3395		-11.718750
3396		-15.625000
3397		-13.671875
3398		-17.578125
3399		-13.671875
3400		-19.531250
3401		-13.671875
3402		-19.531250
3403		-15.625000
3404		-19.531250
3405		-17.578125
3406		-21.484375
3407		-17.578125
3408		-21.484375
3409		-17.578125
3410		-23.437500
3411		-17.578125
3412		-23.437500
3413		-19.531250
3414		-25.390625
3415		-21.484375
3416		-25.390625
3417		-21.484375
3418		-25.390625
3419		-21.484375
3420		-27.343750
3421		-23.437500
3422		-27.343750
3423		-23.437500
3424		-27.343750
3425		-23.437500
3426		-29.296875
3427		-25.390625
3428		-29.296875
3429		-25.390625
3430		-29.296875
3431		-25.390625
3432		-29.296875
3433		-25.390625
3434		-29.296875
3435		-27.343750
3436		-29.296875
3437		-25.390625
3438		-31.250000
3439		-27.343750
3440		-31.250000
3441		-27.343750
3442		-31.250000
3443		-27.343750
3444		-31.250000
3445		-29.296875
3446		-31.250000
3447		-29.296875
3448		-33.203125
3449		-29.296875
3450		-33.203125
3451		-29.296875
3452		-33.203125
3453		-29.296875
3454		-33.203125
3455		-29.296875
3456		-31.250000
3457		-29.296875
3458		-31.250000
3459		-29.296875
3460		-33.203125
3461		-29.296875
3462		-33.203125
3463		-29.296875
3464		-33.203125
3465		-29.296875
3466		-33.203125
3467		-29.296875
3468		-31.250000
3469		-29.296875
3470		-31.250000
3471		-29.296875
3472		-31.250000
3473		-27.343750
3474		-31.250000
3475		-27.343750
3476		-31.250000
3477		-27.343750
3478		-31.250000
3479		-27.343750
3480		-29.296875
3481		-27.343750
3482		-31.250000
3483		-27.343750
3484		-29.296875
3485		-25.390625
3486		-29.296875
3487		-25.390625
3488		-29.296875
3489		-25.390625
3490		-29.296875
3491		-25.390625
3492		-27.343750
3493		-23.437500
3494		-29.296875
3495		-23.437500
3496		-27.343750
3497		-23.437500
3498		-25.390625
3499		-23.437500
3500		-25.390625
3501		-21.484375
3502		-25.390625
3503		-21.484375
3504		-25.390625
3505		-21.484375
3506		-23.437500
3507		-19.531250
3508		-23.437500
3509		-19.531250
3510		-21.484375
3511		-17.578125
3512		-21.484375
3513		-17.578125
3514		-19.531250
3515		-17.578125
3516		-19.531250
3517		-15.625000
3518		-19.531250
3519		-13.671875
3520		-17.578125
3521		-13.671875
3522		-17.578125
3523		-13.671875
3524		-15.625000
3525		-11.718750
3526		-15.625000
3527		-11.718750
3528		-13.671875
3529		-9.765625
3530		-13.671875
3531		-9.765625
3532		-11.718750
3533		-7.812500
3534		-11.718750
3535		-7.812500
3536		-9.765625
3537		-5.859375
3538		-9.765625
3539		-5.859375
3540		-7.812500
3541		-3.906250
3542		-7.812500
3543		-3.906250
3544		-5.859375
3545		-1.953125
3546		-3.906250
3547		-1.953125
3548		-3.906250
3549		0.000000
3550		-1.953125
3551		1.953125
3552		-1.953125
3553		1.953125
3554		0.000000
3555		3.906250
3556		0.000000
3557		3.906250
3558		1.953125
3559		5.859375
3560		1.953125
3561		7.812500
3562		3.906250
3563		7.812500
3564		5.859375
3565		9.765625
3566		5.859375
3567		9.765625
3568		7.812500
3569		11.718750
3570		9.765625
3571		11.718750
3572		9.765625
3573		13.671875
3574		11.718750
3575		15.625000
3576		11.718750
3577		15.625000
3578		11.718750
3579		17.578125
3580		15.625000
3581		17.578125
3582		15.625000
3583		19.531250
3584		17.578125
3585		21.484375
3586		17.578125
3587		23.437500
3588		19.531250
3589		23.437500
3590		19.531250
3591		25.390625
3592		21.484375
3593		25.390625
3594		23.437500
3595		27.343750
3596		23.437500
3597		27.343750
3598		25.390625
3599		29.296875
3600		25.390625
3601		29.296875
3602		27.343750
3603		31.250000
3604		29.296875
3605		31.250000
3606		29.296875
3607		33.203125
3608		29.296875
3609		35.156250
3610		31.250000
3611		35.156250
3612		33.203125
3613		35.156250
3614		33.203125
3615		37.109375
3616		35.156250
3617		39.062500
3618		35.156250
3619		39.062500
3620		37.109375
3621		41.015625
3622		35.156250
3623		41.015625
3624		39.062500
3625		42.968750
3626		39.062500
3627		42.968750
3628		39.062500
3629		42.968750
3630		41.015625
3631		44.921875
3632		41.015625
3633		46.875000
3634		42.968750
3635		46.875000
3636		42.968750
3637		46.875000
3638		44.921875
3639		46.875000
3640		44.921875
3641		48.828125
3642		44.921875
3643		48.828125
3644		46.875000
3645		50.781250
3646		46.875000
3647		50.781250
3648		48.828125
3649		50.781250
3650		48.828125
3651		52.734375
3652		48.828125
3653		52.734375
3654		48.828125
3655		52.734375
3656		50.781250
3657		54.687500
3658		50.781250
3659		54.687500
3660		50.781250
3661		54.687500
3662		52.734375
3663		54.687500
3664		52.734375
3665		54.687500
3666		52.734375
3667		56.640625
3668		52.734375
3669		56.640625
3670		52.734375
3671		56.640625
3672		52.734375
3673		56.640625
3674		54.687500
3675		58.593750
3676		54.687500
3677		58.593750
3678		54.687500
3679		58.593750
3680		54.687500
3681		58.593750
3682		54.687500
3683		58.593750
3684		54.687500
3685		58.593750
3686		56.640625
3687		58.593750
3688		56.640625
3689		58.593750
3690		56.640625
3691		58.593750
3692		56.640625
3693		58.593750
3694		56.640625
3695		58.593750
3696		56.640625
3697		58.593750
3698		56.640625
3699		58.593750
3700		56.640625
3701		60.546875
3702		56.640625
3703		58.593750
3704		54.687500
3705		58.593750
3706		54.687500
3707		58.593750
3708		54.687500
3709		58.593750
3710		54.687500
3711		58.593750
3712		54.687500
3713		58.593750
3714		54.687500
3715		58.593750
3716		54.687500
3717		58.593750
3718		54.687500
3719		58.593750
3720		54.687500
3721		56.640625
3722		54.687500
3723		56.640625
3724		52.734375
3725		56.640625
3726		52.734375
3727		56.640625
3728		52.734375
3729		56.640625
3730		52.734375
3731		54.687500
3732		52.734375
3733		54.687500
3734		50.781250
3735		54.687500
3736		50.781250
3737		54.687500
3738		50.781250
3739		52.734375
3740		48.828125
3741		52.734375
3742		48.828125
3743		52.734375
3744		48.828125
3745		50.781250
3746		46.875000
3747		50.781250
3748		46.875000
3749		50.781250
3750		44.921875
3751		48.828125
3752		44.921875
3753		48.828125
3754		44.921875
3755		48.828125
3756		42.968750
3757		46.875000
3758		42.968750
3759		46.875000
3760		41.015625
3761		46.875000
3762		41.015625
3763		44.921875
3764		41.015625
3765		44.921875
3766		39.062500
3767		42.968750
3768		39.062500
3769		41.015625
3770		37.109375
3771		41.015625
3772		37.109375
3773		41.015625
3774		35.156250
3775		39.062500
3776		35.156250
3777		39.062500
3778		33.203125
3779		37.109375
3780		33.203125
3781		37.109375
3782		31.250000
3783		35.156250
3784		29.296875
3785		35.156250
3786		29.296875
3787		33.203125
3788		29.296875
3789		31.250000
3790		27.343750
3791		31.250000
3792		25.390625
3793		29.296875
3794		25.390625
3795		29.296875
3796		23.437500
3797		29.296875
3798		23.437500
3799		25.390625
3800		19.531250
3801		25.390625
3802		19.531250
3803		23.437500
3804		19.531250
3805		23.437500
3806		17.578125
3807		21.484375
3808		17.578125
3809		19.531250
3810		15.625000
3811		19.531250
3812		13.671875
3813		17.578125
3814		13.671875
3815		17.578125
3816		11.718750
3817		15.625000
3818		9.765625
3819		15.625000
3820		9.765625
3821		13.671875
3822		7.812500
3823		11.718750
3824		7.812500
3825		11.718750
3826		5.859375
3827		9.765625
3828		3.906250
3829		7.812500
3830		3.906250
3831		7.812500
3832		1.953125
3833		5.859375
3834		0.000000
3835		5.859375
3836		0.000000
3837		3.906250
3838		-1.953125
3839		1.953125
3840		-1.953125
3841		1.953125
3842		-3.906250
3843		0.000000
3844		-3.906250
3845		-1.953125
3846		-5.859375
3847		-1.953125
3848		-5.859375
3849		-3.906250
3850		-7.812500
3851		-3.906250
3852		-9.765625
3853		-3.906250
3854		-9.765625
3855		-5.859375
3856		-11.718750
3857		-7.812500
3858		-13.671875
3859		-7.812500
3860		-13.671875
3861		-9.765625
3862		-13.671875
3863		-9.765625
3864		-15.625000
3865		-11.718750
3866		-15.625000
3867		-11.718750
3868		-17.578125
3869		-13.671875
3870		-17.578125
3871		-13.671875
3872		-19.531250
3873		-15.625000
3874		-19.531250
3875		-15.625000
3876		-21.484375
3877		-17.578125
3878		-21.484375
3879		-17.578125
3880		-21.484375
3881		-19.531250
3882		-23.437500
3883		-19.531250
3884		-23.437500
3885		-19.531250
3886		-25.390625
3887		-21.484375
3888		-25.390625
3889		-21.484375
3890		-25.390625
3891		-21.484375
3892		-27.343750
3893		-23.437500
3894		-27.343750
3895		-23.437500
3896		-27.343750
3897		-25.390625
3898		-27.343750
3899		-25.390625
3900		-29.296875
3901		-25.390625
3902		-31.250000
3903		-25.390625
3904		-29.296875
3905		-25.390625
3906		-31.250000
3907		-27.343750
3908		-31.250000
3909		-27.343750
3910		-31.250000
3911		-27.343750
3912		-31.250000
3913		-27.343750
3914		-31.250000
3915		-27.343750
3916		-31.250000
3917		-29.296875
3918		-33.203125
3919		-29.296875
3920		-33.203125
3921		-29.296875
3922		-33.203125
3923		-29.296875
3924		-33.203125
3925		-29.296875
3926		-33.203125
3927		-29.296875
3928		-33.203125
3929		-29.296875
3930		-33.203125
3931		-29.296875
3932		-33.203125
3933		-29.296875
3934		-33.203125
3935		-29.296875
3936		-33.203125
3937		-29.296875
3938		-33.203125
3939		-29.296875
3940		-33.203125
3941		-29.296875
3942		-33.203125
3943		-29.296875
3944		-31.250000
3945		-29.296875
3946		-33.203125
3947		-29.296875
3948		-31.250000
3949		-27.343750
3950		-31.250000
3951		-27.343750
3952		-31.250000
3953		-27.343750
3954		-31.250000
3955		-27.343750
3956		-31.250000
3957		-27.343750
3958		-29.296875
3959		-25.390625
3960		-29.296875
3961		-25.390625
3962		-29.296875
3963		-25.390625
3964		-29.296875
3965		-23.437500
3966		-27.343750
3967		-23.437500
3968		-27.343750
3969		-23.437500
3970		-27.343750
3971		-23.437500
3972		-27.343750
3973		-21.484375
3974		-25.390625
3975		-21.484375
3976		-25.390625
3977		-21.484375
3978		-23.437500
3979		-19.531250
3980		-23.437500
3981		-19.531250
3982		-21.484375
3983		-19.531250
3984		-21.484375
3985		-17.578125
3986		-21.484375
3987		-15.625000
3988		-19.531250
3989		-15.625000
3990		-19.531250
3991		-15.625000
3992		-17.578125
3993		-13.671875
3994		-17.578125
3995		-13.671875
3996		-15.625000
3997		-13.671875
3998		-15.625000
3999		-11.718750
4000		-13.671875
4001		-11.718750
4002		-13.671875
4003		-9.765625
4004		-11.718750
4005		-7.812500
4006		-11.718750
4007		-7.812500
4008		-9.765625
4009		-5.859375
4010		-9.765625
4011		-5.859375
4012		-7.812500
4013		-3.906250
4014		-7.812500
4015		-1.953125
4016		-5.859375
4017		-1.953125
4018		-5.859375
4019		-1.953125
4020		-3.906250
4021		0.000000
4022		-1.953125
4023		0.000000
4024		-1.953125
4025		1.953125
4026		0.000000
4027		3.906250
4028		0.000000
4029		5.859375
4030		1.953125
4031		5.859375
4032		1.953125
4033		5.859375
4034		3.906250
4035		7.812500
4036		3.906250
4037		9.765625
4038		5.859375
4039		9.765625
4040		7.812500
4041		11.718750
4042		7.812500
4043		13.671875
4044		9.765625
4045		13.671875
4046		11.718750
4047		15.625000
4048		11.718750
4049		17.578125
4050		13.671875
4051		17.578125
4052		15.625000
4053		19.531250
4054		15.625000
4055		19.531250
4056		15.625000
4057		21.484375
4058		17.578125
4059		21.484375
4060		19.531250
4061		23.437500
4062		21.484375
4063		23.437500
4064		21.484375
4065		25.390625
4066		23.437500
4067		27.343750
4068		23.437500
4069		27.343750
4070		25.390625
4071		29.296875
4072		25.390625
4073		29.296875
4074		27.343750
4075		31.250000
4076		27.343750
4077		31.250000
4078		29.296875
4079		33.203125
4080		29.296875
4081		33.203125
4082		31.250000
4083		35.156250
4084		31.250000
4085		35.156250
4086		33.203125
4087		37.109375
4088		33.203125
4089		37.109375
4090		35.156250
4091		39.062500
4092		37.109375
4093		39.062500
4094		37.109375
4095		41.015625
4096		37.109375
4097		41.015625
4098		39.062500
4099		42.968750
4100		39.062500
4101		42.968750
4102		41.015625
4103		44.921875
4104		41.015625
4105		44.921875
4106		42.968750
4107		44.921875
4108		42.968750
4109		46.875000
4110		42.968750
4111		46.875000
4112		44.921875
4113		48.828125
4114		44.921875
4115		48.828125
4116		44.921875
4117		48.828125
4118		46.875000
4119		50.781250
4120		46.875000
4121		50.781250
4122		48.828125
4123		50.781250
4124		48.828125
4125		52.734375
4126		48.828125
4127		52.734375
4128		48.828125
4129		52.734375
4130		50.781250
4131		54.687500
4132		50.781250
4133		54.687500
4134		50.781250
4135		54.687500
4136		52.734375
4137		54.687500
4138		52.734375
4139		54.687500
4140		50.781250
4141		56.640625
4142		52.734375
4143		56.640625
4144		52.734375
4145		56.640625
4146		52.734375
4147		56.640625
4148		54.687500
4149		56.640625
4150		54.687500
4151		58.593750
4152		54.687500
4153		58.593750
4154		54.687500
4155		58.593750
4156		54.687500
4157		58.593750
4158		54.687500
4159		58.593750
4160		54.687500
4161		58.593750
4162		54.687500
4163		58.593750
4164		54.687500
4165		58.593750
4166		54.687500
4167		58.593750
4168		54.687500
4169		58.593750
4170		54.687500
4171		58.593750
4172		54.687500
4173		58.593750
4174		54.687500
4175		58.593750
4176		54.687500
4177		58.593750
4178		54.687500
4179		58.593750
4180		54.687500
4181		58.593750
4182		54.687500
4183		58.593750
4184		54.687500
4185		58.593750
4186		54.687500
4187		56.640625
4188		54.687500
4189		58.593750
4190		52.734375
4191		56.640625
4192		52.734375
4193		56.640625
4194		52.734375
4195		56.640625
4196		52.734375
4197		56.640625
4198		52.734375
4199		56.640625
4200		50.781250
4201		56.640625
4202		50.781250
4203		54.687500
4204		50.781250
4205		54.687500
4206		48.828125
4207		54.687500
4208		48.828125
4209		52.734375
4210		48.828125
4211		52.734375
4212		48.828125
4213		52.734375
4214		46.875000
4215		52.734375
4216		46.875000
4217		50.781250
4218		46.875000
4219		50.781250
4220		46.875000
4221		48.828125
4222		44.921875
4223		48.828125
4224		42.968750
4225		48.828125
4226		42.968750
4227		48.828125
4228		42.968750
4229		46.875000
4230		41.015625
4231		46.875000
4232		39.062500
4233		46.875000
4234		41.015625
4235		44.921875
4236		39.062500
4237		42.968750
4238		37.109375
4239		42.968750
4240		37.109375
4241		41.015625
4242		35.156250
4243		41.015625
4244		35.156250
4245		41.015625
4246		33.203125
4247		39.062500
4248		33.203125
4249		37.109375
4250		31.250000
4251		37.109375
4252		31.250000
4253		35.156250
4254		29.296875
4255		35.156250
4256		29.296875
4257		35.156250
4258		27.343750
4259		33.203125
4260		25.390625
4261		31.250000
4262		25.390625
4263		31.250000
4264		23.437500
4265		29.296875
4266		23.437500
4267		29.296875
4268		23.437500
4269		27.343750
4270		21.484375
4271		25.390625
4272		19.531250
4273		25.390625
4274		17.578125
4275		23.437500
4276		17.578125
4277		23.437500
4278		15.625000
4279		21.484375
4280		13.671875
4281		19.531250
4282		13.671875
4283		19.531250
4284		13.671875
4285		17.578125
4286		11.718750
4287		15.625000
4288		11.718750
4289		15.625000
4290		9.765625
4291		13.671875
4292		7.812500
4293		11.718750
4294		7.812500
4295		11.718750
4296		5.859375
4297		9.765625
4298		5.859375
4299		9.765625
4300		3.906250
4301		7.812500
4302		3.906250
4303		5.859375
4304		1.953125
4305		5.859375
4306		0.000000
4307		3.906250
4308		0.000000
4309		1.953125
4310		-1.953125
4311		1.953125
4312		-3.906250
4313		0.000000
4314		-3.906250
4315		0.000000
4316		-5.859375
4317		-1.953125
4318		-7.812500
4319		-1.953125
4320		-7.812500
4321		-3.906250
4322		-9.765625
4323		-5.859375
4324		-9.765625
4325		-5.859375
4326		-9.765625
4327		-7.812500
4328		-11.718750
4329		-7.812500
4330		-13.671875
4331		-9.765625
4332		-13.671875
4333		-9.765625
4334		-15.625000
4335		-11.718750
4336		-15.625000
4337		-11.718750
4338		-15.625000
4339		-13.671875
4340		-17.578125
4341		-13.671875
4342		-17.578125
4343		-15.625000
4344		-19.531250
4345		-15.625000
4346		-19.531250
4347		-17.578125
4348		-21.484375
4349		-17.578125
4350		-21.484375
4351		-19.531250
4352		-23.437500
4353		-19.531250
4354		-23.437500
4355		-19.531250
4356		-25.390625
4357		-21.484375
4358		-25.390625
4359		-21.484375
4360		-25.390625
4361		-21.484375
4362		-25.390625
4363		-23.437500
4364		-27.343750
4365		-23.437500
4366		-27.343750
4367		-23.437500
4368		-29.296875
4369		-25.390625
4370		-29.296875
4371		-25.390625
4372		-29.296875
4373		-25.390625
4374		-29.296875
4375		-27.343750
4376		-31.250000
4377		-27.343750
4378		-31.250000
4379		-27.343750
4380		-31.250000
4381		-27.343750
4382		-31.250000
4383		-29.296875
4384		-31.250000
4385		-29.296875
4386		-31.250000
4387		-29.296875
4388		-33.203125
4389		-29.296875
4390		-35.156250
4391		-27.343750
4392		-37.109375
4393		-27.343750
4394		-35.156250
4395		-27.343750
4396		-33.203125
4397		-29.296875
4398		-33.203125
4399		-29.296875
4400		-33.203125
4401		-29.296875
4402		-33.203125
4403		-29.296875
4404		-33.203125
4405		-29.296875
4406		-35.156250
4407		-27.343750
4408		-35.156250
4409		-27.343750
4410		-35.156250
4411		-27.343750
4412		-33.203125
4413		-29.296875
4414		-33.203125
4415		-29.296875
4416		-33.203125
4417		-29.296875
4418		-31.250000
4419		-29.296875
4420		-31.250000
4421		-29.296875
4422		-35.156250
4423		-27.343750
4424		-33.203125
4425		-25.390625
4426		-33.203125
4427		-25.390625
4428		-33.203125
4429		-25.390625
4430		-29.296875
4431		-27.343750
4432		-29.296875
4433		-27.343750
4434		-29.296875
4435		-25.390625
4436		-29.296875
4437		-25.390625
4438		-27.343750
4439		-25.390625
4440		-31.250000
4441		-21.484375
4442		-29.296875
4443		-21.484375
4444		-29.296875
4445		-19.531250
4446		-25.390625
4447		-21.484375
4448		-25.390625
4449		-21.484375
4450		-23.437500
4451		-21.484375
4452		-23.437500
4453		-19.531250
4454		-23.437500
4455		-19.531250
4456		-23.437500
4457		-13.671875
4458		-23.437500
4459		-13.671875
4460		-23.437500
4461		-13.671875
4462		-21.484375
4463		-13.671875
4464		-17.578125
4465		-13.671875
4466		-17.578125
4467		-13.671875
4468		-15.625000
4469		-13.671875
4470		-15.625000
4471		-11.718750
4472		-15.625000
4473		-11.718750
4474		-17.578125
4475		-7.812500
4476		-15.625000
4477		-5.859375
4478		-15.625000
4479		-5.859375
4480		-9.765625
4481		-7.812500
4482		-9.765625
4483		-5.859375
4484		-7.812500
4485		-3.906250
4486		-7.812500
4487		-3.906250
4488		-5.859375
4489		-1.953125
4490		-7.812500
4491		1.953125
4492		-5.859375
4493		1.953125
4494		-5.859375
4495		3.906250
4496		-1.953125
4497		1.953125
4498		0.000000
4499		1.953125
4500		0.000000
4501		3.906250
4502		1.953125
4503		5.859375
4504		1.953125
4505		5.859375
4506		1.953125
4507		9.765625
4508		1.953125
4509		11.718750
4510		3.906250
4511		11.718750
4512		3.906250
4513		13.671875
4514		9.765625
4515		11.718750
4516		9.765625
4517		13.671875
4518		9.765625
4519		13.671875
4520		11.718750
4521		15.625000
4522		13.671875
4523		17.578125
4524		11.718750
4525		21.484375
4526		13.671875
4527		21.484375
4528		13.671875
4529		23.437500
4530		17.578125
4531		21.484375
4532		19.531250
4533		23.437500
4534		19.531250
4535		23.437500
4536		21.484375
4537		25.390625
4538		23.437500
4539		25.390625
4540		21.484375
4541		29.296875
4542		21.484375
4543		31.250000
4544		23.437500
4545		33.203125
4546		23.437500
4547		33.203125
4548		29.296875
4549		31.250000
4550		29.296875
4551		33.203125
4552		29.296875
4553		33.203125
4554		31.250000
4555		35.156250
4556		33.203125
4557		35.156250
4558		29.296875
4559		39.062500
4560		31.250000
4561		41.015625
4562		31.250000
4563		41.015625
4564		35.156250
4565		39.062500
4566		37.109375
4567		41.015625
4568		37.109375
4569		41.015625
4570		39.062500
4571		42.968750
4572		39.062500
4573		42.968750
4574		41.015625
4575		42.968750
4576		39.062500
4577		46.875000
4578		39.062500
4579		46.875000
4580		42.968750
4581		46.875000
4582		42.968750
4583		46.875000
4584		44.921875
4585		46.875000
4586		44.921875
4587		48.828125
4588		44.921875
4589		48.828125
4590		46.875000
4591		50.781250
4592		44.921875
4593		52.734375
4594		44.921875
4595		54.687500
4596		46.875000
4597		54.687500
4598		48.828125
4599		52.734375
4600		48.828125
4601		52.734375
4602		50.781250
4603		52.734375
4604		50.781250
4605		52.734375
4606		50.781250
4607		54.687500
4608		50.781250
4609		54.687500
4610		52.734375
4611		54.687500
4612		52.734375
4613		54.687500
4614		52.734375
4615		56.640625
4616		52.734375
4617		56.640625
4618		52.734375
4619		56.640625
4620		52.734375
4621		56.640625
4622		54.687500
4623		56.640625
4624		54.687500
4625		56.640625
4626		54.687500
4627		58.593750
4628		54.687500
4629		56.640625
4630		54.687500
4631		58.593750
4632		54.687500
4633		58.593750
4634		54.687500
4635		58.593750
4636		54.687500
4637		58.593750
4638		54.687500
4639		58.593750
4640		54.687500
4641		58.593750
4642		54.687500
4643		58.593750
4644		54.687500
4645		58.593750
4646		54.687500
4647		58.593750
4648		54.687500
4649		58.593750
4650		54.687500
4651		58.593750
4652		54.687500
4653		58.593750
4654		54.687500
4655		56.640625
4656		54.687500
4657		56.640625
4658		54.687500
4659		56.640625
4660		54.687500
4661		56.640625
4662		52.734375
4663		56.640625
4664		52.734375
4665		56.640625
4666		52.734375
4667		56.640625
4668		52.734375
4669		54.687500
4670		50.781250
4671		54.687500
4672		50.781250
4673		54.687500
4674		50.781250
4675		54.687500
4676		48.828125
4677		54.687500
4678		50.781250
4679		52.734375
4680		48.828125
4681		52.734375
4682		48.828125
4683		52.734375
4684		48.828125
4685		50.781250
4686		46.875000
4687		50.781250
4688		46.875000
4689		50.781250
4690		46.875000
4691		48.828125
4692		44.921875
4693		48.828125
4694		44.921875
4695		48.828125
4696		42.968750
4697		46.875000
4698		42.968750
4699		46.875000
4700		42.968750
4701		46.875000
4702		41.015625
4703		44.921875
4704		41.015625
4705		44.921875
4706		39.062500
4707		42.968750
4708		39.062500
4709		42.968750
4710		37.109375
4711		41.015625
4712		37.109375
4713		41.015625
4714		35.156250
4715		39.062500
4716		35.156250
4717		39.062500
4718		35.156250
4719		37.109375
4720		33.203125
4721		37.109375
4722		31.250000
4723		35.156250
4724		31.250000
4725		35.156250
4726		29.296875
4727		35.156250
4728		29.296875
4729		33.203125
4730		27.343750
4731		31.250000
4732		27.343750
4733		31.250000
4734		25.390625
4735		29.296875
4736		25.390625
4737		27.343750
4738		23.437500
4739		27.343750
4740		21.484375
4741		25.390625
4742		19.531250
4743		25.390625
4744		19.531250
4745		23.437500
4746		19.531250
4747		21.484375
4748		17.578125
4749		21.484375
4750		15.625000
4751		21.484375
4752		15.625000
4753		17.578125
4754		13.671875
4755		17.578125
4756		13.671875
4757		15.625000
4758		9.765625
4759		15.625000
4760		9.765625
4761		13.671875
4762		9.765625
4763		13.671875
4764		7.812500
4765		11.718750
4766		5.859375
4767		9.765625
4768		5.859375
4769		9.765625
4770		3.906250
4771		7.812500
4772		3.906250
4773		7.812500
4774		1.953125
4775		5.859375
4776		0.000000
4777		5.859375
4778		0.000000
4779		3.906250
4780		-1.953125
4781		1.953125
4782		-1.953125
4783		0.000000
4784		-3.906250
4785		0.000000
4786		-3.906250
4787		-1.953125
4788		-5.859375
4789		-1.953125
4790		-7.812500
4791		-3.906250
4792		-9.765625
4793		-3.906250
4794		-9.765625
4795		-5.859375
4796		-9.765625
4797		-5.859375
4798		-11.718750
4799		-7.812500
4800		-13.671875
4801		-7.812500
4802		-13.671875
4803		-9.765625
4804		-13.671875
4805		-11.718750
4806		-15.625000
4807		-11.718750
4808		-15.625000
4809		-13.671875
4810		-19.531250
4811		-11.718750
4812		-19.531250
4813		-13.671875
4814		-19.531250
4815		-15.625000
4816		-21.484375
4817		-15.625000
4818		-21.484375
4819		-17.578125
4820		-21.484375
4821		-17.578125
4822		-23.437500
4823		-19.531250
4824		-23.437500
4825		-19.531250
4826		-25.390625
4827		-21.484375
4828		-25.390625
4829		-21.484375
4830		-25.390625
4831		-23.437500
4832		-27.343750
4833		-23.437500
4834		-27.343750
4835		-23.437500
4836		-27.343750
4837		-23.437500
4838		-27.343750
4839		-25.390625
4840		-29.296875
4841		-25.390625
4842		-31.250000
4843		-25.390625
4844		-29.296875
4845		-25.390625
4846		-31.250000
4847		-27.343750
4848		-31.250000
4849		-27.343750
4850		-33.203125
4851		-27.343750
4852		-33.203125
4853		-27.343750
4854		-31.250000
4855		-29.296875
4856		-33.203125
4857		-29.296875
4858		-33.203125
4859		-29.296875
4860		-33.203125
4861		-29.296875
4862		-33.203125
4863		-29.296875
4864		-33.203125
4865		-29.296875
4866		-33.203125
4867		-29.296875
4868		-33.203125
4869		-29.296875
4870		-33.203125
4871		-31.250000
4872		-33.203125
4873		-29.296875
4874		-33.203125
4875		-29.296875
4876		-35.156250
4877		-29.296875
4878		-33.203125
4879		-31.250000
4880		-33.203125
4881		-29.296875
4882		-33.203125
4883		-29.296875
4884		-33.203125
4885		-29.296875
4886		-33.203125
4887		-29.296875
4888		-33.203125
4889		-29.296875
4890		-33.203125
4891		-29.296875
4892		-31.250000
4893		-29.296875
4894		-31.250000
4895		-29.296875
4896		-31.250000
4897		-27.343750
4898		-31.250000
4899		-27.343750
4900		-31.250000
4901		-27.343750
4902		-31.250000
4903		-27.343750
4904		-29.296875
4905		-25.390625
4906		-29.296875
4907		-25.390625
4908		-29.296875
4909		-25.390625
4910		-27.343750
4911		-25.390625
4912		-27.343750
4913		-23.437500
4914		-27.343750
4915		-23.437500
4916		-25.390625
4917		-23.437500
4918		-25.390625
4919		-21.484375
4920		-25.390625
4921		-21.484375
4922		-25.390625
4923		-21.484375
4924		-23.437500
4925		-19.531250
4926		-23.437500
4927		-19.531250
4928		-21.484375
4929		-17.578125
4930		-21.484375
4931		-17.578125
4932		-19.531250
4933		-15.625000
4934		-19.531250
4935		-15.625000
4936		-17.578125
4937		-15.625000
4938		-17.578125
4939		-13.671875
4940		-15.625000
4941		-13.671875
4942		-15.625000
4943		-11.718750
4944		-15.625000
4945		-11.718750
4946		-13.671875
4947		-9.765625
4948		-13.671875
4949		-7.812500
4950		-11.718750
4951		-7.812500
4952		-9.765625
4953		-7.812500
4954		-9.765625
4955		-5.859375
4956		-7.812500
4957		-3.906250
4958		-7.812500
4959		-3.906250
4960		-5.859375
4961		-1.953125
4962		-5.859375
4963		-1.953125
4964		-3.906250
4965		0.000000
4966		-1.953125
4967		0.000000
4968		-1.953125
4969		1.953125
4970		0.000000
4971		3.906250
4972		0.000000
4973		3.906250
4974		1.953125
4975		5.859375
4976		1.953125
4977		5.859375
4978		3.906250
4979		7.812500
4980		5.859375
4981		9.765625
4982		5.859375
4983		9.765625
4984		7.812500
4985		11.718750
4986		7.812500
4987		11.718750
4988		9.765625
4989		13.671875
4990		11.718750
4991		15.625000
4992		11.718750
4993		15.625000
4994		13.671875
4995		17.578125
4996		13.671875
4997		17.578125
4998		15.625000
4999		19.531250
5000		17.578125
5001		19.531250
5002		17.578125
5003		21.484375
5004		19.531250
5005		23.437500
5006		19.531250
5007		23.437500
5008		21.484375
5009		25.390625
5010		23.437500
5011		27.343750
5012		21.484375
5013		27.343750
5014		23.437500
5015		29.296875
5016		25.390625
5017		29.296875
5018		27.343750
5019		31.250000
5020		27.343750
5021		31.250000
5022		29.296875
5023		31.250000
5024		29.296875
5025		33.203125
5026		31.250000
5027		35.156250
5028		31.250000
5029		37.109375
5030		33.203125
5031		37.109375
5032		33.203125
5033		37.109375
5034		35.156250
5035		39.062500
5036		35.156250
5037		39.062500
5038		37.109375
5039		41.015625
5040		37.109375
5041		41.015625
5042		39.062500
5043		42.968750
5044		39.062500
5045		44.921875
5046		39.062500
5047		44.921875
5048		41.015625
5049		44.921875
5050		41.015625
5051		44.921875
5052		42.968750
5053		46.875000
5054		42.968750
5055		46.875000
5056		44.921875
5057		46.875000
5058		44.921875
5059		48.828125
5060		44.921875
5061		48.828125
5062		44.921875
5063		50.781250
5064		44.921875
5065		50.781250
5066		46.875000
5067		50.781250
5068		48.828125
5069		50.781250
5070		48.828125
5071		52.734375
5072		48.828125
5073		52.734375
5074		50.781250
5075		52.734375
5076		50.781250
5077		54.687500
5078		50.781250
5079		54.687500
5080		50.781250
5081		56.640625
5082		50.781250
5083		54.687500
5084		52.734375
5085		54.687500
5086		52.734375
5087		56.640625
5088		52.734375
5089		56.640625
5090		52.734375
5091		56.640625
5092		52.734375
5093		56.640625
5094		52.734375
5095		56.640625
5096		52.734375
5097		58.593750
5098		52.734375
5099		58.593750
5100		54.687500
5101		56.640625
5102		54.687500
5103		58.593750
5104		54.687500
5105		58.593750
5106		54.687500
5107		58.593750
5108		54.687500
5109		58.593750
5110		54.687500
5111		58.593750
5112		54.687500
5113		60.546875
5114		54.687500
5115		58.593750
5116		54.687500
5117		58.593750
5118		54.687500
5119		58.593750
5120		54.687500
5121		58.593750
5122		54.687500
5123		58.593750
5124		54.687500
5125		56.640625
5126		54.687500
5127		56.640625
5128		52.734375
5129		58.593750
5130		52.734375
5131		58.593750
5132		52.734375
5133		58.593750
5134		52.734375
5135		56.640625
5136		52.734375
5137		56.640625
5138		52.734375
5139		56.640625
5140		52.734375
5141		54.687500
5142		50.781250
5143		54.687500
5144		50.781250
5145		54.687500
5146		48.828125
5147		54.687500
5148		48.828125
5149		54.687500
5150		48.828125
5151		52.734375
5152		48.828125
5153		52.734375
5154		48.828125
5155		52.734375
5156		48.828125
5157		50.781250
5158		46.875000
5159		50.781250
5160		46.875000
5161		50.781250
5162		42.968750
5163		50.781250
5164		44.921875
5165		50.781250
5166		44.921875
5167		48.828125
5168		44.921875
5169		46.875000
5170		42.968750
5171		46.875000
5172		42.968750
5173		44.921875
5174		41.015625
5175		44.921875
5176		41.015625
5177		42.968750
5178		39.062500
5179		42.968750
5180		37.109375
5181		42.968750
5182		37.109375
5183		42.968750
5184		37.109375
5185		41.015625
5186		35.156250
5187		39.062500
5188		35.156250
5189		39.062500
5190		33.203125
5191		37.109375
5192		33.203125
5193		37.109375
5194		31.250000
5195		35.156250
5196		31.250000
5197		35.156250
5198		29.296875
5199		33.203125
5200		29.296875
5201		33.203125
5202		27.343750
5203		31.250000
5204		27.343750
5205		29.296875
5206		25.390625
5207		29.296875
5208		23.437500
5209		27.343750
5210		23.437500
5211		27.343750
5212		19.531250
5213		25.390625
5214		21.484375
5215		25.390625
5216		19.531250
5217		23.437500
5218		17.578125
5219		21.484375
5220		17.578125
5221		21.484375
5222		15.625000
5223		19.531250
5224		15.625000
5225		19.531250
5226		13.671875
5227		17.578125
5228		11.718750
5229		15.625000
5230		9.765625
5231		15.625000
5232		9.765625
5233		13.671875
5234		9.765625
5235		11.718750
5236		7.812500
5237		11.718750
5238		5.859375
5239		9.765625
5240		5.859375
5241		7.812500
5242		3.906250
5243		7.812500
5244		3.906250
5245		7.812500
5246		1.953125
5247		5.859375
5248		0.000000
5249		3.906250
5250		0.000000
5251		1.953125
5252		-1.953125
5253		1.953125
5254		-1.953125
5255		0.000000
5256		-3.906250
5257		0.000000
5258		-5.859375
5259		-1.953125
5260		-5.859375
5261		-1.953125
5262		-7.812500
5263		-3.906250
5264		-7.812500
5265		-5.859375
5266		-9.765625
5267		-5.859375
5268		-11.718750
5269		-7.812500
5270		-11.718750
5271		-7.812500
5272		-13.671875
5273		-9.765625
5274		-13.671875
5275		-9.765625
5276		-15.625000
5277		-11.718750
5278		-15.625000
5279		-11.718750
5280		-17.578125
5281		-13.671875
5282		-17.578125
5283		-13.671875
5284		-19.531250
5285		-15.625000
5286		-19.531250
5287		-15.625000
5288		-21.484375
5289		-17.578125
5290		-21.484375
5291		-17.578125
5292		-23.437500
5293		-19.531250
5294		-23.437500
5295		-19.531250
5296		-23.437500
5297		-19.531250
5298		-25.390625
5299		-21.484375
5300		-25.390625
5301		-21.484375
5302		-27.343750
5303		-23.437500
5304		-27.343750
5305		-23.437500
5306		-27.343750
5307		-23.437500
5308		-29.296875
5309		-25.390625
5310		-29.296875
5311		-25.390625
5312		-29.296875
5313		-25.390625
5314		-29.296875
5315		-27.343750
5316		-29.296875
5317		-27.343750
5318		-31.250000
5319		-27.343750
5320		-31.250000
5321		-27.343750
5322		-31.250000
5323		-27.343750
5324		-31.250000
5325		-29.296875
5326		-31.250000
5327		-29.296875
5328		-33.203125
5329		-29.296875
5330		-33.203125
5331		-29.296875
5332		-33.203125
5333		-29.296875
5334		-33.203125
5335		-29.296875
5336		-33.203125
5337		-31.250000
5338		-33.203125
5339		-31.250000
5340		-33.203125
5341		-29.296875
5342		-33.203125
5343		-31.250000
5344		-33.203125
5345		-31.250000
5346		-33.203125
5347		-29.296875
5348		-33.203125
5349		-31.250000
5350		-33.203125
5351		-31.250000
5352		-33.203125
5353		-29.296875
5354		-33.203125
5355		-29.296875
5356		-33.203125
5357		-29.296875
5358		-33.203125
5359		-29.296875
5360		-33.203125
5361		-29.296875
5362		-33.203125
5363		-29.296875
5364		-33.203125
5365		-29.296875
5366		-33.203125
5367		-29.296875
5368		-31.250000
5369		-29.296875
5370		-31.250000
5371		-27.343750
5372		-31.250000
5373		-27.343750
5374		-31.250000
5375		-27.343750
5376		-29.296875
5377		-27.343750
5378		-29.296875
5379		-25.390625
5380		-29.296875
5381		-25.390625
5382		-29.296875
5383		-25.390625
5384		-27.343750
5385		-23.437500
5386		-27.343750
5387		-23.437500
5388		-27.343750
5389		-23.437500
5390		-25.390625
5391		-21.484375
5392		-25.390625
5393		-21.484375
5394		-23.437500
5395		-19.531250
5396		-23.437500
5397		-19.531250
5398		-23.437500
5399		-19.531250
5400		-21.484375
5401		-17.578125
5402		-21.484375
5403		-17.578125
5404		-19.531250
5405		-15.625000
5406		-19.531250
5407		-15.625000
5408		-17.578125
5409		-13.671875
5410		-17.578125
5411		-13.671875
5412		-15.625000
5413		-13.671875
5414		-15.625000
5415		-11.718750
5416		-13.671875
5417		-11.718750
5418		-13.671875
5419		-9.765625
5420		-11.718750
5421		-9.765625
5422		-11.718750
5423		-7.812500
5424		-11.718750
5425		-7.812500
5426		-9.765625
5427		-5.859375
5428		-7.812500
5429		-3.906250
5430		-7.812500
5431		-3.906250
5432		-5.859375
5433		-1.953125
5434		-5.859375
5435		-1.953125
5436		-3.906250
5437		0.000000
5438		-1.953125
5439		0.000000
5440		-1.953125
5441		1.953125
5442		0.000000
5443		3.906250
5444		0.000000
5445		3.906250
5446		1.953125
5447		5.859375
5448		1.953125
5449		5.859375
5450		3.906250
5451		7.812500
5452		5.859375
5453		9.765625
5454		5.859375
5455		9.765625
5456		7.812500
5457		11.718750
5458		7.812500
5459		11.718750
5460		9.765625
5461		13.671875
5462		11.718750
5463		13.671875
5464		11.718750
5465		15.625000
5466		13.671875
5467		17.578125
5468		13.671875
5469		17.578125
5470		15.625000
5471		19.531250
5472		17.578125
5473		21.484375
5474		17.578125
5475		21.484375
5476		19.531250
5477		23.437500
5478		19.531250
5479		23.437500
5480		21.484375
5481		25.390625
5482		23.437500
5483		25.390625
5484		23.437500
5485		27.343750
5486		25.390625
5487		29.296875
5488		25.390625
5489		29.296875
5490		27.343750
5491		31.250000
5492		27.343750
5493		31.250000
5494		29.296875
5495		33.203125
5496		29.296875
5497		33.203125
5498		31.250000
5499		35.156250
5500		31.250000
5501		35.156250
5502		33.203125
5503		37.109375
5504		33.203125
5505		37.109375
5506		35.156250
5507		39.062500
5508		35.156250
5509		39.062500
5510		37.109375
5511		41.015625
5512		37.109375
5513		41.015625
5514		39.062500
5515		42.968750
5516		39.062500
5517		42.968750
5518		41.015625
5519		42.968750
5520		41.015625
5521		44.921875
5522		42.968750
5523		44.921875
5524		42.968750
5525		46.875000
5526		42.968750
5527		46.875000
5528		42.968750
5529		46.875000
5530		44.921875
5531		48.828125
5532		44.921875
5533		48.828125
5534		46.875000
5535		48.828125
5536		46.875000
5537		50.781250
5538		46.875000
5539		50.781250
5540		46.875000
5541		50.781250
5542		48.828125
5543		52.734375
5544		48.828125
5545		52.734375
5546		48.828125
5547		52.734375
5548		50.781250
5549		52.734375
5550		50.781250
5551		54.687500
5552		50.781250
5553		54.687500
5554		52.734375
5555		54.687500
5556		52.734375
5557		54.687500
5558		52.734375
5559		54.687500
5560		52.734375
5561		56.640625
5562		52.734375
5563		56.640625
5564		52.734375
5565		56.640625
5566		52.734375
5567		56.640625
5568		52.734375
5569		56.640625
5570		52.734375
5571		56.640625
5572		54.687500
5573		56.640625
5574		54.687500
5575		56.640625
5576		54.687500
5577		56.640625
5578		54.687500
5579		56.640625
5580		54.687500
5581		56.640625
5582		54.687500
5583		58.593750
5584		54.687500
5585		56.640625
5586		54.687500
5587		56.640625
5588		54.687500
5589		56.640625
5590		54.687500
5591		58.593750
5592		54.687500
5593		56.640625
5594		54.687500
5595		56.640625
5596		54.687500
5597		56.640625
5598		52.734375
5599		56.640625
5600		52.734375
5601		56.640625
5602		52.734375
5603		56.640625
5604		52.734375
5605		56.640625
5606		52.734375
5607		56.640625
5608		52.734375
5609		54.687500
5610		52.734375
5611		54.687500
5612		50.781250
5613		54.687500
5614		50.781250
5615		54.687500
5616		50.781250
5617		52.734375
5618		50.781250
5619		52.734375
5620		48.828125
5621		52.734375
5622		48.828125
5623		52.734375
5624		48.828125
5625		50.781250
5626		48.828125
5627		50.781250
5628		46.875000
5629		50.781250
5630		46.875000
5631		50.781250
5632		44.921875
5633		48.828125
5634		44.921875
5635		48.828125
5636		44.921875
5637		48.828125
5638		42.968750
5639		46.875000
5640		42.968750
5641		46.875000
5642		42.968750
5643		44.921875
5644		41.015625
5645		44.921875
5646		41.015625
5647		44.921875
5648		39.062500
5649		42.968750
5650		39.062500
5651		42.968750
5652		37.109375
5653		41.015625
5654		37.109375
5655		41.015625
5656		35.156250
5657		39.062500
5658		35.156250
5659		39.062500
5660		33.203125
5661		37.109375
5662		33.203125
5663		37.109375
5664		31.250000
5665		35.156250
5666		31.250000
5667		35.156250
5668		29.296875
5669		33.203125
5670		29.296875
5671		33.203125
5672		27.343750
5673		31.250000
5674		27.343750
5675		31.250000
5676		25.390625
5677		29.296875
5678		25.390625
5679		27.343750
5680		23.437500
5681		27.343750
5682		21.484375
5683		25.390625
5684		21.484375
5685		25.390625
5686		19.531250
5687		23.437500
5688		17.578125
5689		23.437500
5690		17.578125
5691		21.484375
5692		15.625000
5693		19.531250
5694		15.625000
5695		19.531250
5696		13.671875
5697		17.578125
5698		13.671875
5699		15.625000
5700		11.718750
5701		15.625000
5702		9.765625
5703		13.671875
5704		9.765625
5705		13.671875
5706		7.812500
5707		11.718750
5708		5.859375
5709		9.765625
5710		5.859375
5711		9.765625
5712		3.906250
5713		7.812500
5714		3.906250
5715		7.812500
5716		1.953125
5717		5.859375
5718		0.000000
5719		3.906250
5720		0.000000
5721		3.906250
5722		-1.953125
5723		1.953125
5724		-1.953125
5725		0.000000
5726		-3.906250
5727		0.000000
5728		-5.859375
5729		-1.953125
5730		-5.859375
5731		-1.953125
5732		-7.812500
5733		-3.906250
5734		-7.812500
5735		-5.859375
5736		-9.765625
5737		-5.859375
5738		-9.765625
5739		-5.859375
5740		-11.718750
5741		-7.812500
5742		-13.671875
5743		-9.765625
5744		-13.671875
5745		-9.765625
5746		-15.625000
5747		-11.718750
5748		-15.625000
5749		-11.718750
5750		-17.578125
5751		-13.671875
5752		-17.578125
5753		-13.671875
5754		-17.578125
5755		-15.625000
5756		-19.531250
5757		-15.625000
5758		-21.484375
5759		-17.578125
5760		-21.484375
5761		-17.578125
5762		-23.437500
5763		-19.531250
5764		-23.437500
5765		-19.531250
5766		-23.437500
5767		-21.484375
5768		-25.390625
5769		-21.484375
5770		-25.390625
5771		-21.484375
5772		-27.343750
5773		-23.437500
5774		-27.343750
5775		-23.437500
5776		-27.343750
5777		-23.437500
5778		-29.296875
5779		-25.390625
5780		-29.296875
5781		-25.390625
5782		-29.296875
5783		-27.343750
5784		-29.296875
5785		-27.343750
5786		-31.250000
5787		-27.343750
5788		-31.250000
5789		-27.343750
5790		-31.250000
5791		-29.296875
5792		-31.250000
5793		-29.296875
5794		-33.203125
5795		-29.296875
5796		-33.203125
5797		-29.296875
5798		-33.203125
5799		-29.296875
5800		-33.203125
5801		-31.250000
5802		-33.203125
5803		-31.250000
5804		-33.203125
5805		-31.250000
5806		-33.203125
5807		-31.250000
5808		-35.156250
5809		-31.250000
5810		-35.156250
5811		-31.250000
5812		-35.156250
5813		-31.250000
5814		-35.156250
5815		-31.250000
5816		-35.156250
5817		-31.250000
5818		-35.156250
5819		-31.250000
5820		-35.156250
5821		-31.250000
5822		-35.156250
5823		-31.250000
5824		-35.156250
5825		-31.250000
5826		-35.156250
5827		-31.250000
5828		-33.203125
5829		-31.250000
5830		-33.203125
5831		-31.250000
5832		-33.203125
5833		-29.296875
5834		-33.203125
5835		-31.250000
5836		-33.203125
5837		-29.296875
5838		-33.203125
5839		-29.296875
5840		-33.203125
5841		-29.296875
5842		-31.250000
5843		-29.296875
5844		-31.250000
5845		-27.343750
5846		-31.250000
5847		-27.343750
5848		-31.250000
5849		-27.343750
5850		-29.296875
5851		-27.343750
5852		-29.296875
5853		-27.343750
5854		-29.296875
5855		-25.390625
5856		-29.296875
5857		-25.390625
5858		-27.343750
5859		-25.390625
5860		-27.343750
5861		-23.437500
5862		-27.343750
5863		-23.437500
5864		-25.390625
5865		-21.484375
5866		-25.390625
5867		-21.484375
5868		-23.437500
5869		-21.484375
5870		-23.437500
5871		-19.531250
5872		-23.437500
5873		-19.531250
5874		-21.484375
5875		-17.578125
5876		-21.484375
5877		-17.578125
5878		-21.484375
5879		-15.625000
5880		-19.531250
5881		-15.625000
5882		-17.578125
5883		-13.671875
5884		-17.578125
5885		-13.671875
5886		-15.625000
5887		-11.718750
5888		-15.625000
5889		-11.718750
5890		-13.671875
5891		-9.765625
5892		-13.671875
5893		-9.765625
5894		-11.718750
5895		-7.812500
5896		-11.718750
5897		-7.812500
5898		-9.765625
5899		-5.859375
5900		-7.812500
5901		-5.859375
5902		-7.812500
5903		-3.906250
5904		-5.859375
5905		-3.906250
5906		-5.859375
5907		-1.953125
5908		-3.906250
5909		0.000000
5910		-3.906250
5911		0.000000
5912		-1.953125
5913		1.953125
5914		-1.953125
5915		1.953125
5916		0.000000
5917		3.906250
5918		1.953125
5919		5.859375
5920		1.953125
5921		5.859375
5922		3.906250
5923		7.812500
5924		3.906250
5925		7.812500
5926		5.859375
5927		9.765625
5928		7.812500
5929		11.718750
5930		7.812500
5931		11.718750
5932		9.765625
5933		13.671875
5934		9.765625
5935		13.671875
5936		11.718750
5937		15.625000
5938		13.671875
5939		15.625000
5940		13.671875
5941		17.578125
5942		15.625000
5943		19.531250
5944		15.625000
5945		19.531250
5946		17.578125
5947		21.484375
5948		19.531250
5949		23.437500
5950		19.531250
5951		23.437500
5952		21.484375
5953		25.390625
5954		21.484375
5955		25.390625
5956		23.437500
5957		27.343750
5958		23.437500
5959		27.343750
5960		25.390625
5961		29.296875
5962		25.390625
5963		29.296875
5964		27.343750
5965		31.250000
5966		29.296875
5967		33.203125
5968		29.296875
5969		33.203125
5970		31.250000
5971		33.203125
5972		31.250000
5973		35.156250
5974		33.203125
5975		37.109375
5976		33.203125
5977		37.109375
5978		35.156250
5979		39.062500
5980		35.156250
5981		39.062500
5982		37.109375
5983		39.062500
5984		37.109375
5985		41.015625
5986		37.109375
5987		41.015625
5988		39.062500
5989		42.968750
5990		39.062500
5991		42.968750
5992		41.015625
5993		42.968750
5994		41.015625
5995		44.921875
5996		42.968750
5997		44.921875
5998		42.968750
5999		46.875000
6000		42.968750
6001		46.875000
6002		42.968750
6003		46.875000
6004		44.921875
6005		48.828125
6006		44.921875
6007		48.828125
6008		46.875000
6009		48.828125
6010		46.875000
6011		50.781250
6012		46.875000
6013		50.781250
6014		48.828125
6015		50.781250
6016		48.828125
6017		52.734375
6018		48.828125
6019		52.734375
6020		48.828125
6021		52.734375
6022		50.781250
6023		52.734375
6024		50.781250
6025		54.687500
6026		50.781250
6027		54.687500
6028		50.781250
6029		54.687500
6030		50.781250
6031		54.687500
6032		52.734375
6033		54.687500
6034		52.734375
6035		54.687500
6036		52.734375
6037		56.640625
6038		52.734375
6039		56.640625
6040		50.781250
6041		56.640625
6042		52.734375
6043		56.640625
6044		52.734375
6045		56.640625
6046		52.734375
6047		56.640625
6048		52.734375
6049		56.640625
6050		54.687500
6051		56.640625
6052		52.734375
6053		56.640625
6054		52.734375
6055		56.640625
6056		52.734375
6057		56.640625
6058		52.734375
6059		58.593750
6060		52.734375
6061		56.640625
6062		52.734375
6063		58.593750
6064		52.734375
6065		56.640625
6066		50.781250
6067		58.593750
6068		52.734375
6069		56.640625
6070		52.734375
6071		56.640625
6072		52.734375
6073		56.640625
6074		50.781250
6075		58.593750
6076		50.781250
6077		56.640625
6078		50.781250
6079		56.640625
6080		50.781250
6081		54.687500
6082		48.828125
6083		56.640625
6084		50.781250
6085		54.687500
6086		48.828125
6087		52.734375
6088		48.828125
6089		54.687500
6090		48.828125
6091		54.687500
6092		46.875000
6093		52.734375
6094		46.875000
6095		52.734375
6096		46.875000
6097		52.734375
6098		46.875000
6099		50.781250
6100		46.875000
6101		48.828125
6102		44.921875
6103		48.828125
6104		42.968750
6105		48.828125
6106		41.015625
6107		50.781250
6108		42.968750
6109		46.875000
6110		42.968750
6111		46.875000
6112		41.015625
6113		46.875000
6114		41.015625
6115		44.921875
6116		39.062500
6117		44.921875
6118		39.062500
6119		42.968750
6120		37.109375
6121		42.968750
6122		35.156250
6123		42.968750
6124		35.156250
6125		42.968750
6126		33.203125
6127		39.062500
6128		33.203125
6129		39.062500
6130		31.250000
6131		41.015625
6132		29.296875
6133		37.109375
6134		31.250000
6135		35.156250
6136		31.250000
6137		35.156250
6138		29.296875
6139		33.203125
6140		27.343750
6141		35.156250
6142		25.390625
6143		33.203125
6144		27.343750
6145		31.250000
6146		21.484375
6147		31.250000
6148		25.390625
6149		27.343750
6150		21.484375
6151		29.296875
6152		21.484375
6153		25.390625
6154		19.531250
6155		25.390625
6156		17.578125
6157		25.390625
6158		17.578125
6159		23.437500
6160		17.578125
6161		21.484375
6162		13.671875
6163		21.484375
6164		13.671875
6165		21.484375
6166		11.718750
6167		19.531250
6168		13.671875
6169		17.578125
6170		11.718750
6171		15.625000
6172		9.765625
6173		15.625000
6174		7.812500
6175		15.625000
6176		7.812500
6177		11.718750
6178		5.859375
6179		11.718750
6180		3.906250
6181		11.718750
6182		1.953125
6183		9.765625
6184		3.906250
6185		7.812500
6186		1.953125
6187		5.859375
6188		0.000000
6189		5.859375
6190		-3.906250
6191		5.859375
6192		-3.906250
6193		3.906250
6194		-1.953125
6195		0.000000
6196		-7.812500
6197		1.953125
6198		-5.859375
6199		1.953125
6200		-7.812500
6201		1.953125
6202		-7.812500
6203		-3.906250
6204		-9.765625
6205		-3.906250
6206		-11.718750
6207		-3.906250
6208		-11.718750
6209		-3.906250
6210		-11.718750
6211		-7.812500
6212		-13.671875
6213		-9.765625
6214		-17.578125
6215		-7.812500
6216		-17.578125
6217		-9.765625
6218		-15.625000
6219		-11.718750
6220		-17.578125
6221		-13.671875
6222		-19.531250
6223		-11.718750
6224		-21.484375
6225		-13.671875
6226		-21.484375
6227		-15.625000
6228		-21.484375
6229		-17.578125
6230		-25.390625
6231		-15.625000
6232		-25.390625
6233		-15.625000
6234		-25.390625
6235		-15.625000
6236		-23.437500
6237		-21.484375
6238		-27.343750
6239		-21.484375
6240		-29.296875
6241		-19.531250
6242		-27.343750
6243		-23.437500
6244		-27.343750
6245		-23.437500
6246		-29.296875
6247		-23.437500
6248		-31.250000
6249		-23.437500
6250		-29.296875
6251		-25.390625
6252		-29.296875
6253		-27.343750
6254		-31.250000
6255		-27.343750
6256		-31.250000
6257		-27.343750
6258		-33.203125
6259		-25.390625
6260		-33.203125
6261		-29.296875
6262		-33.203125
6263		-29.296875
6264		-35.156250
6265		-25.390625
6266		-35.156250
6267		-27.343750
6268		-33.203125
6269		-29.296875
6270		-35.156250
6271		-31.250000
6272		-35.156250
6273		-29.296875
6274		-37.109375
6275		-27.343750
6276		-37.109375
6277		-29.296875
6278		-35.156250
6279		-31.250000
6280		-37.109375
6281		-29.296875
6282		-39.062500
6283		-29.296875
6284		-39.062500
6285		-29.296875
6286		-35.156250
6287		-31.250000
6288		-35.156250
6289		-31.250000
6290		-37.109375
6291		-31.250000
6292		-37.109375
6293		-31.250000
6294		-35.156250
6295		-31.250000
6296		-37.109375
6297		-31.250000
6298		-37.109375
6299		-29.296875
6300		-37.109375
6301		-29.296875
6302		-35.156250
6303		-31.250000
6304		-35.156250
6305		-31.250000
6306		-35.156250
6307		-29.296875
6308		-37.109375
6309		-27.343750
6310		-33.203125
6311		-29.296875
6312		-33.203125
6313		-29.296875
6314		-33.203125
6315		-27.343750
6316		-31.250000
6317		-29.296875
6318		-33.203125
6319		-25.390625
6320		-31.250000
6321		-27.343750
6322		-31.250000
6323		-27.343750
6324		-31.250000
6325		-23.437500
6326		-31.250000
6327		-25.390625
6328		-29.296875
6329		-25.390625
6330		-29.296875
6331		-23.437500
6332		-27.343750
6333		-23.437500
6334		-27.343750
6335		-23.437500
6336		-25.390625
6337		-23.437500
6338		-25.390625
6339		-21.484375
6340		-25.390625
6341		-21.484375
6342		-25.390625
6343		-17.578125
6344		-23.437500
6345		-19.531250
6346		-21.484375
6347		-17.578125
6348		-23.437500
6349		-17.578125
6350		-19.531250
6351		-17.578125
6352		-19.531250
6353		-15.625000
6354		-19.531250
6355		-15.625000
6356		-17.578125
6357		-13.671875
6358		-15.625000
6359		-13.671875
6360		-15.625000
6361		-11.718750
6362		-13.671875
6363		-11.718750
6364		-13.671875
6365		-9.765625
6366		-11.718750
6367		-9.765625
6368		-13.671875
6369		-7.812500
6370		-9.765625
6371		-5.859375
6372		-9.765625
6373		-5.859375
6374		-7.812500
6375		-3.906250
6376		-7.812500
6377		-3.906250
6378		-5.859375
6379		-1.953125
6380		-5.859375
6381		-1.953125
6382		-3.906250
6383		0.000000
6384		-1.953125
6385		1.953125
6386		-1.953125
6387		1.953125
6388		0.000000
6389		3.906250
6390		0.000000
6391		5.859375
6392		1.953125
6393		7.812500
6394		1.953125
6395		7.812500
6396		1.953125
6397		7.812500
6398		3.906250
6399		9.765625
6400		5.859375
6401		11.718750
6402		5.859375
6403		11.718750
6404		9.765625
6405		13.671875
6406		9.765625
6407		13.671875
6408		9.765625
6409		15.625000
6410		11.718750
6411		17.578125
6412		11.718750
6413		17.578125
6414		13.671875
6415		19.531250
6416		15.625000
6417		19.531250
6418		15.625000
6419		21.484375
6420		17.578125
6421		21.484375
6422		19.531250
6423		23.437500
6424		19.531250
6425		25.390625
6426		21.484375
6427		25.390625
6428		21.484375
6429		27.343750
6430		21.484375
6431		29.296875
6432		23.437500
6433		29.296875
6434		25.390625
6435		29.296875
6436		25.390625
6437		31.250000
6438		27.343750
6439		31.250000
6440		27.343750
6441		33.203125
6442		29.296875
6443		35.156250
6444		31.250000
6445		35.156250
6446		31.250000
6447		37.109375
6448		33.203125
6449		37.109375
6450		33.203125
6451		37.109375
6452		33.203125
6453		39.062500
6454		35.156250
6455		39.062500
6456		37.109375
6457		41.015625
6458		35.156250
6459		41.015625
6460		39.062500
6461		42.968750
6462		37.109375
6463		44.921875
6464		39.062500
6465		44.921875
6466		39.062500
6467		44.921875
6468		41.015625
6469		44.921875
6470		42.968750
6471		44.921875
6472		42.968750
6473		46.875000
6474		42.968750
6475		46.875000
6476		42.968750
6477		48.828125
6478		44.921875
6479		48.828125
6480		44.921875
6481		50.781250
6482		44.921875
6483		50.781250
6484		46.875000
6485		50.781250
6486		46.875000
6487		50.781250
6488		48.828125
6489		50.781250
6490		48.828125
6491		52.734375
6492		48.828125
6493		52.734375
6494		48.828125
6495		52.734375
6496		48.828125
6497		54.687500
6498		48.828125
6499		54.687500
6500		48.828125
6501		54.687500
6502		50.781250
6503		54.687500
6504		50.781250
6505		54.687500
6506		50.781250
6507		54.687500
6508		50.781250
6509		54.687500
6510		52.734375
6511		56.640625
6512		52.734375
6513		56.640625
6514		50.781250
6515		56.640625
6516		52.734375
6517		56.640625
6518		52.734375
6519		56.640625
6520		52.734375
6521		56.640625
6522		52.734375
6523		56.640625
6524		52.734375
6525		56.640625
6526		52.734375
6527		56.640625
6528		52.734375
6529		56.640625
6530		52.734375
6531		58.593750
6532		52.734375
6533		56.640625
6534		52.734375
6535		56.640625
6536		52.734375
6537		56.640625
6538		52.734375
6539		56.640625
6540		52.734375
6541		54.687500
6542		50.781250
6543		56.640625
6544		52.734375
6545		54.687500
6546		50.781250
6547		54.687500
6548		50.781250
6549		56.640625
6550		50.781250
6551		54.687500
6552		48.828125
6553		54.687500
6554		50.781250
6555		54.687500
6556		50.781250
6557		52.734375
6558		48.828125
6559		52.734375
6560		48.828125
6561		52.734375
6562		48.828125
6563		52.734375
6564		46.875000
6565		52.734375
6566		46.875000
6567		50.781250
6568		46.875000
6569		50.781250
6570		46.875000
6571		50.781250
6572		44.921875
6573		48.828125
6574		44.921875
6575		48.828125
6576		42.968750
6577		48.828125
6578		42.968750
6579		46.875000
6580		41.015625
6581		46.875000
6582		41.015625
6583		44.921875
6584		41.015625
6585		44.921875
6586		41.015625
6587		42.968750
6588		39.062500
6589		42.968750
6590		39.062500
6591		41.015625
6592		37.109375
6593		41.015625
6594		37.109375
6595		41.015625
6596		35.156250
6597		39.062500
6598		33.203125
6599		41.015625
6600		33.203125
6601		39.062500
6602		33.203125
6603		37.109375
6604		31.250000
6605		35.156250
6606		31.250000
6607		35.156250
6608		29.296875
6609		33.203125
6610		29.296875
6611		33.203125
6612		27.343750
6613		31.250000
6614		25.390625
6615		31.250000
6616		25.390625
6617		29.296875
6618		25.390625
6619		29.296875
6620		23.437500
6621		27.343750
6622		23.437500
6623		25.390625
6624		21.484375
6625		25.390625
6626		19.531250
6627		23.437500
6628		19.531250
6629		23.437500
6630		17.578125
6631		21.484375
6632		15.625000
6633		21.484375
6634		15.625000
6635		19.531250
6636		13.671875
6637		17.578125
6638		13.671875
6639		17.578125
6640		11.718750
6641		15.625000
6642		9.765625
6643		13.671875
6644		9.765625
6645		13.671875
6646		7.812500
6647		11.718750
6648		7.812500
6649		11.718750
6650		5.859375
6651		9.765625
6652		3.906250
6653		9.765625
6654		3.906250
6655		7.812500
6656		1.953125
6657		5.859375
6658		0.000000
6659		5.859375
6660		0.000000
6661		3.906250
6662		-1.953125
6663		1.953125
6664		-1.953125
6665		1.953125
6666		-3.906250
6667		0.000000
6668		-5.859375
6669		0.000000
6670		-5.859375
6671		-1.953125
6672		-7.812500
6673		-3.906250
6674		-7.812500
6675		-3.906250
6676		-9.765625
6677		-5.859375
6678		-11.718750
6679		-5.859375
6680		-11.718750
6681		-7.812500
6682		-13.671875
6683		-9.765625
6684		-13.671875
6685		-9.765625
6686		-15.625000
6687		-11.718750
6688		-17.578125
6689		-11.718750
6690		-17.578125
6691		-13.671875
6692		-17.578125
6693		-13.671875
6694		-19.531250
6695		-15.625000
6696		-19.531250
6697		-15.625000
6698		-21.484375
6699		-17.578125
6700		-21.484375
6701		-17.578125
6702		-23.437500
6703		-17.578125
6704		-23.437500
6705		-19.531250
6706		-23.437500
6707		-21.484375
6708		-25.390625
6709		-21.484375
6710		-27.343750
6711		-21.484375
6712		-27.343750
6713		-23.437500
6714		-27.343750
6715		-23.437500
6716		-29.296875
6717		-25.390625
6718		-29.296875
6719		-25.390625
6720		-29.296875
6721		-25.390625
6722		-29.296875
6723		-27.343750
6724		-31.250000
6725		-27.343750
6726		-33.203125
6727		-27.343750
6728		-31.250000
6729		-27.343750
6730		-31.250000
6731		-29.296875
6732		-33.203125
6733		-27.343750
6734		-33.203125
6735		-29.296875
6736		-33.203125
6737		-31.250000
6738		-33.203125
6739		-29.296875
6740		-35.156250
6741		-31.250000
6742		-35.156250
6743		-31.250000
6744		-35.156250
6745		-31.250000
6746		-35.156250
6747		-31.250000
6748		-35.156250
6749		-31.250000
6750		-37.109375
6751		-31.250000
6752		-37.109375
6753		-31.250000
6754		-37.109375
6755		-31.250000
6756		-37.109375
6757		-33.203125
6758		-35.156250
6759		-33.203125
6760		-37.109375
6761		-33.203125
6762		-35.156250
6763		-33.203125
6764		-35.156250
6765		-33.203125
6766		-35.156250
6767		-31.250000
6768		-35.156250
6769		-31.250000
6770		-35.156250
6771		-31.250000
6772		-37.109375
6773		-31.250000
6774		-35.156250
6775		-31.250000
6776		-35.156250
6777		-31.250000
6778		-35.156250
6779		-31.250000
6780		-35.156250
6781		-31.250000
6782		-33.203125
6783		-31.250000
6784		-33.203125
6785		-29.296875
6786		-33.203125
6787		-29.296875
6788		-33.203125
6789		-27.343750
6790		-31.250000
6791		-29.296875
6792		-31.250000
6793		-29.296875
6794		-31.250000
6795		-27.343750
6796		-31.250000
6797		-25.390625
6798		-29.296875
6799		-27.343750
6800		-29.296875
6801		-25.390625
6802		-29.296875
6803		-25.390625
6804		-27.343750
6805		-23.437500
6806		-27.343750
6807		-23.437500
6808		-27.343750
6809		-23.437500
6810		-27.343750
6811		-21.484375
6812		-25.390625
6813		-21.484375
6814		-23.437500
6815		-21.484375
6816		-23.437500
6817		-19.531250
6818		-23.437500
6819		-19.531250
6820		-21.484375
6821		-17.578125
6822		-21.484375
6823		-17.578125
6824		-19.531250
6825		-15.625000
6826		-19.531250
6827		-15.625000
6828		-17.578125
6829		-13.671875
6830		-17.578125
6831		-13.671875
6832		-15.625000
6833		-11.718750
6834		-15.625000
6835		-11.718750
6836		-13.671875
6837		-9.765625
6838		-13.671875
6839		-9.765625
6840		-11.718750
6841		-7.812500
6842		-9.765625
6843		-7.812500
6844		-9.765625
6845		-5.859375
6846		-7.812500
6847		-3.906250
6848		-7.812500
6849		-3.906250
6850		-5.859375
6851		-1.953125
6852		-5.859375
6853		-1.953125
6854		-3.906250
6855		0.000000
6856		-3.906250
6857		0.000000
6858		-1.953125
6859		1.953125
6860		0.000000
6861		3.906250
6862		0.000000
6863		3.906250
6864		1.953125
6865		5.859375
6866		1.953125
6867		5.859375
6868		3.906250
6869		7.812500
6870		5.859375
6871		9.765625
6872		5.859375
6873		11.718750
6874		7.812500
6875		11.718750
6876		9.765625
6877		13.671875
6878		9.765625
6879		13.671875
6880		11.718750
6881		15.625000
6882		11.718750
6883		15.625000
6884		13.671875
6885		17.578125
6886		15.625000
6887		17.578125
6888		15.625000
6889		19.531250
6890		15.625000
6891		21.484375
6892		17.578125
6893		21.484375
6894		17.578125
6895		23.437500
6896		19.531250
6897		25.390625
6898		21.484375
6899		25.390625
6900		21.484375
6901		25.390625
6902		23.437500
6903		27.343750
6904		25.390625
6905		29.296875
6906		25.390625
6907		31.250000
6908		27.343750
6909		31.250000
6910		27.343750
6911		31.250000
6912		29.296875
6913		33.203125
6914		29.296875
6915		33.203125
6916		29.296875
6917		35.156250
6918		31.250000
6919		35.156250
6920		33.203125
6921		37.109375
6922		33.203125
6923		39.062500
6924		35.156250
6925		39.062500
6926		35.156250
6927		39.062500
6928		35.156250
6929		41.015625
6930		37.109375
6931		41.015625
6932		39.062500
6933		42.968750
6934		39.062500
6935		42.968750
6936		39.062500
6937		42.968750
6938		41.015625
6939		44.921875
6940		41.015625
6941		44.921875
6942		42.968750
6943		44.921875
6944		42.968750
6945		46.875000
6946		42.968750
6947		46.875000
6948		42.968750
6949		46.875000
6950		44.921875
6951		48.828125
6952		44.921875
6953		48.828125
6954		46.875000
6955		48.828125
6956		46.875000
6957		50.781250
6958		46.875000
6959		50.781250
6960		46.875000
6961		50.781250
6962		46.875000
6963		52.734375
6964		48.828125
6965		52.734375
6966		48.828125
6967		52.734375
6968		48.828125
6969		52.734375
6970		50.781250
6971		54.687500
6972		50.781250
6973		54.687500
6974		48.828125
6975		54.687500
6976		50.781250
6977		54.687500
6978		50.781250
6979		56.640625
6980		50.781250
6981		54.687500
6982		50.781250
6983		54.687500
6984		52.734375
6985		54.687500
6986		52.734375
6987		56.640625
6988		50.781250
6989		54.687500
6990		50.781250
6991		56.640625
6992		52.734375
6993		56.640625
6994		52.734375
6995		56.640625
6996		52.734375
6997		56.640625
6998		52.734375
6999		56.640625
7000		52.734375
7001		56.640625
7002		52.734375
7003		56.640625
7004		52.734375
7005		56.640625
7006		52.734375
7007		56.640625
7008		52.734375
7009		54.687500
7010		52.734375
7011		54.687500
7012		50.781250
7013		56.640625
7014		50.781250
7015		54.687500
7016		50.781250
7017		54.687500
7018		50.781250
7019		54.687500
7020		50.781250
7021		54.687500
7022		48.828125
7023		54.687500
7024		50.781250
7025		52.734375
7026		48.828125
7027		52.734375
7028		48.828125
7029		52.734375
7030		48.828125
7031		52.734375
7032		48.828125
7033		52.734375
7034		46.875000
7035		50.781250
7036		46.875000
7037		50.781250
7038		46.875000
7039		50.781250
7040		44.921875
7041		48.828125
7042		44.921875
7043		48.828125
7044		44.921875
7045		48.828125
7046		42.968750
7047		46.875000
7048		42.968750
7049		46.875000
7050		42.968750
7051		46.875000
7052		41.015625
7053		44.921875
7054		41.015625
7055		44.921875
7056		41.015625
7057		44.921875
7058		39.062500
7059		42.968750
7060		39.062500
7061		42.968750
7062		37.109375
7063		41.015625
7064		37.109375
7065		41.015625
7066		35.156250
7067		39.062500
7068		35.156250
7069		39.062500
7070		35.156250
7071		39.062500
7072		33.203125
7073		37.109375
7074		33.203125
7075		35.156250
7076		31.250000
7077		35.156250
7078		31.250000
7079		33.203125
7080		29.296875
7081		33.203125
7082		27.343750
7083		33.203125
7084		27.343750
7085		31.250000
7086		25.390625
7087		31.250000
7088		25.390625
7089		29.296875
7090		23.437500
7091		27.343750
7092		23.437500
7093		27.343750
7094		21.484375
7095		25.390625
7096		19.531250
7097		23.437500
7098		19.531250
7099		23.437500
7100		17.578125
7101		21.484375
7102		15.625000
7103		21.484375
7104		15.625000
7105		19.531250
7106		13.671875
7107		19.531250
7108		13.671875
7109		17.578125
7110		11.718750
7111		15.625000
7112		9.765625
7113		15.625000
7114		9.765625
7115		13.671875
7116		7.812500
7117		11.718750
7118		7.812500
7119		11.718750
7120		5.859375
7121		9.765625
7122		5.859375
7123		9.765625
7124		3.906250
7125		7.812500
7126		1.953125
7127		5.859375
7128		1.953125
7129		5.859375
7130		0.000000
7131		3.906250
7132		0.000000
7133		3.906250
7134		-1.953125
7135		1.953125
7136		-3.906250
7137		0.000000
7138		-3.906250
7139		0.000000
7140		-5.859375
7141		-1.953125
7142		-5.859375
7143		-3.906250
7144		-7.812500
7145		-3.906250
7146		-9.765625
7147		-5.859375
7148		-9.765625
7149		-5.859375
7150		-11.718750
7151		-7.812500
7152		-11.718750
7153		-7.812500
7154		-13.671875
7155		-9.765625
7156		-15.625000
7157		-11.718750
7158		-15.625000
7159		-11.718750
7160		-17.578125
7161		-13.671875
7162		-17.578125
7163		-13.671875
7164		-19.531250
7165		-13.671875
7166		-19.531250
7167		-15.625000
7168		-21.484375
7169		-17.578125
7170		-21.484375
7171		-17.578125
7172		-23.437500
7173		-19.531250
7174		-23.437500
7175		-19.531250
7176		-23.437500
7177		-21.484375
7178		-25.390625
7179		-21.484375
7180		-25.390625
7181		-21.484375
7182		-27.343750
7183		-23.437500
7184		-27.343750
7185		-23.437500
7186		-27.343750
7187		-23.437500
7188		-29.296875
7189		-25.390625
7190		-29.296875
7191		-25.390625
7192		-31.250000
7193		-25.390625
7194		-31.250000
7195		-27.343750
7196		-31.250000
7197		-27.343750
7198		-33.203125
7199		-29.296875
7200		-33.203125
7201		-29.296875
7202		-33.203125
7203		-29.296875
7204		-33.203125
7205		-29.296875
7206		-35.156250
7207		-29.296875
7208		-35.156250
7209		-31.250000
7210		-35.156250
7211		-31.250000
7212		-35.156250
7213		-31.250000
7214		-35.156250
7215		-31.250000
7216		-35.156250
7217		-33.203125
7218		-37.109375
7219		-31.250000
7220		-35.156250
7221		-33.203125
7222		-37.109375
7223		-31.250000
7224		-37.109375
7225		-33.203125
7226		-37.109375
7227		-33.203125
7228		-37.109375
7229		-33.203125
7230		-37.109375
7231		-33.203125
7232		-37.109375
7233		-33.203125
7234		-37.109375
7235		-33.203125
7236		-37.109375
7237		-33.203125
7238		-37.109375
7239		-33.203125
7240		-37.109375
7241		-33.203125
7242		-37.109375
7243		-31.250000
7244		-35.156250
7245		-33.203125
7246		-35.156250
7247		-33.203125
7248		-35.156250
7249		-31.250000
7250		-35.156250
7251		-31.250000
7252		-35.156250
7253		-31.250000
7254		-35.156250
7255		-31.250000
7256		-35.156250
7257		-31.250000
7258		-33.203125
7259		-29.296875
7260		-33.203125
7261		-29.296875
7262		-31.250000
7263		-29.296875
7264		-31.250000
7265		-27.343750
7266		-33.203125
7267		-27.343750
7268		-31.250000
7269		-27.343750
7270		-31.250000
7271		-27.343750
7272		-29.296875
7273		-25.390625
7274		-29.296875
7275		-25.390625
7276		-29.296875
7277		-25.390625
7278		-27.343750
7279		-23.437500
7280		-27.343750
7281		-23.437500
7282		-25.390625
7283		-21.484375
7284		-25.390625
7285		-21.484375
7286		-25.390625
7287		-19.531250
7288		-23.437500
7289		-19.531250
7290		-23.437500
7291		-19.531250
7292		-23.437500
7293		-17.578125
7294		-21.484375
7295		-17.578125
7296		-19.531250
7297		-15.625000
7298		-19.531250
7299		-15.625000
7300		-17.578125
7301		-13.671875
7302		-17.578125
7303		-13.671875
7304		-15.625000
7305		-11.718750
7306		-15.625000
7307		-11.718750
7308		-13.671875
7309		-9.765625
7310		-13.671875
7311		-9.765625
7312		-11.718750
7313		-7.812500
7314		-11.718750
7315		-5.859375
7316		-9.765625
7317		-5.859375
7318		-9.765625
7319		-3.906250
7320		-7.812500
7321		-3.906250
7322		-5.859375
7323		-1.953125
7324		-5.859375
7325		-1.953125
7326		-5.859375
7327		0.000000
7328		-3.906250
7329		0.000000
7330		-1.953125
7331		1.953125
7332		0.000000
7333		3.906250
7334		0.000000
7335		3.906250
7336		1.953125
7337		5.859375
7338		1.953125
7339		7.812500
7340		3.906250
7341		7.812500
7342		3.906250
7343		9.765625
7344		5.859375
7345		9.765625
7346		7.812500
7347		11.718750
7348		7.812500
7349		11.718750
7350		9.765625
7351		13.671875
7352		11.718750
7353		15.625000
7354		11.718750
7355		15.625000
7356		13.671875
7357		17.578125
7358		13.671875
7359		17.578125
7360		15.625000
7361		19.531250
7362		15.625000
7363		21.484375
7364		17.578125
7365		21.484375
7366		17.578125
7367		23.437500
7368		19.531250
7369		23.437500
7370		21.484375
7371		25.390625
7372		21.484375
7373		25.390625
7374		23.437500
7375		27.343750
7376		23.437500
7377		29.296875
7378		25.390625
7379		29.296875
7380		27.343750
7381		31.250000
7382		27.343750
7383		31.250000
7384		29.296875
7385		33.203125
7386		29.296875
7387		33.203125
7388		31.250000
7389		33.203125
7390		31.250000
7391		35.156250
7392		33.203125
7393		37.109375
7394		31.250000
7395		37.109375
7396		35.156250
7397		39.062500
7398		35.156250
7399		39.062500
7400		37.109375
7401		41.015625
7402		37.109375
7403		41.015625
7404		37.109375
7405		42.968750
7406		39.062500
7407		42.968750
7408		39.062500
7409		42.968750
7410		39.062500
7411		44.921875
7412		41.015625
7413		44.921875
7414		41.015625
7415		44.921875
7416		41.015625
7417		46.875000
7418		42.968750
7419		46.875000
7420		42.968750
7421		46.875000
7422		44.921875
7423		48.828125
7424		44.921875
7425		48.828125
7426		44.921875
7427		48.828125
7428		44.921875
7429		48.828125
7430		46.875000
7431		50.781250
7432		46.875000
7433		50.781250
7434		46.875000
7435		50.781250
7436		48.828125
7437		50.781250
7438		48.828125
7439		52.734375
7440		48.828125
7441		52.734375
7442		50.781250
7443		52.734375
7444		50.781250
7445		54.687500
7446		50.781250
7447		54.687500
7448		50.781250
7449		54.687500
7450		50.781250
7451		54.687500
7452		50.781250
7453		54.687500
7454		50.781250
7455		54.687500
7456		50.781250
7457		54.687500
7458		50.781250
7459		56.640625
7460		50.781250
7461		54.687500
7462		52.734375
7463		54.687500
7464		52.734375
7465		54.687500
7466		52.734375
7467		56.640625
7468		52.734375
7469		54.687500
7470		50.781250
7471		54.687500
7472		52.734375
7473		54.687500
7474		50.781250
7475		54.687500
7476		52.734375
7477		54.687500
7478		50.781250
7479		54.687500
7480		50.781250
7481		54.687500
7482		50.781250
7483		54.687500
7484		50.781250
7485		54.687500
7486		50.781250
7487		54.687500
7488		50.781250
7489		54.687500
7490		50.781250
7491		54.687500
7492		50.781250
7493		52.734375
7494		48.828125
7495		52.734375
7496		48.828125
7497		52.734375
7498		48.828125
7499		52.734375
7500		46.875000
7501		52.734375
7502		48.828125
7503		50.781250
7504		46.875000
7505		50.781250
7506		46.875000
7507		50.781250
7508		46.875000
7509		48.828125
7510		44.921875
7511		48.828125
7512		44.921875
7513		48.828125
7514		44.921875
7515		48.828125
7516		42.968750
7517		48.828125
7518		42.968750
7519		46.875000
7520		42.968750
7521		46.875000
7522		41.015625
7523		44.921875
7524		41.015625
7525		44.921875
7526		41.015625
7527		42.968750
7528		39.062500
7529		42.968750
7530		39.062500
7531		42.968750
7532		37.109375
7533		42.968750
7534		37.109375
7535		41.015625
7536		35.156250
7537		39.062500
7538		35.156250
7539		39.062500
7540		35.156250
7541		37.109375
7542		33.203125
7543		37.109375
7544		31.250000
7545		37.109375
7546		31.250000
7547		35.156250
7548		29.296875
7549		33.203125
7550		29.296875
7551		33.203125
7552		27.343750
7553		31.250000
7554		27.343750
7555		31.250000
7556		25.390625
7557		29.296875
7558		25.390625
7559		29.296875
7560		23.437500
7561		27.343750
7562		23.437500
7563		27.343750
7564		21.484375
7565		25.390625
7566		19.531250
7567		23.437500
7568		19.531250
7569		23.437500
7570		17.578125
7571		21.484375
7572		15.625000
7573		21.484375
7574		15.625000
7575		19.531250
7576		13.671875
7577		19.531250
7578		11.718750
7579		17.578125
7580		11.718750
7581		15.625000
7582		11.718750
7583		15.625000
7584		9.765625
7585		13.671875
7586		7.812500
7587		11.718750
7588		7.812500
7589		11.718750
7590		5.859375
7591		9.765625
7592		3.906250
7593		9.765625
7594		3.906250
7595		7.812500
7596		1.953125
7597		7.812500
7598		1.953125
7599		5.859375
7600		0.000000
7601		3.906250
7602		0.000000
7603		1.953125
7604		-1.953125
7605		1.953125
7606		-3.906250
7607		0.000000
7608		-3.906250
7609		0.000000
7610		-5.859375
7611		-1.953125
7612		-7.812500
7613		-1.953125
7614		-7.812500
7615		-3.906250
7616		-9.765625
7617		-5.859375
7618		-9.765625
7619		-5.859375
7620		-11.718750
7621		-5.859375
7622		-11.718750
7623		-7.812500
7624		-13.671875
7625		-9.765625
7626		-15.625000
7627		-9.765625
7628		-15.625000
7629		-11.718750
7630		-17.578125
7631		-13.671875
7632		-17.578125
7633		-13.671875
7634		-19.531250
7635		-13.671875
7636		-19.531250
7637		-15.625000
7638		-21.484375
7639		-17.578125
7640		-21.484375
7641		-17.578125
7642		-21.484375
7643		-19.531250
7644		-23.437500
7645		-19.531250
7646		-23.437500
7647		-21.484375
7648		-25.390625
7649		-21.484375
7650		-27.343750
7651		-21.484375
7652		-27.343750
7653		-23.437500
7654		-27.343750
7655		-23.437500
7656		-27.343750
7657		-23.437500
7658		-29.296875
7659		-25.390625
7660		-31.250000
7661		-25.390625
7662		-31.250000
7663		-25.390625
7664		-31.250000
7665		-27.343750
7666		-31.250000
7667		-27.343750
7668		-31.250000
7669		-27.343750
7670		-33.203125
7671		-29.296875
7672		-33.203125
7673		-29.296875
7674		-33.203125
7675		-29.296875
7676		-35.156250
7677		-29.296875
7678		-35.156250
7679		-31.250000
7680		-35.156250
7681		-31.250000
7682		-35.156250
7683		-31.250000
7684		-35.156250
7685		-33.203125
7686		-35.156250
7687		-33.203125
7688		-37.109375
7689		-33.203125
7690		-37.109375
7691		-33.203125
7692		-37.109375
7693		-33.203125
7694		-37.109375
7695		-33.203125
7696		-37.109375
7697		-33.203125
7698		-37.109375
7699		-33.203125
7700		-37.109375
7701		-33.203125
7702		-37.109375
7703		-33.203125
7704		-37.109375
7705		-33.203125
7706		-37.109375
7707		-33.203125
7708		-37.109375
7709		-33.203125
7710		-37.109375
7711		-33.203125
7712		-37.109375
7713		-33.203125
7714		-37.109375
7715		-33.203125
7716		-37.109375
7717		-33.203125
7718		-37.109375
7719		-31.250000
7720		-35.156250
7721		-31.250000
7722		-37.109375
7723		-31.250000
7724		-35.156250
7725		-31.250000
7726		-35.156250
7727		-31.250000
7728		-35.156250
7729		-31.250000
7730		-35.156250
7731		-29.296875
7732		-33.203125
7733		-29.296875
7734		-33.203125
7735		-29.296875
7736		-33.203125
7737		-29.296875
7738		-31.250000
7739		-29.296875
7740		-31.250000
7741		-27.343750
7742		-31.250000
7743		-27.343750
7744		-31.250000
7745		-25.390625
7746		-29.296875
7747		-25.390625
7748		-29.296875
7749		-25.390625
7750		-27.343750
7751		-23.437500
7752		-27.343750
7753		-23.437500
7754		-27.343750
7755		-23.437500
7756		-25.390625
7757		-21.484375
7758		-25.390625
7759		-21.484375
7760		-23.437500
7761		-19.531250
7762		-23.437500
7763		-19.531250
7764		-21.484375
7765		-17.578125
7766		-21.484375
7767		-17.578125
7768		-19.531250
7769		-15.625000
7770		-19.531250
7771		-15.625000
7772		-19.531250
7773		-15.625000
7774		-17.578125
7775		-13.671875
7776		-15.625000
7777		-13.671875
7778		-15.625000
7779		-11.718750
7780		-15.625000
7781		-9.765625
7782		-13.671875
7783		-9.765625
7784		-11.718750
7785		-7.812500
7786		-11.718750
7787		-7.812500
7788		-9.765625
7789		-5.859375
7790		-7.812500
7791		-5.859375
7792		-7.812500
7793		-3.906250
7794		-7.812500
7795		-1.953125
7796		-5.859375
7797		-1.953125
7798		-3.906250
7799		0.000000
7800		-3.906250
7801		0.000000
7802		-1.953125
7803		1.953125
7804		-1.953125
7805		3.906250
7806		0.000000
7807		3.906250
7808		0.000000
7809		5.859375
7810		1.953125
7811		5.859375
7812		3.906250
7813		7.812500
7814		3.906250
7815		7.812500
7816		5.859375
7817		9.765625
7818		7.812500
7819		11.718750
7820		7.812500
7821		11.718750
7822		9.765625
7823		13.671875
7824		11.718750
7825		15.625000
7826		11.718750
7827		15.625000
7828		13.671875
7829		17.578125
7830		13.671875
7831		19.531250
7832		15.625000
7833		19.531250
7834		17.578125
7835		19.531250
7836		17.578125
7837		21.484375
7838		19.531250
7839		23.437500
7840		19.531250
7841		23.437500
7842		21.484375
7843		25.390625
7844		21.484375
7845		25.390625
7846		21.484375
7847		27.343750
7848		23.437500
7849		27.343750
7850		25.390625
7851		29.296875
7852		25.390625
7853		31.250000
7854		27.343750
7855		31.250000
7856		27.343750
7857		31.250000
7858		29.296875
7859		33.203125
7860		31.250000
7861		35.156250
7862		31.250000
7863		35.156250
7864		31.250000
7865		37.109375
7866		33.203125
7867		37.109375
7868		35.156250
7869		39.062500
7870		35.156250
7871		39.062500
7872		35.156250
7873		39.062500
7874		37.109375
7875		41.015625
7876		37.109375
7877		41.015625
7878		39.062500
7879		42.968750
7880		37.109375
7881		42.968750
7882		39.062500
7883		42.968750
7884		41.015625
7885		44.921875
7886		41.015625
7887		44.921875
7888		42.968750
7889		46.875000
7890		42.968750
7891		46.875000
7892		42.968750
7893		46.875000
7894		44.921875
7895		46.875000
7896		44.921875
7897		48.828125
7898		44.921875
7899		50.781250
7900		46.875000
7901		48.828125
7902		46.875000
7903		50.781250
7904		46.875000
7905		50.781250
7906		46.875000
7907		50.781250
7908		46.875000
7909		52.734375
7910		48.828125
7911		52.734375
7912		48.828125
7913		52.734375
7914		48.828125
7915		54.687500
7916		50.781250
7917		52.734375
7918		50.781250
7919		52.734375
7920		48.828125
7921		54.687500
7922		50.781250
7923		54.687500
7924		50.781250
7925		54.687500
7926		50.781250
7927		54.687500
7928		50.781250
7929		54.687500
7930		50.781250
7931		54.687500
7932		50.781250
7933		54.687500
7934		50.781250
7935		54.687500
7936		50.781250
7937		56.640625
7938		50.781250
7939		54.687500
7940		50.781250
7941		54.687500
7942		50.781250
7943		54.687500
7944		50.781250
7945		54.687500
7946		50.781250
7947		54.687500
7948		50.781250
7949		54.687500
7950		50.781250
7951		54.687500
7952		50.781250
7953		54.687500
7954		50.781250
7955		54.687500
7956		50.781250
7957		54.687500
7958		50.781250
7959		54.687500
7960		50.781250
7961		54.687500
7962		48.828125
7963		52.734375
7964		48.828125
7965		52.734375
7966		48.828125
7967		52.734375
7968		48.828125
7969		52.734375
7970		48.828125
7971		50.781250
7972		46.875000
7973		50.781250
7974		46.875000
7975		50.781250
7976		46.875000
7977		50.781250
7978		44.921875
7979		50.781250
7980		44.921875
7981		50.781250
7982		44.921875
7983		48.828125
7984		44.921875
7985		48.828125
7986		42.968750
7987		46.875000
7988		42.968750
7989		46.875000
7990		41.015625
7991		46.875000
7992		41.015625
7993		44.921875
7994		41.015625
7995		44.921875
7996		41.015625
7997		42.968750
7998		39.062500
7999		42.968750
8000		39.062500
8001		42.968750
8002		37.109375
8003		41.015625
8004		37.109375
8005		41.015625
8006		35.156250
8007		41.015625
8008		35.156250
8009		39.062500
8010		33.203125
8011		39.062500
8012		33.203125
8013		37.109375
8014		33.203125
8015		37.109375
8016		31.250000
8017		35.156250
8018		31.250000
8019		35.156250
8020		29.296875
8021		33.203125
8022		27.343750
8023		31.250000
8024		27.343750
8025		31.250000
8026		25.390625
8027		29.296875
8028		25.390625
8029		29.296875
8030		23.437500
8031		27.343750
8032		21.484375
8033		27.343750
8034		21.484375
8035		25.390625
8036		21.484375
8037		25.390625
8038		19.531250
8039		23.437500
8040		17.578125
8041		21.484375
8042		17.578125
8043		21.484375
8044		15.625000
8045		19.531250
8046		15.625000
8047		19.531250
8048		13.671875
8049		17.578125
8050		13.671875
8051		17.578125
8052		11.718750
8053		15.625000
8054		9.765625
8055		13.671875
8056		7.812500
8057		11.718750
8058		7.812500
8059		11.718750
8060		5.859375
8061		11.718750
8062		5.859375
8063		9.765625
8064		3.906250
8065		7.812500
8066		3.906250
8067		7.812500
8068		1.953125
8069		5.859375
8070		0.000000
8071		3.906250
8072		0.000000
8073		3.906250
8074		-1.953125
8075		1.953125
8076		-3.906250
8077		1.953125
8078		-3.906250
8079		0.000000
8080		-5.859375
8081		-1.953125
8082		-7.812500
8083		-1.953125
8084		-7.812500
8085		-3.906250
8086		-7.812500
8087		-5.859375
8088		-9.765625
8089		-5.859375
8090		-11.718750
8091		-7.812500
8092		-11.718750
8093		-7.812500
8094		-13.671875
8095		-9.765625
8096		-13.671875
8097		-9.765625
8098		-15.625000
8099		-11.718750
8100		-17.578125
8101		-11.718750
8102		-17.578125
8103		-13.671875
8104		-19.531250
8105		-15.625000
8106		-19.531250
8107		-15.625000
8108		-21.484375
8109		-17.578125
8110		-21.484375
8111		-17.578125
8112		-23.437500
8113		-19.531250
8114		-23.437500
8115		-19.531250
8116		-25.390625
8117		-19.531250
8118		-25.390625
8119		-21.484375
8120		-25.390625
8121		-23.437500
8122		-27.343750
8123		-23.437500
8124		-27.343750
8125		-23.437500
8126		-29.296875
8127		-23.437500
8128		-29.296875
8129		-25.390625
8130		-29.296875
8131		-25.390625
8132		-31.250000
8133		-27.343750
8134		-31.250000
8135		-27.343750
8136		-33.203125
8137		-29.296875
8138		-33.203125
8139		-29.296875
8140		-33.203125
8141		-29.296875
8142		-33.203125
8143		-29.296875
8144		-35.156250
8145		-31.250000
8146		-35.156250
8147		-31.250000
8148		-35.156250
8149		-31.250000
8150		-35.156250
8151		-31.250000
8152		-35.156250
8153		-33.203125
8154		-37.109375
8155		-33.203125
8156		-37.109375
8157		-33.203125
8158		-37.109375
8159		-33.203125
8160		-37.109375
8161		-33.203125
8162		-37.109375
8163		-33.203125
8164		-39.062500
8165		-33.203125
8166		-39.062500
8167		-33.203125
8168		-37.109375
8169		-35.156250
8170		-37.109375
8171		-35.156250
8172		-39.062500
8173		-33.203125
8174		-37.109375
8175		-33.203125
8176		-39.062500
8177		-35.156250
8178		-37.109375
8179		-35.156250
8180		-37.109375
8181		-33.203125
8182		-37.109375
8183		-33.203125
8184		-37.109375
8185		-33.203125
8186		-37.109375
8187		-33.203125
8188		-37.109375
8189		-33.203125
8190		-37.109375
8191		-33.203125
8192		-37.109375
8193		-33.203125
8194		-37.109375
8195		-33.203125
8196		-35.156250
8197		-31.250000
8198		-35.156250
8199		-31.250000
8200		-35.156250
8201		-31.250000
8202		-35.156250
8203		-31.250000
8204		-33.203125
8205		-31.250000
8206		-35.156250
8207		-29.296875
8208		-33.203125
8209		-29.296875
8210		-31.250000
8211		-29.296875
8212		-31.250000
8213		-29.296875
8214		-31.250000
8215		-27.343750
8216		-31.250000
8217		-27.343750
8218		-29.296875
8219		-25.390625
8220		-29.296875
8221		-25.390625
8222		-29.296875
8223		-23.437500
8224		-27.343750
8225		-23.437500
8226		-27.343750
8227		-23.437500
8228		-25.390625
8229		-21.484375
8230		-25.390625
8231		-21.484375
8232		-25.390625
8233		-19.531250
8234		-23.437500
8235		-19.531250
8236		-21.484375
8237		-19.531250
8238		-21.484375
8239		-17.578125
8240		-21.484375
8241		-17.578125
8242		-19.531250
8243		-15.625000
8244		-19.531250
8245		-13.671875
8246		-17.578125
8247		-13.671875
8248		-15.625000
8249		-13.671875
8250		-15.625000
8251		-11.718750
8252		-13.671875
8253		-11.718750
8254		-13.671875
8255		-9.765625
8256		-11.718750
8257		-9.765625
8258		-11.718750
8259		-7.812500
8260		-9.765625
8261		-5.859375
8262		-9.765625
8263		-5.859375
8264		-7.812500
8265		-3.906250
8266		-7.812500
8267		-3.906250
8268		-5.859375
8269		-1.953125
8270		-3.906250
8271		0.000000
8272		-3.906250
8273		1.953125
8274		-3.906250
8275		1.953125
8276		-1.953125
8277		1.953125
8278		0.000000
8279		3.906250
8280		0.000000
8281		5.859375
8282		1.953125
8283		5.859375
8284		3.906250
8285		7.812500
8286		3.906250
8287		7.812500
8288		5.859375
8289		9.765625
8290		5.859375
8291		11.718750
8292		7.812500
8293		11.718750
8294		9.765625
8295		13.671875
8296		9.765625
8297		13.671875
8298		11.718750
8299		15.625000
8300		13.671875
8301		17.578125
8302		13.671875
8303		17.578125
8304		15.625000
8305		19.531250
8306		15.625000
8307		19.531250
8308		17.578125
8309		21.484375
8310		17.578125
8311		21.484375
8312		19.531250
8313		23.437500
8314		21.484375
8315		25.390625
8316		21.484375
8317		25.390625
8318		23.437500
8319		27.343750
8320		23.437500
8321		27.343750
8322		25.390625
8323		29.296875
8324		25.390625
8325		29.296875
8326		27.343750
8327		31.250000
8328		29.296875
8329		31.250000
8330		29.296875
8331		33.203125
8332		29.296875
8333		35.156250
8334		31.250000
8335		35.156250
8336		33.203125
8337		35.156250
8338		33.203125
8339		37.109375
8340		33.203125
8341		37.109375
8342		35.156250
8343		39.062500
8344		35.156250
8345		39.062500
8346		35.156250
8347		41.015625
8348		37.109375
8349		41.015625
8350		39.062500
8351		41.015625
8352		39.062500
8353		42.968750
8354		39.062500
8355		42.968750
8356		41.015625
8357		44.921875
8358		41.015625
8359		44.921875
8360		41.015625
8361		44.921875
8362		42.968750
8363		44.921875
8364		42.968750
8365		46.875000
8366		42.968750
8367		46.875000
8368		44.921875
8369		48.828125
8370		44.921875
8371		48.828125
8372		44.921875
8373		48.828125
8374		46.875000
8375		48.828125
8376		46.875000
8377		50.781250
8378		46.875000
8379		50.781250
8380		46.875000
8381		50.781250
8382		48.828125
8383		50.781250
8384		48.828125
8385		52.734375
8386		48.828125
8387		52.734375
8388		48.828125
8389		52.734375
8390		48.828125
8391		52.734375
8392		48.828125
8393		52.734375
8394		50.781250
8395		52.734375
8396		50.781250
8397		52.734375
8398		50.781250
8399		54.687500
8400		50.781250
8401		54.687500
8402		50.781250
8403		54.687500
8404		50.781250
8405		54.687500
8406		50.781250
8407		54.687500
8408		48.828125
8409		56.640625
8410		50.781250
8411		54.687500
8412		50.781250
8413		54.687500
8414		50.781250
8415		54.687500
8416		50.781250
8417		54.687500
8418		50.781250
8419		54.687500
8420		50.781250
8421		54.687500
8422		50.781250
8423		52.734375
8424		50.781250
8425		54.687500
8426		50.781250
8427		52.734375
8428		48.828125
8429		52.734375
8430		48.828125
8431		54.687500
8432		48.828125
8433		52.734375
8434		48.828125
8435		52.734375
8436		48.828125
8437		52.734375
8438		48.828125
8439		52.734375
8440		48.828125
8441		50.781250
8442		46.875000
8443		50.781250
8444		46.875000
8445		50.781250
8446		46.875000
8447		50.781250
8448		46.875000
8449		48.828125
8450		44.921875
8451		48.828125
8452		44.921875
8453		48.828125
8454		44.921875
8455		46.875000
8456		44.921875
8457		46.875000
8458		42.968750
8459		46.875000
8460		42.968750
8461		46.875000
8462		41.015625
8463		44.921875
8464		41.015625
8465		44.921875
8466		39.062500
8467		44.921875
8468		39.062500
8469		42.968750
8470		39.062500
8471		42.968750
8472		39.062500
8473		41.015625
8474		37.109375
8475		41.015625
8476		37.109375
8477		41.015625
8478		35.156250
8479		39.062500
8480		35.156250
8481		39.062500
8482		33.203125
8483		37.109375
8484		33.203125
8485		37.109375
8486		31.250000
8487		35.156250
8488		31.250000
8489		35.156250
8490		29.296875
8491		33.203125
8492		27.343750
8493		33.203125
8494		27.343750
8495		31.250000
8496		27.343750
8497		31.250000
8498		25.390625
8499		29.296875
8500		23.437500
8501		27.343750
8502		23.437500
8503		27.343750
8504		21.484375
8505		27.343750
8506		21.484375
8507		25.390625
8508		19.531250
8509		25.390625
8510		17.578125
8511		23.437500
8512		17.578125
8513		21.484375
8514		15.625000
8515		21.484375
8516		15.625000
8517		19.531250
8518		13.671875
8519		17.578125
8520		13.671875
8521		17.578125
8522		11.718750
8523		15.625000
8524		11.718750
8525		15.625000
8526		9.765625
8527		13.671875
8528		7.812500
8529		11.718750
8530		7.812500
8531		11.718750
8532		5.859375
8533		9.765625
8534		3.906250
8535		7.812500
8536		3.906250
8537		7.812500
8538		1.953125
8539		5.859375
8540		0.000000
8541		5.859375
8542		0.000000
8543		3.906250
8544		-1.953125
8545		1.953125
8546		-1.953125
8547		1.953125
8548		-3.906250
8549		0.000000
8550		-5.859375
8551		0.000000
8552		-5.859375
8553		-1.953125
8554		-7.812500
8555		-1.953125
8556		-7.812500
8557		-3.906250
8558		-9.765625
8559		-5.859375
8560		-9.765625
8561		-5.859375
8562		-13.671875
8563		-7.812500
8564		-13.671875
8565		-9.765625
8566		-15.625000
8567		-9.765625
8568		-15.625000
8569		-11.718750
8570		-15.625000
8571		-11.718750
8572		-17.578125
8573		-13.671875
8574		-17.578125
8575		-13.671875
8576		-19.531250
8577		-15.625000
8578		-21.484375
8579		-15.625000
8580		-21.484375
8581		-17.578125
8582		-21.484375
8583		-17.578125
8584		-23.437500
8585		-19.531250
8586		-23.437500
8587		-19.531250
8588		-25.390625
8589		-21.484375
8590		-25.390625
8591		-21.484375
8592		-27.343750
8593		-23.437500
8594		-27.343750
8595		-23.437500
8596		-27.343750
8597		-25.390625
8598		-29.296875
8599		-25.390625
8600		-29.296875
8601		-25.390625
8602		-31.250000
8603		-27.343750
8604		-31.250000
8605		-27.343750
8606		-31.250000
8607		-29.296875
8608		-33.203125
8609		-27.343750
8610		-33.203125
8611		-29.296875
8612		-35.156250
8613		-29.296875
8614		-33.203125
8615		-31.250000
8616		-35.156250
8617		-31.250000
8618		-35.156250
8619		-31.250000
8620		-37.109375
8621		-31.250000
8622		-35.156250
8623		-33.203125
8624		-37.109375
8625		-33.203125
8626		-37.109375
8627		-33.203125
8628		-37.109375
8629		-33.203125
8630		-37.109375
8631		-33.203125
8632		-37.109375
8633		-33.203125
8634		-37.109375
8635		-35.156250
8636		-37.109375
8637		-35.156250
8638		-39.062500
8639		-33.203125
8640		-37.109375
8641		-35.156250
8642		-39.062500
8643		-33.203125
8644		-39.062500
8645		-35.156250
8646		-39.062500
8647		-35.156250
8648		-37.109375
8649		-35.156250
8650		-39.062500
8651		-35.156250
8652		-37.109375
8653		-35.156250
8654		-39.062500
8655		-33.203125
8656		-37.109375
8657		-35.156250
8658		-37.109375
8659		-33.203125
8660		-37.109375
8661		-33.203125
8662		-37.109375
8663		-33.203125
8664		-37.109375
8665		-33.203125
8666		-37.109375
8667		-33.203125
8668		-35.156250
8669		-33.203125
8670		-37.109375
8671		-31.250000
8672		-35.156250
8673		-31.250000
8674		-35.156250
8675		-31.250000
8676		-35.156250
8677		-29.296875
8678		-33.203125
8679		-29.296875
8680		-33.203125
8681		-29.296875
8682		-33.203125
8683		-29.296875
8684		-31.250000
8685		-27.343750
8686		-31.250000
8687		-27.343750
8688		-31.250000
8689		-27.343750
8690		-29.296875
8691		-25.390625
8692		-29.296875
8693		-25.390625
8694		-27.343750
8695		-25.390625
8696		-27.343750
8697		-23.437500
8698		-27.343750
8699		-23.437500
8700		-25.390625
8701		-21.484375
8702		-25.390625
8703		-21.484375
8704		-23.437500
8705		-21.484375
8706		-23.437500
8707		-19.531250
8708		-23.437500
8709		-17.578125
8710		-21.484375
8711		-17.578125
8712		-19.531250
8713		-17.578125
8714		-19.531250
8715		-15.625000
8716		-19.531250
8717		-15.625000
8718		-17.578125
8719		-13.671875
8720		-15.625000
8721		-13.671875
8722		-15.625000
8723		-11.718750
8724		-13.671875
8725		-11.718750
8726		-13.671875
8727		-9.765625
8728		-13.671875
8729		-5.859375
8730		-11.718750
8731		-5.859375
8732		-9.765625
8733		-5.859375
8734		-9.765625
8735		-5.859375
8736		-7.812500
8737		-3.906250
8738		-7.812500
8739		-1.953125
8740		-5.859375
8741		-1.953125
8742		-3.906250
8743		0.000000
8744		-3.906250
8745		1.953125
8746		-3.906250
8747		1.953125
8748		-1.953125
8749		3.906250
8750		0.000000
8751		3.906250
8752		1.953125
8753		5.859375
8754		1.953125
8755		5.859375
8756		3.906250
8757		7.812500
8758		5.859375
8759		7.812500
8760		3.906250
8761		11.718750
8762		5.859375
8763		11.718750
8764		7.812500
8765		11.718750
8766		7.812500
8767		13.671875
8768		9.765625
8769		15.625000
8770		11.718750
8771		15.625000
8772		11.718750
8773		17.578125
8774		13.671875
8775		17.578125
8776		15.625000
8777		19.531250
8778		15.625000
8779		21.484375
8780		15.625000
8781		21.484375
8782		19.531250
8783		23.437500
8784		17.578125
8785		23.437500
8786		21.484375
8787		25.390625
8788		21.484375
8789		25.390625
8790		23.437500
8791		27.343750
8792		23.437500
8793		27.343750
8794		23.437500
8795		29.296875
8796		23.437500
8797		31.250000
8798		25.390625
8799		31.250000
8800		25.390625
8801		33.203125
8802		27.343750
8803		35.156250
8804		29.296875
8805		35.156250
8806		31.250000
8807		35.156250
8808		33.203125
8809		35.156250
8810		31.250000
8811		37.109375
8812		31.250000
8813		39.062500
8814		33.203125
8815		39.062500
8816		33.203125
8817		41.015625
8818		35.156250
8819		41.015625
8820		35.156250
8821		42.968750
8822		37.109375
8823		42.968750
8824		39.062500
8825		42.968750
8826		39.062500
8827		42.968750
8828		39.062500
8829		44.921875
8830		41.015625
8831		46.875000
8832		39.062500
8833		46.875000
8834		41.015625
8835		46.875000
8836		41.015625
8837		48.828125
8838		42.968750
8839		48.828125
8840		42.968750
8841		46.875000
8842		44.921875
8843		48.828125
8844		44.921875
8845		50.781250
8846		44.921875
8847		50.781250
8848		44.921875
8849		52.734375
8850		44.921875
8851		52.734375
8852		46.875000
8853		52.734375
8854		46.875000
8855		52.734375
8856		46.875000
8857		52.734375
8858		48.828125
8859		52.734375
8860		46.875000
8861		52.734375
8862		48.828125
8863		54.687500
8864		46.875000
8865		54.687500
8866		48.828125
8867		54.687500
8868		48.828125
8869		54.687500
8870		48.828125
8871		54.687500
8872		48.828125
8873		54.687500
8874		50.781250
8875		54.687500
8876		50.781250
8877		54.687500
8878		48.828125
8879		56.640625
8880		48.828125
8881		56.640625
8882		48.828125
8883		56.640625
8884		48.828125
8885		56.640625
8886		48.828125
8887		56.640625
8888		48.828125
8889		56.640625
8890		48.828125
8891		56.640625
8892		50.781250
8893		54.687500
8894		48.828125
8895		56.640625
8896		48.828125
8897		56.640625
8898		48.828125
8899		54.687500
8900		48.828125
8901		54.687500
8902		46.875000
8903		54.687500
8904		46.875000
8905		54.687500
8906		46.875000
8907		54.687500
8908		48.828125
8909		52.734375
8910		48.828125
8911		52.734375
8912		46.875000
8913		52.734375
8914		46.875000
8915		52.734375
8916		44.921875
8917		50.781250
8918		44.921875
8919		50.781250
8920		44.921875
8921		50.781250
8922		44.921875
8923		50.781250
8924		42.968750
8925		48.828125
8926		44.921875
8927		46.875000
8928		41.015625
8929		48.828125
8930		39.062500
8931		48.828125
8932		39.062500
8933		48.828125
8934		39.062500
8935		46.875000
8936		39.062500
8937		46.875000
8938		39.062500
8939		44.921875
8940		37.109375
8941		44.921875
8942		39.062500
8943		42.968750
8944		37.109375
8945		41.015625
8946		35.156250
8947		42.968750
8948		33.203125
8949		41.015625
8950		33.203125
8951		41.015625
8952		33.203125
8953		41.015625
8954		31.250000
8955		39.062500
8956		31.250000
8957		39.062500
8958		31.250000
8959		35.156250
8960		31.250000
8961		35.156250
8962		27.343750
8963		35.156250
8964		27.343750
8965		33.203125
8966		25.390625
8967		33.203125
8968		25.390625
8969		33.203125
8970		23.437500
8971		31.250000
8972		21.484375
8973		29.296875
8974		23.437500
8975		29.296875
8976		21.484375
8977		25.390625
8978		19.531250
8979		25.390625
8980		17.578125
8981		25.390625
8982		15.625000
8983		23.437500
8984		15.625000
8985		23.437500
8986		13.671875
8987		21.484375
8988		13.671875
8989		21.484375
8990		13.671875
8991		19.531250
8992		13.671875
8993		17.578125
8994		11.718750
8995		15.625000
8996		7.812500
8997		15.625000
8998		7.812500
8999		15.625000
9000		5.859375
9001		13.671875
9002		3.906250
9003		13.671875
9004		3.906250
9005		11.718750
9006		1.953125
9007		11.718750
9008		3.906250
9009		7.812500
9010		1.953125
9011		5.859375
9012		0.000000
9013		5.859375
9014		-1.953125
9015		5.859375
9016		-3.906250
9017		3.906250
9018		-5.859375
9019		3.906250
9020		-5.859375
9021		1.953125
9022		-5.859375
9023		1.953125
9024		-7.812500
9025		-1.953125
9026		-7.812500
9027		-3.906250
9028		-7.812500
9029		-5.859375
9030		-11.718750
9031		-3.906250
9032		-13.671875
9033		-5.859375
9034		-13.671875
9035		-5.859375
9036		-15.625000
9037		-7.812500
9038		-15.625000
9039		-7.812500
9040		-17.578125
9041		-9.765625
9042		-15.625000
9043		-11.718750
9044		-17.578125
9045		-13.671875
9046		-19.531250
9047		-13.671875
9048		-21.484375
9049		-13.671875
9050		-21.484375
9051		-15.625000
9052		-23.437500
9053		-15.625000
9054		-25.390625
9055		-17.578125
9056		-25.390625
9057		-17.578125
9058		-25.390625
9059		-17.578125
9060		-25.390625
9061		-21.484375
9062		-27.343750
9063		-21.484375
9064		-29.296875
9065		-21.484375
9066		-29.296875
9067		-21.484375
9068		-31.250000
9069		-23.437500
9070		-31.250000
9071		-23.437500
9072		-31.250000
9073		-25.390625
9074		-33.203125
9075		-25.390625
9076		-31.250000
9077		-27.343750
9078		-31.250000
9079		-27.343750
9080		-35.156250
9081		-27.343750
9082		-35.156250
9083		-27.343750
9084		-35.156250
9085		-27.343750
9086		-35.156250
9087		-29.296875
9088		-37.109375
9089		-29.296875
9090		-37.109375
9091		-29.296875
9092		-37.109375
9093		-31.250000
9094		-35.156250
9095		-33.203125
9096		-37.109375
9097		-31.250000
9098		-39.062500
9099		-31.250000
9100		-39.062500
9101		-31.250000
9102		-39.062500
9103		-33.203125
9104		-39.062500
9105		-33.203125
9106		-39.062500
9107		-31.250000
9108		-39.062500
9109		-33.203125
9110		-37.109375
9111		-35.156250
9112		-39.062500
9113		-35.156250
9114		-41.015625
9115		-33.203125
9116		-41.015625
9117		-33.203125
9118		-41.015625
9119		-31.250000
9120		-39.062500
9121		-33.203125
9122		-41.015625
9123		-31.250000
9124		-39.062500
9125		-33.203125
9126		-39.062500
9127		-33.203125
9128		-37.109375
9129		-35.156250
9130		-39.062500
9131		-31.250000
9132		-39.062500
9133		-33.203125
9134		-39.062500
9135		-31.250000
9136		-39.062500
9137		-31.250000
9138		-39.062500
9139		-31.250000
9140		-37.109375
9141		-31.250000
9142		-37.109375
9143		-31.250000
9144		-35.156250
9145		-31.250000
9146		-35.156250
9147		-29.296875
9148		-35.156250
9149		-29.296875
9150		-35.156250
9151		-27.343750
9152		-35.156250
9153		-27.343750
9154		-35.156250
9155		-27.343750
9156		-33.203125
9157		-27.343750
9158		-33.203125
9159		-25.390625
9160		-29.296875
9161		-27.343750
9162		-29.296875
9163		-25.390625
9164		-31.250000
9165		-23.437500
9166		-29.296875
9167		-21.484375
9168		-29.296875
9169		-21.484375
9170		-29.296875
9171		-21.484375
9172		-29.296875
9173		-21.484375
9174		-27.343750
9175		-19.531250
9176		-25.390625
9177		-19.531250
9178		-23.437500
9179		-19.531250
9180		-23.437500
9181		-17.578125
9182		-23.437500
9183		-15.625000
9184		-21.484375
9185		-13.671875
9186		-21.484375
9187		-13.671875
9188		-19.531250
9189		-13.671875
9190		-19.531250
9191		-11.718750
9192		-17.578125
9193		-11.718750
9194		-15.625000
9195		-11.718750
9196		-13.671875
9197		-11.718750
9198		-15.625000
9199		-7.812500
9200		-13.671875
9201		-5.859375
9202		-11.718750
9203		-5.859375
9204		-11.718750
9205		-3.906250
9206		-11.718750
9207		-3.906250
9208		-9.765625
9209		-1.953125
9210		-7.812500
9211		-1.953125
9212		-5.859375
9213		-1.953125
9214		-5.859375
9215		0.000000
9216		-5.859375
9217		1.953125
9218		-3.906250
9219		3.906250
9220		-1.953125
9221		3.906250
9222		-1.953125
9223		5.859375
9224		0.000000
9225		5.859375
9226		0.000000
9227		7.812500
9228		3.906250
9229		7.812500
9230		3.906250
9231		9.765625
9232		3.906250
9233		11.718750
9234		5.859375
9235		13.671875
9236		5.859375
9237		13.671875
9238		7.812500
9239		15.625000
9240		7.812500
9241		17.578125
9242		9.765625
9243		17.578125
9244		13.671875
9245		17.578125
9246		13.671875
9247		19.531250
9248		13.671875
9249		21.484375
9250		15.625000
9251		21.484375
9252		15.625000
9253		23.437500
9254		17.578125
9255		23.437500
9256		17.578125
9257		25.390625
9258		19.531250
9259		27.343750
9260		19.531250
9261		27.343750
9262		23.437500
9263		27.343750
9264		23.437500
9265		29.296875
9266		23.437500
9267		31.250000
9268		23.437500
9269		33.203125
9270		25.390625
9271		33.203125
9272		27.343750
9273		35.156250
9274		27.343750
9275		35.156250
9276		29.296875
9277		35.156250
9278		31.250000
9279		35.156250
9280		33.203125
9281		37.109375
9282		31.250000
9283		39.062500
9284		33.203125
9285		39.062500
9286		33.203125
9287		41.015625
9288		35.156250
9289		41.015625
9290		35.156250
9291		42.968750
9292		37.109375
9293		42.968750
9294		37.109375
9295		42.968750
9296		39.062500
9297		42.968750
9298		39.062500
9299		44.921875
9300		39.062500
9301		46.875000
9302		39.062500
9303		46.875000
9304		41.015625
9305		46.875000
9306		41.015625
9307		48.828125
9308		42.968750
9309		48.828125
9310		41.015625
9311		48.828125
9312		44.921875
9313		48.828125
9314		44.921875
9315		50.781250
9316		44.921875
9317		50.781250
9318		44.921875
9319		50.781250
9320		44.921875
9321		52.734375
9322		44.921875
9323		52.734375
9324		46.875000
9325		52.734375
9326		46.875000
9327		52.734375
9328		46.875000
9329		52.734375
9330		48.828125
9331		52.734375
9332		46.875000
9333		54.687500
9334		48.828125
9335		54.687500
9336		46.875000
9337		56.640625
9338		48.828125
9339		54.687500
9340		48.828125
9341		56.640625
9342		48.828125
9343		54.687500
9344		48.828125
9345		54.687500
9346		50.781250
9347		54.687500
9348		48.828125
9349		54.687500
9350		48.828125
9351		56.640625
9352		48.828125
9353		56.640625
9354		50.781250
9355		56.640625
9356		48.828125
9357		56.640625
9358		48.828125
9359		56.640625
9360		48.828125
9361		56.640625
9362		50.781250
9363		54.687500
9364		50.781250
9365		54.687500
9366		48.828125
9367		56.640625
9368		48.828125
9369		54.687500
9370		46.875000
9371		56.640625
9372		46.875000
9373		54.687500
9374		46.875000
9375		54.687500
9376		46.875000
9377		54.687500
9378		46.875000
9379		54.687500
9380		48.828125
9381		52.734375
9382		46.875000
9383		52.734375
9384		44.921875
9385		52.734375
9386		44.921875
9387		52.734375
9388		44.921875
9389		52.734375
9390		44.921875
9391		50.781250
9392		44.921875
9393		50.781250
9394		42.968750
9395		50.781250
9396		44.921875
9397		48.828125
9398		44.921875
9399		48.828125
9400		41.015625
9401		48.828125
9402		41.015625
9403		48.828125
9404		41.015625
9405		46.875000
9406		39.062500
9407		46.875000
9408		39.062500
9409		44.921875
9410		39.062500
9411		46.875000
9412		39.062500
9413		42.968750
9414		39.062500
9415		42.968750
9416		35.156250
9417		42.968750
9418		35.156250
9419		42.968750
9420		33.203125
9421		41.015625
9422		33.203125
9423		41.015625
9424		31.250000
9425		39.062500
9426		31.250000
9427		39.062500
9428		31.250000
9429		37.109375
9430		31.250000
9431		35.156250
9432		27.343750
9433		35.156250
9434		27.343750
9435		35.156250
9436		25.390625
9437		33.203125
9438		25.390625
9439		31.250000
9440		23.437500
9441		31.250000
9442		23.437500
9443		31.250000
9444		21.484375
9445		29.296875
9446		21.484375
9447		27.343750
9448		21.484375
9449		25.390625
9450		19.531250
9451		25.390625
9452		17.578125
9453		25.390625
9454		15.625000
9455		23.437500
9456		15.625000
9457		23.437500
9458		15.625000
9459		21.484375
9460		13.671875
9461		21.484375
9462		11.718750
9463		19.531250
9464		13.671875
9465		15.625000
9466		9.765625
9467		15.625000
9468		7.812500
9469		15.625000
9470		5.859375
9471		13.671875
9472		5.859375
9473		13.671875
9474		3.906250
9475		11.718750
9476		3.906250
9477		11.718750
9478		1.953125
9479		9.765625
9480		3.906250
9481		5.859375
9482		1.953125
9483		5.859375
9484		0.000000
9485		5.859375
9486		-1.953125
9487		5.859375
9488		-3.906250
9489		3.906250
9490		-5.859375
9491		1.953125
9492		-5.859375
9493		0.000000
9494		-7.812500
9495		0.000000
9496		-5.859375
9497		-3.906250
9498		-7.812500
9499		-3.906250
9500		-9.765625
9501		-3.906250
9502		-11.718750
9503		-3.906250
9504		-11.718750
9505		-5.859375
9506		-15.625000
9507		-5.859375
9508		-15.625000
9509		-7.812500
9510		-15.625000
9511		-9.765625
9512		-15.625000
9513		-11.718750
9514		-15.625000
9515		-13.671875
9516		-19.531250
9517		-13.671875
9518		-21.484375
9519		-11.718750
9520		-21.484375
9521		-13.671875
9522		-23.437500
9523		-15.625000
9524		-23.437500
9525		-15.625000
9526		-25.390625
9527		-17.578125
9528		-25.390625
9529		-19.531250
9530		-25.390625
9531		-21.484375
9532		-25.390625
9533		-21.484375
9534		-27.343750
9535		-21.484375
9536		-29.296875
9537		-21.484375
9538		-29.296875
9539		-23.437500
9540		-31.250000
9541		-23.437500
9542		-31.250000
9543		-23.437500
9544		-31.250000
9545		-23.437500
9546		-31.250000
9547		-25.390625
9548		-31.250000
9549		-27.343750
9550		-33.203125
9551		-27.343750
9552		-35.156250
9553		-27.343750
9554		-35.156250
9555		-29.296875
9556		-35.156250
9557		-29.296875
9558		-35.156250
9559		-29.296875
9560		-37.109375
9561		-29.296875
9562		-37.109375
9563		-29.296875
9564		-35.156250
9565		-31.250000
9566		-35.156250
9567		-33.203125
9568		-37.109375
9569		-31.250000
9570		-39.062500
9571		-33.203125
9572		-39.062500
9573		-31.250000
9574		-39.062500
9575		-33.203125
9576		-39.062500
9577		-33.203125
9578		-41.015625
9579		-31.250000
9580		-37.109375
9581		-35.156250
9582		-37.109375
9583		-35.156250
9584		-39.062500
9585		-33.203125
9586		-39.062500
9587		-31.250000
9588		-41.015625
9589		-33.203125
9590		-39.062500
9591		-33.203125
9592		-39.062500
9593		-33.203125
9594		-41.015625
9595		-33.203125
9596		-39.062500
9597		-33.203125
9598		-37.109375
9599		-35.156250
9600		-39.062500
9601		-33.203125
9602		-39.062500
9603		-31.250000
9604		-39.062500
9605		-33.203125
9606		-39.062500
9607		-31.250000
9608		-39.062500
9609		-31.250000
9610		-37.109375
9611		-31.250000
9612		-37.109375
9613		-31.250000
9614		-35.156250
9615		-31.250000
9616		-35.156250
9617		-31.250000
9618		-35.156250
9619		-29.296875
9620		-35.156250
9621		-27.343750
9622		-35.156250
9623		-27.343750
9624		-35.156250
9625		-27.343750
9626		-35.156250
9627		-27.343750
9628		-33.203125
9629		-25.390625
9630		-31.250000
9631		-27.343750
9632		-29.296875
9633		-25.390625
9634		-31.250000
9635		-23.437500
9636		-31.250000
9637		-23.437500
9638		-29.296875
9639		-21.484375
9640		-29.296875
9641		-19.531250
9642		-29.296875
9643		-19.531250
9644		-27.343750
9645		-19.531250
9646		-27.343750
9647		-19.531250
9648		-23.437500
9649		-19.531250
9650		-23.437500
9651		-19.531250
9652		-23.437500
9653		-15.625000
9654		-23.437500
9655		-15.625000
9656		-21.484375
9657		-15.625000
9658		-21.484375
9659		-13.671875
9660		-19.531250
9661		-11.718750
9662		-19.531250
9663		-11.718750
9664		-15.625000
9665		-11.718750
9666		-15.625000
9667		-11.718750
9668		-15.625000
9669		-7.812500
9670		-15.625000
9671		-7.812500
9672		-13.671875
9673		-5.859375
9674		-11.718750
9675		-5.859375
9676		-11.718750
9677		-3.906250
9678		-9.765625
9679		-1.953125
9680		-7.812500
9681		-1.953125
9682		-5.859375
9683		-1.953125
9684		-5.859375
9685		-1.953125
9686		-5.859375
9687		1.953125
9688		-5.859375
9689		1.953125
9690		-1.953125
9691		3.906250
9692		-1.953125
9693		5.859375
9694		-1.953125
9695		5.859375
9696		0.000000
9697		7.812500
9698		3.906250
9699		7.812500
9700		3.906250
9701		7.812500
9702		3.906250
9703		11.718750
9704		3.906250
9705		11.718750
9706		5.859375
9707		13.671875
9708		7.812500
9709		15.625000
9710		7.812500
9711		15.625000
9712		9.765625
9713		17.578125
9714		11.718750
9715		17.578125
9716		13.671875
9717		17.578125
9718		15.625000
9719		19.531250
9720		13.671875
9721		21.484375
9722		15.625000
9723		23.437500
9724		15.625000
9725		23.437500
9726		17.578125
9727		25.390625
9728		19.531250
9729		25.390625
9730		19.531250
9731		27.343750
9732		23.437500
9733		27.343750
9734		23.437500
9735		27.343750
9736		23.437500
9737		31.250000
9738		25.390625
9739		31.250000
9740		25.390625
9741		31.250000
9742		25.390625
9743		33.203125
9744		27.343750
9745		35.156250
9746		29.296875
9747		35.156250
9748		29.296875
9749		35.156250
9750		31.250000
9751		35.156250
9752		31.250000
9753		39.062500
9754		31.250000
9755		39.062500
9756		33.203125
9757		39.062500
9758		33.203125
9759		41.015625
9760		35.156250
9761		41.015625
9762		35.156250
9763		42.968750
9764		37.109375
9765		42.968750
9766		39.062500
9767		42.968750
9768		39.062500
9769		44.921875
9770		37.109375
9771		46.875000
9772		39.062500
9773		46.875000
9774		41.015625
9775		46.875000
9776		41.015625
9777		46.875000
9778		41.015625
9779		48.828125
9780		42.968750
9781		48.828125
9782		44.921875
9783		48.828125
9784		44.921875
9785		48.828125
9786		44.921875
9787		50.781250
9788		44.921875
9789		52.734375
9790		44.921875
9791		52.734375
9792		44.921875
9793		52.734375
9794		46.875000
9795		52.734375
9796		46.875000
9797		52.734375
9798		46.875000
9799		54.687500
9800		48.828125
9801		52.734375
9802		48.828125
9803		54.687500
9804		46.875000
9805		54.687500
9806		48.828125
9807		54.687500
9808		48.828125
9809		54.687500
9810		48.828125
9811		56.640625
9812		48.828125
9813		56.640625
9814		48.828125
9815		54.687500
9816		50.781250
9817		54.687500
9818		50.781250
9819		54.687500
9820		48.828125
9821		56.640625
9822		48.828125
9823		56.640625
9824		48.828125
9825		56.640625
9826		48.828125
9827		56.640625
9828		48.828125
9829		56.640625
9830		48.828125
9831		56.640625
9832		48.828125
9833		54.687500
9834		50.781250
9835		54.687500
9836		48.828125
9837		56.640625
9838		48.828125
9839		56.640625
9840		48.828125
9841		54.687500
9842		48.828125
9843		54.687500
9844		48.828125
9845		54.687500
9846		46.875000
9847		54.687500
9848		48.828125
9849		54.687500
9850		48.828125
9851		52.734375
9852		48.828125
9853		52.734375
9854		46.875000
9855		54.687500
9856		46.875000
9857		52.734375
9858		44.921875
9859		52.734375
9860		44.921875
9861		52.734375
9862		42.968750
9863		52.734375
9864		44.921875
9865		50.781250
9866		44.921875
9867		48.828125
9868		44.921875
9869		48.828125
9870		42.968750
9871		48.828125
9872		41.015625
9873		50.781250
9874		41.015625
9875		48.828125
9876		41.015625
9877		46.875000
9878		39.062500
9879		46.875000
9880		39.062500
9881		46.875000
9882		37.109375
9883		44.921875
9884		39.062500
9885		42.968750
9886		37.109375
9887		42.968750
9888		35.156250
9889		42.968750
9890		35.156250
9891		42.968750
9892		35.156250
9893		42.968750
9894		33.203125
9895		41.015625
9896		33.203125
9897		39.062500
9898		31.250000
9899		39.062500
9900		31.250000
9901		35.156250
9902		31.250000
9903		35.156250
9904		27.343750
9905		35.156250
9906		27.343750
9907		35.156250
9908		25.390625
9909		33.203125
9910		25.390625
9911		33.203125
9912		23.437500
9913		31.250000
9914		23.437500
9915		31.250000
9916		23.437500
9917		29.296875
9918		23.437500
9919		27.343750
9920		19.531250
9921		27.343750
9922		17.578125
9923		25.390625
9924		15.625000
9925		25.390625
9926		17.578125
9927		23.437500
9928		15.625000
9929		21.484375
9930		13.671875
9931		21.484375
9932		13.671875
9933		19.531250
9934		13.671875
9935		17.578125
9936		11.718750
9937		15.625000
9938		9.765625
9939		17.578125
9940		7.812500
9941		15.625000
9942		7.812500
9943		15.625000
9944		5.859375
9945		13.671875
9946		3.906250
9947		11.718750
9948		3.906250
9949		9.765625
9950		3.906250
9951		7.812500
9952		1.953125
9953		5.859375
9954		0.000000
9955		7.812500
9956		-1.953125
9957		5.859375
9958		-1.953125
9959		5.859375
9960		-3.906250
9961		3.906250
9962		-5.859375
9963		1.953125
9964		-5.859375
9965		1.953125
9966		-7.812500
9967		0.000000
9968		-7.812500
9969		-3.906250
9970		-9.765625
9971		-3.906250
9972		-11.718750
9973		-3.906250
9974		-11.718750
9975		-5.859375
9976		-13.671875
9977		-5.859375
9978		-13.671875
9979		-7.812500
9980		-15.625000
9981		-9.765625
9982		-17.578125
9983		-9.765625
9984		-15.625000
9985		-11.718750
9986		-17.578125
9987		-13.671875
9988		-19.531250
9989		-13.671875
9990		-19.531250
9991		-13.671875
9992		-21.484375
9993		-13.671875
9994		-23.437500
9995		-15.625000
9996		-23.437500
9997		-15.625000
9998		-25.390625
9999		-17.578125
10000		-23.437500
