Channel              :		CH1
Frequency            :		1.062kHz
Period               :		0.941ms
PK-PK                :		345.7mV
Probe attenuation    :		1X
Voltage per ADC value:		0.122070mV
Time interval        :		2.00000us

index		CH1_Voltage(mV)
1		93.750000
2		93.750000
3		83.984375
4		89.843750
5		82.031250
6		85.937500
7		78.125000
8		83.984375
9		72.265625
10		82.031250
11		68.359375
12		76.171875
13		66.406250
14		74.218750
15		62.500000
16		70.312500
17		58.593750
18		66.406250
19		56.640625
20		64.453125
21		52.734375
22		58.593750
23		48.828125
24		54.687500
25		42.968750
26		52.734375
27		39.062500
28		48.828125
29		37.109375
30		42.968750
31		31.250000
32		39.062500
33		27.343750
34		35.156250
35		23.437500
36		31.250000
37		19.531250
38		25.390625
39		15.625000
40		21.484375
41		7.812500
42		17.578125
43		5.859375
44		13.671875
45		0.000000
46		9.765625
47		-3.906250
48		5.859375
49		-9.765625
50		0.000000
51		-11.718750
52		-3.906250
53		-15.625000
54		-7.812500
55		-21.484375
56		-13.671875
57		-27.343750
58		-19.531250
59		-31.250000
60		-21.484375
61		-35.156250
62		-25.390625
63		-41.015625
64		-31.250000
65		-44.921875
66		-37.109375
67		-48.828125
68		-39.062500
69		-52.734375
70		-44.921875
71		-56.640625
72		-50.781250
73		-60.546875
74		-54.687500
75		-68.359375
76		-60.546875
77		-72.265625
78		-62.500000
79		-76.171875
80		-68.359375
81		-80.078125
82		-70.312500
83		-83.984375
84		-76.171875
85		-89.843750
86		-82.031250
87		-91.796875
88		-85.937500
89		-95.703125
90		-89.843750
91		-101.562500
92		-93.750000
93		-107.421875
94		-95.703125
95		-111.328125
96		-101.562500
97		-115.234375
98		-105.468750
99		-119.140625
100		-109.375000
101		-123.046875
102		-115.234375
103		-125.000000
104		-119.140625
105		-128.906250
106		-123.046875
107		-132.812500
108		-126.953125
109		-136.718750
110		-128.906250
111		-140.625000
112		-132.812500
113		-144.531250
114		-134.765625
115		-148.437500
116		-138.671875
117		-150.390625
118		-142.578125
119		-154.296875
120		-146.484375
121		-154.296875
122		-148.437500
123		-158.203125
124		-152.343750
125		-164.062500
126		-156.250000
127		-166.015625
128		-156.250000
129		-167.968750
130		-160.156250
131		-171.875000
132		-162.109375
133		-173.828125
134		-166.015625
135		-175.781250
136		-167.968750
137		-175.781250
138		-169.921875
139		-177.734375
140		-173.828125
141		-181.640625
142		-175.781250
143		-183.593750
144		-175.781250
145		-185.546875
146		-177.734375
147		-187.500000
148		-179.687500
149		-187.500000
150		-181.640625
151		-189.453125
152		-181.640625
153		-189.453125
154		-183.593750
155		-189.453125
156		-185.546875
157		-189.453125
158		-187.500000
159		-193.359375
160		-185.546875
161		-195.312500
162		-185.546875
163		-195.312500
164		-187.500000
165		-195.312500
166		-187.500000
167		-195.312500
168		-187.500000
169		-195.312500
170		-187.500000
171		-193.359375
172		-189.453125
173		-191.406250
174		-189.453125
175		-193.359375
176		-187.500000
177		-195.312500
178		-187.500000
179		-193.359375
180		-185.546875
181		-191.406250
182		-185.546875
183		-191.406250
184		-183.593750
185		-189.453125
186		-183.593750
187		-189.453125
188		-183.593750
189		-185.546875
190		-181.640625
191		-185.546875
192		-181.640625
193		-185.546875
194		-177.734375
195		-183.593750
196		-175.781250
197		-181.640625
198		-173.828125
199		-179.687500
200		-171.875000
201		-177.734375
202		-169.921875
203		-175.781250
204		-167.968750
205		-171.875000
206		-166.015625
207		-167.968750
208		-164.062500
209		-166.015625
210		-160.156250
211		-166.015625
212		-156.250000
213		-162.109375
214		-154.296875
215		-158.203125
216		-150.390625
217		-156.250000
218		-148.437500
219		-154.296875
220		-144.531250
221		-148.437500
222		-142.578125
223		-144.531250
224		-138.671875
225		-140.625000
226		-134.765625
227		-138.671875
228		-130.859375
229		-134.765625
230		-126.953125
231		-130.859375
232		-123.046875
233		-128.906250
234		-119.140625
235		-123.046875
236		-115.234375
237		-119.140625
238		-111.328125
239		-115.234375
240		-107.421875
241		-109.375000
242		-103.515625
243		-107.421875
244		-97.656250
245		-103.515625
246		-93.750000
247		-97.656250
248		-89.843750
249		-93.750000
250		-85.937500
251		-89.843750
252		-80.078125
253		-83.984375
254		-76.171875
255		-80.078125
256		-72.265625
257		-74.218750
258		-68.359375
259		-70.312500
260		-62.500000
261		-68.359375
262		-56.640625
263		-62.500000
264		-54.687500
265		-58.593750
266		-48.828125
267		-52.734375
268		-42.968750
269		-48.828125
270		-39.062500
271		-42.968750
272		-35.156250
273		-37.109375
274		-31.250000
275		-33.203125
276		-27.343750
277		-29.296875
278		-21.484375
279		-25.390625
280		-17.578125
281		-21.484375
282		-11.718750
283		-15.625000
284		-7.812500
285		-9.765625
286		-3.906250
287		-5.859375
288		1.953125
289		-1.953125
290		5.859375
291		3.906250
292		9.765625
293		7.812500
294		17.578125
295		9.765625
296		19.531250
297		15.625000
298		23.437500
299		19.531250
300		27.343750
301		23.437500
302		31.250000
303		27.343750
304		37.109375
305		31.250000
306		39.062500
307		37.109375
308		42.968750
309		41.015625
310		48.828125
311		42.968750
312		52.734375
313		48.828125
314		56.640625
315		50.781250
316		58.593750
317		56.640625
318		64.453125
319		58.593750
320		68.359375
321		62.500000
322		70.312500
323		68.359375
324		74.218750
325		72.265625
326		76.171875
327		74.218750
328		82.031250
329		76.171875
330		85.937500
331		82.031250
332		87.890625
333		83.984375
334		91.796875
335		85.937500
336		93.750000
337		89.843750
338		97.656250
339		91.796875
340		97.656250
341		95.703125
342		101.562500
343		99.609375
344		105.468750
345		99.609375
346		107.421875
347		101.562500
348		109.375000
349		105.468750
350		113.281250
351		109.375000
352		115.234375
353		111.328125
354		117.187500
355		111.328125
356		119.140625
357		115.234375
358		121.093750
359		119.140625
360		123.046875
361		119.140625
362		126.953125
363		121.093750
364		126.953125
365		121.093750
366		128.906250
367		125.000000
368		130.859375
369		125.000000
370		130.859375
371		126.953125
372		134.765625
373		130.859375
374		134.765625
375		132.812500
376		136.718750
377		130.859375
378		138.671875
379		132.812500
380		138.671875
381		132.812500
382		140.625000
383		134.765625
384		142.578125
385		134.765625
386		142.578125
387		136.718750
388		142.578125
389		138.671875
390		144.531250
391		140.625000
392		142.578125
393		140.625000
394		144.531250
395		138.671875
396		146.484375
397		138.671875
398		146.484375
399		140.625000
400		146.484375
401		138.671875
402		146.484375
403		140.625000
404		146.484375
405		140.625000
406		146.484375
407		142.578125
408		144.531250
409		142.578125
410		144.531250
411		140.625000
412		146.484375
413		140.625000
414		146.484375
415		138.671875
416		146.484375
417		138.671875
418		146.484375
419		138.671875
420		144.531250
421		136.718750
422		144.531250
423		136.718750
424		142.578125
425		136.718750
426		140.625000
427		134.765625
428		140.625000
429		134.765625
430		140.625000
431		132.812500
432		138.671875
433		130.859375
434		138.671875
435		130.859375
436		136.718750
437		128.906250
438		134.765625
439		128.906250
440		134.765625
441		126.953125
442		130.859375
443		125.000000
444		128.906250
445		123.046875
446		128.906250
447		121.093750
448		128.906250
449		117.187500
450		125.000000
451		117.187500
452		123.046875
453		115.234375
454		121.093750
455		111.328125
456		119.140625
457		111.328125
458		115.234375
459		109.375000
460		113.281250
461		105.468750
462		111.328125
463		101.562500
464		109.375000
465		97.656250
466		105.468750
467		95.703125
468		103.515625
469		93.750000
470		101.562500
471		89.843750
472		97.656250
473		87.890625
474		95.703125
475		85.937500
476		91.796875
477		82.031250
478		87.890625
479		78.125000
480		85.937500
481		74.218750
482		82.031250
483		70.312500
484		78.125000
485		66.406250
486		76.171875
487		62.500000
488		72.265625
489		58.593750
490		66.406250
491		56.640625
492		62.500000
493		52.734375
494		58.593750
495		46.875000
496		54.687500
497		44.921875
498		50.781250
499		39.062500
500		48.828125
501		37.109375
502		44.921875
503		31.250000
504		41.015625
505		27.343750
506		35.156250
507		23.437500
508		33.203125
509		19.531250
510		27.343750
511		13.671875
512		21.484375
513		9.765625
514		19.531250
515		5.859375
516		15.625000
517		1.953125
518		11.718750
519		-3.906250
520		5.859375
521		-5.859375
522		0.000000
523		-11.718750
524		-3.906250
525		-15.625000
526		-9.765625
527		-19.531250
528		-13.671875
529		-25.390625
530		-15.625000
531		-31.250000
532		-21.484375
533		-35.156250
534		-25.390625
535		-39.062500
536		-31.250000
537		-42.968750
538		-35.156250
539		-48.828125
540		-39.062500
541		-52.734375
542		-44.921875
543		-56.640625
544		-50.781250
545		-60.546875
546		-54.687500
547		-66.406250
548		-56.640625
549		-72.265625
550		-62.500000
551		-76.171875
552		-66.406250
553		-80.078125
554		-70.312500
555		-83.984375
556		-76.171875
557		-87.890625
558		-80.078125
559		-91.796875
560		-85.937500
561		-95.703125
562		-89.843750
563		-101.562500
564		-93.750000
565		-107.421875
566		-95.703125
567		-109.375000
568		-99.609375
569		-113.281250
570		-103.515625
571		-117.187500
572		-109.375000
573		-121.093750
574		-113.281250
575		-123.046875
576		-117.187500
577		-126.953125
578		-121.093750
579		-132.812500
580		-125.000000
581		-134.765625
582		-128.906250
583		-138.671875
584		-130.859375
585		-142.578125
586		-134.765625
587		-146.484375
588		-138.671875
589		-150.390625
590		-140.625000
591		-152.343750
592		-144.531250
593		-154.296875
594		-148.437500
595		-160.156250
596		-152.343750
597		-162.109375
598		-154.296875
599		-164.062500
600		-156.250000
601		-167.968750
602		-160.156250
603		-169.921875
604		-162.109375
605		-171.875000
606		-164.062500
607		-173.828125
608		-166.015625
609		-175.781250
610		-169.921875
611		-177.734375
612		-171.875000
613		-179.687500
614		-173.828125
615		-181.640625
616		-175.781250
617		-183.593750
618		-177.734375
619		-185.546875
620		-177.734375
621		-185.546875
622		-179.687500
623		-187.500000
624		-179.687500
625		-187.500000
626		-183.593750
627		-187.500000
628		-183.593750
629		-189.453125
630		-185.546875
631		-191.406250
632		-183.593750
633		-191.406250
634		-185.546875
635		-193.359375
636		-185.546875
637		-193.359375
638		-185.546875
639		-193.359375
640		-185.546875
641		-193.359375
642		-187.500000
643		-191.406250
644		-187.500000
645		-191.406250
646		-187.500000
647		-191.406250
648		-185.546875
649		-191.406250
650		-185.546875
651		-191.406250
652		-183.593750
653		-191.406250
654		-183.593750
655		-189.453125
656		-181.640625
657		-187.500000
658		-181.640625
659		-185.546875
660		-181.640625
661		-183.593750
662		-179.687500
663		-183.593750
664		-177.734375
665		-183.593750
666		-175.781250
667		-181.640625
668		-173.828125
669		-179.687500
670		-171.875000
671		-177.734375
672		-169.921875
673		-173.828125
674		-167.968750
675		-171.875000
676		-166.015625
677		-169.921875
678		-164.062500
679		-166.015625
680		-162.109375
681		-164.062500
682		-158.203125
683		-162.109375
684		-154.296875
685		-158.203125
686		-152.343750
687		-156.250000
688		-148.437500
689		-154.296875
690		-146.484375
691		-148.437500
692		-142.578125
693		-146.484375
694		-140.625000
695		-142.578125
696		-136.718750
697		-138.671875
698		-132.812500
699		-136.718750
700		-128.906250
701		-132.812500
702		-125.000000
703		-128.906250
704		-121.093750
705		-125.000000
706		-117.187500
707		-121.093750
708		-111.328125
709		-115.234375
710		-109.375000
711		-111.328125
712		-105.468750
713		-107.421875
714		-99.609375
715		-103.515625
716		-95.703125
717		-99.609375
718		-89.843750
719		-95.703125
720		-87.890625
721		-91.796875
722		-82.031250
723		-87.890625
724		-78.125000
725		-83.984375
726		-74.218750
727		-76.171875
728		-70.312500
729		-72.265625
730		-66.406250
731		-68.359375
732		-60.546875
733		-64.453125
734		-54.687500
735		-58.593750
736		-50.781250
737		-54.687500
738		-46.875000
739		-50.781250
740		-41.015625
741		-46.875000
742		-37.109375
743		-41.015625
744		-33.203125
745		-35.156250
746		-27.343750
747		-31.250000
748		-23.437500
749		-27.343750
750		-19.531250
751		-23.437500
752		-13.671875
753		-17.578125
754		-9.765625
755		-11.718750
756		-3.906250
757		-9.765625
758		0.000000
759		-3.906250
760		3.906250
761		1.953125
762		7.812500
763		5.859375
764		13.671875
765		7.812500
766		17.578125
767		13.671875
768		21.484375
769		17.578125
770		27.343750
771		21.484375
772		29.296875
773		25.390625
774		35.156250
775		29.296875
776		39.062500
777		35.156250
778		41.015625
779		39.062500
780		46.875000
781		42.968750
782		50.781250
783		46.875000
784		54.687500
785		50.781250
786		58.593750
787		54.687500
788		62.500000
789		58.593750
790		66.406250
791		62.500000
792		70.312500
793		66.406250
794		72.265625
795		70.312500
796		76.171875
797		74.218750
798		80.078125
799		76.171875
800		83.984375
801		80.078125
802		87.890625
803		82.031250
804		89.843750
805		85.937500
806		93.750000
807		87.890625
808		95.703125
809		91.796875
810		97.656250
811		95.703125
812		99.609375
813		97.656250
814		103.515625
815		97.656250
816		107.421875
817		103.515625
818		109.375000
819		105.468750
820		111.328125
821		107.421875
822		115.234375
823		109.375000
824		117.187500
825		111.328125
826		119.140625
827		115.234375
828		119.140625
829		117.187500
830		123.046875
831		119.140625
832		125.000000
833		119.140625
834		126.953125
835		121.093750
836		128.906250
837		123.046875
838		130.859375
839		125.000000
840		132.812500
841		126.953125
842		132.812500
843		128.906250
844		134.765625
845		130.859375
846		134.765625
847		132.812500
848		136.718750
849		132.812500
850		138.671875
851		134.765625
852		140.625000
853		134.765625
854		142.578125
855		134.765625
856		142.578125
857		136.718750
858		142.578125
859		136.718750
860		144.531250
861		140.625000
862		142.578125
863		140.625000
864		142.578125
865		138.671875
866		146.484375
867		140.625000
868		146.484375
869		138.671875
870		146.484375
871		140.625000
872		146.484375
873		140.625000
874		146.484375
875		140.625000
876		146.484375
877		140.625000
878		146.484375
879		142.578125
880		144.531250
881		138.671875
882		146.484375
883		140.625000
884		146.484375
885		138.671875
886		146.484375
887		138.671875
888		146.484375
889		138.671875
890		144.531250
891		136.718750
892		144.531250
893		136.718750
894		142.578125
895		138.671875
896		140.625000
897		136.718750
898		140.625000
899		134.765625
900		142.578125
901		134.765625
902		138.671875
903		132.812500
904		138.671875
905		130.859375
906		138.671875
907		128.906250
908		136.718750
909		126.953125
910		134.765625
911		126.953125
912		132.812500
913		125.000000
914		130.859375
915		123.046875
916		128.906250
917		121.093750
918		126.953125
919		119.140625
920		126.953125
921		117.187500
922		123.046875
923		115.234375
924		123.046875
925		111.328125
926		121.093750
927		111.328125
928		117.187500
929		109.375000
930		113.281250
931		105.468750
932		111.328125
933		103.515625
934		111.328125
935		99.609375
936		107.421875
937		97.656250
938		105.468750
939		95.703125
940		101.562500
941		91.796875
942		99.609375
943		89.843750
944		95.703125
945		85.937500
946		91.796875
947		83.984375
948		87.890625
949		78.125000
950		85.937500
951		74.218750
952		83.984375
953		70.312500
954		80.078125
955		68.359375
956		76.171875
957		64.453125
958		72.265625
959		62.500000
960		70.312500
961		58.593750
962		64.453125
963		54.687500
964		60.546875
965		48.828125
966		56.640625
967		46.875000
968		52.734375
969		41.015625
970		50.781250
971		37.109375
972		46.875000
973		33.203125
974		42.968750
975		29.296875
976		37.109375
977		25.390625
978		33.203125
979		21.484375
980		27.343750
981		17.578125
982		23.437500
983		11.718750
984		19.531250
985		7.812500
986		15.625000
987		1.953125
988		11.718750
989		-1.953125
990		7.812500
991		-5.859375
992		3.906250
993		-9.765625
994		0.000000
995		-13.671875
996		-7.812500
997		-17.578125
998		-11.718750
999		-23.437500
1000		-15.625000
1001		-29.296875
1002		-19.531250
1003		-33.203125
1004		-25.390625
1005		-37.109375
1006		-29.296875
1007		-42.968750
1008		-33.203125
1009		-46.875000
1010		-37.109375
1011		-50.781250
1012		-42.968750
1013		-54.687500
1014		-46.875000
1015		-58.593750
1016		-52.734375
1017		-66.406250
1018		-56.640625
1019		-70.312500
1020		-60.546875
1021		-74.218750
1022		-64.453125
1023		-78.125000
1024		-70.312500
1025		-83.984375
1026		-74.218750
1027		-87.890625
1028		-78.125000
1029		-89.843750
1030		-83.984375
1031		-93.750000
1032		-87.890625
1033		-99.609375
1034		-91.796875
1035		-105.468750
1036		-95.703125
1037		-107.421875
1038		-99.609375
1039		-111.328125
1040		-103.515625
1041		-117.187500
1042		-107.421875
1043		-121.093750
1044		-111.328125
1045		-123.046875
1046		-115.234375
1047		-126.953125
1048		-121.093750
1049		-132.812500
1050		-125.000000
1051		-134.765625
1052		-126.953125
1053		-138.671875
1054		-130.859375
1055		-142.578125
1056		-134.765625
1057		-144.531250
1058		-136.718750
1059		-148.437500
1060		-140.625000
1061		-152.343750
1062		-142.578125
1063		-154.296875
1064		-148.437500
1065		-156.250000
1066		-150.390625
1067		-160.156250
1068		-154.296875
1069		-164.062500
1070		-154.296875
1071		-166.015625
1072		-158.203125
1073		-167.968750
1074		-162.109375
1075		-171.875000
1076		-164.062500
1077		-173.828125
1078		-166.015625
1079		-173.828125
1080		-169.921875
1081		-175.781250
1082		-171.875000
1083		-179.687500
1084		-171.875000
1085		-181.640625
1086		-175.781250
1087		-183.593750
1088		-175.781250
1089		-185.546875
1090		-177.734375
1091		-185.546875
1092		-179.687500
1093		-187.500000
1094		-179.687500
1095		-187.500000
1096		-181.640625
1097		-187.500000
1098		-183.593750
1099		-189.453125
1100		-185.546875
1101		-191.406250
1102		-183.593750
1103		-191.406250
1104		-185.546875
1105		-193.359375
1106		-185.546875
1107		-193.359375
1108		-185.546875
1109		-193.359375
1110		-187.500000
1111		-193.359375
1112		-187.500000
1113		-191.406250
1114		-189.453125
1115		-191.406250
1116		-187.500000
1117		-193.359375
1118		-187.500000
1119		-191.406250
1120		-185.546875
1121		-191.406250
1122		-185.546875
1123		-191.406250
1124		-185.546875
1125		-191.406250
1126		-183.593750
1127		-189.453125
1128		-181.640625
1129		-187.500000
1130		-181.640625
1131		-185.546875
1132		-181.640625
1133		-185.546875
1134		-177.734375
1135		-183.593750
1136		-177.734375
1137		-181.640625
1138		-175.781250
1139		-179.687500
1140		-171.875000
1141		-179.687500
1142		-169.921875
1143		-175.781250
1144		-169.921875
1145		-175.781250
1146		-166.015625
1147		-169.921875
1148		-166.015625
1149		-167.968750
1150		-162.109375
1151		-166.015625
1152		-160.156250
1153		-164.062500
1154		-156.250000
1155		-160.156250
1156		-152.343750
1157		-158.203125
1158		-150.390625
1159		-154.296875
1160		-148.437500
1161		-152.343750
1162		-144.531250
1163		-148.437500
1164		-142.578125
1165		-144.531250
1166		-138.671875
1167		-140.625000
1168		-134.765625
1169		-138.671875
1170		-128.906250
1171		-134.765625
1172		-126.953125
1173		-130.859375
1174		-121.093750
1175		-128.906250
1176		-117.187500
1177		-123.046875
1178		-115.234375
1179		-119.140625
1180		-111.328125
1181		-113.281250
1182		-107.421875
1183		-109.375000
1184		-103.515625
1185		-107.421875
1186		-97.656250
1187		-103.515625
1188		-93.750000
1189		-97.656250
1190		-89.843750
1191		-93.750000
1192		-83.984375
1193		-89.843750
1194		-80.078125
1195		-85.937500
1196		-76.171875
1197		-80.078125
1198		-72.265625
1199		-74.218750
1200		-68.359375
1201		-70.312500
1202		-62.500000
1203		-66.406250
1204		-58.593750
1205		-62.500000
1206		-52.734375
1207		-56.640625
1208		-48.828125
1209		-52.734375
1210		-42.968750
1211		-46.875000
1212		-39.062500
1213		-44.921875
1214		-35.156250
1215		-37.109375
1216		-31.250000
1217		-33.203125
1218		-25.390625
1219		-29.296875
1220		-19.531250
1221		-25.390625
1222		-15.625000
1223		-19.531250
1224		-11.718750
1225		-15.625000
1226		-5.859375
1227		-11.718750
1228		-1.953125
1229		-7.812500
1230		1.953125
1231		0.000000
1232		5.859375
1233		3.906250
1234		9.765625
1235		7.812500
1236		15.625000
1237		9.765625
1238		19.531250
1239		15.625000
1240		23.437500
1241		19.531250
1242		29.296875
1243		23.437500
1244		33.203125
1245		27.343750
1246		37.109375
1247		33.203125
1248		39.062500
1249		37.109375
1250		42.968750
1251		41.015625
1252		48.828125
1253		44.921875
1254		52.734375
1255		48.828125
1256		56.640625
1257		52.734375
1258		60.546875
1259		56.640625
1260		64.453125
1261		60.546875
1262		68.359375
1263		62.500000
1264		70.312500
1265		68.359375
1266		74.218750
1267		72.265625
1268		78.125000
1269		74.218750
1270		82.031250
1271		78.125000
1272		83.984375
1273		80.078125
1274		87.890625
1275		82.031250
1276		91.796875
1277		87.890625
1278		93.750000
1279		87.890625
1280		97.656250
1281		93.750000
1282		99.609375
1283		97.656250
1284		101.562500
1285		99.609375
1286		105.468750
1287		99.609375
1288		107.421875
1289		103.515625
1290		111.328125
1291		105.468750
1292		113.281250
1293		109.375000
1294		115.234375
1295		111.328125
1296		117.187500
1297		113.281250
1298		119.140625
1299		117.187500
1300		121.093750
1301		119.140625
1302		123.046875
1303		119.140625
1304		126.953125
1305		121.093750
1306		128.906250
1307		123.046875
1308		130.859375
1309		125.000000
1310		130.859375
1311		126.953125
1312		132.812500
1313		126.953125
1314		136.718750
1315		130.859375
1316		134.765625
1317		132.812500
1318		136.718750
1319		130.859375
1320		138.671875
1321		132.812500
1322		140.625000
1323		132.812500
1324		140.625000
1325		134.765625
1326		140.625000
1327		134.765625
1328		142.578125
1329		136.718750
1330		142.578125
1331		138.671875
1332		144.531250
1333		140.625000
1334		142.578125
1335		138.671875
1336		144.531250
1337		138.671875
1338		146.484375
1339		138.671875
1340		146.484375
1341		138.671875
1342		146.484375
1343		140.625000
1344		146.484375
1345		140.625000
1346		146.484375
1347		140.625000
1348		146.484375
1349		142.578125
1350		144.531250
1351		142.578125
1352		144.531250
1353		138.671875
1354		146.484375
1355		138.671875
1356		146.484375
1357		138.671875
1358		146.484375
1359		138.671875
1360		144.531250
1361		136.718750
1362		144.531250
1363		136.718750
1364		142.578125
1365		138.671875
1366		142.578125
1367		136.718750
1368		140.625000
1369		134.765625
1370		140.625000
1371		132.812500
1372		140.625000
1373		132.812500
1374		138.671875
1375		130.859375
1376		138.671875
1377		128.906250
1378		136.718750
1379		128.906250
1380		134.765625
1381		126.953125
1382		132.812500
1383		126.953125
1384		130.859375
1385		125.000000
1386		128.906250
1387		121.093750
1388		128.906250
1389		119.140625
1390		126.953125
1391		117.187500
1392		125.000000
1393		115.234375
1394		123.046875
1395		113.281250
1396		121.093750
1397		111.328125
1398		119.140625
1399		111.328125
1400		115.234375
1401		107.421875
1402		113.281250
1403		103.515625
1404		109.375000
1405		101.562500
1406		107.421875
1407		97.656250
1408		105.468750
1409		95.703125
1410		105.468750
1411		93.750000
1412		101.562500
1413		89.843750
1414		97.656250
1415		87.890625
1416		93.750000
1417		85.937500
1418		89.843750
1419		80.078125
1420		87.890625
1421		76.171875
1422		83.984375
1423		74.218750
1424		82.031250
1425		70.312500
1426		78.125000
1427		64.453125
1428		74.218750
1429		62.500000
1430		70.312500
1431		58.593750
1432		66.406250
1433		56.640625
1434		62.500000
1435		52.734375
1436		58.593750
1437		46.875000
1438		56.640625
1439		42.968750
1440		52.734375
1441		39.062500
1442		48.828125
1443		33.203125
1444		42.968750
1445		31.250000
1446		39.062500
1447		27.343750
1448		35.156250
1449		23.437500
1450		31.250000
1451		19.531250
1452		25.390625
1453		13.671875
1454		21.484375
1455		9.765625
1456		19.531250
1457		5.859375
1458		13.671875
1459		0.000000
1460		7.812500
1461		-3.906250
1462		3.906250
1463		-7.812500
1464		0.000000
1465		-11.718750
1466		-3.906250
1467		-15.625000
1468		-9.765625
1469		-21.484375
1470		-13.671875
1471		-27.343750
1472		-17.578125
1473		-31.250000
1474		-23.437500
1475		-35.156250
1476		-27.343750
1477		-39.062500
1478		-31.250000
1479		-44.921875
1480		-35.156250
1481		-48.828125
1482		-41.015625
1483		-52.734375
1484		-46.875000
1485		-56.640625
1486		-50.781250
1487		-64.453125
1488		-54.687500
1489		-68.359375
1490		-58.593750
1491		-72.265625
1492		-62.500000
1493		-76.171875
1494		-66.406250
1495		-80.078125
1496		-70.312500
1497		-85.937500
1498		-76.171875
1499		-87.890625
1500		-80.078125
1501		-91.796875
1502		-85.937500
1503		-97.656250
1504		-89.843750
1505		-101.562500
1506		-91.796875
1507		-105.468750
1508		-97.656250
1509		-109.375000
1510		-99.609375
1511		-113.281250
1512		-105.468750
1513		-119.140625
1514		-109.375000
1515		-121.093750
1516		-113.281250
1517		-125.000000
1518		-117.187500
1519		-128.906250
1520		-121.093750
1521		-132.812500
1522		-125.000000
1523		-134.765625
1524		-128.906250
1525		-138.671875
1526		-132.812500
1527		-142.578125
1528		-134.765625
1529		-146.484375
1530		-138.671875
1531		-148.437500
1532		-142.578125
1533		-152.343750
1534		-146.484375
1535		-154.296875
1536		-148.437500
1537		-160.156250
1538		-152.343750
1539		-162.109375
1540		-154.296875
1541		-164.062500
1542		-156.250000
1543		-167.968750
1544		-160.156250
1545		-169.921875
1546		-162.109375
1547		-171.875000
1548		-164.062500
1549		-173.828125
1550		-167.968750
1551		-175.781250
1552		-169.921875
1553		-177.734375
1554		-171.875000
1555		-179.687500
1556		-171.875000
1557		-183.593750
1558		-175.781250
1559		-185.546875
1560		-177.734375
1561		-185.546875
1562		-179.687500
1563		-187.500000
1564		-179.687500
1565		-187.500000
1566		-179.687500
1567		-187.500000
1568		-183.593750
1569		-189.453125
1570		-185.546875
1571		-191.406250
1572		-185.546875
1573		-191.406250
1574		-185.546875
1575		-193.359375
1576		-185.546875
1577		-193.359375
1578		-187.500000
1579		-193.359375
1580		-187.500000
1581		-193.359375
1582		-187.500000
1583		-193.359375
1584		-187.500000
1585		-191.406250
1586		-189.453125
1587		-193.359375
1588		-187.500000
1589		-193.359375
1590		-187.500000
1591		-193.359375
1592		-187.500000
1593		-193.359375
1594		-185.546875
1595		-191.406250
1596		-183.593750
1597		-191.406250
1598		-183.593750
1599		-189.453125
1600		-181.640625
1601		-187.500000
1602		-183.593750
1603		-185.546875
1604		-181.640625
1605		-185.546875
1606		-177.734375
1607		-185.546875
1608		-177.734375
1609		-181.640625
1610		-175.781250
1611		-181.640625
1612		-173.828125
1613		-177.734375
1614		-171.875000
1615		-177.734375
1616		-169.921875
1617		-175.781250
1618		-167.968750
1619		-169.921875
1620		-166.015625
1621		-167.968750
1622		-162.109375
1623		-166.015625
1624		-160.156250
1625		-166.015625
1626		-156.250000
1627		-160.156250
1628		-152.343750
1629		-158.203125
1630		-150.390625
1631		-156.250000
1632		-148.437500
1633		-152.343750
1634		-144.531250
1635		-148.437500
1636		-142.578125
1637		-144.531250
1638		-136.718750
1639		-142.578125
1640		-132.812500
1641		-138.671875
1642		-130.859375
1643		-134.765625
1644		-125.000000
1645		-130.859375
1646		-123.046875
1647		-126.953125
1648		-117.187500
1649		-125.000000
1650		-115.234375
1651		-117.187500
1652		-111.328125
1653		-113.281250
1654		-107.421875
1655		-109.375000
1656		-103.515625
1657		-107.421875
1658		-97.656250
1659		-103.515625
1660		-93.750000
1661		-99.609375
1662		-89.843750
1663		-93.750000
1664		-83.984375
1665		-89.843750
1666		-80.078125
1667		-83.984375
1668		-76.171875
1669		-80.078125
1670		-72.265625
1671		-74.218750
1672		-66.406250
1673		-72.265625
1674		-62.500000
1675		-66.406250
1676		-56.640625
1677		-62.500000
1678		-52.734375
1679		-58.593750
1680		-48.828125
1681		-52.734375
1682		-42.968750
1683		-48.828125
1684		-39.062500
1685		-42.968750
1686		-35.156250
1687		-37.109375
1688		-31.250000
1689		-33.203125
1690		-23.437500
1691		-29.296875
1692		-19.531250
1693		-23.437500
1694		-15.625000
1695		-19.531250
1696		-9.765625
1697		-15.625000
1698		-7.812500
1699		-11.718750
1700		-1.953125
1701		-5.859375
1702		1.953125
1703		0.000000
1704		5.859375
1705		3.906250
1706		9.765625
1707		5.859375
1708		15.625000
1709		11.718750
1710		19.531250
1711		15.625000
1712		25.390625
1713		21.484375
1714		27.343750
1715		23.437500
1716		33.203125
1717		27.343750
1718		35.156250
1719		35.156250
1720		39.062500
1721		37.109375
1722		42.968750
1723		39.062500
1724		48.828125
1725		44.921875
1726		52.734375
1727		46.875000
1728		56.640625
1729		52.734375
1730		60.546875
1731		56.640625
1732		64.453125
1733		60.546875
1734		68.359375
1735		64.453125
1736		70.312500
1737		68.359375
1738		74.218750
1739		72.265625
1740		78.125000
1741		74.218750
1742		82.031250
1743		76.171875
1744		83.984375
1745		80.078125
1746		87.890625
1747		83.984375
1748		91.796875
1749		85.937500
1750		93.750000
1751		89.843750
1752		97.656250
1753		93.750000
1754		99.609375
1755		97.656250
1756		101.562500
1757		97.656250
1758		105.468750
1759		101.562500
1760		107.421875
1761		103.515625
1762		111.328125
1763		107.421875
1764		113.281250
1765		107.421875
1766		115.234375
1767		111.328125
1768		117.187500
1769		115.234375
1770		119.140625
1771		117.187500
1772		121.093750
1773		117.187500
1774		123.046875
1775		119.140625
1776		126.953125
1777		121.093750
1778		126.953125
1779		123.046875
1780		128.906250
1781		123.046875
1782		132.812500
1783		125.000000
1784		132.812500
1785		128.906250
1786		132.812500
1787		130.859375
1788		134.765625
1789		130.859375
1790		136.718750
1791		130.859375
1792		138.671875
1793		132.812500
1794		138.671875
1795		132.812500
1796		140.625000
1797		134.765625
1798		140.625000
1799		136.718750
1800		142.578125
1801		136.718750
1802		142.578125
1803		138.671875
1804		142.578125
1805		140.625000
1806		142.578125
1807		138.671875
1808		144.531250
1809		138.671875
1810		144.531250
1811		138.671875
1812		146.484375
1813		138.671875
1814		146.484375
1815		138.671875
1816		146.484375
1817		140.625000
1818		146.484375
1819		142.578125
1820		144.531250
1821		140.625000
1822		144.531250
1823		138.671875
1824		146.484375
1825		138.671875
1826		144.531250
1827		138.671875
1828		144.531250
1829		138.671875
1830		146.484375
1831		138.671875
1832		144.531250
1833		136.718750
1834		144.531250
1835		136.718750
1836		142.578125
1837		136.718750
1838		140.625000
1839		134.765625
1840		140.625000
1841		134.765625
1842		140.625000
1843		130.859375
1844		138.671875
1845		130.859375
1846		138.671875
1847		130.859375
1848		136.718750
1849		128.906250
1850		136.718750
1851		126.953125
1852		134.765625
1853		126.953125
1854		130.859375
1855		125.000000
1856		128.906250
1857		121.093750
1858		128.906250
1859		121.093750
1860		126.953125
1861		119.140625
1862		125.000000
1863		117.187500
1864		123.046875
1865		113.281250
1866		123.046875
1867		113.281250
1868		119.140625
1869		111.328125
1870		117.187500
1871		109.375000
1872		113.281250
1873		105.468750
1874		113.281250
1875		103.515625
1876		109.375000
1877		99.609375
1878		107.421875
1879		97.656250
1880		105.468750
1881		93.750000
1882		101.562500
1883		91.796875
1884		99.609375
1885		87.890625
1886		95.703125
1887		85.937500
1888		91.796875
1889		82.031250
1890		87.890625
1891		78.125000
1892		85.937500
1893		76.171875
1894		83.984375
1895		72.265625
1896		80.078125
1897		68.359375
1898		76.171875
1899		64.453125
1900		74.218750
1901		58.593750
1902		68.359375
1903		58.593750
1904		64.453125
1905		54.687500
1906		60.546875
1907		48.828125
1908		56.640625
1909		44.921875
1910		54.687500
1911		41.015625
1912		48.828125
1913		37.109375
1914		44.921875
1915		33.203125
1916		42.968750
1917		29.296875
1918		37.109375
1919		25.390625
1920		33.203125
1921		21.484375
1922		27.343750
1923		15.625000
1924		23.437500
1925		13.671875
1926		21.484375
1927		7.812500
1928		15.625000
1929		3.906250
1930		11.718750
1931		0.000000
1932		7.812500
1933		-5.859375
1934		1.953125
1935		-9.765625
1936		-1.953125
1937		-13.671875
1938		-7.812500
1939		-17.578125
1940		-11.718750
1941		-23.437500
1942		-15.625000
1943		-29.296875
1944		-19.531250
1945		-33.203125
1946		-23.437500
1947		-37.109375
1948		-27.343750
1949		-42.968750
1950		-33.203125
1951		-46.875000
1952		-39.062500
1953		-50.781250
1954		-42.968750
1955		-54.687500
1956		-48.828125
1957		-58.593750
1958		-52.734375
1959		-64.453125
1960		-56.640625
1961		-70.312500
1962		-60.546875
1963		-74.218750
1964		-64.453125
1965		-80.078125
1966		-68.359375
1967		-82.031250
1968		-74.218750
1969		-85.937500
1970		-76.171875
1971		-89.843750
1972		-83.984375
1973		-93.750000
1974		-87.890625
1975		-99.609375
1976		-91.796875
1977		-105.468750
1978		-95.703125
1979		-107.421875
1980		-99.609375
1981		-113.281250
1982		-103.515625
1983		-117.187500
1984		-107.421875
1985		-119.140625
1986		-111.328125
1987		-123.046875
1988		-115.234375
1989		-126.953125
1990		-121.093750
1991		-132.812500
1992		-125.000000
1993		-134.765625
1994		-126.953125
1995		-138.671875
1996		-128.906250
1997		-142.578125
1998		-134.765625
1999		-146.484375
2000		-136.718750
2001		-148.437500
2002		-140.625000
2003		-150.390625
2004		-144.531250
2005		-154.296875
2006		-148.437500
2007		-158.203125
2008		-152.343750
2009		-162.109375
2010		-152.343750
2011		-164.062500
2012		-156.250000
2013		-166.015625
2014		-160.156250
2015		-169.921875
2016		-162.109375
2017		-171.875000
2018		-164.062500
2019		-173.828125
2020		-166.015625
2021		-173.828125
2022		-169.921875
2023		-177.734375
2024		-171.875000
2025		-179.687500
2026		-173.828125
2027		-183.593750
2028		-173.828125
2029		-183.593750
2030		-177.734375
2031		-185.546875
2032		-177.734375
2033		-185.546875
2034		-179.687500
2035		-189.453125
2036		-181.640625
2037		-187.500000
2038		-183.593750
2039		-189.453125
2040		-185.546875
2041		-191.406250
2042		-185.546875
2043		-193.359375
2044		-185.546875
2045		-193.359375
2046		-187.500000
2047		-193.359375
2048		-187.500000
2049		-193.359375
2050		-187.500000
2051		-195.312500
2052		-187.500000
2053		-193.359375
2054		-187.500000
2055		-193.359375
2056		-189.453125
2057		-193.359375
2058		-189.453125
2059		-193.359375
2060		-187.500000
2061		-193.359375
2062		-187.500000
2063		-193.359375
2064		-187.500000
2065		-193.359375
2066		-185.546875
2067		-191.406250
2068		-185.546875
2069		-191.406250
2070		-183.593750
2071		-189.453125
2072		-183.593750
2073		-185.546875
2074		-181.640625
2075		-185.546875
2076		-179.687500
2077		-183.593750
2078		-177.734375
2079		-183.593750
2080		-175.781250
2081		-181.640625
2082		-173.828125
2083		-179.687500
2084		-171.875000
2085		-177.734375
2086		-169.921875
2087		-175.781250
2088		-169.921875
2089		-171.875000
2090		-167.968750
2091		-169.921875
2092		-164.062500
2093		-167.968750
2094		-160.156250
2095		-166.015625
2096		-156.250000
2097		-162.109375
2098		-156.250000
2099		-160.156250
2100		-152.343750
2101		-158.203125
2102		-148.437500
2103		-154.296875
2104		-146.484375
2105		-148.437500
2106		-144.531250
2107		-144.531250
2108		-140.625000
2109		-142.578125
2110		-136.718750
2111		-140.625000
2112		-132.812500
2113		-136.718750
2114		-128.906250
2115		-132.812500
2116		-123.046875
2117		-128.906250
2118		-121.093750
2119		-125.000000
2120		-117.187500
2121		-121.093750
2122		-113.281250
2123		-115.234375
2124		-109.375000
2125		-111.328125
2126		-105.468750
2127		-109.375000
2128		-99.609375
2129		-105.468750
2130		-95.703125
2131		-99.609375
2132		-91.796875
2133		-95.703125
2134		-85.937500
2135		-91.796875
2136		-83.984375
2137		-87.890625
2138		-80.078125
2139		-82.031250
2140		-74.218750
2141		-76.171875
2142		-70.312500
2143		-74.218750
2144		-64.453125
2145		-70.312500
2146		-60.546875
2147		-64.453125
2148		-54.687500
2149		-58.593750
2150		-48.828125
2151		-54.687500
2152		-46.875000
2153		-48.828125
2154		-41.015625
2155		-46.875000
2156		-37.109375
2157		-39.062500
2158		-33.203125
2159		-35.156250
2160		-27.343750
2161		-31.250000
2162		-23.437500
2163		-27.343750
2164		-17.578125
2165		-23.437500
2166		-13.671875
2167		-17.578125
2168		-7.812500
2169		-11.718750
2170		-3.906250
2171		-9.765625
2172		-1.953125
2173		-1.953125
2174		3.906250
2175		1.953125
2176		9.765625
2177		5.859375
2178		13.671875
2179		9.765625
2180		17.578125
2181		13.671875
2182		23.437500
2183		17.578125
2184		27.343750
2185		21.484375
2186		31.250000
2187		27.343750
2188		35.156250
2189		31.250000
2190		39.062500
2191		35.156250
2192		42.968750
2193		39.062500
2194		46.875000
2195		42.968750
2196		50.781250
2197		46.875000
2198		54.687500
2199		50.781250
2200		58.593750
2201		52.734375
2202		62.500000
2203		58.593750
2204		66.406250
2205		60.546875
2206		68.359375
2207		66.406250
2208		72.265625
2209		70.312500
2210		78.125000
2211		72.265625
2212		80.078125
2213		74.218750
2214		83.984375
2215		80.078125
2216		87.890625
2217		82.031250
2218		89.843750
2219		83.984375
2220		93.750000
2221		87.890625
2222		95.703125
2223		93.750000
2224		97.656250
2225		95.703125
2226		99.609375
2227		97.656250
2228		103.515625
2229		99.609375
2230		107.421875
2231		101.562500
2232		109.375000
2233		105.468750
2234		113.281250
2235		107.421875
2236		115.234375
2237		109.375000
2238		117.187500
2239		111.328125
2240		117.187500
2241		115.234375
2242		121.093750
2243		117.187500
2244		123.046875
2245		117.187500
2246		125.000000
2247		119.140625
2248		126.953125
2249		121.093750
2250		128.906250
2251		125.000000
2252		130.859375
2253		125.000000
2254		132.812500
2255		126.953125
2256		134.765625
2257		130.859375
2258		134.765625
2259		132.812500
2260		136.718750
2261		130.859375
2262		138.671875
2263		132.812500
2264		138.671875
2265		132.812500
2266		140.625000
2267		134.765625
2268		142.578125
2269		136.718750
2270		142.578125
2271		136.718750
2272		144.531250
2273		138.671875
2274		142.578125
2275		140.625000
2276		142.578125
2277		138.671875
2278		144.531250
2279		138.671875
2280		146.484375
2281		138.671875
2282		146.484375
2283		140.625000
2284		146.484375
2285		140.625000
2286		146.484375
2287		138.671875
2288		146.484375
2289		140.625000
2290		148.437500
2291		142.578125
2292		144.531250
2293		140.625000
2294		146.484375
2295		140.625000
2296		146.484375
2297		140.625000
2298		146.484375
2299		138.671875
2300		144.531250
2301		138.671875
2302		146.484375
2303		138.671875
2304		144.531250
2305		138.671875
2306		144.531250
2307		138.671875
2308		142.578125
2309		136.718750
2310		142.578125
2311		134.765625
2312		142.578125
2313		134.765625
2314		140.625000
2315		132.812500
2316		140.625000
2317		130.859375
2318		138.671875
2319		130.859375
2320		138.671875
2321		128.906250
2322		136.718750
2323		128.906250
2324		134.765625
2325		126.953125
2326		132.812500
2327		125.000000
2328		130.859375
2329		123.046875
2330		130.859375
2331		121.093750
2332		126.953125
2333		119.140625
2334		126.953125
2335		117.187500
2336		125.000000
2337		113.281250
2338		121.093750
2339		113.281250
2340		119.140625
2341		111.328125
2342		117.187500
2343		109.375000
2344		113.281250
2345		105.468750
2346		113.281250
2347		101.562500
2348		109.375000
2349		99.609375
2350		107.421875
2351		97.656250
2352		105.468750
2353		93.750000
2354		101.562500
2355		91.796875
2356		99.609375
2357		89.843750
2358		95.703125
2359		85.937500
2360		91.796875
2361		82.031250
2362		87.890625
2363		80.078125
2364		85.937500
2365		76.171875
2366		83.984375
2367		72.265625
2368		80.078125
2369		68.359375
2370		76.171875
2371		64.453125
2372		74.218750
2373		62.500000
2374		68.359375
2375		58.593750
2376		64.453125
2377		52.734375
2378		60.546875
2379		48.828125
2380		58.593750
2381		46.875000
2382		54.687500
2383		41.015625
2384		50.781250
2385		37.109375
2386		44.921875
2387		33.203125
2388		42.968750
2389		29.296875
2390		37.109375
2391		25.390625
2392		33.203125
2393		21.484375
2394		27.343750
2395		15.625000
2396		23.437500
2397		11.718750
2398		21.484375
2399		7.812500
2400		15.625000
2401		1.953125
2402		11.718750
2403		-1.953125
2404		7.812500
2405		-5.859375
2406		3.906250
2407		-9.765625
2408		-1.953125
2409		-13.671875
2410		-7.812500
2411		-19.531250
2412		-11.718750
2413		-25.390625
2414		-15.625000
2415		-27.343750
2416		-19.531250
2417		-33.203125
2418		-25.390625
2419		-37.109375
2420		-29.296875
2421		-41.015625
2422		-33.203125
2423		-44.921875
2424		-37.109375
2425		-48.828125
2426		-42.968750
2427		-54.687500
2428		-48.828125
2429		-62.500000
2430		-50.781250
2431		-66.406250
2432		-54.687500
2433		-68.359375
2434		-60.546875
2435		-72.265625
2436		-64.453125
2437		-78.125000
2438		-70.312500
2439		-83.984375
2440		-74.218750
2441		-85.937500
2442		-78.125000
2443		-89.843750
2444		-83.984375
2445		-95.703125
2446		-87.890625
2447		-99.609375
2448		-91.796875
2449		-103.515625
2450		-95.703125
2451		-107.421875
2452		-99.609375
2453		-111.328125
2454		-103.515625
2455		-115.234375
2456		-107.421875
2457		-119.140625
2458		-111.328125
2459		-123.046875
2460		-115.234375
2461		-126.953125
2462		-119.140625
2463		-130.859375
2464		-123.046875
2465		-134.765625
2466		-126.953125
2467		-138.671875
2468		-130.859375
2469		-142.578125
2470		-132.812500
2471		-144.531250
2472		-136.718750
2473		-148.437500
2474		-140.625000
2475		-150.390625
2476		-144.531250
2477		-152.343750
2478		-148.437500
2479		-158.203125
2480		-150.390625
2481		-160.156250
2482		-152.343750
2483		-164.062500
2484		-154.296875
2485		-166.015625
2486		-156.250000
2487		-167.968750
2488		-160.156250
2489		-169.921875
2490		-164.062500
2491		-171.875000
2492		-166.015625
2493		-173.828125
2494		-169.921875
2495		-177.734375
2496		-169.921875
2497		-177.734375
2498		-171.875000
2499		-181.640625
2500		-173.828125
2501		-181.640625
2502		-175.781250
2503		-183.593750
2504		-177.734375
2505		-185.546875
2506		-179.687500
2507		-187.500000
2508		-179.687500
2509		-185.546875
2510		-183.593750
2511		-187.500000
2512		-183.593750
2513		-189.453125
2514		-183.593750
2515		-191.406250
2516		-183.593750
2517		-191.406250
2518		-185.546875
2519		-193.359375
2520		-185.546875
2521		-191.406250
2522		-185.546875
2523		-193.359375
2524		-185.546875
2525		-191.406250
2526		-187.500000
2527		-191.406250
2528		-187.500000
2529		-191.406250
2530		-187.500000
2531		-193.359375
2532		-185.546875
2533		-191.406250
2534		-185.546875
2535		-191.406250
2536		-185.546875
2537		-191.406250
2538		-183.593750
2539		-189.453125
2540		-183.593750
2541		-189.453125
2542		-183.593750
2543		-185.546875
2544		-183.593750
2545		-185.546875
2546		-179.687500
2547		-185.546875
2548		-177.734375
2549		-183.593750
2550		-177.734375
2551		-183.593750
2552		-173.828125
2553		-179.687500
2554		-171.875000
2555		-177.734375
2556		-171.875000
2557		-175.781250
2558		-169.921875
2559		-171.875000
2560		-167.968750
2561		-169.921875
2562		-166.015625
2563		-167.968750
2564		-162.109375
2565		-166.015625
2566		-158.203125
2567		-164.062500
2568		-156.250000
2569		-162.109375
2570		-152.343750
2571		-158.203125
2572		-150.390625
2573		-154.296875
2574		-146.484375
2575		-150.390625
2576		-144.531250
2577		-146.484375
2578		-140.625000
2579		-142.578125
2580		-136.718750
2581		-140.625000
2582		-132.812500
2583		-136.718750
2584		-128.906250
2585		-134.765625
2586		-126.953125
2587		-130.859375
2588		-121.093750
2589		-126.953125
2590		-117.187500
2591		-121.093750
2592		-115.234375
2593		-117.187500
2594		-111.328125
2595		-113.281250
2596		-107.421875
2597		-109.375000
2598		-101.562500
2599		-105.468750
2600		-97.656250
2601		-101.562500
2602		-93.750000
2603		-97.656250
2604		-87.890625
2605		-93.750000
2606		-83.984375
2607		-87.890625
2608		-80.078125
2609		-85.937500
2610		-76.171875
2611		-78.125000
2612		-72.265625
2613		-74.218750
2614		-66.406250
2615		-70.312500
2616		-60.546875
2617		-66.406250
2618		-56.640625
2619		-60.546875
2620		-52.734375
2621		-56.640625
2622		-48.828125
2623		-52.734375
2624		-42.968750
2625		-48.828125
2626		-39.062500
2627		-41.015625
2628		-35.156250
2629		-37.109375
2630		-29.296875
2631		-33.203125
2632		-25.390625
2633		-29.296875
2634		-19.531250
2635		-23.437500
2636		-15.625000
2637		-19.531250
2638		-11.718750
2639		-15.625000
2640		-5.859375
2641		-9.765625
2642		-1.953125
2643		-5.859375
2644		1.953125
2645		0.000000
2646		5.859375
2647		3.906250
2648		11.718750
2649		5.859375
2650		17.578125
2651		9.765625
2652		19.531250
2653		15.625000
2654		25.390625
2655		21.484375
2656		29.296875
2657		25.390625
2658		33.203125
2659		29.296875
2660		37.109375
2661		35.156250
2662		41.015625
2663		39.062500
2664		44.921875
2665		41.015625
2666		48.828125
2667		44.921875
2668		54.687500
2669		48.828125
2670		56.640625
2671		52.734375
2672		62.500000
2673		56.640625
2674		64.453125
2675		60.546875
2676		68.359375
2677		64.453125
2678		70.312500
2679		68.359375
2680		74.218750
2681		70.312500
2682		80.078125
2683		74.218750
2684		82.031250
2685		78.125000
2686		85.937500
2687		80.078125
2688		87.890625
2689		83.984375
2690		91.796875
2691		87.890625
2692		93.750000
2693		89.843750
2694		97.656250
2695		93.750000
2696		99.609375
2697		97.656250
2698		103.515625
2699		99.609375
2700		105.468750
2701		101.562500
2702		109.375000
2703		105.468750
2704		111.328125
2705		105.468750
2706		113.281250
2707		109.375000
2708		117.187500
2709		111.328125
2710		117.187500
2711		115.234375
2712		119.140625
2713		117.187500
2714		123.046875
2715		117.187500
2716		125.000000
2717		119.140625
2718		126.953125
2719		121.093750
2720		128.906250
2721		123.046875
2722		130.859375
2723		123.046875
2724		132.812500
2725		126.953125
2726		132.812500
2727		128.906250
2728		132.812500
2729		130.859375
2730		134.765625
2731		130.859375
2732		136.718750
2733		132.812500
2734		138.671875
2735		132.812500
2736		138.671875
2737		134.765625
2738		140.625000
2739		134.765625
2740		142.578125
2741		136.718750
2742		142.578125
2743		136.718750
2744		142.578125
2745		138.671875
2746		142.578125
2747		138.671875
2748		144.531250
2749		138.671875
2750		144.531250
2751		138.671875
2752		146.484375
2753		140.625000
2754		146.484375
2755		140.625000
2756		146.484375
2757		140.625000
2758		146.484375
2759		140.625000
2760		146.484375
2761		142.578125
2762		144.531250
2763		142.578125
2764		144.531250
2765		140.625000
2766		146.484375
2767		140.625000
2768		146.484375
2769		138.671875
2770		146.484375
2771		138.671875
2772		146.484375
2773		138.671875
2774		144.531250
2775		138.671875
2776		144.531250
2777		138.671875
2778		142.578125
2779		138.671875
2780		142.578125
2781		136.718750
2782		142.578125
2783		134.765625
2784		140.625000
2785		134.765625
2786		140.625000
2787		132.812500
2788		138.671875
2789		132.812500
2790		138.671875
2791		130.859375
2792		136.718750
2793		128.906250
2794		136.718750
2795		128.906250
2796		132.812500
2797		126.953125
2798		130.859375
2799		125.000000
2800		130.859375
2801		123.046875
2802		128.906250
2803		121.093750
2804		126.953125
2805		119.140625
2806		125.000000
2807		115.234375
2808		123.046875
2809		113.281250
2810		121.093750
2811		113.281250
2812		117.187500
2813		111.328125
2814		115.234375
2815		107.421875
2816		113.281250
2817		105.468750
2818		111.328125
2819		101.562500
2820		109.375000
2821		99.609375
2822		105.468750
2823		97.656250
2824		103.515625
2825		91.796875
2826		101.562500
2827		91.796875
2828		99.609375
2829		89.843750
2830		93.750000
2831		83.984375
2832		89.843750
2833		80.078125
2834		89.843750
2835		78.125000
2836		85.937500
2837		74.218750
2838		82.031250
2839		70.312500
2840		78.125000
2841		66.406250
2842		74.218750
2843		64.453125
2844		72.265625
2845		60.546875
2846		66.406250
2847		56.640625
2848		62.500000
2849		50.781250
2850		58.593750
2851		48.828125
2852		56.640625
2853		42.968750
2854		52.734375
2855		39.062500
2856		48.828125
2857		37.109375
2858		44.921875
2859		33.203125
2860		41.015625
2861		29.296875
2862		37.109375
2863		25.390625
2864		31.250000
2865		19.531250
2866		27.343750
2867		15.625000
2868		23.437500
2869		11.718750
2870		19.531250
2871		5.859375
2872		15.625000
2873		1.953125
2874		9.765625
2875		-1.953125
2876		5.859375
2877		-5.859375
2878		0.000000
2879		-9.765625
2880		-3.906250
2881		-17.578125
2882		-9.765625
2883		-21.484375
2884		-11.718750
2885		-23.437500
2886		-17.578125
2887		-31.250000
2888		-19.531250
2889		-35.156250
2890		-25.390625
2891		-39.062500
2892		-29.296875
2893		-42.968750
2894		-35.156250
2895		-46.875000
2896		-41.015625
2897		-50.781250
2898		-44.921875
2899		-56.640625
2900		-48.828125
2901		-62.500000
2902		-52.734375
2903		-66.406250
2904		-58.593750
2905		-72.265625
2906		-62.500000
2907		-76.171875
2908		-66.406250
2909		-80.078125
2910		-70.312500
2911		-82.031250
2912		-74.218750
2913		-85.937500
2914		-80.078125
2915		-91.796875
2916		-83.984375
2917		-97.656250
2918		-87.890625
2919		-99.609375
2920		-91.796875
2921		-105.468750
2922		-95.703125
2923		-109.375000
2924		-101.562500
2925		-113.281250
2926		-103.515625
2927		-115.234375
2928		-107.421875
2929		-119.140625
2930		-113.281250
2931		-123.046875
2932		-117.187500
2933		-128.906250
2934		-119.140625
2935		-132.812500
2936		-123.046875
2937		-134.765625
2938		-126.953125
2939		-138.671875
2940		-130.859375
2941		-140.625000
2942		-134.765625
2943		-146.484375
2944		-136.718750
2945		-146.484375
2946		-140.625000
2947		-150.390625
2948		-144.531250
2949		-154.296875
2950		-148.437500
2951		-158.203125
2952		-150.390625
2953		-160.156250
2954		-152.343750
2955		-164.062500
2956		-156.250000
2957		-166.015625
2958		-158.203125
2959		-169.921875
2960		-160.156250
2961		-169.921875
2962		-164.062500
2963		-171.875000
2964		-167.968750
2965		-175.781250
2966		-169.921875
2967		-179.687500
2968		-169.921875
2969		-179.687500
2970		-171.875000
2971		-181.640625
2972		-175.781250
2973		-183.593750
2974		-175.781250
2975		-185.546875
2976		-177.734375
2977		-185.546875
2978		-179.687500
2979		-185.546875
2980		-181.640625
2981		-187.500000
2982		-183.593750
2983		-189.453125
2984		-183.593750
2985		-191.406250
2986		-183.593750
2987		-191.406250
2988		-185.546875
2989		-193.359375
2990		-185.546875
2991		-193.359375
2992		-185.546875
2993		-193.359375
2994		-187.500000
2995		-193.359375
2996		-187.500000
2997		-191.406250
2998		-189.453125
2999		-193.359375
3000		-187.500000
3001		-193.359375
3002		-185.546875
3003		-193.359375
3004		-187.500000
3005		-193.359375
3006		-185.546875
3007		-191.406250
3008		-185.546875
3009		-191.406250
3010		-183.593750
3011		-191.406250
3012		-183.593750
3013		-187.500000
3014		-183.593750
3015		-185.546875
3016		-181.640625
3017		-187.500000
3018		-179.687500
3019		-185.546875
3020		-177.734375
3021		-183.593750
3022		-175.781250
3023		-181.640625
3024		-175.781250
3025		-179.687500
3026		-173.828125
3027		-177.734375
3028		-169.921875
3029		-175.781250
3030		-169.921875
3031		-171.875000
3032		-167.968750
3033		-169.921875
3034		-164.062500
3035		-167.968750
3036		-160.156250
3037		-167.968750
3038		-158.203125
3039		-164.062500
3040		-156.250000
3041		-160.156250
3042		-152.343750
3043		-158.203125
3044		-150.390625
3045		-154.296875
3046		-148.437500
3047		-150.390625
3048		-144.531250
3049		-146.484375
3050		-140.625000
3051		-144.531250
3052		-136.718750
3053		-142.578125
3054		-132.812500
3055		-136.718750
3056		-128.906250
3057		-134.765625
3058		-125.000000
3059		-128.906250
3060		-123.046875
3061		-126.953125
3062		-117.187500
3063		-121.093750
3064		-115.234375
3065		-117.187500
3066		-111.328125
3067		-113.281250
3068		-105.468750
3069		-111.328125
3070		-101.562500
3071		-105.468750
3072		-97.656250
3073		-103.515625
3074		-91.796875
3075		-97.656250
3076		-87.890625
3077		-91.796875
3078		-83.984375
3079		-87.890625
3080		-80.078125
3081		-82.031250
3082		-76.171875
3083		-78.125000
3084		-70.312500
3085		-74.218750
3086		-64.453125
3087		-70.312500
3088		-60.546875
3089		-64.453125
3090		-56.640625
3091		-60.546875
3092		-50.781250
3093		-54.687500
3094		-46.875000
3095		-50.781250
3096		-42.968750
3097		-44.921875
3098		-39.062500
3099		-41.015625
3100		-35.156250
3101		-35.156250
3102		-29.296875
3103		-33.203125
3104		-23.437500
3105		-27.343750
3106		-19.531250
3107		-23.437500
3108		-13.671875
3109		-19.531250
3110		-9.765625
3111		-15.625000
3112		-3.906250
3113		-9.765625
3114		-1.953125
3115		-3.906250
3116		1.953125
3117		0.000000
3118		7.812500
3119		3.906250
3120		13.671875
3121		7.812500
3122		17.578125
3123		11.718750
3124		21.484375
3125		17.578125
3126		27.343750
3127		21.484375
3128		29.296875
3129		25.390625
3130		33.203125
3131		31.250000
3132		37.109375
3133		35.156250
3134		41.015625
3135		37.109375
3136		44.921875
3137		41.015625
3138		50.781250
3139		44.921875
3140		54.687500
3141		48.828125
3142		58.593750
3143		52.734375
3144		60.546875
3145		56.640625
3146		66.406250
3147		60.546875
3148		68.359375
3149		66.406250
3150		72.265625
3151		70.312500
3152		76.171875
3153		72.265625
3154		80.078125
3155		76.171875
3156		83.984375
3157		78.125000
3158		85.937500
3159		82.031250
3160		89.843750
3161		83.984375
3162		91.796875
3163		87.890625
3164		95.703125
3165		91.796875
3166		97.656250
3167		95.703125
3168		99.609375
3169		95.703125
3170		103.515625
3171		99.609375
3172		105.468750
3173		101.562500
3174		109.375000
3175		105.468750
3176		113.281250
3177		107.421875
3178		113.281250
3179		109.375000
3180		117.187500
3181		113.281250
3182		117.187500
3183		115.234375
3184		119.140625
3185		115.234375
3186		123.046875
3187		117.187500
3188		125.000000
3189		119.140625
3190		126.953125
3191		123.046875
3192		128.906250
3193		125.000000
3194		130.859375
3195		126.953125
3196		130.859375
3197		126.953125
3198		132.812500
3199		130.859375
3200		134.765625
3201		130.859375
3202		136.718750
3203		132.812500
3204		136.718750
3205		132.812500
3206		138.671875
3207		134.765625
3208		140.625000
3209		134.765625
3210		140.625000
3211		136.718750
3212		140.625000
3213		136.718750
3214		142.578125
3215		138.671875
3216		142.578125
3217		140.625000
3218		142.578125
3219		138.671875
3220		146.484375
3221		138.671875
3222		146.484375
3223		140.625000
3224		146.484375
3225		140.625000
3226		146.484375
3227		140.625000
3228		146.484375
3229		140.625000
3230		146.484375
3231		140.625000
3232		146.484375
3233		142.578125
3234		144.531250
3235		140.625000
3236		146.484375
3237		140.625000
3238		146.484375
3239		140.625000
3240		146.484375
3241		138.671875
3242		146.484375
3243		138.671875
3244		146.484375
3245		138.671875
3246		144.531250
3247		138.671875
3248		144.531250
3249		138.671875
3250		142.578125
3251		138.671875
3252		140.625000
3253		134.765625
3254		142.578125
3255		134.765625
3256		140.625000
3257		132.812500
3258		140.625000
3259		132.812500
3260		138.671875
3261		130.859375
3262		138.671875
3263		130.859375
3264		136.718750
3265		130.859375
3266		132.812500
3267		128.906250
3268		132.812500
3269		125.000000
3270		130.859375
3271		123.046875
3272		130.859375
3273		121.093750
3274		128.906250
3275		119.140625
3276		126.953125
3277		117.187500
3278		125.000000
3279		117.187500
3280		123.046875
3281		115.234375
3282		121.093750
3283		113.281250
3284		117.187500
3285		109.375000
3286		115.234375
3287		107.421875
3288		113.281250
3289		103.515625
3290		111.328125
3291		99.609375
3292		107.421875
3293		97.656250
3294		105.468750
3295		95.703125
3296		103.515625
3297		91.796875
3298		99.609375
3299		91.796875
3300		95.703125
3301		87.890625
3302		91.796875
3303		82.031250
3304		89.843750
3305		80.078125
3306		87.890625
3307		76.171875
3308		83.984375
3309		72.265625
3310		80.078125
3311		68.359375
3312		78.125000
3313		66.406250
3314		72.265625
3315		64.453125
3316		70.312500
3317		60.546875
3318		64.453125
3319		52.734375
3320		60.546875
3321		50.781250
3322		58.593750
3323		46.875000
3324		54.687500
3325		42.968750
3326		50.781250
3327		39.062500
3328		46.875000
3329		33.203125
3330		42.968750
3331		31.250000
3332		39.062500
3333		27.343750
3334		33.203125
3335		23.437500
3336		29.296875
3337		17.578125
3338		25.390625
3339		11.718750
3340		21.484375
3341		7.812500
3342		17.578125
3343		3.906250
3344		13.671875
3345		-1.953125
3346		7.812500
3347		-3.906250
3348		3.906250
3349		-7.812500
3350		-1.953125
3351		-11.718750
3352		-5.859375
3353		-19.531250
3354		-11.718750
3355		-23.437500
3356		-13.671875
3357		-27.343750
3358		-19.531250
3359		-31.250000
3360		-23.437500
3361		-37.109375
3362		-27.343750
3363		-41.015625
3364		-33.203125
3365		-44.921875
3366		-37.109375
3367		-48.828125
3368		-42.968750
3369		-54.687500
3370		-46.875000
3371		-58.593750
3372		-50.781250
3373		-64.453125
3374		-54.687500
3375		-68.359375
3376		-60.546875
3377		-72.265625
3378		-64.453125
3379		-78.125000
3380		-68.359375
3381		-82.031250
3382		-72.265625
3383		-83.984375
3384		-78.125000
3385		-87.890625
3386		-82.031250
3387		-93.750000
3388		-85.937500
3389		-97.656250
3390		-89.843750
3391		-103.515625
3392		-93.750000
3393		-107.421875
3394		-97.656250
3395		-111.328125
3396		-101.562500
3397		-115.234375
3398		-105.468750
3399		-117.187500
3400		-109.375000
3401		-121.093750
3402		-115.234375
3403		-126.953125
3404		-119.140625
3405		-130.859375
3406		-123.046875
3407		-134.765625
3408		-125.000000
3409		-136.718750
3410		-128.906250
3411		-140.625000
3412		-132.812500
3413		-144.531250
3414		-136.718750
3415		-146.484375
3416		-138.671875
3417		-148.437500
3418		-144.531250
3419		-154.296875
3420		-146.484375
3421		-156.250000
3422		-148.437500
3423		-160.156250
3424		-152.343750
3425		-162.109375
3426		-154.296875
3427		-166.015625
3428		-158.203125
3429		-167.968750
3430		-160.156250
3431		-169.921875
3432		-162.109375
3433		-171.875000
3434		-166.015625
3435		-173.828125
3436		-169.921875
3437		-177.734375
3438		-169.921875
3439		-179.687500
3440		-171.875000
3441		-181.640625
3442		-173.828125
3443		-183.593750
3444		-175.781250
3445		-183.593750
3446		-177.734375
3447		-185.546875
3448		-177.734375
3449		-187.500000
3450		-179.687500
3451		-187.500000
3452		-183.593750
3453		-187.500000
3454		-183.593750
3455		-191.406250
3456		-183.593750
3457		-191.406250
3458		-185.546875
3459		-193.359375
3460		-185.546875
3461		-193.359375
3462		-185.546875
3463		-193.359375
3464		-187.500000
3465		-193.359375
3466		-187.500000
3467		-191.406250
3468		-189.453125
3469		-191.406250
3470		-189.453125
3471		-193.359375
3472		-187.500000
3473		-193.359375
3474		-187.500000
3475		-193.359375
3476		-185.546875
3477		-191.406250
3478		-185.546875
3479		-191.406250
3480		-185.546875
3481		-191.406250
3482		-183.593750
3483		-189.453125
3484		-183.593750
3485		-187.500000
3486		-183.593750
3487		-187.500000
3488		-179.687500
3489		-185.546875
3490		-177.734375
3491		-183.593750
3492		-177.734375
3493		-183.593750
3494		-175.781250
3495		-179.687500
3496		-173.828125
3497		-179.687500
3498		-169.921875
3499		-175.781250
3500		-169.921875
3501		-171.875000
3502		-167.968750
3503		-169.921875
3504		-166.015625
3505		-169.921875
3506		-162.109375
3507		-166.015625
3508		-160.156250
3509		-166.015625
3510		-156.250000
3511		-162.109375
3512		-154.296875
3513		-160.156250
3514		-150.390625
3515		-156.250000
3516		-148.437500
3517		-150.390625
3518		-146.484375
3519		-148.437500
3520		-142.578125
3521		-144.531250
3522		-138.671875
3523		-142.578125
3524		-132.812500
3525		-138.671875
3526		-130.859375
3527		-134.765625
3528		-126.953125
3529		-130.859375
3530		-123.046875
3531		-126.953125
3532		-119.140625
3533		-123.046875
3534		-117.187500
3535		-117.187500
3536		-111.328125
3537		-113.281250
3538		-107.421875
3539		-111.328125
3540		-103.515625
3541		-107.421875
3542		-99.609375
3543		-103.515625
3544		-93.750000
3545		-97.656250
3546		-89.843750
3547		-93.750000
3548		-85.937500
3549		-89.843750
3550		-82.031250
3551		-83.984375
3552		-78.125000
3553		-80.078125
3554		-74.218750
3555		-74.218750
3556		-66.406250
3557		-70.312500
3558		-62.500000
3559		-68.359375
3560		-58.593750
3561		-62.500000
3562		-52.734375
3563		-58.593750
3564		-48.828125
3565		-52.734375
3566		-42.968750
3567		-48.828125
3568		-41.015625
3569		-42.968750
3570		-35.156250
3571		-37.109375
3572		-29.296875
3573		-35.156250
3574		-25.390625
3575		-31.250000
3576		-21.484375
3577		-25.390625
3578		-15.625000
3579		-19.531250
3580		-11.718750
3581		-15.625000
3582		-7.812500
3583		-11.718750
3584		-3.906250
3585		-5.859375
3586		0.000000
3587		-1.953125
3588		5.859375
3589		1.953125
3590		9.765625
3591		5.859375
3592		15.625000
3593		11.718750
3594		19.531250
3595		15.625000
3596		23.437500
3597		17.578125
3598		29.296875
3599		23.437500
3600		33.203125
3601		29.296875
3602		35.156250
3603		33.203125
3604		39.062500
3605		37.109375
3606		44.921875
3607		39.062500
3608		48.828125
3609		42.968750
3610		52.734375
3611		48.828125
3612		56.640625
3613		50.781250
3614		60.546875
3615		56.640625
3616		64.453125
3617		58.593750
3618		66.406250
3619		64.453125
3620		70.312500
3621		68.359375
3622		74.218750
3623		70.312500
3624		78.125000
3625		74.218750
3626		82.031250
3627		78.125000
3628		83.984375
3629		80.078125
3630		87.890625
3631		83.984375
3632		91.796875
3633		85.937500
3634		93.750000
3635		91.796875
3636		95.703125
3637		93.750000
3638		97.656250
3639		95.703125
3640		103.515625
3641		97.656250
3642		105.468750
3643		99.609375
3644		107.421875
3645		103.515625
3646		111.328125
3647		105.468750
3648		113.281250
3649		107.421875
3650		115.234375
3651		111.328125
3652		117.187500
3653		115.234375
3654		119.140625
3655		117.187500
3656		123.046875
3657		117.187500
3658		125.000000
3659		119.140625
3660		126.953125
3661		121.093750
3662		128.906250
3663		123.046875
3664		130.859375
3665		125.000000
3666		130.859375
3667		126.953125
3668		132.812500
3669		128.906250
3670		132.812500
3671		130.859375
3672		134.765625
3673		130.859375
3674		138.671875
3675		130.859375
3676		138.671875
3677		134.765625
3678		140.625000
3679		134.765625
3680		140.625000
3681		134.765625
3682		142.578125
3683		136.718750
3684		144.531250
3685		138.671875
3686		142.578125
3687		140.625000
3688		142.578125
3689		138.671875
3690		144.531250
3691		138.671875
3692		146.484375
3693		140.625000
3694		146.484375
3695		140.625000
3696		146.484375
3697		140.625000
3698		148.437500
3699		140.625000
3700		146.484375
3701		140.625000
3702		146.484375
3703		142.578125
3704		146.484375
3705		140.625000
3706		146.484375
3707		140.625000
3708		148.437500
3709		140.625000
3710		146.484375
3711		138.671875
3712		146.484375
3713		140.625000
3714		146.484375
3715		140.625000
3716		146.484375
3717		138.671875
3718		146.484375
3719		138.671875
3720		142.578125
3721		138.671875
3722		142.578125
3723		136.718750
3724		144.531250
3725		134.765625
3726		142.578125
3727		134.765625
3728		140.625000
3729		132.812500
3730		140.625000
3731		132.812500
3732		138.671875
3733		130.859375
3734		138.671875
3735		130.859375
3736		136.718750
3737		128.906250
3738		132.812500
3739		126.953125
3740		132.812500
3741		125.000000
3742		130.859375
3743		123.046875
3744		130.859375
3745		121.093750
3746		128.906250
3747		119.140625
3748		125.000000
3749		117.187500
3750		125.000000
3751		117.187500
3752		123.046875
3753		115.234375
3754		119.140625
3755		111.328125
3756		117.187500
3757		109.375000
3758		115.234375
3759		105.468750
3760		113.281250
3761		103.515625
3762		109.375000
3763		99.609375
3764		109.375000
3765		97.656250
3766		105.468750
3767		93.750000
3768		101.562500
3769		91.796875
3770		97.656250
3771		89.843750
3772		95.703125
3773		85.937500
3774		91.796875
3775		82.031250
3776		89.843750
3777		80.078125
3778		85.937500
3779		76.171875
3780		83.984375
3781		70.312500
3782		80.078125
3783		68.359375
3784		76.171875
3785		66.406250
3786		74.218750
3787		62.500000
3788		68.359375
3789		56.640625
3790		64.453125
3791		52.734375
3792		60.546875
3793		48.828125
3794		58.593750
3795		44.921875
3796		52.734375
3797		41.015625
3798		50.781250
3799		37.109375
3800		44.921875
3801		33.203125
3802		41.015625
3803		29.296875
3804		37.109375
3805		25.390625
3806		31.250000
3807		21.484375
3808		27.343750
3809		15.625000
3810		25.390625
3811		11.718750
3812		19.531250
3813		7.812500
3814		17.578125
3815		3.906250
3816		11.718750
3817		-1.953125
3818		7.812500
3819		-3.906250
3820		1.953125
3821		-9.765625
3822		-1.953125
3823		-13.671875
3824		-7.812500
3825		-19.531250
3826		-9.765625
3827		-25.390625
3828		-15.625000
3829		-29.296875
3830		-19.531250
3831		-33.203125
3832		-23.437500
3833		-39.062500
3834		-29.296875
3835		-41.015625
3836		-33.203125
3837		-44.921875
3838		-39.062500
3839		-50.781250
3840		-42.968750
3841		-56.640625
3842		-48.828125
3843		-60.546875
3844		-50.781250
3845		-64.453125
3846		-56.640625
3847		-68.359375
3848		-60.546875
3849		-74.218750
3850		-64.453125
3851		-80.078125
3852		-70.312500
3853		-82.031250
3854		-74.218750
3855		-85.937500
3856		-80.078125
3857		-91.796875
3858		-83.984375
3859		-97.656250
3860		-85.937500
3861		-99.609375
3862		-91.796875
3863		-103.515625
3864		-93.750000
3865		-107.421875
3866		-99.609375
3867		-113.281250
3868		-103.515625
3869		-115.234375
3870		-107.421875
3871		-119.140625
3872		-113.281250
3873		-123.046875
3874		-115.234375
3875		-126.953125
3876		-119.140625
3877		-130.859375
3878		-123.046875
3879		-134.765625
3880		-125.000000
3881		-138.671875
3882		-128.906250
3883		-142.578125
3884		-132.812500
3885		-144.531250
3886		-136.718750
3887		-146.484375
3888		-140.625000
3889		-150.390625
3890		-144.531250
3891		-154.296875
3892		-146.484375
3893		-156.250000
3894		-150.390625
3895		-160.156250
3896		-150.390625
3897		-160.156250
3898		-154.296875
3899		-166.015625
3900		-156.250000
3901		-167.968750
3902		-158.203125
3903		-167.968750
3904		-162.109375
3905		-169.921875
3906		-166.015625
3907		-173.828125
3908		-167.968750
3909		-175.781250
3910		-167.968750
3911		-177.734375
3912		-169.921875
3913		-179.687500
3914		-173.828125
3915		-181.640625
3916		-173.828125
3917		-183.593750
3918		-175.781250
3919		-183.593750
3920		-177.734375
3921		-183.593750
3922		-179.687500
3923		-185.546875
3924		-181.640625
3925		-187.500000
3926		-181.640625
3927		-187.500000
3928		-181.640625
3929		-189.453125
3930		-183.593750
3931		-189.453125
3932		-183.593750
3933		-189.453125
3934		-183.593750
3935		-191.406250
3936		-183.593750
3937		-191.406250
3938		-185.546875
3939		-189.453125
3940		-185.546875
3941		-191.406250
3942		-185.546875
3943		-191.406250
3944		-183.593750
3945		-189.453125
3946		-183.593750
3947		-189.453125
3948		-183.593750
3949		-189.453125
3950		-183.593750
3951		-187.500000
3952		-181.640625
3953		-187.500000
3954		-181.640625
3955		-185.546875
3956		-181.640625
3957		-183.593750
3958		-179.687500
3959		-183.593750
3960		-177.734375
3961		-183.593750
3962		-175.781250
3963		-181.640625
3964		-173.828125
3965		-179.687500
3966		-171.875000
3967		-177.734375
3968		-169.921875
3969		-175.781250
3970		-167.968750
3971		-171.875000
3972		-167.968750
3973		-169.921875
3974		-166.015625
3975		-167.968750
3976		-162.109375
3977		-166.015625
3978		-160.156250
3979		-164.062500
3980		-156.250000
3981		-162.109375
3982		-154.296875
3983		-158.203125
3984		-150.390625
3985		-156.250000
3986		-146.484375
3987		-152.343750
3988		-146.484375
3989		-148.437500
3990		-142.578125
3991		-144.531250
3992		-138.671875
3993		-142.578125
3994		-134.765625
3995		-138.671875
3996		-130.859375
3997		-134.765625
3998		-126.953125
3999		-132.812500
4000		-125.000000
4001		-128.906250
4002		-119.140625
4003		-125.000000
4004		-117.187500
4005		-119.140625
4006		-113.281250
4007		-115.234375
4008		-109.375000
4009		-111.328125
4010		-103.515625
4011		-107.421875
4012		-99.609375
4013		-103.515625
4014		-93.750000
4015		-99.609375
4016		-91.796875
4017		-95.703125
4018		-85.937500
4019		-91.796875
4020		-82.031250
4021		-85.937500
4022		-78.125000
4023		-80.078125
4024		-74.218750
4025		-76.171875
4026		-68.359375
4027		-72.265625
4028		-64.453125
4029		-68.359375
4030		-58.593750
4031		-64.453125
4032		-54.687500
4033		-58.593750
4034		-48.828125
4035		-54.687500
4036		-44.921875
4037		-50.781250
4038		-41.015625
4039		-42.968750
4040		-37.109375
4041		-39.062500
4042		-31.250000
4043		-35.156250
4044		-27.343750
4045		-31.250000
4046		-23.437500
4047		-25.390625
4048		-19.531250
4049		-21.484375
4050		-13.671875
4051		-15.625000
4052		-9.765625
4053		-11.718750
4054		-3.906250
4055		-5.859375
4056		0.000000
4057		-1.953125
4058		3.906250
4059		1.953125
4060		9.765625
4061		3.906250
4062		13.671875
4063		9.765625
4064		17.578125
4065		13.671875
4066		23.437500
4067		17.578125
4068		27.343750
4069		21.484375
4070		31.250000
4071		27.343750
4072		35.156250
4073		33.203125
4074		37.109375
4075		37.109375
4076		42.968750
4077		39.062500
4078		46.875000
4079		44.921875
4080		52.734375
4081		46.875000
4082		54.687500
4083		50.781250
4084		60.546875
4085		54.687500
4086		62.500000
4087		58.593750
4088		66.406250
4089		64.453125
4090		68.359375
4091		68.359375
4092		72.265625
4093		70.312500
4094		78.125000
4095		74.218750
4096		82.031250
4097		76.171875
4098		83.984375
4099		78.125000
4100		87.890625
4101		82.031250
4102		89.843750
4103		85.937500
4104		93.750000
4105		89.843750
4106		95.703125
4107		93.750000
4108		99.609375
4109		95.703125
4110		103.515625
4111		97.656250
4112		105.468750
4113		101.562500
4114		107.421875
4115		103.515625
4116		111.328125
4117		105.468750
4118		113.281250
4119		107.421875
4120		115.234375
4121		111.328125
4122		117.187500
4123		115.234375
4124		119.140625
4125		117.187500
4126		121.093750
4127		117.187500
4128		125.000000
4129		119.140625
4130		126.953125
4131		121.093750
4132		128.906250
4133		123.046875
4134		130.859375
4135		125.000000
4136		130.859375
4137		126.953125
4138		134.765625
4139		130.859375
4140		134.765625
4141		130.859375
4142		134.765625
4143		132.812500
4144		138.671875
4145		132.812500
4146		138.671875
4147		132.812500
4148		140.625000
4149		134.765625
4150		142.578125
4151		134.765625
4152		144.531250
4153		136.718750
4154		144.531250
4155		136.718750
4156		144.531250
4157		140.625000
4158		144.531250
4159		140.625000
4160		144.531250
4161		138.671875
4162		146.484375
4163		140.625000
4164		146.484375
4165		140.625000
4166		148.437500
4167		142.578125
4168		148.437500
4169		142.578125
4170		148.437500
4171		142.578125
4172		148.437500
4173		144.531250
4174		146.484375
4175		144.531250
4176		146.484375
4177		142.578125
4178		148.437500
4179		140.625000
4180		148.437500
4181		142.578125
4182		148.437500
4183		140.625000
4184		148.437500
4185		140.625000
4186		148.437500
4187		140.625000
4188		146.484375
4189		140.625000
4190		144.531250
4191		140.625000
4192		144.531250
4193		138.671875
4194		144.531250
4195		136.718750
4196		144.531250
4197		136.718750
4198		142.578125
4199		134.765625
4200		142.578125
4201		134.765625
4202		140.625000
4203		132.812500
4204		140.625000
4205		132.812500
4206		138.671875
4207		132.812500
4208		134.765625
4209		130.859375
4210		134.765625
4211		126.953125
4212		134.765625
4213		125.000000
4214		132.812500
4215		123.046875
4216		130.859375
4217		121.093750
4218		128.906250
4219		119.140625
4220		126.953125
4221		117.187500
4222		125.000000
4223		117.187500
4224		121.093750
4225		115.234375
4226		119.140625
4227		109.375000
4228		117.187500
4229		107.421875
4230		117.187500
4231		105.468750
4232		113.281250
4233		103.515625
4234		111.328125
4235		101.562500
4236		107.421875
4237		97.656250
4238		105.468750
4239		95.703125
4240		103.515625
4241		91.796875
4242		97.656250
4243		89.843750
4244		95.703125
4245		83.984375
4246		93.750000
4247		82.031250
4248		89.843750
4249		78.125000
4250		85.937500
4251		76.171875
4252		83.984375
4253		72.265625
4254		80.078125
4255		70.312500
4256		76.171875
4257		66.406250
4258		72.265625
4259		62.500000
4260		68.359375
4261		56.640625
4262		64.453125
4263		52.734375
4264		60.546875
4265		48.828125
4266		56.640625
4267		44.921875
4268		54.687500
4269		41.015625
4270		48.828125
4271		37.109375
4272		46.875000
4273		35.156250
4274		42.968750
4275		29.296875
4276		37.109375
4277		23.437500
4278		31.250000
4279		21.484375
4280		29.296875
4281		15.625000
4282		25.390625
4283		11.718750
4284		19.531250
4285		5.859375
4286		15.625000
4287		3.906250
4288		11.718750
4289		0.000000
4290		7.812500
4291		-5.859375
4292		1.953125
4293		-9.765625
4294		-3.906250
4295		-15.625000
4296		-7.812500
4297		-19.531250
4298		-11.718750
4299		-25.390625
4300		-17.578125
4301		-29.296875
4302		-19.531250
4303		-33.203125
4304		-25.390625
4305		-39.062500
4306		-29.296875
4307		-41.015625
4308		-33.203125
4309		-46.875000
4310		-39.062500
4311		-50.781250
4312		-42.968750
4313		-56.640625
4314		-46.875000
4315		-60.546875
4316		-52.734375
4317		-64.453125
4318		-56.640625
4319		-70.312500
4320		-60.546875
4321		-74.218750
4322		-64.453125
4323		-76.171875
4324		-70.312500
4325		-82.031250
4326		-74.218750
4327		-85.937500
4328		-80.078125
4329		-91.796875
4330		-82.031250
4331		-95.703125
4332		-87.890625
4333		-99.609375
4334		-89.843750
4335		-103.515625
4336		-95.703125
4337		-107.421875
4338		-99.609375
4339		-111.328125
4340		-103.515625
4341		-113.281250
4342		-107.421875
4343		-117.187500
4344		-111.328125
4345		-123.046875
4346		-115.234375
4347		-126.953125
4348		-119.140625
4349		-130.859375
4350		-121.093750
4351		-134.765625
4352		-126.953125
4353		-136.718750
4354		-128.906250
4355		-140.625000
4356		-132.812500
4357		-142.578125
4358		-136.718750
4359		-146.484375
4360		-140.625000
4361		-150.390625
4362		-144.531250
4363		-152.343750
4364		-146.484375
4365		-156.250000
4366		-148.437500
4367		-160.156250
4368		-152.343750
4369		-162.109375
4370		-154.296875
4371		-164.062500
4372		-158.203125
4373		-166.015625
4374		-160.156250
4375		-167.968750
4376		-162.109375
4377		-169.921875
4378		-166.015625
4379		-173.828125
4380		-166.015625
4381		-175.781250
4382		-167.968750
4383		-177.734375
4384		-169.921875
4385		-179.687500
4386		-171.875000
4387		-181.640625
4388		-173.828125
4389		-183.593750
4390		-175.781250
4391		-181.640625
4392		-177.734375
4393		-183.593750
4394		-179.687500
4395		-185.546875
4396		-179.687500
4397		-187.500000
4398		-179.687500
4399		-187.500000
4400		-181.640625
4401		-187.500000
4402		-181.640625
4403		-189.453125
4404		-183.593750
4405		-189.453125
4406		-183.593750
4407		-189.453125
4408		-183.593750
4409		-187.500000
4410		-185.546875
4411		-189.453125
4412		-183.593750
4413		-189.453125
4414		-183.593750
4415		-189.453125
4416		-183.593750
4417		-189.453125
4418		-183.593750
4419		-189.453125
4420		-181.640625
4421		-187.500000
4422		-181.640625
4423		-187.500000
4424		-181.640625
4425		-183.593750
4426		-181.640625
4427		-183.593750
4428		-179.687500
4429		-183.593750
4430		-177.734375
4431		-183.593750
4432		-175.781250
4433		-181.640625
4434		-173.828125
4435		-179.687500
4436		-171.875000
4437		-177.734375
4438		-169.921875
4439		-175.781250
4440		-169.921875
4441		-173.828125
4442		-167.968750
4443		-169.921875
4444		-166.015625
4445		-167.968750
4446		-162.109375
4447		-167.968750
4448		-160.156250
4449		-166.015625
4450		-156.250000
4451		-162.109375
4452		-154.296875
4453		-158.203125
4454		-152.343750
4455		-156.250000
4456		-148.437500
4457		-152.343750
4458		-144.531250
4459		-148.437500
4460		-142.578125
4461		-144.531250
4462		-140.625000
4463		-142.578125
4464		-136.718750
4465		-140.625000
4466		-132.812500
4467		-136.718750
4468		-128.906250
4469		-132.812500
4470		-125.000000
4471		-128.906250
4472		-121.093750
4473		-125.000000
4474		-117.187500
4475		-121.093750
4476		-113.281250
4477		-115.234375
4478		-111.328125
4479		-111.328125
4480		-103.515625
4481		-109.375000
4482		-99.609375
4483		-105.468750
4484		-97.656250
4485		-101.562500
4486		-91.796875
4487		-97.656250
4488		-87.890625
4489		-91.796875
4490		-82.031250
4491		-87.890625
4492		-80.078125
4493		-82.031250
4494		-76.171875
4495		-78.125000
4496		-70.312500
4497		-74.218750
4498		-64.453125
4499		-70.312500
4500		-62.500000
4501		-64.453125
4502		-56.640625
4503		-60.546875
4504		-52.734375
4505		-54.687500
4506		-46.875000
4507		-52.734375
4508		-42.968750
4509		-44.921875
4510		-39.062500
4511		-41.015625
4512		-35.156250
4513		-37.109375
4514		-27.343750
4515		-33.203125
4516		-25.390625
4517		-27.343750
4518		-19.531250
4519		-23.437500
4520		-15.625000
4521		-19.531250
4522		-9.765625
4523		-15.625000
4524		-5.859375
4525		-9.765625
4526		-1.953125
4527		-3.906250
4528		1.953125
4529		0.000000
4530		7.812500
4531		1.953125
4532		11.718750
4533		7.812500
4534		17.578125
4535		11.718750
4536		21.484375
4537		17.578125
4538		23.437500
4539		19.531250
4540		29.296875
4541		25.390625
4542		33.203125
4543		31.250000
4544		37.109375
4545		35.156250
4546		41.015625
4547		39.062500
4548		44.921875
4549		41.015625
4550		50.781250
4551		46.875000
4552		54.687500
4553		48.828125
4554		56.640625
4555		54.687500
4556		60.546875
4557		58.593750
4558		64.453125
4559		60.546875
4560		68.359375
4561		66.406250
4562		70.312500
4563		70.312500
4564		76.171875
4565		70.312500
4566		80.078125
4567		76.171875
4568		82.031250
4569		78.125000
4570		85.937500
4571		82.031250
4572		89.843750
4573		85.937500
4574		91.796875
4575		87.890625
4576		95.703125
4577		91.796875
4578		97.656250
4579		95.703125
4580		101.562500
4581		97.656250
4582		105.468750
4583		99.609375
4584		107.421875
4585		101.562500
4586		109.375000
4587		105.468750
4588		113.281250
4589		107.421875
4590		115.234375
4591		109.375000
4592		117.187500
4593		113.281250
4594		119.140625
4595		115.234375
4596		121.093750
4597		117.187500
4598		125.000000
4599		119.140625
4600		125.000000
4601		121.093750
4602		126.953125
4603		123.046875
4604		130.859375
4605		125.000000
4606		130.859375
4607		126.953125
4608		132.812500
4609		128.906250
4610		134.765625
4611		130.859375
4612		134.765625
4613		132.812500
4614		136.718750
4615		132.812500
4616		140.625000
4617		134.765625
4618		140.625000
4619		134.765625
4620		142.578125
4621		136.718750
4622		142.578125
4623		136.718750
4624		144.531250
4625		138.671875
4626		144.531250
4627		140.625000
4628		144.531250
4629		142.578125
4630		144.531250
4631		140.625000
4632		146.484375
4633		140.625000
4634		148.437500
4635		142.578125
4636		148.437500
4637		142.578125
4638		148.437500
4639		142.578125
4640		148.437500
4641		142.578125
4642		148.437500
4643		142.578125
4644		148.437500
4645		144.531250
4646		148.437500
4647		142.578125
4648		148.437500
4649		142.578125
4650		148.437500
4651		142.578125
4652		148.437500
4653		142.578125
4654		148.437500
4655		140.625000
4656		148.437500
4657		140.625000
4658		148.437500
4659		140.625000
4660		146.484375
4661		142.578125
4662		144.531250
4663		140.625000
4664		144.531250
4665		138.671875
4666		144.531250
4667		138.671875
4668		144.531250
4669		136.718750
4670		144.531250
4671		134.765625
4672		142.578125
4673		134.765625
4674		140.625000
4675		132.812500
4676		140.625000
4677		132.812500
4678		136.718750
4679		132.812500
4680		136.718750
4681		128.906250
4682		134.765625
4683		126.953125
4684		134.765625
4685		125.000000
4686		132.812500
4687		123.046875
4688		130.859375
4689		121.093750
4690		128.906250
4691		119.140625
4692		126.953125
4693		119.140625
4694		125.000000
4695		117.187500
4696		121.093750
4697		113.281250
4698		119.140625
4699		109.375000
4700		117.187500
4701		107.421875
4702		115.234375
4703		105.468750
4704		113.281250
4705		101.562500
4706		109.375000
4707		99.609375
4708		107.421875
4709		97.656250
4710		103.515625
4711		95.703125
4712		101.562500
4713		91.796875
4714		97.656250
4715		87.890625
4716		93.750000
4717		85.937500
4718		91.796875
4719		82.031250
4720		89.843750
4721		78.125000
4722		87.890625
4723		74.218750
4724		82.031250
4725		70.312500
4726		80.078125
4727		68.359375
4728		76.171875
4729		66.406250
4730		70.312500
4731		58.593750
4732		66.406250
4733		54.687500
4734		64.453125
4735		52.734375
4736		60.546875
4737		48.828125
4738		56.640625
4739		44.921875
4740		50.781250
4741		41.015625
4742		48.828125
4743		37.109375
4744		44.921875
4745		33.203125
4746		39.062500
4747		29.296875
4748		35.156250
4749		25.390625
4750		31.250000
4751		19.531250
4752		29.296875
4753		13.671875
4754		23.437500
4755		11.718750
4756		19.531250
4757		5.859375
4758		15.625000
4759		1.953125
4760		9.765625
4761		-1.953125
4762		5.859375
4763		-5.859375
4764		0.000000
4765		-9.765625
4766		-3.906250
4767		-15.625000
4768		-5.859375
4769		-21.484375
4770		-11.718750
4771		-25.390625
4772		-15.625000
4773		-29.296875
4774		-19.531250
4775		-33.203125
4776		-25.390625
4777		-37.109375
4778		-31.250000
4779		-41.015625
4780		-35.156250
4781		-46.875000
4782		-41.015625
4783		-50.781250
4784		-44.921875
4785		-56.640625
4786		-48.828125
4787		-60.546875
4788		-52.734375
4789		-66.406250
4790		-56.640625
4791		-70.312500
4792		-60.546875
4793		-74.218750
4794		-66.406250
4795		-78.125000
4796		-72.265625
4797		-82.031250
4798		-76.171875
4799		-87.890625
4800		-80.078125
4801		-91.796875
4802		-83.984375
4803		-95.703125
4804		-85.937500
4805		-99.609375
4806		-89.843750
4807		-105.468750
4808		-95.703125
4809		-107.421875
4810		-99.609375
4811		-111.328125
4812		-103.515625
4813		-115.234375
4814		-109.375000
4815		-121.093750
4816		-113.281250
4817		-123.046875
4818		-115.234375
4819		-126.953125
4820		-117.187500
4821		-130.859375
4822		-123.046875
4823		-134.765625
4824		-126.953125
4825		-136.718750
4826		-128.906250
4827		-138.671875
4828		-132.812500
4829		-142.578125
4830		-136.718750
4831		-146.484375
4832		-140.625000
4833		-150.390625
4834		-142.578125
4835		-154.296875
4836		-144.531250
4837		-156.250000
4838		-148.437500
4839		-160.156250
4840		-152.343750
4841		-162.109375
4842		-154.296875
4843		-164.062500
4844		-156.250000
4845		-166.015625
4846		-160.156250
4847		-167.968750
4848		-162.109375
4849		-169.921875
4850		-164.062500
4851		-173.828125
4852		-166.015625
4853		-175.781250
4854		-167.968750
4855		-177.734375
4856		-169.921875
4857		-177.734375
4858		-171.875000
4859		-179.687500
4860		-173.828125
4861		-181.640625
4862		-173.828125
4863		-181.640625
4864		-177.734375
4865		-181.640625
4866		-179.687500
4867		-185.546875
4868		-177.734375
4869		-185.546875
4870		-179.687500
4871		-185.546875
4872		-179.687500
4873		-187.500000
4874		-179.687500
4875		-187.500000
4876		-181.640625
4877		-189.453125
4878		-181.640625
4879		-187.500000
4880		-183.593750
4881		-187.500000
4882		-183.593750
4883		-187.500000
4884		-183.593750
4885		-187.500000
4886		-183.593750
4887		-187.500000
4888		-181.640625
4889		-187.500000
4890		-181.640625
4891		-187.500000
4892		-181.640625
4893		-185.546875
4894		-181.640625
4895		-185.546875
4896		-179.687500
4897		-183.593750
4898		-179.687500
4899		-181.640625
4900		-177.734375
4901		-183.593750
4902		-175.781250
4903		-181.640625
4904		-173.828125
4905		-179.687500
4906		-171.875000
4907		-177.734375
4908		-169.921875
4909		-175.781250
4910		-167.968750
4911		-173.828125
4912		-167.968750
4913		-169.921875
4914		-166.015625
4915		-167.968750
4916		-164.062500
4917		-166.015625
4918		-160.156250
4919		-164.062500
4920		-156.250000
4921		-162.109375
4922		-154.296875
4923		-160.156250
4924		-152.343750
4925		-158.203125
4926		-148.437500
4927		-154.296875
4928		-146.484375
4929		-150.390625
4930		-144.531250
4931		-146.484375
4932		-140.625000
4933		-142.578125
4934		-136.718750
4935		-142.578125
4936		-132.812500
4937		-136.718750
4938		-128.906250
4939		-134.765625
4940		-125.000000
4941		-130.859375
4942		-123.046875
4943		-126.953125
4944		-119.140625
4945		-123.046875
4946		-115.234375
4947		-117.187500
4948		-111.328125
4949		-113.281250
4950		-107.421875
4951		-111.328125
4952		-101.562500
4953		-105.468750
4954		-97.656250
4955		-103.515625
4956		-93.750000
4957		-97.656250
4958		-89.843750
4959		-93.750000
4960		-85.937500
4961		-89.843750
4962		-82.031250
4963		-83.984375
4964		-78.125000
4965		-80.078125
4966		-74.218750
4967		-76.171875
4968		-68.359375
4969		-72.265625
4970		-64.453125
4971		-68.359375
4972		-58.593750
4973		-62.500000
4974		-52.734375
4975		-56.640625
4976		-48.828125
4977		-54.687500
4978		-44.921875
4979		-48.828125
4980		-41.015625
4981		-42.968750
4982		-37.109375
4983		-39.062500
4984		-31.250000
4985		-35.156250
4986		-27.343750
4987		-31.250000
4988		-21.484375
4989		-25.390625
4990		-15.625000
4991		-21.484375
4992		-11.718750
4993		-17.578125
4994		-7.812500
4995		-11.718750
4996		-3.906250
4997		-5.859375
4998		0.000000
4999		-1.953125
5000		3.906250
5001		1.953125
5002		9.765625
5003		7.812500
5004		15.625000
5005		9.765625
5006		19.531250
5007		13.671875
5008		21.484375
5009		17.578125
5010		27.343750
5011		23.437500
5012		33.203125
5013		29.296875
5014		35.156250
5015		33.203125
5016		39.062500
5017		37.109375
5018		44.921875
5019		41.015625
5020		48.828125
5021		42.968750
5022		52.734375
5023		48.828125
5024		54.687500
5025		50.781250
5026		60.546875
5027		54.687500
5028		64.453125
5029		60.546875
5030		66.406250
5031		64.453125
5032		70.312500
5033		68.359375
5034		74.218750
5035		70.312500
5036		78.125000
5037		74.218750
5038		80.078125
5039		78.125000
5040		83.984375
5041		80.078125
5042		87.890625
5043		83.984375
5044		91.796875
5045		85.937500
5046		93.750000
5047		91.796875
5048		95.703125
5049		93.750000
5050		99.609375
5051		95.703125
5052		103.515625
5053		97.656250
5054		105.468750
5055		101.562500
5056		109.375000
5057		103.515625
5058		111.328125
5059		105.468750
5060		113.281250
5061		109.375000
5062		117.187500
5063		109.375000
5064		117.187500
5065		115.234375
5066		119.140625
5067		117.187500
5068		123.046875
5069		119.140625
5070		125.000000
5071		119.140625
5072		126.953125
5073		121.093750
5074		128.906250
5075		123.046875
5076		130.859375
5077		125.000000
5078		132.812500
5079		126.953125
5080		132.812500
5081		130.859375
5082		134.765625
5083		130.859375
5084		134.765625
5085		132.812500
5086		138.671875
5087		132.812500
5088		140.625000
5089		134.765625
5090		140.625000
5091		134.765625
5092		142.578125
5093		134.765625
5094		144.531250
5095		138.671875
5096		144.531250
5097		140.625000
5098		142.578125
5099		140.625000
5100		144.531250
5101		140.625000
5102		146.484375
5103		140.625000
5104		148.437500
5105		140.625000
5106		148.437500
5107		140.625000
5108		148.437500
5109		142.578125
5110		148.437500
5111		142.578125
5112		148.437500
5113		142.578125
5114		148.437500
5115		144.531250
5116		146.484375
5117		144.531250
5118		148.437500
5119		142.578125
5120		148.437500
5121		142.578125
5122		148.437500
5123		142.578125
5124		148.437500
5125		140.625000
5126		148.437500
5127		140.625000
5128		148.437500
5129		140.625000
5130		148.437500
5131		140.625000
5132		144.531250
5133		140.625000
5134		144.531250
5135		138.671875
5136		144.531250
5137		138.671875
5138		144.531250
5139		136.718750
5140		144.531250
5141		136.718750
5142		142.578125
5143		134.765625
5144		140.625000
5145		134.765625
5146		140.625000
5147		132.812500
5148		138.671875
5149		132.812500
5150		136.718750
5151		130.859375
5152		134.765625
5153		128.906250
5154		134.765625
5155		125.000000
5156		132.812500
5157		125.000000
5158		130.859375
5159		121.093750
5160		128.906250
5161		119.140625
5162		126.953125
5163		119.140625
5164		126.953125
5165		117.187500
5166		123.046875
5167		115.234375
5168		119.140625
5169		111.328125
5170		119.140625
5171		107.421875
5172		117.187500
5173		107.421875
5174		113.281250
5175		103.515625
5176		111.328125
5177		101.562500
5178		109.375000
5179		97.656250
5180		105.468750
5181		97.656250
5182		103.515625
5183		93.750000
5184		99.609375
5185		89.843750
5186		95.703125
5187		85.937500
5188		93.750000
5189		82.031250
5190		89.843750
5191		80.078125
5192		87.890625
5193		76.171875
5194		83.984375
5195		72.265625
5196		80.078125
5197		70.312500
5198		78.125000
5199		66.406250
5200		72.265625
5201		62.500000
5202		68.359375
5203		58.593750
5204		66.406250
5205		54.687500
5206		64.453125
5207		50.781250
5208		60.546875
5209		44.921875
5210		54.687500
5211		42.968750
5212		50.781250
5213		39.062500
5214		46.875000
5215		35.156250
5216		41.015625
5217		31.250000
5218		37.109375
5219		27.343750
5220		33.203125
5221		21.484375
5222		31.250000
5223		17.578125
5224		25.390625
5225		11.718750
5226		21.484375
5227		9.765625
5228		17.578125
5229		3.906250
5230		13.671875
5231		0.000000
5232		7.812500
5233		-3.906250
5234		1.953125
5235		-7.812500
5236		-1.953125
5237		-13.671875
5238		-3.906250
5239		-19.531250
5240		-9.765625
5241		-23.437500
5242		-15.625000
5243		-27.343750
5244		-17.578125
5245		-31.250000
5246		-23.437500
5247		-35.156250
5248		-27.343750
5249		-39.062500
5250		-33.203125
5251		-44.921875
5252		-39.062500
5253		-50.781250
5254		-42.968750
5255		-54.687500
5256		-44.921875
5257		-58.593750
5258		-50.781250
5259		-64.453125
5260		-54.687500
5261		-68.359375
5262		-58.593750
5263		-74.218750
5264		-64.453125
5265		-76.171875
5266		-68.359375
5267		-80.078125
5268		-74.218750
5269		-85.937500
5270		-78.125000
5271		-89.843750
5272		-82.031250
5273		-93.750000
5274		-83.984375
5275		-97.656250
5276		-87.890625
5277		-101.562500
5278		-93.750000
5279		-105.468750
5280		-97.656250
5281		-109.375000
5282		-101.562500
5283		-113.281250
5284		-107.421875
5285		-117.187500
5286		-111.328125
5287		-121.093750
5288		-113.281250
5289		-125.000000
5290		-115.234375
5291		-128.906250
5292		-121.093750
5293		-132.812500
5294		-125.000000
5295		-134.765625
5296		-126.953125
5297		-138.671875
5298		-130.859375
5299		-140.625000
5300		-134.765625
5301		-144.531250
5302		-138.671875
5303		-148.437500
5304		-142.578125
5305		-152.343750
5306		-144.531250
5307		-154.296875
5308		-146.484375
5309		-158.203125
5310		-150.390625
5311		-160.156250
5312		-152.343750
5313		-162.109375
5314		-154.296875
5315		-164.062500
5316		-158.203125
5317		-166.015625
5318		-160.156250
5319		-167.968750
5320		-164.062500
5321		-171.875000
5322		-164.062500
5323		-173.828125
5324		-166.015625
5325		-175.781250
5326		-167.968750
5327		-177.734375
5328		-169.921875
5329		-179.687500
5330		-171.875000
5331		-179.687500
5332		-173.828125
5333		-179.687500
5334		-175.781250
5335		-181.640625
5336		-177.734375
5337		-183.593750
5338		-177.734375
5339		-185.546875
5340		-177.734375
5341		-185.546875
5342		-177.734375
5343		-185.546875
5344		-179.687500
5345		-185.546875
5346		-179.687500
5347		-187.500000
5348		-179.687500
5349		-187.500000
5350		-181.640625
5351		-185.546875
5352		-181.640625
5353		-187.500000
5354		-181.640625
5355		-187.500000
5356		-181.640625
5357		-187.500000
5358		-179.687500
5359		-187.500000
5360		-179.687500
5361		-185.546875
5362		-179.687500
5363		-185.546875
5364		-179.687500
5365		-185.546875
5366		-177.734375
5367		-181.640625
5368		-179.687500
5369		-181.640625
5370		-177.734375
5371		-181.640625
5372		-175.781250
5373		-181.640625
5374		-173.828125
5375		-179.687500
5376		-171.875000
5377		-177.734375
5378		-169.921875
5379		-175.781250
5380		-167.968750
5381		-173.828125
5382		-166.015625
5383		-169.921875
5384		-166.015625
5385		-167.968750
5386		-164.062500
5387		-166.015625
5388		-160.156250
5389		-166.015625
5390		-156.250000
5391		-164.062500
5392		-154.296875
5393		-160.156250
5394		-152.343750
5395		-158.203125
5396		-150.390625
5397		-154.296875
5398		-146.484375
5399		-152.343750
5400		-144.531250
5401		-146.484375
5402		-142.578125
5403		-144.531250
5404		-138.671875
5405		-142.578125
5406		-134.765625
5407		-138.671875
5408		-130.859375
5409		-134.765625
5410		-126.953125
5411		-132.812500
5412		-123.046875
5413		-128.906250
5414		-119.140625
5415		-123.046875
5416		-115.234375
5417		-119.140625
5418		-113.281250
5419		-115.234375
5420		-109.375000
5421		-111.328125
5422		-103.515625
5423		-107.421875
5424		-99.609375
5425		-103.515625
5426		-95.703125
5427		-101.562500
5428		-91.796875
5429		-95.703125
5430		-85.937500
5431		-89.843750
5432		-83.984375
5433		-87.890625
5434		-80.078125
5435		-82.031250
5436		-74.218750
5437		-76.171875
5438		-68.359375
5439		-74.218750
5440		-66.406250
5441		-70.312500
5442		-60.546875
5443		-64.453125
5444		-54.687500
5445		-60.546875
5446		-50.781250
5447		-54.687500
5448		-46.875000
5449		-52.734375
5450		-42.968750
5451		-44.921875
5452		-39.062500
5453		-41.015625
5454		-33.203125
5455		-37.109375
5456		-27.343750
5457		-31.250000
5458		-23.437500
5459		-27.343750
5460		-17.578125
5461		-23.437500
5462		-13.671875
5463		-19.531250
5464		-9.765625
5465		-13.671875
5466		-3.906250
5467		-9.765625
5468		-1.953125
5469		-3.906250
5470		1.953125
5471		0.000000
5472		7.812500
5473		3.906250
5474		11.718750
5475		9.765625
5476		17.578125
5477		13.671875
5478		21.484375
5479		17.578125
5480		25.390625
5481		21.484375
5482		29.296875
5483		27.343750
5484		33.203125
5485		31.250000
5486		37.109375
5487		35.156250
5488		41.015625
5489		39.062500
5490		46.875000
5491		42.968750
5492		50.781250
5493		46.875000
5494		54.687500
5495		48.828125
5496		58.593750
5497		52.734375
5498		62.500000
5499		58.593750
5500		66.406250
5501		62.500000
5502		68.359375
5503		66.406250
5504		72.265625
5505		70.312500
5506		78.125000
5507		72.265625
5508		80.078125
5509		74.218750
5510		82.031250
5511		80.078125
5512		87.890625
5513		82.031250
5514		91.796875
5515		85.937500
5516		93.750000
5517		87.890625
5518		95.703125
5519		93.750000
5520		97.656250
5521		95.703125
5522		101.562500
5523		97.656250
5524		105.468750
5525		99.609375
5526		109.375000
5527		103.515625
5528		109.375000
5529		105.468750
5530		113.281250
5531		107.421875
5532		115.234375
5533		109.375000
5534		117.187500
5535		113.281250
5536		119.140625
5537		117.187500
5538		121.093750
5539		117.187500
5540		125.000000
5541		119.140625
5542		126.953125
5543		121.093750
5544		128.906250
5545		123.046875
5546		130.859375
5547		125.000000
5548		132.812500
5549		126.953125
5550		134.765625
5551		128.906250
5552		134.765625
5553		130.859375
5554		136.718750
5555		132.812500
5556		136.718750
5557		132.812500
5558		140.625000
5559		134.765625
5560		142.578125
5561		136.718750
5562		142.578125
5563		136.718750
5564		142.578125
5565		136.718750
5566		144.531250
5567		138.671875
5568		144.531250
5569		140.625000
5570		144.531250
5571		140.625000
5572		146.484375
5573		140.625000
5574		146.484375
5575		142.578125
5576		148.437500
5577		142.578125
5578		150.390625
5579		142.578125
5580		150.390625
5581		142.578125
5582		150.390625
5583		144.531250
5584		150.390625
5585		144.531250
5586		148.437500
5587		146.484375
5588		148.437500
5589		144.531250
5590		148.437500
5591		146.484375
5592		148.437500
5593		142.578125
5594		150.390625
5595		142.578125
5596		150.390625
5597		142.578125
5598		148.437500
5599		142.578125
5600		148.437500
5601		142.578125
5602		148.437500
5603		142.578125
5604		146.484375
5605		142.578125
5606		146.484375
5607		140.625000
5608		144.531250
5609		138.671875
5610		144.531250
5611		136.718750
5612		144.531250
5613		136.718750
5614		144.531250
5615		136.718750
5616		142.578125
5617		134.765625
5618		140.625000
5619		134.765625
5620		138.671875
5621		132.812500
5622		136.718750
5623		130.859375
5624		136.718750
5625		128.906250
5626		134.765625
5627		126.953125
5628		132.812500
5629		125.000000
5630		132.812500
5631		123.046875
5632		130.859375
5633		121.093750
5634		126.953125
5635		121.093750
5636		125.000000
5637		117.187500
5638		123.046875
5639		115.234375
5640		121.093750
5641		113.281250
5642		117.187500
5643		111.328125
5644		115.234375
5645		107.421875
5646		115.234375
5647		103.515625
5648		111.328125
5649		101.562500
5650		109.375000
5651		99.609375
5652		107.421875
5653		97.656250
5654		103.515625
5655		93.750000
5656		99.609375
5657		89.843750
5658		97.656250
5659		87.890625
5660		93.750000
5661		83.984375
5662		89.843750
5663		80.078125
5664		87.890625
5665		76.171875
5666		83.984375
5667		74.218750
5668		80.078125
5669		70.312500
5670		76.171875
5671		66.406250
5672		72.265625
5673		62.500000
5674		68.359375
5675		58.593750
5676		66.406250
5677		56.640625
5678		62.500000
5679		50.781250
5680		58.593750
5681		46.875000
5682		54.687500
5683		42.968750
5684		50.781250
5685		39.062500
5686		46.875000
5687		35.156250
5688		41.015625
5689		31.250000
5690		37.109375
5691		27.343750
5692		35.156250
5693		21.484375
5694		29.296875
5695		17.578125
5696		25.390625
5697		13.671875
5698		21.484375
5699		7.812500
5700		17.578125
5701		5.859375
5702		11.718750
5703		0.000000
5704		7.812500
5705		-3.906250
5706		1.953125
5707		-9.765625
5708		-1.953125
5709		-13.671875
5710		-5.859375
5711		-17.578125
5712		-9.765625
5713		-23.437500
5714		-15.625000
5715		-27.343750
5716		-19.531250
5717		-31.250000
5718		-23.437500
5719		-35.156250
5720		-27.343750
5721		-39.062500
5722		-33.203125
5723		-42.968750
5724		-37.109375
5725		-48.828125
5726		-41.015625
5727		-52.734375
5728		-46.875000
5729		-58.593750
5730		-50.781250
5731		-62.500000
5732		-54.687500
5733		-66.406250
5734		-60.546875
5735		-70.312500
5736		-64.453125
5737		-74.218750
5738		-68.359375
5739		-80.078125
5740		-72.265625
5741		-83.984375
5742		-76.171875
5743		-87.890625
5744		-82.031250
5745		-91.796875
5746		-85.937500
5747		-95.703125
5748		-89.843750
5749		-99.609375
5750		-93.750000
5751		-105.468750
5752		-97.656250
5753		-107.421875
5754		-101.562500
5755		-111.328125
5756		-105.468750
5757		-115.234375
5758		-109.375000
5759		-119.140625
5760		-113.281250
5761		-123.046875
5762		-117.187500
5763		-126.953125
5764		-121.093750
5765		-130.859375
5766		-125.000000
5767		-132.812500
5768		-128.906250
5769		-136.718750
5770		-130.859375
5771		-140.625000
5772		-134.765625
5773		-142.578125
5774		-138.671875
5775		-146.484375
5776		-140.625000
5777		-148.437500
5778		-144.531250
5779		-152.343750
5780		-146.484375
5781		-154.296875
5782		-150.390625
5783		-158.203125
5784		-152.343750
5785		-160.156250
5786		-156.250000
5787		-162.109375
5788		-158.203125
5789		-164.062500
5790		-160.156250
5791		-167.968750
5792		-162.109375
5793		-169.921875
5794		-164.062500
5795		-171.875000
5796		-167.968750
5797		-171.875000
5798		-167.968750
5799		-173.828125
5800		-169.921875
5801		-175.781250
5802		-171.875000
5803		-177.734375
5804		-173.828125
5805		-179.687500
5806		-175.781250
5807		-181.640625
5808		-177.734375
5809		-181.640625
5810		-177.734375
5811		-181.640625
5812		-177.734375
5813		-183.593750
5814		-179.687500
5815		-183.593750
5816		-179.687500
5817		-183.593750
5818		-181.640625
5819		-185.546875
5820		-181.640625
5821		-185.546875
5822		-181.640625
5823		-185.546875
5824		-181.640625
5825		-187.500000
5826		-179.687500
5827		-187.500000
5828		-177.734375
5829		-187.500000
5830		-179.687500
5831		-183.593750
5832		-181.640625
5833		-183.593750
5834		-179.687500
5835		-183.593750
5836		-179.687500
5837		-181.640625
5838		-179.687500
5839		-181.640625
5840		-177.734375
5841		-183.593750
5842		-173.828125
5843		-181.640625
5844		-171.875000
5845		-179.687500
5846		-171.875000
5847		-175.781250
5848		-171.875000
5849		-173.828125
5850		-169.921875
5851		-171.875000
5852		-167.968750
5853		-169.921875
5854		-166.015625
5855		-167.968750
5856		-164.062500
5857		-167.968750
5858		-158.203125
5859		-166.015625
5860		-156.250000
5861		-164.062500
5862		-154.296875
5863		-162.109375
5864		-152.343750
5865		-156.250000
5866		-150.390625
5867		-154.296875
5868		-148.437500
5869		-150.390625
5870		-146.484375
5871		-148.437500
5872		-142.578125
5873		-144.531250
5874		-138.671875
5875		-144.531250
5876		-134.765625
5877		-140.625000
5878		-130.859375
5879		-136.718750
5880		-126.953125
5881		-130.859375
5882		-125.000000
5883		-126.953125
5884		-121.093750
5885		-123.046875
5886		-117.187500
5887		-119.140625
5888		-113.281250
5889		-115.234375
5890		-109.375000
5891		-113.281250
5892		-103.515625
5893		-109.375000
5894		-99.609375
5895		-107.421875
5896		-95.703125
5897		-99.609375
5898		-93.750000
5899		-95.703125
5900		-89.843750
5901		-91.796875
5902		-85.937500
5903		-87.890625
5904		-80.078125
5905		-82.031250
5906		-76.171875
5907		-78.125000
5908		-72.265625
5909		-76.171875
5910		-64.453125
5911		-72.265625
5912		-58.593750
5913		-66.406250
5914		-58.593750
5915		-60.546875
5916		-54.687500
5917		-54.687500
5918		-48.828125
5919		-50.781250
5920		-44.921875
5921		-46.875000
5922		-39.062500
5923		-41.015625
5924		-35.156250
5925		-37.109375
5926		-27.343750
5927		-33.203125
5928		-23.437500
5929		-29.296875
5930		-19.531250
5931		-23.437500
5932		-17.578125
5933		-17.578125
5934		-11.718750
5935		-13.671875
5936		-7.812500
5937		-9.765625
5938		-3.906250
5939		-5.859375
5940		0.000000
5941		0.000000
5942		7.812500
5943		1.953125
5944		11.718750
5945		5.859375
5946		17.578125
5947		11.718750
5948		19.531250
5949		17.578125
5950		23.437500
5951		21.484375
5952		27.343750
5953		25.390625
5954		31.250000
5955		29.296875
5956		35.156250
5957		33.203125
5958		39.062500
5959		37.109375
5960		44.921875
5961		41.015625
5962		48.828125
5963		44.921875
5964		52.734375
5965		50.781250
5966		56.640625
5967		54.687500
5968		60.546875
5969		58.593750
5970		64.453125
5971		62.500000
5972		66.406250
5973		64.453125
5974		70.312500
5975		68.359375
5976		78.125000
5977		70.312500
5978		80.078125
5979		72.265625
5980		83.984375
5981		78.125000
5982		83.984375
5983		82.031250
5984		87.890625
5985		85.937500
5986		91.796875
5987		89.843750
5988		93.750000
5989		91.796875
5990		97.656250
5991		95.703125
5992		99.609375
5993		95.703125
5994		105.468750
5995		97.656250
5996		107.421875
5997		101.562500
5998		109.375000
5999		105.468750
6000		111.328125
6001		109.375000
6002		113.281250
6003		111.328125
6004		115.234375
6005		113.281250
6006		119.140625
6007		115.234375
6008		121.093750
6009		119.140625
6010		123.046875
6011		119.140625
6012		126.953125
6013		123.046875
6014		126.953125
6015		125.000000
6016		128.906250
6017		126.953125
6018		130.859375
6019		128.906250
6020		132.812500
6021		130.859375
6022		134.765625
6023		130.859375
6024		134.765625
6025		132.812500
6026		136.718750
6027		132.812500
6028		138.671875
6029		134.765625
6030		140.625000
6031		136.718750
6032		140.625000
6033		138.671875
6034		142.578125
6035		138.671875
6036		142.578125
6037		140.625000
6038		144.531250
6039		140.625000
6040		144.531250
6041		142.578125
6042		144.531250
6043		142.578125
6044		146.484375
6045		142.578125
6046		148.437500
6047		142.578125
6048		148.437500
6049		144.531250
6050		148.437500
6051		144.531250
6052		148.437500
6053		144.531250
6054		148.437500
6055		144.531250
6056		148.437500
6057		144.531250
6058		148.437500
6059		144.531250
6060		148.437500
6061		146.484375
6062		148.437500
6063		144.531250
6064		148.437500
6065		144.531250
6066		148.437500
6067		144.531250
6068		148.437500
6069		144.531250
6070		146.484375
6071		142.578125
6072		146.484375
6073		142.578125
6074		146.484375
6075		142.578125
6076		146.484375
6077		142.578125
6078		146.484375
6079		140.625000
6080		144.531250
6081		140.625000
6082		142.578125
6083		138.671875
6084		142.578125
6085		138.671875
6086		140.625000
6087		136.718750
6088		140.625000
6089		134.765625
6090		138.671875
6091		134.765625
6092		136.718750
6093		132.812500
6094		136.718750
6095		130.859375
6096		134.765625
6097		128.906250
6098		132.812500
6099		126.953125
6100		130.859375
6101		125.000000
6102		130.859375
6103		123.046875
6104		126.953125
6105		121.093750
6106		126.953125
6107		119.140625
6108		123.046875
6109		115.234375
6110		121.093750
6111		115.234375
6112		119.140625
6113		113.281250
6114		117.187500
6115		109.375000
6116		113.281250
6117		107.421875
6118		111.328125
6119		103.515625
6120		109.375000
6121		101.562500
6122		107.421875
6123		99.609375
6124		103.515625
6125		95.703125
6126		101.562500
6127		93.750000
6128		99.609375
6129		89.843750
6130		95.703125
6131		85.937500
6132		91.796875
6133		83.984375
6134		87.890625
6135		80.078125
6136		85.937500
6137		76.171875
6138		82.031250
6139		72.265625
6140		78.125000
6141		68.359375
6142		74.218750
6143		64.453125
6144		70.312500
6145		60.546875
6146		66.406250
6147		56.640625
6148		62.500000
6149		52.734375
6150		60.546875
6151		48.828125
6152		56.640625
6153		44.921875
6154		50.781250
6155		41.015625
6156		48.828125
6157		37.109375
6158		42.968750
6159		33.203125
6160		39.062500
6161		29.296875
6162		35.156250
6163		25.390625
6164		31.250000
6165		21.484375
6166		27.343750
6167		15.625000
6168		21.484375
6169		11.718750
6170		19.531250
6171		7.812500
6172		13.671875
6173		1.953125
6174		9.765625
6175		-1.953125
6176		3.906250
6177		-5.859375
6178		0.000000
6179		-9.765625
6180		-3.906250
6181		-15.625000
6182		-7.812500
6183		-19.531250
6184		-13.671875
6185		-23.437500
6186		-17.578125
6187		-29.296875
6188		-21.484375
6189		-33.203125
6190		-25.390625
6191		-37.109375
6192		-31.250000
6193		-42.968750
6194		-35.156250
6195		-46.875000
6196		-39.062500
6197		-50.781250
6198		-44.921875
6199		-54.687500
6200		-48.828125
6201		-60.546875
6202		-52.734375
6203		-64.453125
6204		-56.640625
6205		-68.359375
6206		-62.500000
6207		-74.218750
6208		-66.406250
6209		-78.125000
6210		-72.265625
6211		-82.031250
6212		-74.218750
6213		-85.937500
6214		-80.078125
6215		-89.843750
6216		-83.984375
6217		-95.703125
6218		-87.890625
6219		-99.609375
6220		-91.796875
6221		-101.562500
6222		-95.703125
6223		-107.421875
6224		-101.562500
6225		-109.375000
6226		-105.468750
6227		-115.234375
6228		-109.375000
6229		-119.140625
6230		-111.328125
6231		-121.093750
6232		-115.234375
6233		-126.953125
6234		-119.140625
6235		-128.906250
6236		-123.046875
6237		-132.812500
6238		-126.953125
6239		-136.718750
6240		-130.859375
6241		-138.671875
6242		-132.812500
6243		-142.578125
6244		-136.718750
6245		-146.484375
6246		-138.671875
6247		-148.437500
6248		-142.578125
6249		-150.390625
6250		-146.484375
6251		-154.296875
6252		-148.437500
6253		-156.250000
6254		-150.390625
6255		-160.156250
6256		-154.296875
6257		-162.109375
6258		-156.250000
6259		-164.062500
6260		-160.156250
6261		-167.968750
6262		-162.109375
6263		-167.968750
6264		-164.062500
6265		-169.921875
6266		-166.015625
6267		-173.828125
6268		-167.968750
6269		-173.828125
6270		-169.921875
6271		-175.781250
6272		-171.875000
6273		-177.734375
6274		-173.828125
6275		-177.734375
6276		-175.781250
6277		-181.640625
6278		-175.781250
6279		-181.640625
6280		-177.734375
6281		-181.640625
6282		-179.687500
6283		-183.593750
6284		-179.687500
6285		-183.593750
6286		-179.687500
6287		-183.593750
6288		-181.640625
6289		-185.546875
6290		-181.640625
6291		-185.546875
6292		-181.640625
6293		-185.546875
6294		-181.640625
6295		-185.546875
6296		-181.640625
6297		-185.546875
6298		-181.640625
6299		-185.546875
6300		-181.640625
6301		-185.546875
6302		-181.640625
6303		-183.593750
6304		-181.640625
6305		-183.593750
6306		-179.687500
6307		-183.593750
6308		-179.687500
6309		-181.640625
6310		-179.687500
6311		-181.640625
6312		-177.734375
6313		-179.687500
6314		-175.781250
6315		-177.734375
6316		-175.781250
6317		-177.734375
6318		-173.828125
6319		-175.781250
6320		-171.875000
6321		-173.828125
6322		-169.921875
6323		-171.875000
6324		-167.968750
6325		-169.921875
6326		-166.015625
6327		-167.968750
6328		-164.062500
6329		-166.015625
6330		-162.109375
6331		-164.062500
6332		-160.156250
6333		-162.109375
6334		-156.250000
6335		-160.156250
6336		-154.296875
6337		-156.250000
6338		-152.343750
6339		-154.296875
6340		-148.437500
6341		-150.390625
6342		-146.484375
6343		-148.437500
6344		-142.578125
6345		-144.531250
6346		-138.671875
6347		-140.625000
6348		-136.718750
6349		-138.671875
6350		-132.812500
6351		-134.765625
6352		-128.906250
6353		-130.859375
6354		-125.000000
6355		-126.953125
6356		-121.093750
6357		-123.046875
6358		-117.187500
6359		-119.140625
6360		-113.281250
6361		-115.234375
6362		-109.375000
6363		-111.328125
6364		-105.468750
6365		-107.421875
6366		-101.562500
6367		-103.515625
6368		-97.656250
6369		-99.609375
6370		-93.750000
6371		-95.703125
6372		-87.890625
6373		-89.843750
6374		-83.984375
6375		-85.937500
6376		-80.078125
6377		-82.031250
6378		-76.171875
6379		-78.125000
6380		-72.265625
6381		-72.265625
6382		-66.406250
6383		-68.359375
6384		-62.500000
6385		-64.453125
6386		-58.593750
6387		-60.546875
6388		-52.734375
6389		-54.687500
6390		-48.828125
6391		-50.781250
6392		-42.968750
6393		-44.921875
6394		-39.062500
6395		-41.015625
6396		-35.156250
6397		-37.109375
6398		-29.296875
6399		-31.250000
6400		-25.390625
6401		-27.343750
6402		-21.484375
6403		-23.437500
6404		-15.625000
6405		-17.578125
6406		-11.718750
6407		-13.671875
6408		-5.859375
6409		-9.765625
6410		-1.953125
6411		-3.906250
6412		1.953125
6413		0.000000
6414		5.859375
6415		3.906250
6416		9.765625
6417		9.765625
6418		15.625000
6419		13.671875
6420		19.531250
6421		17.578125
6422		23.437500
6423		21.484375
6424		29.296875
6425		25.390625
6426		33.203125
6427		31.250000
6428		37.109375
6429		35.156250
6430		41.015625
6431		39.062500
6432		44.921875
6433		42.968750
6434		48.828125
6435		46.875000
6436		52.734375
6437		50.781250
6438		56.640625
6439		54.687500
6440		60.546875
6441		58.593750
6442		64.453125
6443		62.500000
6444		68.359375
6445		66.406250
6446		72.265625
6447		68.359375
6448		76.171875
6449		72.265625
6450		78.125000
6451		76.171875
6452		82.031250
6453		80.078125
6454		83.984375
6455		82.031250
6456		87.890625
6457		85.937500
6458		91.796875
6459		89.843750
6460		93.750000
6461		91.796875
6462		97.656250
6463		93.750000
6464		99.609375
6465		97.656250
6466		103.515625
6467		101.562500
6468		105.468750
6469		103.515625
6470		107.421875
6471		105.468750
6472		111.328125
6473		109.375000
6474		113.281250
6475		111.328125
6476		115.234375
6477		113.281250
6478		117.187500
6479		115.234375
6480		121.093750
6481		117.187500
6482		123.046875
6483		119.140625
6484		125.000000
6485		123.046875
6486		126.953125
6487		123.046875
6488		128.906250
6489		126.953125
6490		130.859375
6491		128.906250
6492		132.812500
6493		128.906250
6494		134.765625
6495		130.859375
6496		134.765625
6497		130.859375
6498		138.671875
6499		132.812500
6500		138.671875
6501		136.718750
6502		140.625000
6503		136.718750
6504		140.625000
6505		138.671875
6506		142.578125
6507		138.671875
6508		142.578125
6509		140.625000
6510		144.531250
6511		140.625000
6512		144.531250
6513		140.625000
6514		146.484375
6515		142.578125
6516		146.484375
6517		142.578125
6518		146.484375
6519		144.531250
6520		148.437500
6521		144.531250
6522		148.437500
6523		144.531250
6524		148.437500
6525		144.531250
6526		148.437500
6527		144.531250
6528		148.437500
6529		144.531250
6530		150.390625
6531		144.531250
6532		150.390625
6533		144.531250
6534		150.390625
6535		144.531250
6536		148.437500
6537		144.531250
6538		148.437500
6539		144.531250
6540		148.437500
6541		144.531250
6542		146.484375
6543		142.578125
6544		146.484375
6545		142.578125
6546		146.484375
6547		140.625000
6548		146.484375
6549		140.625000
6550		146.484375
6551		140.625000
6552		144.531250
6553		138.671875
6554		142.578125
6555		138.671875
6556		142.578125
6557		136.718750
6558		140.625000
6559		136.718750
6560		140.625000
6561		134.765625
6562		138.671875
6563		132.812500
6564		138.671875
6565		130.859375
6566		136.718750
6567		130.859375
6568		134.765625
6569		128.906250
6570		132.812500
6571		126.953125
6572		130.859375
6573		125.000000
6574		128.906250
6575		123.046875
6576		126.953125
6577		121.093750
6578		125.000000
6579		119.140625
6580		123.046875
6581		115.234375
6582		123.046875
6583		113.281250
6584		119.140625
6585		111.328125
6586		115.234375
6587		109.375000
6588		113.281250
6589		105.468750
6590		111.328125
6591		103.515625
6592		107.421875
6593		99.609375
6594		105.468750
6595		97.656250
6596		103.515625
6597		93.750000
6598		99.609375
6599		91.796875
6600		97.656250
6601		87.890625
6602		93.750000
6603		85.937500
6604		89.843750
6605		82.031250
6606		87.890625
6607		78.125000
6608		83.984375
6609		74.218750
6610		80.078125
6611		72.265625
6612		76.171875
6613		66.406250
6614		74.218750
6615		62.500000
6616		70.312500
6617		60.546875
6618		66.406250
6619		56.640625
6620		62.500000
6621		52.734375
6622		58.593750
6623		48.828125
6624		54.687500
6625		44.921875
6626		50.781250
6627		41.015625
6628		46.875000
6629		35.156250
6630		42.968750
6631		31.250000
6632		37.109375
6633		27.343750
6634		33.203125
6635		23.437500
6636		29.296875
6637		19.531250
6638		25.390625
6639		15.625000
6640		21.484375
6641		9.765625
6642		15.625000
6643		5.859375
6644		11.718750
6645		1.953125
6646		7.812500
6647		-3.906250
6648		3.906250
6649		-7.812500
6650		-1.953125
6651		-11.718750
6652		-5.859375
6653		-17.578125
6654		-9.765625
6655		-21.484375
6656		-13.671875
6657		-25.390625
6658		-19.531250
6659		-29.296875
6660		-23.437500
6661		-35.156250
6662		-27.343750
6663		-39.062500
6664		-33.203125
6665		-42.968750
6666		-37.109375
6667		-48.828125
6668		-41.015625
6669		-52.734375
6670		-46.875000
6671		-56.640625
6672		-50.781250
6673		-60.546875
6674		-54.687500
6675		-66.406250
6676		-58.593750
6677		-70.312500
6678		-64.453125
6679		-74.218750
6680		-68.359375
6681		-78.125000
6682		-72.265625
6683		-83.984375
6684		-76.171875
6685		-87.890625
6686		-80.078125
6687		-91.796875
6688		-85.937500
6689		-95.703125
6690		-89.843750
6691		-99.609375
6692		-93.750000
6693		-103.515625
6694		-97.656250
6695		-107.421875
6696		-101.562500
6697		-111.328125
6698		-105.468750
6699		-115.234375
6700		-109.375000
6701		-119.140625
6702		-113.281250
6703		-123.046875
6704		-117.187500
6705		-126.953125
6706		-121.093750
6707		-130.859375
6708		-125.000000
6709		-134.765625
6710		-128.906250
6711		-138.671875
6712		-132.812500
6713		-140.625000
6714		-134.765625
6715		-144.531250
6716		-138.671875
6717		-146.484375
6718		-142.578125
6719		-150.390625
6720		-144.531250
6721		-152.343750
6722		-148.437500
6723		-156.250000
6724		-150.390625
6725		-158.203125
6726		-154.296875
6727		-162.109375
6728		-156.250000
6729		-164.062500
6730		-158.203125
6731		-166.015625
6732		-162.109375
6733		-167.968750
6734		-164.062500
6735		-169.921875
6736		-166.015625
6737		-171.875000
6738		-167.968750
6739		-173.828125
6740		-169.921875
6741		-175.781250
6742		-171.875000
6743		-177.734375
6744		-173.828125
6745		-179.687500
6746		-173.828125
6747		-179.687500
6748		-177.734375
6749		-181.640625
6750		-177.734375
6751		-181.640625
6752		-179.687500
6753		-183.593750
6754		-179.687500
6755		-183.593750
6756		-181.640625
6757		-185.546875
6758		-181.640625
6759		-185.546875
6760		-181.640625
6761		-185.546875
6762		-183.593750
6763		-185.546875
6764		-183.593750
6765		-185.546875
6766		-183.593750
6767		-185.546875
6768		-183.593750
6769		-185.546875
6770		-183.593750
6771		-185.546875
6772		-183.593750
6773		-185.546875
6774		-181.640625
6775		-185.546875
6776		-181.640625
6777		-183.593750
6778		-179.687500
6779		-183.593750
6780		-179.687500
6781		-181.640625
6782		-177.734375
6783		-181.640625
6784		-177.734375
6785		-179.687500
6786		-175.781250
6787		-177.734375
6788		-173.828125
6789		-177.734375
6790		-173.828125
6791		-175.781250
6792		-171.875000
6793		-173.828125
6794		-169.921875
6795		-171.875000
6796		-167.968750
6797		-169.921875
6798		-166.015625
6799		-167.968750
6800		-164.062500
6801		-166.015625
6802		-160.156250
6803		-162.109375
6804		-158.203125
6805		-160.156250
6806		-154.296875
6807		-158.203125
6808		-152.343750
6809		-154.296875
6810		-150.390625
6811		-152.343750
6812		-146.484375
6813		-148.437500
6814		-144.531250
6815		-146.484375
6816		-140.625000
6817		-142.578125
6818		-136.718750
6819		-140.625000
6820		-132.812500
6821		-134.765625
6822		-130.859375
6823		-132.812500
6824		-126.953125
6825		-128.906250
6826		-123.046875
6827		-125.000000
6828		-119.140625
6829		-121.093750
6830		-115.234375
6831		-117.187500
6832		-111.328125
6833		-113.281250
6834		-107.421875
6835		-109.375000
6836		-103.515625
6837		-105.468750
6838		-99.609375
6839		-101.562500
6840		-93.750000
6841		-97.656250
6842		-91.796875
6843		-93.750000
6844		-85.937500
6845		-87.890625
6846		-82.031250
6847		-83.984375
6848		-78.125000
6849		-80.078125
6850		-74.218750
6851		-74.218750
6852		-68.359375
6853		-70.312500
6854		-64.453125
6855		-66.406250
6856		-58.593750
6857		-60.546875
6858		-54.687500
6859		-56.640625
6860		-50.781250
6861		-52.734375
6862		-46.875000
6863		-46.875000
6864		-41.015625
6865		-42.968750
6866		-37.109375
6867		-39.062500
6868		-31.250000
6869		-33.203125
6870		-27.343750
6871		-29.296875
6872		-23.437500
6873		-25.390625
6874		-17.578125
6875		-19.531250
6876		-13.671875
6877		-15.625000
6878		-7.812500
6879		-9.765625
6880		-3.906250
6881		-5.859375
6882		0.000000
6883		-1.953125
6884		3.906250
6885		1.953125
6886		9.765625
6887		7.812500
6888		13.671875
6889		11.718750
6890		17.578125
6891		15.625000
6892		21.484375
6893		19.531250
6894		25.390625
6895		23.437500
6896		31.250000
6897		29.296875
6898		35.156250
6899		33.203125
6900		39.062500
6901		37.109375
6902		42.968750
6903		41.015625
6904		46.875000
6905		44.921875
6906		50.781250
6907		48.828125
6908		54.687500
6909		52.734375
6910		58.593750
6911		56.640625
6912		62.500000
6913		60.546875
6914		66.406250
6915		64.453125
6916		70.312500
6917		68.359375
6918		72.265625
6919		72.265625
6920		76.171875
6921		74.218750
6922		80.078125
6923		78.125000
6924		83.984375
6925		82.031250
6926		87.890625
6927		83.984375
6928		89.843750
6929		87.890625
6930		93.750000
6931		91.796875
6932		95.703125
6933		93.750000
6934		99.609375
6935		97.656250
6936		101.562500
6937		99.609375
6938		105.468750
6939		103.515625
6940		107.421875
6941		105.468750
6942		109.375000
6943		107.421875
6944		113.281250
6945		111.328125
6946		115.234375
6947		113.281250
6948		117.187500
6949		115.234375
6950		119.140625
6951		117.187500
6952		121.093750
6953		119.140625
6954		123.046875
6955		121.093750
6956		126.953125
6957		125.000000
6958		128.906250
6959		125.000000
6960		128.906250
6961		126.953125
6962		130.859375
6963		128.906250
6964		132.812500
6965		130.859375
6966		134.765625
6967		132.812500
6968		136.718750
6969		134.765625
6970		138.671875
6971		134.765625
6972		138.671875
6973		136.718750
6974		140.625000
6975		138.671875
6976		140.625000
6977		138.671875
6978		142.578125
6979		140.625000
6980		144.531250
6981		140.625000
6982		144.531250
6983		142.578125
6984		144.531250
6985		142.578125
6986		146.484375
6987		142.578125
6988		146.484375
6989		144.531250
6990		146.484375
6991		144.531250
6992		148.437500
6993		144.531250
6994		148.437500
6995		144.531250
6996		148.437500
6997		144.531250
6998		148.437500
6999		144.531250
7000		150.390625
7001		146.484375
7002		148.437500
7003		144.531250
7004		148.437500
7005		144.531250
7006		148.437500
7007		146.484375
7008		148.437500
7009		144.531250
7010		148.437500
7011		144.531250
7012		148.437500
7013		144.531250
7014		146.484375
7015		142.578125
7016		146.484375
7017		142.578125
7018		146.484375
7019		142.578125
7020		144.531250
7021		142.578125
7022		144.531250
7023		140.625000
7024		144.531250
7025		138.671875
7026		142.578125
7027		138.671875
7028		142.578125
7029		136.718750
7030		140.625000
7031		136.718750
7032		140.625000
7033		134.765625
7034		138.671875
7035		132.812500
7036		136.718750
7037		130.859375
7038		134.765625
7039		130.859375
7040		134.765625
7041		128.906250
7042		132.812500
7043		126.953125
7044		130.859375
7045		125.000000
7046		128.906250
7047		123.046875
7048		126.953125
7049		121.093750
7050		125.000000
7051		119.140625
7052		123.046875
7053		115.234375
7054		121.093750
7055		113.281250
7056		119.140625
7057		111.328125
7058		115.234375
7059		109.375000
7060		113.281250
7061		105.468750
7062		111.328125
7063		103.515625
7064		107.421875
7065		99.609375
7066		105.468750
7067		97.656250
7068		103.515625
7069		95.703125
7070		99.609375
7071		91.796875
7072		95.703125
7073		87.890625
7074		93.750000
7075		85.937500
7076		89.843750
7077		82.031250
7078		87.890625
7079		78.125000
7080		83.984375
7081		74.218750
7082		80.078125
7083		72.265625
7084		76.171875
7085		68.359375
7086		72.265625
7087		64.453125
7088		68.359375
7089		60.546875
7090		66.406250
7091		56.640625
7092		62.500000
7093		52.734375
7094		58.593750
7095		48.828125
7096		54.687500
7097		42.968750
7098		50.781250
7099		41.015625
7100		46.875000
7101		35.156250
7102		42.968750
7103		31.250000
7104		37.109375
7105		27.343750
7106		33.203125
7107		23.437500
7108		29.296875
7109		19.531250
7110		25.390625
7111		13.671875
7112		21.484375
7113		9.765625
7114		15.625000
7115		5.859375
7116		11.718750
7117		1.953125
7118		7.812500
7119		-3.906250
7120		1.953125
7121		-7.812500
7122		-1.953125
7123		-11.718750
7124		-5.859375
7125		-17.578125
7126		-9.765625
7127		-21.484375
7128		-15.625000
7129		-25.390625
7130		-19.531250
7131		-31.250000
7132		-23.437500
7133		-35.156250
7134		-29.296875
7135		-39.062500
7136		-33.203125
7137		-44.921875
7138		-37.109375
7139		-48.828125
7140		-42.968750
7141		-52.734375
7142		-46.875000
7143		-56.640625
7144		-50.781250
7145		-62.500000
7146		-54.687500
7147		-66.406250
7148		-60.546875
7149		-70.312500
7150		-64.453125
7151		-74.218750
7152		-68.359375
7153		-78.125000
7154		-72.265625
7155		-83.984375
7156		-78.125000
7157		-87.890625
7158		-82.031250
7159		-91.796875
7160		-85.937500
7161		-95.703125
7162		-89.843750
7163		-99.609375
7164		-93.750000
7165		-103.515625
7166		-97.656250
7167		-107.421875
7168		-101.562500
7169		-111.328125
7170		-105.468750
7171		-115.234375
7172		-109.375000
7173		-119.140625
7174		-113.281250
7175		-123.046875
7176		-117.187500
7177		-126.953125
7178		-121.093750
7179		-130.859375
7180		-125.000000
7181		-134.765625
7182		-128.906250
7183		-136.718750
7184		-130.859375
7185		-140.625000
7186		-134.765625
7187		-142.578125
7188		-138.671875
7189		-146.484375
7190		-142.578125
7191		-148.437500
7192		-144.531250
7193		-152.343750
7194		-146.484375
7195		-154.296875
7196		-150.390625
7197		-158.203125
7198		-152.343750
7199		-160.156250
7200		-156.250000
7201		-164.062500
7202		-158.203125
7203		-166.015625
7204		-160.156250
7205		-167.968750
7206		-162.109375
7207		-169.921875
7208		-166.015625
7209		-169.921875
7210		-167.968750
7211		-173.828125
7212		-169.921875
7213		-175.781250
7214		-169.921875
7215		-175.781250
7216		-171.875000
7217		-177.734375
7218		-173.828125
7219		-179.687500
7220		-175.781250
7221		-179.687500
7222		-175.781250
7223		-181.640625
7224		-177.734375
7225		-181.640625
7226		-177.734375
7227		-183.593750
7228		-179.687500
7229		-183.593750
7230		-179.687500
7231		-183.593750
7232		-181.640625
7233		-183.593750
7234		-181.640625
7235		-185.546875
7236		-181.640625
7237		-185.546875
7238		-181.640625
7239		-185.546875
7240		-181.640625
7241		-185.546875
7242		-181.640625
7243		-183.593750
7244		-181.640625
7245		-183.593750
7246		-179.687500
7247		-183.593750
7248		-179.687500
7249		-181.640625
7250		-179.687500
7251		-181.640625
7252		-177.734375
7253		-179.687500
7254		-177.734375
7255		-179.687500
7256		-175.781250
7257		-177.734375
7258		-173.828125
7259		-177.734375
7260		-173.828125
7261		-175.781250
7262		-171.875000
7263		-173.828125
7264		-169.921875
7265		-171.875000
7266		-167.968750
7267		-169.921875
7268		-166.015625
7269		-167.968750
7270		-164.062500
7271		-166.015625
7272		-160.156250
7273		-164.062500
7274		-158.203125
7275		-160.156250
7276		-156.250000
7277		-158.203125
7278		-154.296875
7279		-156.250000
7280		-150.390625
7281		-152.343750
7282		-148.437500
7283		-150.390625
7284		-144.531250
7285		-146.484375
7286		-142.578125
7287		-144.531250
7288		-138.671875
7289		-140.625000
7290		-134.765625
7291		-136.718750
7292		-132.812500
7293		-134.765625
7294		-128.906250
7295		-130.859375
7296		-125.000000
7297		-126.953125
7298		-121.093750
7299		-123.046875
7300		-117.187500
7301		-119.140625
7302		-113.281250
7303		-115.234375
7304		-109.375000
7305		-111.328125
7306		-105.468750
7307		-107.421875
7308		-101.562500
7309		-103.515625
7310		-97.656250
7311		-99.609375
7312		-93.750000
7313		-95.703125
7314		-89.843750
7315		-89.843750
7316		-83.984375
7317		-85.937500
7318		-80.078125
7319		-82.031250
7320		-74.218750
7321		-76.171875
7322		-70.312500
7323		-72.265625
7324		-66.406250
7325		-68.359375
7326		-62.500000
7327		-64.453125
7328		-56.640625
7329		-58.593750
7330		-52.734375
7331		-54.687500
7332		-48.828125
7333		-50.781250
7334		-42.968750
7335		-44.921875
7336		-39.062500
7337		-41.015625
7338		-35.156250
7339		-37.109375
7340		-29.296875
7341		-31.250000
7342		-25.390625
7343		-27.343750
7344		-19.531250
7345		-21.484375
7346		-15.625000
7347		-17.578125
7348		-11.718750
7349		-13.671875
7350		-5.859375
7351		-7.812500
7352		-1.953125
7353		-3.906250
7354		1.953125
7355		0.000000
7356		7.812500
7357		5.859375
7358		11.718750
7359		9.765625
7360		15.625000
7361		13.671875
7362		19.531250
7363		17.578125
7364		23.437500
7365		21.484375
7366		27.343750
7367		25.390625
7368		33.203125
7369		31.250000
7370		37.109375
7371		35.156250
7372		41.015625
7373		39.062500
7374		44.921875
7375		42.968750
7376		48.828125
7377		46.875000
7378		52.734375
7379		50.781250
7380		56.640625
7381		54.687500
7382		60.546875
7383		58.593750
7384		64.453125
7385		62.500000
7386		68.359375
7387		64.453125
7388		72.265625
7389		70.312500
7390		74.218750
7391		72.265625
7392		78.125000
7393		76.171875
7394		82.031250
7395		80.078125
7396		85.937500
7397		82.031250
7398		87.890625
7399		85.937500
7400		91.796875
7401		89.843750
7402		95.703125
7403		91.796875
7404		97.656250
7405		95.703125
7406		99.609375
7407		97.656250
7408		103.515625
7409		101.562500
7410		105.468750
7411		103.515625
7412		107.421875
7413		105.468750
7414		111.328125
7415		109.375000
7416		113.281250
7417		111.328125
7418		115.234375
7419		113.281250
7420		119.140625
7421		117.187500
7422		121.093750
7423		119.140625
7424		123.046875
7425		121.093750
7426		125.000000
7427		123.046875
7428		126.953125
7429		125.000000
7430		128.906250
7431		126.953125
7432		130.859375
7433		128.906250
7434		132.812500
7435		130.859375
7436		132.812500
7437		130.859375
7438		134.765625
7439		132.812500
7440		136.718750
7441		134.765625
7442		138.671875
7443		134.765625
7444		138.671875
7445		136.718750
7446		140.625000
7447		138.671875
7448		142.578125
7449		138.671875
7450		142.578125
7451		140.625000
7452		144.531250
7453		140.625000
7454		144.531250
7455		140.625000
7456		146.484375
7457		142.578125
7458		146.484375
7459		142.578125
7460		146.484375
7461		144.531250
7462		146.484375
7463		144.531250
7464		148.437500
7465		144.531250
7466		148.437500
7467		144.531250
7468		148.437500
7469		144.531250
7470		148.437500
7471		144.531250
7472		148.437500
7473		144.531250
7474		148.437500
7475		142.578125
7476		148.437500
7477		144.531250
7478		148.437500
7479		142.578125
7480		150.390625
7481		144.531250
7482		148.437500
7483		144.531250
7484		148.437500
7485		142.578125
7486		146.484375
7487		142.578125
7488		146.484375
7489		142.578125
7490		144.531250
7491		140.625000
7492		144.531250
7493		138.671875
7494		144.531250
7495		138.671875
7496		142.578125
7497		136.718750
7498		142.578125
7499		134.765625
7500		142.578125
7501		136.718750
7502		138.671875
7503		134.765625
7504		138.671875
7505		132.812500
7506		136.718750
7507		130.859375
7508		134.765625
7509		128.906250
7510		132.812500
7511		128.906250
7512		132.812500
7513		126.953125
7514		130.859375
7515		125.000000
7516		128.906250
7517		121.093750
7518		128.906250
7519		119.140625
7520		125.000000
7521		117.187500
7522		123.046875
7523		115.234375
7524		121.093750
7525		111.328125
7526		117.187500
7527		109.375000
7528		115.234375
7529		107.421875
7530		113.281250
7531		105.468750
7532		111.328125
7533		101.562500
7534		107.421875
7535		99.609375
7536		105.468750
7537		97.656250
7538		101.562500
7539		93.750000
7540		99.609375
7541		89.843750
7542		97.656250
7543		87.890625
7544		93.750000
7545		83.984375
7546		89.843750
7547		80.078125
7548		85.937500
7549		78.125000
7550		82.031250
7551		74.218750
7552		82.031250
7553		70.312500
7554		76.171875
7555		66.406250
7556		72.265625
7557		60.546875
7558		70.312500
7559		58.593750
7560		64.453125
7561		54.687500
7562		60.546875
7563		48.828125
7564		58.593750
7565		46.875000
7566		56.640625
7567		42.968750
7568		48.828125
7569		39.062500
7570		44.921875
7571		35.156250
7572		41.015625
7573		29.296875
7574		37.109375
7575		25.390625
7576		33.203125
7577		21.484375
7578		29.296875
7579		17.578125
7580		25.390625
7581		11.718750
7582		21.484375
7583		7.812500
7584		15.625000
7585		5.859375
7586		11.718750
7587		0.000000
7588		5.859375
7589		-3.906250
7590		1.953125
7591		-9.765625
7592		0.000000
7593		-13.671875
7594		-5.859375
7595		-17.578125
7596		-11.718750
7597		-23.437500
7598		-15.625000
7599		-27.343750
7600		-17.578125
7601		-31.250000
7602		-23.437500
7603		-35.156250
7604		-29.296875
7605		-42.968750
7606		-33.203125
7607		-46.875000
7608		-37.109375
7609		-50.781250
7610		-41.015625
7611		-52.734375
7612		-46.875000
7613		-58.593750
7614		-52.734375
7615		-64.453125
7616		-54.687500
7617		-68.359375
7618		-60.546875
7619		-70.312500
7620		-64.453125
7621		-76.171875
7622		-70.312500
7623		-80.078125
7624		-74.218750
7625		-83.984375
7626		-76.171875
7627		-87.890625
7628		-82.031250
7629		-91.796875
7630		-85.937500
7631		-99.609375
7632		-89.843750
7633		-99.609375
7634		-91.796875
7635		-105.468750
7636		-95.703125
7637		-109.375000
7638		-103.515625
7639		-113.281250
7640		-107.421875
7641		-121.093750
7642		-109.375000
7643		-121.093750
7644		-115.234375
7645		-125.000000
7646		-119.140625
7647		-128.906250
7648		-123.046875
7649		-132.812500
7650		-123.046875
7651		-136.718750
7652		-128.906250
7653		-138.671875
7654		-132.812500
7655		-140.625000
7656		-136.718750
7657		-146.484375
7658		-138.671875
7659		-150.390625
7660		-140.625000
7661		-150.390625
7662		-144.531250
7663		-154.296875
7664		-148.437500
7665		-158.203125
7666		-148.437500
7667		-162.109375
7668		-152.343750
7669		-162.109375
7670		-156.250000
7671		-164.062500
7672		-160.156250
7673		-167.968750
7674		-162.109375
7675		-171.875000
7676		-162.109375
7677		-171.875000
7678		-166.015625
7679		-173.828125
7680		-169.921875
7681		-177.734375
7682		-169.921875
7683		-177.734375
7684		-169.921875
7685		-179.687500
7686		-171.875000
7687		-179.687500
7688		-175.781250
7689		-181.640625
7690		-177.734375
7691		-183.593750
7692		-175.781250
7693		-185.546875
7694		-175.781250
7695		-183.593750
7696		-179.687500
7697		-185.546875
7698		-181.640625
7699		-187.500000
7700		-179.687500
7701		-189.453125
7702		-179.687500
7703		-185.546875
7704		-183.593750
7705		-187.500000
7706		-183.593750
7707		-187.500000
7708		-183.593750
7709		-189.453125
7710		-181.640625
7711		-189.453125
7712		-183.593750
7713		-187.500000
7714		-183.593750
7715		-189.453125
7716		-179.687500
7717		-189.453125
7718		-181.640625
7719		-187.500000
7720		-179.687500
7721		-183.593750
7722		-181.640625
7723		-183.593750
7724		-179.687500
7725		-183.593750
7726		-177.734375
7727		-181.640625
7728		-177.734375
7729		-179.687500
7730		-177.734375
7731		-179.687500
7732		-173.828125
7733		-181.640625
7734		-171.875000
7735		-177.734375
7736		-167.968750
7737		-173.828125
7738		-169.921875
7739		-171.875000
7740		-167.968750
7741		-169.921875
7742		-166.015625
7743		-169.921875
7744		-162.109375
7745		-166.015625
7746		-160.156250
7747		-164.062500
7748		-158.203125
7749		-162.109375
7750		-154.296875
7751		-158.203125
7752		-150.390625
7753		-158.203125
7754		-148.437500
7755		-152.343750
7756		-146.484375
7757		-148.437500
7758		-142.578125
7759		-146.484375
7760		-138.671875
7761		-142.578125
7762		-136.718750
7763		-138.671875
7764		-132.812500
7765		-134.765625
7766		-128.906250
7767		-130.859375
7768		-125.000000
7769		-126.953125
7770		-121.093750
7771		-123.046875
7772		-119.140625
7773		-119.140625
7774		-113.281250
7775		-115.234375
7776		-109.375000
7777		-111.328125
7778		-105.468750
7779		-107.421875
7780		-101.562500
7781		-103.515625
7782		-97.656250
7783		-101.562500
7784		-93.750000
7785		-95.703125
7786		-89.843750
7787		-91.796875
7788		-83.984375
7789		-85.937500
7790		-80.078125
7791		-82.031250
7792		-76.171875
7793		-78.125000
7794		-72.265625
7795		-72.265625
7796		-66.406250
7797		-68.359375
7798		-62.500000
7799		-64.453125
7800		-58.593750
7801		-60.546875
7802		-52.734375
7803		-54.687500
7804		-48.828125
7805		-50.781250
7806		-42.968750
7807		-44.921875
7808		-39.062500
7809		-41.015625
7810		-35.156250
7811		-37.109375
7812		-29.296875
7813		-31.250000
7814		-25.390625
7815		-27.343750
7816		-21.484375
7817		-21.484375
7818		-15.625000
7819		-17.578125
7820		-11.718750
7821		-13.671875
7822		-7.812500
7823		-9.765625
7824		-1.953125
7825		-3.906250
7826		1.953125
7827		0.000000
7828		7.812500
7829		3.906250
7830		11.718750
7831		7.812500
7832		15.625000
7833		13.671875
7834		19.531250
7835		17.578125
7836		25.390625
7837		21.484375
7838		27.343750
7839		25.390625
7840		33.203125
7841		31.250000
7842		37.109375
7843		33.203125
7844		41.015625
7845		39.062500
7846		46.875000
7847		42.968750
7848		48.828125
7849		46.875000
7850		52.734375
7851		50.781250
7852		56.640625
7853		54.687500
7854		60.546875
7855		58.593750
7856		64.453125
7857		62.500000
7858		68.359375
7859		64.453125
7860		72.265625
7861		68.359375
7862		76.171875
7863		72.265625
7864		80.078125
7865		74.218750
7866		82.031250
7867		78.125000
7868		85.937500
7869		82.031250
7870		89.843750
7871		85.937500
7872		91.796875
7873		89.843750
7874		93.750000
7875		91.796875
7876		97.656250
7877		95.703125
7878		101.562500
7879		97.656250
7880		103.515625
7881		99.609375
7882		107.421875
7883		103.515625
7884		109.375000
7885		105.468750
7886		111.328125
7887		107.421875
7888		113.281250
7889		111.328125
7890		115.234375
7891		113.281250
7892		119.140625
7893		115.234375
7894		119.140625
7895		117.187500
7896		123.046875
7897		119.140625
7898		125.000000
7899		121.093750
7900		126.953125
7901		123.046875
7902		128.906250
7903		125.000000
7904		130.859375
7905		126.953125
7906		130.859375
7907		128.906250
7908		132.812500
7909		130.859375
7910		134.765625
7911		132.812500
7912		136.718750
7913		132.812500
7914		136.718750
7915		132.812500
7916		138.671875
7917		134.765625
7918		140.625000
7919		136.718750
7920		140.625000
7921		138.671875
7922		142.578125
7923		138.671875
7924		142.578125
7925		140.625000
7926		144.531250
7927		140.625000
7928		144.531250
7929		140.625000
7930		146.484375
7931		140.625000
7932		146.484375
7933		142.578125
7934		146.484375
7935		142.578125
7936		148.437500
7937		144.531250
7938		146.484375
7939		144.531250
7940		146.484375
7941		144.531250
7942		146.484375
7943		142.578125
7944		146.484375
7945		144.531250
7946		148.437500
7947		142.578125
7948		148.437500
7949		142.578125
7950		148.437500
7951		144.531250
7952		146.484375
7953		142.578125
7954		146.484375
7955		142.578125
7956		146.484375
7957		142.578125
7958		146.484375
7959		140.625000
7960		144.531250
7961		140.625000
7962		144.531250
7963		140.625000
7964		142.578125
7965		138.671875
7966		144.531250
7967		138.671875
7968		142.578125
7969		136.718750
7970		140.625000
7971		136.718750
7972		138.671875
7973		134.765625
7974		138.671875
7975		132.812500
7976		136.718750
7977		130.859375
7978		136.718750
7979		130.859375
7980		134.765625
7981		126.953125
7982		132.812500
7983		126.953125
7984		130.859375
7985		125.000000
7986		130.859375
7987		123.046875
7988		126.953125
7989		121.093750
7990		125.000000
7991		119.140625
7992		123.046875
7993		117.187500
7994		121.093750
7995		115.234375
7996		119.140625
7997		111.328125
7998		117.187500
7999		109.375000
8000		115.234375
8001		107.421875
8002		111.328125
8003		103.515625
8004		109.375000
8005		101.562500
8006		107.421875
8007		97.656250
8008		103.515625
8009		95.703125
8010		101.562500
8011		91.796875
8012		97.656250
8013		89.843750
8014		93.750000
8015		85.937500
8016		91.796875
8017		83.984375
8018		87.890625
8019		80.078125
8020		83.984375
8021		76.171875
8022		82.031250
8023		72.265625
8024		78.125000
8025		68.359375
8026		74.218750
8027		66.406250
8028		72.265625
8029		60.546875
8030		66.406250
8031		56.640625
8032		62.500000
8033		54.687500
8034		60.546875
8035		48.828125
8036		56.640625
8037		44.921875
8038		52.734375
8039		41.015625
8040		48.828125
8041		37.109375
8042		42.968750
8043		33.203125
8044		39.062500
8045		29.296875
8046		35.156250
8047		25.390625
8048		31.250000
8049		21.484375
8050		27.343750
8051		15.625000
8052		23.437500
8053		11.718750
8054		17.578125
8055		7.812500
8056		13.671875
8057		3.906250
8058		9.765625
8059		-1.953125
8060		5.859375
8061		-5.859375
8062		0.000000
8063		-9.765625
8064		-3.906250
8065		-15.625000
8066		-7.812500
8067		-19.531250
8068		-11.718750
8069		-23.437500
8070		-17.578125
8071		-29.296875
8072		-21.484375
8073		-33.203125
8074		-27.343750
8075		-37.109375
8076		-31.250000
8077		-42.968750
8078		-35.156250
8079		-46.875000
8080		-39.062500
8081		-50.781250
8082		-44.921875
8083		-54.687500
8084		-48.828125
8085		-60.546875
8086		-54.687500
8087		-64.453125
8088		-58.593750
8089		-68.359375
8090		-62.500000
8091		-74.218750
8092		-66.406250
8093		-78.125000
8094		-72.265625
8095		-82.031250
8096		-76.171875
8097		-85.937500
8098		-80.078125
8099		-89.843750
8100		-83.984375
8101		-95.703125
8102		-87.890625
8103		-99.609375
8104		-93.750000
8105		-103.515625
8106		-97.656250
8107		-107.421875
8108		-101.562500
8109		-111.328125
8110		-105.468750
8111		-115.234375
8112		-107.421875
8113		-119.140625
8114		-113.281250
8115		-123.046875
8116		-117.187500
8117		-126.953125
8118		-121.093750
8119		-128.906250
8120		-123.046875
8121		-132.812500
8122		-126.953125
8123		-136.718750
8124		-130.859375
8125		-140.625000
8126		-134.765625
8127		-142.578125
8128		-138.671875
8129		-146.484375
8130		-140.625000
8131		-150.390625
8132		-144.531250
8133		-152.343750
8134		-148.437500
8135		-156.250000
8136		-150.390625
8137		-158.203125
8138		-152.343750
8139		-160.156250
8140		-156.250000
8141		-164.062500
8142		-158.203125
8143		-166.015625
8144		-162.109375
8145		-167.968750
8146		-164.062500
8147		-169.921875
8148		-166.015625
8149		-171.875000
8150		-167.968750
8151		-173.828125
8152		-169.921875
8153		-175.781250
8154		-171.875000
8155		-177.734375
8156		-173.828125
8157		-179.687500
8158		-175.781250
8159		-179.687500
8160		-175.781250
8161		-181.640625
8162		-177.734375
8163		-183.593750
8164		-179.687500
8165		-183.593750
8166		-179.687500
8167		-185.546875
8168		-181.640625
8169		-185.546875
8170		-181.640625
8171		-185.546875
8172		-183.593750
8173		-187.500000
8174		-181.640625
8175		-187.500000
8176		-183.593750
8177		-187.500000
8178		-183.593750
8179		-187.500000
8180		-183.593750
8181		-187.500000
8182		-183.593750
8183		-187.500000
8184		-183.593750
8185		-187.500000
8186		-183.593750
8187		-187.500000
8188		-183.593750
8189		-187.500000
8190		-181.640625
8191		-185.546875
8192		-181.640625
8193		-183.593750
8194		-181.640625
8195		-183.593750
8196		-179.687500
8197		-183.593750
8198		-177.734375
8199		-181.640625
8200		-177.734375
8201		-179.687500
8202		-175.781250
8203		-177.734375
8204		-173.828125
8205		-175.781250
8206		-171.875000
8207		-175.781250
8208		-169.921875
8209		-171.875000
8210		-167.968750
8211		-169.921875
8212		-166.015625
8213		-167.968750
8214		-164.062500
8215		-166.015625
8216		-162.109375
8217		-164.062500
8218		-158.203125
8219		-162.109375
8220		-156.250000
8221		-158.203125
8222		-154.296875
8223		-156.250000
8224		-150.390625
8225		-152.343750
8226		-148.437500
8227		-150.390625
8228		-144.531250
8229		-146.484375
8230		-140.625000
8231		-144.531250
8232		-138.671875
8233		-140.625000
8234		-134.765625
8235		-136.718750
8236		-130.859375
8237		-132.812500
8238		-126.953125
8239		-128.906250
8240		-123.046875
8241		-126.953125
8242		-119.140625
8243		-121.093750
8244		-117.187500
8245		-119.140625
8246		-111.328125
8247		-113.281250
8248		-107.421875
8249		-109.375000
8250		-103.515625
8251		-105.468750
8252		-99.609375
8253		-101.562500
8254		-95.703125
8255		-97.656250
8256		-91.796875
8257		-93.750000
8258		-87.890625
8259		-87.890625
8260		-82.031250
8261		-83.984375
8262		-78.125000
8263		-80.078125
8264		-74.218750
8265		-76.171875
8266		-68.359375
8267		-70.312500
8268		-64.453125
8269		-66.406250
8270		-60.546875
8271		-62.500000
8272		-54.687500
8273		-58.593750
8274		-50.781250
8275		-52.734375
8276		-46.875000
8277		-48.828125
8278		-41.015625
8279		-44.921875
8280		-37.109375
8281		-39.062500
8282		-31.250000
8283		-35.156250
8284		-27.343750
8285		-29.296875
8286		-23.437500
8287		-25.390625
8288		-19.531250
8289		-21.484375
8290		-13.671875
8291		-15.625000
8292		-9.765625
8293		-11.718750
8294		-3.906250
8295		-5.859375
8296		0.000000
8297		-1.953125
8298		5.859375
8299		1.953125
8300		7.812500
8301		5.859375
8302		13.671875
8303		11.718750
8304		17.578125
8305		15.625000
8306		21.484375
8307		19.531250
8308		25.390625
8309		23.437500
8310		31.250000
8311		27.343750
8312		35.156250
8313		33.203125
8314		39.062500
8315		35.156250
8316		42.968750
8317		41.015625
8318		46.875000
8319		44.921875
8320		50.781250
8321		48.828125
8322		54.687500
8323		52.734375
8324		58.593750
8325		56.640625
8326		62.500000
8327		60.546875
8328		66.406250
8329		64.453125
8330		68.359375
8331		66.406250
8332		72.265625
8333		70.312500
8334		76.171875
8335		74.218750
8336		80.078125
8337		78.125000
8338		83.984375
8339		82.031250
8340		85.937500
8341		83.984375
8342		89.843750
8343		87.890625
8344		93.750000
8345		89.843750
8346		95.703125
8347		93.750000
8348		99.609375
8349		95.703125
8350		101.562500
8351		99.609375
8352		103.515625
8353		101.562500
8354		107.421875
8355		105.468750
8356		109.375000
8357		107.421875
8358		111.328125
8359		109.375000
8360		113.281250
8361		111.328125
8362		117.187500
8363		113.281250
8364		119.140625
8365		117.187500
8366		121.093750
8367		119.140625
8368		123.046875
8369		121.093750
8370		125.000000
8371		123.046875
8372		126.953125
8373		125.000000
8374		128.906250
8375		126.953125
8376		130.859375
8377		128.906250
8378		132.812500
8379		128.906250
8380		134.765625
8381		130.859375
8382		134.765625
8383		132.812500
8384		136.718750
8385		134.765625
8386		138.671875
8387		134.765625
8388		138.671875
8389		136.718750
8390		140.625000
8391		138.671875
8392		140.625000
8393		138.671875
8394		142.578125
8395		140.625000
8396		144.531250
8397		140.625000
8398		144.531250
8399		140.625000
8400		144.531250
8401		142.578125
8402		144.531250
8403		142.578125
8404		146.484375
8405		142.578125
8406		146.484375
8407		142.578125
8408		148.437500
8409		144.531250
8410		146.484375
8411		142.578125
8412		148.437500
8413		144.531250
8414		146.484375
8415		144.531250
8416		146.484375
8417		144.531250
8418		148.437500
8419		144.531250
8420		146.484375
8421		144.531250
8422		146.484375
8423		142.578125
8424		146.484375
8425		142.578125
8426		146.484375
8427		142.578125
8428		146.484375
8429		140.625000
8430		146.484375
8431		140.625000
8432		144.531250
8433		140.625000
8434		144.531250
8435		140.625000
8436		142.578125
8437		138.671875
8438		142.578125
8439		136.718750
8440		140.625000
8441		136.718750
8442		140.625000
8443		134.765625
8444		138.671875
8445		134.765625
8446		136.718750
8447		132.812500
8448		136.718750
8449		130.859375
8450		134.765625
8451		128.906250
8452		134.765625
8453		126.953125
8454		130.859375
8455		125.000000
8456		130.859375
8457		125.000000
8458		128.906250
8459		123.046875
8460		126.953125
8461		119.140625
8462		125.000000
8463		117.187500
8464		123.046875
8465		115.234375
8466		119.140625
8467		113.281250
8468		117.187500
8469		109.375000
8470		115.234375
8471		107.421875
8472		113.281250
8473		105.468750
8474		111.328125
8475		103.515625
8476		107.421875
8477		99.609375
8478		105.468750
8479		97.656250
8480		101.562500
8481		93.750000
8482		99.609375
8483		91.796875
8484		95.703125
8485		87.890625
8486		93.750000
8487		83.984375
8488		89.843750
8489		82.031250
8490		85.937500
8491		76.171875
8492		83.984375
8493		74.218750
8494		80.078125
8495		70.312500
8496		76.171875
8497		66.406250
8498		72.265625
8499		64.453125
8500		68.359375
8501		60.546875
8502		64.453125
8503		56.640625
8504		62.500000
8505		52.734375
8506		58.593750
8507		48.828125
8508		54.687500
8509		42.968750
8510		50.781250
8511		41.015625
8512		44.921875
8513		35.156250
8514		41.015625
8515		31.250000
8516		37.109375
8517		27.343750
8518		33.203125
8519		23.437500
8520		29.296875
8521		17.578125
8522		25.390625
8523		13.671875
8524		21.484375
8525		9.765625
8526		15.625000
8527		5.859375
8528		11.718750
8529		1.953125
8530		7.812500
8531		-3.906250
8532		3.906250
8533		-7.812500
8534		-1.953125
8535		-11.718750
8536		-5.859375
8537		-15.625000
8538		-9.765625
8539		-21.484375
8540		-15.625000
8541		-25.390625
8542		-19.531250
8543		-31.250000
8544		-23.437500
8545		-35.156250
8546		-29.296875
8547		-39.062500
8548		-33.203125
8549		-44.921875
8550		-39.062500
8551		-48.828125
8552		-42.968750
8553		-52.734375
8554		-46.875000
8555		-56.640625
8556		-50.781250
8557		-62.500000
8558		-56.640625
8559		-66.406250
8560		-60.546875
8561		-70.312500
8562		-64.453125
8563		-74.218750
8564		-68.359375
8565		-80.078125
8566		-74.218750
8567		-83.984375
8568		-78.125000
8569		-87.890625
8570		-82.031250
8571		-91.796875
8572		-85.937500
8573		-97.656250
8574		-89.843750
8575		-101.562500
8576		-93.750000
8577		-105.468750
8578		-97.656250
8579		-109.375000
8580		-103.515625
8581		-113.281250
8582		-107.421875
8583		-117.187500
8584		-111.328125
8585		-119.140625
8586		-115.234375
8587		-125.000000
8588		-117.187500
8589		-128.906250
8590		-123.046875
8591		-130.859375
8592		-125.000000
8593		-134.765625
8594		-128.906250
8595		-138.671875
8596		-132.812500
8597		-142.578125
8598		-136.718750
8599		-144.531250
8600		-140.625000
8601		-148.437500
8602		-142.578125
8603		-150.390625
8604		-146.484375
8605		-154.296875
8606		-148.437500
8607		-156.250000
8608		-150.390625
8609		-160.156250
8610		-154.296875
8611		-162.109375
8612		-158.203125
8613		-164.062500
8614		-160.156250
8615		-167.968750
8616		-162.109375
8617		-169.921875
8618		-164.062500
8619		-171.875000
8620		-166.015625
8621		-173.828125
8622		-169.921875
8623		-175.781250
8624		-171.875000
8625		-177.734375
8626		-171.875000
8627		-179.687500
8628		-175.781250
8629		-179.687500
8630		-177.734375
8631		-181.640625
8632		-177.734375
8633		-183.593750
8634		-179.687500
8635		-185.546875
8636		-181.640625
8637		-185.546875
8638		-181.640625
8639		-185.546875
8640		-183.593750
8641		-187.500000
8642		-183.593750
8643		-187.500000
8644		-183.593750
8645		-187.500000
8646		-185.546875
8647		-187.500000
8648		-185.546875
8649		-189.453125
8650		-185.546875
8651		-189.453125
8652		-185.546875
8653		-189.453125
8654		-185.546875
8655		-187.500000
8656		-185.546875
8657		-189.453125
8658		-185.546875
8659		-187.500000
8660		-183.593750
8661		-187.500000
8662		-183.593750
8663		-187.500000
8664		-183.593750
8665		-185.546875
8666		-181.640625
8667		-183.593750
8668		-181.640625
8669		-183.593750
8670		-179.687500
8671		-181.640625
8672		-177.734375
8673		-179.687500
8674		-175.781250
8675		-179.687500
8676		-173.828125
8677		-177.734375
8678		-171.875000
8679		-175.781250
8680		-171.875000
8681		-173.828125
8682		-167.968750
8683		-173.828125
8684		-164.062500
8685		-169.921875
8686		-164.062500
8687		-167.968750
8688		-162.109375
8689		-164.062500
8690		-160.156250
8691		-162.109375
8692		-156.250000
8693		-158.203125
8694		-152.343750
8695		-156.250000
8696		-150.390625
8697		-152.343750
8698		-148.437500
8699		-150.390625
8700		-142.578125
8701		-148.437500
8702		-140.625000
8703		-144.531250
8704		-136.718750
8705		-140.625000
8706		-134.765625
8707		-136.718750
8708		-130.859375
8709		-132.812500
8710		-126.953125
8711		-128.906250
8712		-123.046875
8713		-125.000000
8714		-119.140625
8715		-121.093750
8716		-113.281250
8717		-117.187500
8718		-109.375000
8719		-115.234375
8720		-105.468750
8721		-111.328125
8722		-103.515625
8723		-105.468750
8724		-99.609375
8725		-101.562500
8726		-95.703125
8727		-97.656250
8728		-89.843750
8729		-91.796875
8730		-85.937500
8731		-87.890625
8732		-82.031250
8733		-83.984375
8734		-76.171875
8735		-80.078125
8736		-72.265625
8737		-76.171875
8738		-68.359375
8739		-72.265625
8740		-64.453125
8741		-66.406250
8742		-58.593750
8743		-60.546875
8744		-54.687500
8745		-58.593750
8746		-50.781250
8747		-52.734375
8748		-44.921875
8749		-46.875000
8750		-39.062500
8751		-42.968750
8752		-35.156250
8753		-39.062500
8754		-29.296875
8755		-35.156250
8756		-25.390625
8757		-29.296875
8758		-21.484375
8759		-23.437500
8760		-17.578125
8761		-19.531250
8762		-13.671875
8763		-15.625000
8764		-7.812500
8765		-9.765625
8766		-3.906250
8767		-7.812500
8768		1.953125
8769		-1.953125
8770		5.859375
8771		1.953125
8772		9.765625
8773		5.859375
8774		13.671875
8775		9.765625
8776		19.531250
8777		15.625000
8778		23.437500
8779		21.484375
8780		27.343750
8781		25.390625
8782		31.250000
8783		29.296875
8784		35.156250
8785		33.203125
8786		39.062500
8787		35.156250
8788		42.968750
8789		39.062500
8790		48.828125
8791		44.921875
8792		50.781250
8793		46.875000
8794		56.640625
8795		52.734375
8796		58.593750
8797		56.640625
8798		62.500000
8799		60.546875
8800		68.359375
8801		62.500000
8802		72.265625
8803		66.406250
8804		74.218750
8805		70.312500
8806		78.125000
8807		74.218750
8808		82.031250
8809		78.125000
8810		83.984375
8811		80.078125
8812		85.937500
8813		83.984375
8814		89.843750
8815		87.890625
8816		93.750000
8817		89.843750
8818		97.656250
8819		91.796875
8820		99.609375
8821		93.750000
8822		103.515625
8823		99.609375
8824		105.468750
8825		101.562500
8826		107.421875
8827		103.515625
8828		111.328125
8829		107.421875
8830		111.328125
8831		109.375000
8832		115.234375
8833		111.328125
8834		119.140625
8835		113.281250
8836		121.093750
8837		115.234375
8838		123.046875
8839		117.187500
8840		125.000000
8841		119.140625
8842		126.953125
8843		121.093750
8844		128.906250
8845		123.046875
8846		128.906250
8847		126.953125
8848		130.859375
8849		128.906250
8850		132.812500
8851		126.953125
8852		134.765625
8853		128.906250
8854		136.718750
8855		130.859375
8856		136.718750
8857		130.859375
8858		138.671875
8859		132.812500
8860		140.625000
8861		134.765625
8862		140.625000
8863		136.718750
8864		140.625000
8865		138.671875
8866		142.578125
8867		138.671875
8868		144.531250
8869		138.671875
8870		146.484375
8871		138.671875
8872		146.484375
8873		140.625000
8874		146.484375
8875		140.625000
8876		146.484375
8877		140.625000
8878		146.484375
8879		140.625000
8880		148.437500
8881		142.578125
8882		146.484375
8883		142.578125
8884		148.437500
8885		140.625000
8886		148.437500
8887		142.578125
8888		148.437500
8889		142.578125
8890		148.437500
8891		140.625000
8892		148.437500
8893		142.578125
8894		148.437500
8895		140.625000
8896		148.437500
8897		142.578125
8898		146.484375
8899		142.578125
8900		144.531250
8901		138.671875
8902		146.484375
8903		138.671875
8904		146.484375
8905		138.671875
8906		144.531250
8907		136.718750
8908		144.531250
8909		136.718750
8910		142.578125
8911		134.765625
8912		142.578125
8913		134.765625
8914		138.671875
8915		134.765625
8916		138.671875
8917		130.859375
8918		136.718750
8919		128.906250
8920		136.718750
8921		128.906250
8922		136.718750
8923		125.000000
8924		132.812500
8925		125.000000
8926		132.812500
8927		123.046875
8928		130.859375
8929		123.046875
8930		126.953125
8931		121.093750
8932		125.000000
8933		117.187500
8934		123.046875
8935		115.234375
8936		123.046875
8937		111.328125
8938		119.140625
8939		109.375000
8940		117.187500
8941		107.421875
8942		115.234375
8943		103.515625
8944		113.281250
8945		101.562500
8946		109.375000
8947		101.562500
8948		105.468750
8949		97.656250
8950		103.515625
8951		91.796875
8952		99.609375
8953		89.843750
8954		99.609375
8955		87.890625
8956		95.703125
8957		83.984375
8958		91.796875
8959		82.031250
8960		87.890625
8961		78.125000
8962		85.937500
8963		76.171875
8964		82.031250
8965		72.265625
8966		78.125000
8967		66.406250
8968		74.218750
8969		62.500000
8970		72.265625
8971		60.546875
8972		68.359375
8973		54.687500
8974		64.453125
8975		50.781250
8976		60.546875
8977		48.828125
8978		56.640625
8979		44.921875
8980		52.734375
8981		41.015625
8982		46.875000
8983		37.109375
8984		42.968750
8985		33.203125
8986		39.062500
8987		27.343750
8988		37.109375
8989		23.437500
8990		33.203125
8991		19.531250
8992		29.296875
8993		15.625000
8994		23.437500
8995		9.765625
8996		19.531250
8997		7.812500
8998		13.671875
8999		3.906250
9000		9.765625
9001		-1.953125
9002		3.906250
9003		-7.812500
9004		1.953125
9005		-11.718750
9006		-3.906250
9007		-15.625000
9008		-7.812500
9009		-21.484375
9010		-11.718750
9011		-25.390625
9012		-15.625000
9013		-29.296875
9014		-21.484375
9015		-33.203125
9016		-27.343750
9017		-37.109375
9018		-31.250000
9019		-44.921875
9020		-35.156250
9021		-48.828125
9022		-39.062500
9023		-52.734375
9024		-44.921875
9025		-56.640625
9026		-48.828125
9027		-62.500000
9028		-52.734375
9029		-66.406250
9030		-56.640625
9031		-68.359375
9032		-62.500000
9033		-74.218750
9034		-68.359375
9035		-80.078125
9036		-72.265625
9037		-83.984375
9038		-76.171875
9039		-87.890625
9040		-78.125000
9041		-93.750000
9042		-83.984375
9043		-97.656250
9044		-89.843750
9045		-99.609375
9046		-91.796875
9047		-103.515625
9048		-95.703125
9049		-107.421875
9050		-101.562500
9051		-113.281250
9052		-105.468750
9053		-115.234375
9054		-107.421875
9055		-121.093750
9056		-111.328125
9057		-125.000000
9058		-117.187500
9059		-128.906250
9060		-121.093750
9061		-132.812500
9062		-123.046875
9063		-134.765625
9064		-126.953125
9065		-136.718750
9066		-132.812500
9067		-140.625000
9068		-134.765625
9069		-144.531250
9070		-138.671875
9071		-148.437500
9072		-140.625000
9073		-152.343750
9074		-144.531250
9075		-154.296875
9076		-146.484375
9077		-158.203125
9078		-150.390625
9079		-160.156250
9080		-152.343750
9081		-162.109375
9082		-156.250000
9083		-164.062500
9084		-160.156250
9085		-167.968750
9086		-162.109375
9087		-169.921875
9088		-162.109375
9089		-173.828125
9090		-166.015625
9091		-175.781250
9092		-167.968750
9093		-177.734375
9094		-169.921875
9095		-179.687500
9096		-171.875000
9097		-179.687500
9098		-173.828125
9099		-181.640625
9100		-177.734375
9101		-181.640625
9102		-177.734375
9103		-185.546875
9104		-177.734375
9105		-187.500000
9106		-179.687500
9107		-187.500000
9108		-181.640625
9109		-189.453125
9110		-181.640625
9111		-189.453125
9112		-183.593750
9113		-189.453125
9114		-183.593750
9115		-189.453125
9116		-185.546875
9117		-189.453125
9118		-185.546875
9119		-191.406250
9120		-185.546875
9121		-191.406250
9122		-185.546875
9123		-191.406250
9124		-183.593750
9125		-191.406250
9126		-183.593750
9127		-191.406250
9128		-183.593750
9129		-191.406250
9130		-183.593750
9131		-189.453125
9132		-183.593750
9133		-187.500000
9134		-183.593750
9135		-187.500000
9136		-181.640625
9137		-187.500000
9138		-179.687500
9139		-185.546875
9140		-179.687500
9141		-185.546875
9142		-177.734375
9143		-183.593750
9144		-175.781250
9145		-181.640625
9146		-175.781250
9147		-181.640625
9148		-173.828125
9149		-175.781250
9150		-171.875000
9151		-173.828125
9152		-169.921875
9153		-173.828125
9154		-167.968750
9155		-171.875000
9156		-164.062500
9157		-169.921875
9158		-162.109375
9159		-167.968750
9160		-160.156250
9161		-164.062500
9162		-158.203125
9163		-164.062500
9164		-154.296875
9165		-158.203125
9166		-152.343750
9167		-154.296875
9168		-150.390625
9169		-152.343750
9170		-146.484375
9171		-150.390625
9172		-142.578125
9173		-148.437500
9174		-138.671875
9175		-144.531250
9176		-136.718750
9177		-140.625000
9178		-132.812500
9179		-136.718750
9180		-126.953125
9181		-132.812500
9182		-126.953125
9183		-128.906250
9184		-123.046875
9185		-125.000000
9186		-119.140625
9187		-121.093750
9188		-113.281250
9189		-117.187500
9190		-109.375000
9191		-115.234375
9192		-105.468750
9193		-109.375000
9194		-101.562500
9195		-105.468750
9196		-95.703125
9197		-101.562500
9198		-93.750000
9199		-95.703125
9200		-89.843750
9201		-91.796875
9202		-83.984375
9203		-85.937500
9204		-78.125000
9205		-83.984375
9206		-74.218750
9207		-78.125000
9208		-70.312500
9209		-74.218750
9210		-66.406250
9211		-70.312500
9212		-60.546875
9213		-66.406250
9214		-56.640625
9215		-60.546875
9216		-52.734375
9217		-54.687500
9218		-48.828125
9219		-50.781250
9220		-42.968750
9221		-46.875000
9222		-39.062500
9223		-41.015625
9224		-33.203125
9225		-37.109375
9226		-29.296875
9227		-33.203125
9228		-25.390625
9229		-29.296875
9230		-19.531250
9231		-23.437500
9232		-15.625000
9233		-17.578125
9234		-11.718750
9235		-13.671875
9236		-7.812500
9237		-9.765625
9238		-1.953125
9239		-5.859375
9240		3.906250
9241		0.000000
9242		7.812500
9243		1.953125
9244		11.718750
9245		7.812500
9246		15.625000
9247		11.718750
9248		21.484375
9249		17.578125
9250		23.437500
9251		21.484375
9252		29.296875
9253		25.390625
9254		33.203125
9255		29.296875
9256		37.109375
9257		35.156250
9258		42.968750
9259		37.109375
9260		44.921875
9261		41.015625
9262		48.828125
9263		44.921875
9264		52.734375
9265		50.781250
9266		56.640625
9267		54.687500
9268		60.546875
9269		58.593750
9270		64.453125
9271		60.546875
9272		70.312500
9273		64.453125
9274		72.265625
9275		66.406250
9276		76.171875
9277		72.265625
9278		80.078125
9279		76.171875
9280		83.984375
9281		78.125000
9282		85.937500
9283		82.031250
9284		87.890625
9285		85.937500
9286		91.796875
9287		89.843750
9288		95.703125
9289		91.796875
9290		99.609375
9291		93.750000
9292		101.562500
9293		95.703125
9294		105.468750
9295		99.609375
9296		107.421875
9297		101.562500
9298		109.375000
9299		105.468750
9300		111.328125
9301		109.375000
9302		113.281250
9303		111.328125
9304		117.187500
9305		113.281250
9306		119.140625
9307		113.281250
9308		121.093750
9309		117.187500
9310		123.046875
9311		117.187500
9312		125.000000
9313		119.140625
9314		126.953125
9315		123.046875
9316		128.906250
9317		126.953125
9318		128.906250
9319		126.953125
9320		130.859375
9321		128.906250
9322		134.765625
9323		128.906250
9324		136.718750
9325		130.859375
9326		138.671875
9327		132.812500
9328		138.671875
9329		132.812500
9330		140.625000
9331		134.765625
9332		140.625000
9333		136.718750
9334		140.625000
9335		138.671875
9336		142.578125
9337		138.671875
9338		144.531250
9339		138.671875
9340		144.531250
9341		140.625000
9342		146.484375
9343		140.625000
9344		146.484375
9345		140.625000
9346		146.484375
9347		140.625000
9348		146.484375
9349		140.625000
9350		148.437500
9351		142.578125
9352		146.484375
9353		144.531250
9354		146.484375
9355		142.578125
9356		148.437500
9357		142.578125
9358		148.437500
9359		142.578125
9360		148.437500
9361		142.578125
9362		148.437500
9363		140.625000
9364		148.437500
9365		142.578125
9366		148.437500
9367		142.578125
9368		146.484375
9369		142.578125
9370		144.531250
9371		140.625000
9372		146.484375
9373		138.671875
9374		146.484375
9375		138.671875
9376		144.531250
9377		138.671875
9378		144.531250
9379		136.718750
9380		142.578125
9381		134.765625
9382		142.578125
9383		134.765625
9384		140.625000
9385		134.765625
9386		138.671875
9387		132.812500
9388		136.718750
9389		130.859375
9390		136.718750
9391		128.906250
9392		136.718750
9393		126.953125
9394		134.765625
9395		125.000000
9396		132.812500
9397		125.000000
9398		132.812500
9399		123.046875
9400		128.906250
9401		123.046875
9402		126.953125
9403		119.140625
9404		125.000000
9405		115.234375
9406		123.046875
9407		113.281250
9408		121.093750
9409		111.328125
9410		119.140625
9411		109.375000
9412		117.187500
9413		105.468750
9414		113.281250
9415		103.515625
9416		111.328125
9417		103.515625
9418		109.375000
9419		99.609375
9420		105.468750
9421		95.703125
9422		101.562500
9423		93.750000
9424		101.562500
9425		89.843750
9426		99.609375
9427		87.890625
9428		95.703125
9429		83.984375
9430		91.796875
9431		80.078125
9432		87.890625
9433		78.125000
9434		83.984375
9435		74.218750
9436		80.078125
9437		72.265625
9438		76.171875
9439		64.453125
9440		74.218750
9441		62.500000
9442		72.265625
9443		58.593750
9444		66.406250
9445		54.687500
9446		64.453125
9447		52.734375
9448		58.593750
9449		46.875000
9450		56.640625
9451		44.921875
9452		50.781250
9453		41.015625
9454		46.875000
9455		33.203125
9456		42.968750
9457		31.250000
9458		41.015625
9459		25.390625
9460		35.156250
9461		23.437500
9462		31.250000
9463		17.578125
9464		27.343750
9465		13.671875
9466		23.437500
9467		9.765625
9468		17.578125
9469		5.859375
9470		11.718750
9471		0.000000
9472		7.812500
9473		-3.906250
9474		3.906250
9475		-9.765625
9476		0.000000
9477		-13.671875
9478		-3.906250
9479		-17.578125
9480		-7.812500
9481		-21.484375
9482		-13.671875
9483		-25.390625
9484		-19.531250
9485		-29.296875
9486		-23.437500
9487		-33.203125
9488		-27.343750
9489		-41.015625
9490		-33.203125
9491		-46.875000
9492		-35.156250
9493		-48.828125
9494		-41.015625
9495		-54.687500
9496		-44.921875
9497		-58.593750
9498		-50.781250
9499		-62.500000
9500		-54.687500
9501		-66.406250
9502		-58.593750
9503		-70.312500
9504		-64.453125
9505		-74.218750
9506		-68.359375
9507		-80.078125
9508		-72.265625
9509		-83.984375
9510		-76.171875
9511		-87.890625
9512		-82.031250
9513		-93.750000
9514		-85.937500
9515		-97.656250
9516		-89.843750
9517		-99.609375
9518		-93.750000
9519		-103.515625
9520		-97.656250
9521		-107.421875
9522		-101.562500
9523		-115.234375
9524		-105.468750
9525		-117.187500
9526		-109.375000
9527		-121.093750
9528		-113.281250
9529		-125.000000
9530		-117.187500
9531		-126.953125
9532		-119.140625
9533		-132.812500
9534		-123.046875
9535		-134.765625
9536		-128.906250
9537		-136.718750
9538		-132.812500
9539		-140.625000
9540		-134.765625
9541		-144.531250
9542		-136.718750
9543		-148.437500
9544		-140.625000
9545		-150.390625
9546		-144.531250
9547		-154.296875
9548		-146.484375
9549		-158.203125
9550		-148.437500
9551		-160.156250
9552		-152.343750
9553		-162.109375
9554		-156.250000
9555		-166.015625
9556		-160.156250
9557		-167.968750
9558		-160.156250
9559		-169.921875
9560		-162.109375
9561		-171.875000
9562		-166.015625
9563		-175.781250
9564		-167.968750
9565		-177.734375
9566		-169.921875
9567		-177.734375
9568		-171.875000
9569		-177.734375
9570		-173.828125
9571		-179.687500
9572		-175.781250
9573		-183.593750
9574		-175.781250
9575		-185.546875
9576		-177.734375
9577		-185.546875
9578		-177.734375
9579		-187.500000
9580		-179.687500
9581		-187.500000
9582		-179.687500
9583		-187.500000
9584		-181.640625
9585		-189.453125
9586		-183.593750
9587		-187.500000
9588		-183.593750
9589		-189.453125
9590		-183.593750
9591		-189.453125
9592		-183.593750
9593		-189.453125
9594		-183.593750
9595		-189.453125
9596		-183.593750
9597		-189.453125
9598		-183.593750
9599		-189.453125
9600		-183.593750
9601		-189.453125
9602		-183.593750
9603		-187.500000
9604		-183.593750
9605		-185.546875
9606		-183.593750
9607		-187.500000
9608		-179.687500
9609		-187.500000
9610		-179.687500
9611		-185.546875
9612		-177.734375
9613		-183.593750
9614		-177.734375
9615		-181.640625
9616		-175.781250
9617		-181.640625
9618		-173.828125
9619		-177.734375
9620		-173.828125
9621		-175.781250
9622		-171.875000
9623		-175.781250
9624		-167.968750
9625		-173.828125
9626		-166.015625
9627		-171.875000
9628		-164.062500
9629		-169.921875
9630		-162.109375
9631		-167.968750
9632		-158.203125
9633		-164.062500
9634		-156.250000
9635		-160.156250
9636		-154.296875
9637		-156.250000
9638		-152.343750
9639		-154.296875
9640		-148.437500
9641		-152.343750
9642		-142.578125
9643		-148.437500
9644		-140.625000
9645		-146.484375
9646		-136.718750
9647		-142.578125
9648		-134.765625
9649		-138.671875
9650		-130.859375
9651		-136.718750
9652		-126.953125
9653		-130.859375
9654		-125.000000
9655		-126.953125
9656		-121.093750
9657		-123.046875
9658		-115.234375
9659		-119.140625
9660		-111.328125
9661		-115.234375
9662		-107.421875
9663		-111.328125
9664		-103.515625
9665		-107.421875
9666		-99.609375
9667		-103.515625
9668		-95.703125
9669		-99.609375
9670		-91.796875
9671		-93.750000
9672		-87.890625
9673		-89.843750
9674		-80.078125
9675		-85.937500
9676		-76.171875
9677		-82.031250
9678		-72.265625
9679		-78.125000
9680		-68.359375
9681		-72.265625
9682		-64.453125
9683		-68.359375
9684		-60.546875
9685		-64.453125
9686		-56.640625
9687		-56.640625
9688		-50.781250
9689		-52.734375
9690		-46.875000
9691		-48.828125
9692		-42.968750
9693		-44.921875
9694		-37.109375
9695		-41.015625
9696		-31.250000
9697		-35.156250
9698		-27.343750
9699		-31.250000
9700		-21.484375
9701		-27.343750
9702		-17.578125
9703		-21.484375
9704		-13.671875
9705		-15.625000
9706		-9.765625
9707		-11.718750
9708		-3.906250
9709		-9.765625
9710		0.000000
9711		-3.906250
9712		3.906250
9713		0.000000
9714		9.765625
9715		3.906250
9716		13.671875
9717		9.765625
9718		19.531250
9719		13.671875
9720		21.484375
9721		19.531250
9722		25.390625
9723		23.437500
9724		29.296875
9725		25.390625
9726		35.156250
9727		31.250000
9728		39.062500
9729		35.156250
9730		42.968750
9731		39.062500
9732		46.875000
9733		42.968750
9734		52.734375
9735		46.875000
9736		54.687500
9737		50.781250
9738		58.593750
9739		56.640625
9740		60.546875
9741		60.546875
9742		66.406250
9743		62.500000
9744		70.312500
9745		66.406250
9746		74.218750
9747		68.359375
9748		76.171875
9749		72.265625
9750		80.078125
9751		76.171875
9752		83.984375
9753		78.125000
9754		85.937500
9755		83.984375
9756		89.843750
9757		87.890625
9758		93.750000
9759		87.890625
9760		95.703125
9761		91.796875
9762		99.609375
9763		95.703125
9764		101.562500
9765		97.656250
9766		103.515625
9767		99.609375
9768		107.421875
9769		101.562500
9770		109.375000
9771		107.421875
9772		111.328125
9773		109.375000
9774		113.281250
9775		111.328125
9776		117.187500
9777		111.328125
9778		119.140625
9779		113.281250
9780		121.093750
9781		117.187500
9782		125.000000
9783		119.140625
9784		126.953125
9785		119.140625
9786		126.953125
9787		123.046875
9788		128.906250
9789		125.000000
9790		130.859375
9791		126.953125
9792		132.812500
9793		126.953125
9794		134.765625
9795		128.906250
9796		134.765625
9797		130.859375
9798		136.718750
9799		130.859375
9800		138.671875
9801		132.812500
9802		140.625000
9803		134.765625
9804		140.625000
9805		136.718750
9806		140.625000
9807		138.671875
9808		140.625000
9809		136.718750
9810		144.531250
9811		138.671875
9812		144.531250
9813		138.671875
9814		144.531250
9815		138.671875
9816		146.484375
9817		140.625000
9818		146.484375
9819		140.625000
9820		146.484375
9821		142.578125
9822		146.484375
9823		142.578125
9824		146.484375
9825		140.625000
9826		148.437500
9827		140.625000
9828		148.437500
9829		140.625000
9830		148.437500
9831		140.625000
9832		148.437500
9833		140.625000
9834		148.437500
9835		140.625000
9836		148.437500
9837		140.625000
9838		148.437500
9839		142.578125
9840		144.531250
9841		140.625000
9842		146.484375
9843		140.625000
9844		146.484375
9845		138.671875
9846		146.484375
9847		136.718750
9848		144.531250
9849		136.718750
9850		144.531250
9851		136.718750
9852		142.578125
9853		134.765625
9854		142.578125
9855		134.765625
9856		138.671875
9857		134.765625
9858		138.671875
9859		130.859375
9860		138.671875
9861		128.906250
9862		136.718750
9863		128.906250
9864		134.765625
9865		126.953125
9866		134.765625
9867		125.000000
9868		132.812500
9869		123.046875
9870		130.859375
9871		123.046875
9872		128.906250
9873		121.093750
9874		125.000000
9875		117.187500
9876		123.046875
9877		115.234375
9878		123.046875
9879		113.281250
9880		121.093750
9881		111.328125
9882		119.140625
9883		109.375000
9884		115.234375
9885		105.468750
9886		113.281250
9887		103.515625
9888		111.328125
9889		101.562500
9890		107.421875
9891		99.609375
9892		105.468750
9893		95.703125
9894		101.562500
9895		91.796875
9896		99.609375
9897		89.843750
9898		97.656250
9899		85.937500
9900		93.750000
9901		82.031250
9902		89.843750
9903		80.078125
9904		87.890625
9905		78.125000
9906		83.984375
9907		74.218750
9908		80.078125
9909		68.359375
9910		76.171875
9911		66.406250
9912		72.265625
9913		62.500000
9914		70.312500
9915		56.640625
9916		66.406250
9917		52.734375
9918		62.500000
9919		50.781250
9920		58.593750
9921		46.875000
9922		54.687500
9923		42.968750
9924		48.828125
9925		37.109375
9926		44.921875
9927		35.156250
9928		42.968750
9929		29.296875
9930		39.062500
9931		25.390625
9932		33.203125
9933		21.484375
9934		31.250000
9935		15.625000
9936		25.390625
9937		11.718750
9938		21.484375
9939		9.765625
9940		15.625000
9941		3.906250
9942		11.718750
9943		0.000000
9944		5.859375
9945		-5.859375
9946		3.906250
9947		-9.765625
9948		-1.953125
9949		-13.671875
9950		-5.859375
9951		-19.531250
9952		-9.765625
9953		-25.390625
9954		-15.625000
9955		-27.343750
9956		-17.578125
9957		-31.250000
9958		-25.390625
9959		-37.109375
9960		-29.296875
9961		-41.015625
9962		-33.203125
9963		-46.875000
9964		-37.109375
9965		-50.781250
9966		-42.968750
9967		-56.640625
9968		-46.875000
9969		-60.546875
9970		-52.734375
9971		-64.453125
9972		-54.687500
9973		-68.359375
9974		-60.546875
9975		-72.265625
9976		-66.406250
9977		-78.125000
9978		-68.359375
9979		-82.031250
9980		-72.265625
9981		-85.937500
9982		-78.125000
9983		-89.843750
9984		-82.031250
9985		-95.703125
9986		-87.890625
9987		-99.609375
9988		-91.796875
9989		-101.562500
9990		-95.703125
9991		-105.468750
9992		-99.609375
9993		-111.328125
9994		-103.515625
9995		-115.234375
9996		-107.421875
9997		-121.093750
9998		-111.328125
9999		-123.046875
10000		-115.234375
