Channel              :		CH1
Frequency            :		1.062kHz
Period               :		0.941ms
PK-PK                :		125.0mV
Probe attenuation    :		1X
Voltage per ADC value:		0.122070mV
Time interval        :		2.00000us

index		CH1_Voltage(mV)
1		41.015625
2		41.015625
3		48.828125
4		39.062500
5		46.875000
6		37.109375
7		46.875000
8		37.109375
9		42.968750
10		37.109375
11		41.015625
12		37.109375
13		41.015625
14		33.203125
15		41.015625
16		31.250000
17		39.062500
18		31.250000
19		37.109375
20		29.296875
21		37.109375
22		27.343750
23		35.156250
24		27.343750
25		33.203125
26		27.343750
27		31.250000
28		25.390625
29		29.296875
30		23.437500
31		27.343750
32		21.484375
33		27.343750
34		19.531250
35		27.343750
36		17.578125
37		25.390625
38		15.625000
39		23.437500
40		15.625000
41		21.484375
42		13.671875
43		21.484375
44		13.671875
45		17.578125
46		11.718750
47		15.625000
48		7.812500
49		15.625000
50		7.812500
51		13.671875
52		5.859375
53		13.671875
54		3.906250
55		11.718750
56		1.953125
57		9.765625
58		1.953125
59		7.812500
60		0.000000
61		5.859375
62		0.000000
63		3.906250
64		-3.906250
65		3.906250
66		-5.859375
67		1.953125
68		-5.859375
69		0.000000
70		-7.812500
71		0.000000
72		-9.765625
73		-1.953125
74		-11.718750
75		-3.906250
76		-11.718750
77		-5.859375
78		-13.671875
79		-9.765625
80		-15.625000
81		-9.765625
82		-17.578125
83		-9.765625
84		-19.531250
85		-11.718750
86		-21.484375
87		-13.671875
88		-21.484375
89		-15.625000
90		-23.437500
91		-15.625000
92		-23.437500
93		-17.578125
94		-23.437500
95		-19.531250
96		-25.390625
97		-21.484375
98		-29.296875
99		-21.484375
100		-29.296875
101		-23.437500
102		-31.250000
103		-23.437500
104		-33.203125
105		-25.390625
106		-33.203125
107		-25.390625
108		-35.156250
109		-27.343750
110		-35.156250
111		-29.296875
112		-35.156250
113		-31.250000
114		-37.109375
115		-31.250000
116		-39.062500
117		-31.250000
118		-39.062500
119		-33.203125
120		-41.015625
121		-33.203125
122		-42.968750
123		-35.156250
124		-42.968750
125		-37.109375
126		-42.968750
127		-37.109375
128		-42.968750
129		-39.062500
130		-42.968750
131		-41.015625
132		-46.875000
133		-39.062500
134		-46.875000
135		-39.062500
136		-46.875000
137		-41.015625
138		-48.828125
139		-41.015625
140		-48.828125
141		-41.015625
142		-48.828125
143		-42.968750
144		-46.875000
145		-42.968750
146		-48.828125
147		-44.921875
148		-50.781250
149		-42.968750
150		-50.781250
151		-44.921875
152		-50.781250
153		-42.968750
154		-52.734375
155		-44.921875
156		-50.781250
157		-44.921875
158		-52.734375
159		-44.921875
160		-50.781250
161		-44.921875
162		-48.828125
163		-46.875000
164		-50.781250
165		-46.875000
166		-52.734375
167		-44.921875
168		-50.781250
169		-44.921875
170		-50.781250
171		-44.921875
172		-52.734375
173		-44.921875
174		-52.734375
175		-44.921875
176		-50.781250
177		-44.921875
178		-48.828125
179		-46.875000
180		-48.828125
181		-44.921875
182		-50.781250
183		-42.968750
184		-50.781250
185		-42.968750
186		-48.828125
187		-42.968750
188		-48.828125
189		-42.968750
190		-48.828125
191		-41.015625
192		-46.875000
193		-41.015625
194		-46.875000
195		-42.968750
196		-44.921875
197		-41.015625
198		-44.921875
199		-41.015625
200		-44.921875
201		-37.109375
202		-44.921875
203		-39.062500
204		-42.968750
205		-37.109375
206		-42.968750
207		-35.156250
208		-42.968750
209		-35.156250
210		-41.015625
211		-33.203125
212		-39.062500
213		-35.156250
214		-37.109375
215		-33.203125
216		-39.062500
217		-31.250000
218		-37.109375
219		-29.296875
220		-37.109375
221		-29.296875
222		-35.156250
223		-27.343750
224		-33.203125
225		-27.343750
226		-33.203125
227		-25.390625
228		-29.296875
229		-25.390625
230		-27.343750
231		-25.390625
232		-29.296875
233		-21.484375
234		-27.343750
235		-19.531250
236		-25.390625
237		-19.531250
238		-25.390625
239		-17.578125
240		-23.437500
241		-15.625000
242		-21.484375
243		-15.625000
244		-19.531250
245		-13.671875
246		-17.578125
247		-13.671875
248		-15.625000
249		-11.718750
250		-15.625000
251		-9.765625
252		-13.671875
253		-9.765625
254		-13.671875
255		-7.812500
256		-11.718750
257		-5.859375
258		-9.765625
259		-3.906250
260		-7.812500
261		-3.906250
262		-5.859375
263		-1.953125
264		-3.906250
265		0.000000
266		-3.906250
267		1.953125
268		-3.906250
269		3.906250
270		-1.953125
271		5.859375
272		0.000000
273		5.859375
274		1.953125
275		7.812500
276		1.953125
277		9.765625
278		3.906250
279		9.765625
280		7.812500
281		11.718750
282		9.765625
283		13.671875
284		7.812500
285		15.625000
286		9.765625
287		17.578125
288		11.718750
289		19.531250
290		13.671875
291		19.531250
292		15.625000
293		21.484375
294		15.625000
295		23.437500
296		19.531250
297		23.437500
298		21.484375
299		25.390625
300		21.484375
301		27.343750
302		21.484375
303		29.296875
304		23.437500
305		31.250000
306		25.390625
307		33.203125
308		27.343750
309		33.203125
310		27.343750
311		35.156250
312		31.250000
313		35.156250
314		33.203125
315		35.156250
316		33.203125
317		39.062500
318		33.203125
319		41.015625
320		35.156250
321		41.015625
322		37.109375
323		42.968750
324		37.109375
325		44.921875
326		39.062500
327		44.921875
328		41.015625
329		46.875000
330		42.968750
331		46.875000
332		42.968750
333		46.875000
334		42.968750
335		50.781250
336		44.921875
337		52.734375
338		44.921875
339		52.734375
340		46.875000
341		54.687500
342		46.875000
343		54.687500
344		48.828125
345		56.640625
346		50.781250
347		54.687500
348		52.734375
349		56.640625
350		50.781250
351		58.593750
352		52.734375
353		60.546875
354		52.734375
355		60.546875
356		54.687500
357		60.546875
358		54.687500
359		60.546875
360		54.687500
361		62.500000
362		56.640625
363		62.500000
364		58.593750
365		62.500000
366		58.593750
367		64.453125
368		58.593750
369		64.453125
370		58.593750
371		66.406250
372		58.593750
373		66.406250
374		60.546875
375		66.406250
376		60.546875
377		66.406250
378		60.546875
379		68.359375
380		62.500000
381		66.406250
382		62.500000
383		66.406250
384		62.500000
385		68.359375
386		62.500000
387		68.359375
388		62.500000
389		68.359375
390		62.500000
391		70.312500
392		62.500000
393		70.312500
394		62.500000
395		70.312500
396		64.453125
397		68.359375
398		64.453125
399		68.359375
400		64.453125
401		70.312500
402		64.453125
403		70.312500
404		62.500000
405		70.312500
406		62.500000
407		70.312500
408		62.500000
409		70.312500
410		62.500000
411		70.312500
412		62.500000
413		70.312500
414		64.453125
415		68.359375
416		64.453125
417		66.406250
418		62.500000
419		68.359375
420		62.500000
421		68.359375
422		60.546875
423		68.359375
424		60.546875
425		68.359375
426		60.546875
427		68.359375
428		60.546875
429		66.406250
430		62.500000
431		66.406250
432		60.546875
433		64.453125
434		58.593750
435		64.453125
436		58.593750
437		64.453125
438		56.640625
439		64.453125
440		56.640625
441		64.453125
442		56.640625
443		62.500000
444		54.687500
445		62.500000
446		54.687500
447		60.546875
448		56.640625
449		58.593750
450		52.734375
451		58.593750
452		52.734375
453		58.593750
454		50.781250
455		58.593750
456		50.781250
457		56.640625
458		48.828125
459		56.640625
460		48.828125
461		54.687500
462		46.875000
463		54.687500
464		48.828125
465		50.781250
466		46.875000
467		50.781250
468		42.968750
469		50.781250
470		42.968750
471		48.828125
472		41.015625
473		48.828125
474		39.062500
475		46.875000
476		39.062500
477		46.875000
478		39.062500
479		44.921875
480		37.109375
481		42.968750
482		37.109375
483		41.015625
484		33.203125
485		41.015625
486		33.203125
487		39.062500
488		31.250000
489		39.062500
490		29.296875
491		37.109375
492		29.296875
493		35.156250
494		27.343750
495		35.156250
496		25.390625
497		31.250000
498		25.390625
499		29.296875
500		25.390625
501		29.296875
502		21.484375
503		29.296875
504		19.531250
505		27.343750
506		17.578125
507		25.390625
508		17.578125
509		23.437500
510		15.625000
511		23.437500
512		13.671875
513		21.484375
514		13.671875
515		19.531250
516		11.718750
517		15.625000
518		9.765625
519		15.625000
520		7.812500
521		15.625000
522		5.859375
523		13.671875
524		3.906250
525		11.718750
526		1.953125
527		9.765625
528		0.000000
529		7.812500
530		0.000000
531		7.812500
532		0.000000
533		3.906250
534		-3.906250
535		1.953125
536		-5.859375
537		1.953125
538		-7.812500
539		0.000000
540		-9.765625
541		0.000000
542		-9.765625
543		-1.953125
544		-11.718750
545		-3.906250
546		-13.671875
547		-5.859375
548		-11.718750
549		-7.812500
550		-13.671875
551		-9.765625
552		-17.578125
553		-9.765625
554		-17.578125
555		-11.718750
556		-19.531250
557		-13.671875
558		-21.484375
559		-13.671875
560		-23.437500
561		-15.625000
562		-25.390625
563		-17.578125
564		-25.390625
565		-17.578125
566		-25.390625
567		-21.484375
568		-29.296875
569		-21.484375
570		-29.296875
571		-23.437500
572		-31.250000
573		-23.437500
574		-31.250000
575		-25.390625
576		-33.203125
577		-27.343750
578		-35.156250
579		-27.343750
580		-35.156250
581		-29.296875
582		-35.156250
583		-31.250000
584		-39.062500
585		-31.250000
586		-39.062500
587		-31.250000
588		-41.015625
589		-33.203125
590		-41.015625
591		-35.156250
592		-42.968750
593		-35.156250
594		-42.968750
595		-35.156250
596		-42.968750
597		-37.109375
598		-42.968750
599		-39.062500
600		-42.968750
601		-39.062500
602		-44.921875
603		-41.015625
604		-46.875000
605		-41.015625
606		-46.875000
607		-41.015625
608		-48.828125
609		-41.015625
610		-48.828125
611		-42.968750
612		-48.828125
613		-42.968750
614		-48.828125
615		-42.968750
616		-48.828125
617		-44.921875
618		-50.781250
619		-44.921875
620		-50.781250
621		-44.921875
622		-50.781250
623		-44.921875
624		-52.734375
625		-44.921875
626		-52.734375
627		-44.921875
628		-52.734375
629		-46.875000
630		-52.734375
631		-44.921875
632		-50.781250
633		-46.875000
634		-50.781250
635		-46.875000
636		-52.734375
637		-46.875000
638		-52.734375
639		-46.875000
640		-52.734375
641		-46.875000
642		-52.734375
643		-44.921875
644		-52.734375
645		-46.875000
646		-52.734375
647		-44.921875
648		-50.781250
649		-44.921875
650		-48.828125
651		-46.875000
652		-50.781250
653		-44.921875
654		-50.781250
655		-42.968750
656		-50.781250
657		-44.921875
658		-50.781250
659		-42.968750
660		-48.828125
661		-42.968750
662		-48.828125
663		-42.968750
664		-48.828125
665		-41.015625
666		-44.921875
667		-42.968750
668		-44.921875
669		-41.015625
670		-46.875000
671		-39.062500
672		-44.921875
673		-37.109375
674		-44.921875
675		-37.109375
676		-42.968750
677		-37.109375
678		-42.968750
679		-37.109375
680		-41.015625
681		-35.156250
682		-41.015625
683		-35.156250
684		-39.062500
685		-35.156250
686		-39.062500
687		-31.250000
688		-39.062500
689		-31.250000
690		-37.109375
691		-29.296875
692		-37.109375
693		-29.296875
694		-35.156250
695		-29.296875
696		-33.203125
697		-27.343750
698		-31.250000
699		-25.390625
700		-29.296875
701		-25.390625
702		-29.296875
703		-23.437500
704		-29.296875
705		-21.484375
706		-27.343750
707		-19.531250
708		-25.390625
709		-19.531250
710		-25.390625
711		-17.578125
712		-23.437500
713		-15.625000
714		-21.484375
715		-15.625000
716		-21.484375
717		-15.625000
718		-17.578125
719		-13.671875
720		-17.578125
721		-11.718750
722		-15.625000
723		-9.765625
724		-15.625000
725		-7.812500
726		-13.671875
727		-5.859375
728		-11.718750
729		-5.859375
730		-9.765625
731		-1.953125
732		-7.812500
733		-3.906250
734		-5.859375
735		-1.953125
736		-5.859375
737		0.000000
738		-3.906250
739		1.953125
740		-3.906250
741		3.906250
742		-1.953125
743		5.859375
744		0.000000
745		7.812500
746		1.953125
747		7.812500
748		3.906250
749		9.765625
750		5.859375
751		9.765625
752		7.812500
753		11.718750
754		7.812500
755		15.625000
756		9.765625
757		15.625000
758		9.765625
759		17.578125
760		11.718750
761		19.531250
762		13.671875
763		21.484375
764		15.625000
765		21.484375
766		17.578125
767		23.437500
768		19.531250
769		23.437500
770		19.531250
771		27.343750
772		21.484375
773		27.343750
774		23.437500
775		29.296875
776		23.437500
777		31.250000
778		25.390625
779		31.250000
780		27.343750
781		33.203125
782		27.343750
783		35.156250
784		31.250000
785		35.156250
786		33.203125
787		37.109375
788		33.203125
789		39.062500
790		33.203125
791		41.015625
792		35.156250
793		41.015625
794		37.109375
795		42.968750
796		37.109375
797		44.921875
798		39.062500
799		46.875000
800		41.015625
801		44.921875
802		42.968750
803		46.875000
804		42.968750
805		48.828125
806		42.968750
807		50.781250
808		42.968750
809		50.781250
810		44.921875
811		52.734375
812		46.875000
813		52.734375
814		46.875000
815		54.687500
816		48.828125
817		54.687500
818		50.781250
819		54.687500
820		50.781250
821		56.640625
822		50.781250
823		58.593750
824		50.781250
825		58.593750
826		52.734375
827		60.546875
828		52.734375
829		60.546875
830		54.687500
831		60.546875
832		54.687500
833		60.546875
834		58.593750
835		60.546875
836		58.593750
837		62.500000
838		56.640625
839		64.453125
840		58.593750
841		66.406250
842		58.593750
843		64.453125
844		58.593750
845		66.406250
846		58.593750
847		66.406250
848		60.546875
849		66.406250
850		60.546875
851		66.406250
852		62.500000
853		66.406250
854		62.500000
855		66.406250
856		60.546875
857		68.359375
858		62.500000
859		68.359375
860		62.500000
861		68.359375
862		62.500000
863		68.359375
864		62.500000
865		68.359375
866		62.500000
867		68.359375
868		64.453125
869		68.359375
870		64.453125
871		68.359375
872		62.500000
873		68.359375
874		62.500000
875		68.359375
876		62.500000
877		70.312500
878		60.546875
879		70.312500
880		62.500000
881		70.312500
882		62.500000
883		68.359375
884		64.453125
885		66.406250
886		64.453125
887		66.406250
888		60.546875
889		68.359375
890		60.546875
891		68.359375
892		60.546875
893		68.359375
894		60.546875
895		68.359375
896		60.546875
897		66.406250
898		58.593750
899		66.406250
900		60.546875
901		64.453125
902		60.546875
903		64.453125
904		58.593750
905		64.453125
906		58.593750
907		64.453125
908		56.640625
909		64.453125
910		56.640625
911		62.500000
912		54.687500
913		64.453125
914		54.687500
915		60.546875
916		54.687500
917		60.546875
918		54.687500
919		58.593750
920		54.687500
921		56.640625
922		50.781250
923		58.593750
924		50.781250
925		58.593750
926		50.781250
927		56.640625
928		48.828125
929		54.687500
930		48.828125
931		54.687500
932		46.875000
933		52.734375
934		46.875000
935		52.734375
936		46.875000
937		50.781250
938		44.921875
939		48.828125
940		42.968750
941		48.828125
942		41.015625
943		48.828125
944		41.015625
945		46.875000
946		39.062500
947		46.875000
948		39.062500
949		44.921875
950		37.109375
951		42.968750
952		37.109375
953		41.015625
954		35.156250
955		39.062500
956		33.203125
957		39.062500
958		31.250000
959		39.062500
960		31.250000
961		37.109375
962		27.343750
963		35.156250
964		27.343750
965		33.203125
966		25.390625
967		33.203125
968		25.390625
969		31.250000
970		25.390625
971		29.296875
972		21.484375
973		27.343750
974		21.484375
975		27.343750
976		17.578125
977		25.390625
978		17.578125
979		25.390625
980		15.625000
981		21.484375
982		13.671875
983		21.484375
984		11.718750
985		19.531250
986		11.718750
987		15.625000
988		9.765625
989		15.625000
990		7.812500
991		15.625000
992		5.859375
993		13.671875
994		3.906250
995		11.718750
996		1.953125
997		9.765625
998		1.953125
999		9.765625
1000		0.000000
1001		7.812500
1002		0.000000
1003		3.906250
1004		-1.953125
1005		1.953125
1006		-3.906250
1007		1.953125
1008		-7.812500
1009		1.953125
1010		-7.812500
1011		-1.953125
1012		-9.765625
1013		-1.953125
1014		-9.765625
1015		-3.906250
1016		-11.718750
1017		-5.859375
1018		-11.718750
1019		-7.812500
1020		-13.671875
1021		-9.765625
1022		-17.578125
1023		-11.718750
1024		-17.578125
1025		-11.718750
1026		-19.531250
1027		-13.671875
1028		-21.484375
1029		-13.671875
1030		-21.484375
1031		-15.625000
1032		-23.437500
1033		-17.578125
1034		-25.390625
1035		-17.578125
1036		-25.390625
1037		-21.484375
1038		-27.343750
1039		-23.437500
1040		-29.296875
1041		-21.484375
1042		-31.250000
1043		-23.437500
1044		-31.250000
1045		-25.390625
1046		-33.203125
1047		-25.390625
1048		-33.203125
1049		-27.343750
1050		-35.156250
1051		-29.296875
1052		-35.156250
1053		-29.296875
1054		-35.156250
1055		-33.203125
1056		-39.062500
1057		-33.203125
1058		-39.062500
1059		-33.203125
1060		-41.015625
1061		-33.203125
1062		-42.968750
1063		-35.156250
1064		-42.968750
1065		-35.156250
1066		-42.968750
1067		-37.109375
1068		-44.921875
1069		-37.109375
1070		-44.921875
1071		-41.015625
1072		-44.921875
1073		-41.015625
1074		-46.875000
1075		-39.062500
1076		-48.828125
1077		-41.015625
1078		-48.828125
1079		-42.968750
1080		-48.828125
1081		-41.015625
1082		-48.828125
1083		-42.968750
1084		-48.828125
1085		-42.968750
1086		-48.828125
1087		-44.921875
1088		-48.828125
1089		-46.875000
1090		-50.781250
1091		-44.921875
1092		-50.781250
1093		-44.921875
1094		-52.734375
1095		-44.921875
1096		-52.734375
1097		-46.875000
1098		-52.734375
1099		-46.875000
1100		-52.734375
1101		-46.875000
1102		-52.734375
1103		-46.875000
1104		-50.781250
1105		-48.828125
1106		-52.734375
1107		-46.875000
1108		-52.734375
1109		-46.875000
1110		-52.734375
1111		-46.875000
1112		-52.734375
1113		-46.875000
1114		-52.734375
1115		-46.875000
1116		-52.734375
1117		-46.875000
1118		-52.734375
1119		-46.875000
1120		-50.781250
1121		-46.875000
1122		-50.781250
1123		-46.875000
1124		-50.781250
1125		-44.921875
1126		-50.781250
1127		-44.921875
1128		-50.781250
1129		-42.968750
1130		-50.781250
1131		-42.968750
1132		-48.828125
1133		-42.968750
1134		-48.828125
1135		-42.968750
1136		-48.828125
1137		-42.968750
1138		-46.875000
1139		-42.968750
1140		-46.875000
1141		-39.062500
1142		-46.875000
1143		-39.062500
1144		-44.921875
1145		-39.062500
1146		-44.921875
1147		-39.062500
1148		-44.921875
1149		-37.109375
1150		-42.968750
1151		-37.109375
1152		-42.968750
1153		-35.156250
1154		-39.062500
1155		-37.109375
1156		-39.062500
1157		-35.156250
1158		-39.062500
1159		-31.250000
1160		-37.109375
1161		-31.250000
1162		-37.109375
1163		-31.250000
1164		-35.156250
1165		-29.296875
1166		-35.156250
1167		-27.343750
1168		-33.203125
1169		-25.390625
1170		-31.250000
1171		-27.343750
1172		-29.296875
1173		-25.390625
1174		-29.296875
1175		-23.437500
1176		-29.296875
1177		-21.484375
1178		-27.343750
1179		-21.484375
1180		-25.390625
1181		-19.531250
1182		-25.390625
1183		-17.578125
1184		-23.437500
1185		-15.625000
1186		-21.484375
1187		-15.625000
1188		-19.531250
1189		-15.625000
1190		-17.578125
1191		-11.718750
1192		-17.578125
1193		-11.718750
1194		-15.625000
1195		-9.765625
1196		-15.625000
1197		-7.812500
1198		-13.671875
1199		-5.859375
1200		-11.718750
1201		-3.906250
1202		-9.765625
1203		-3.906250
1204		-7.812500
1205		-3.906250
1206		-5.859375
1207		-1.953125
1208		-5.859375
1209		0.000000
1210		-3.906250
1211		3.906250
1212		-3.906250
1213		3.906250
1214		-1.953125
1215		5.859375
1216		0.000000
1217		7.812500
1218		1.953125
1219		9.765625
1220		1.953125
1221		9.765625
1222		5.859375
1223		9.765625
1224		7.812500
1225		13.671875
1226		7.812500
1227		15.625000
1228		9.765625
1229		17.578125
1230		11.718750
1231		17.578125
1232		11.718750
1233		19.531250
1234		13.671875
1235		21.484375
1236		15.625000
1237		21.484375
1238		19.531250
1239		23.437500
1240		19.531250
1241		23.437500
1242		19.531250
1243		27.343750
1244		21.484375
1245		29.296875
1246		23.437500
1247		29.296875
1248		25.390625
1249		31.250000
1250		25.390625
1251		33.203125
1252		27.343750
1253		35.156250
1254		29.296875
1255		33.203125
1256		31.250000
1257		35.156250
1258		31.250000
1259		39.062500
1260		33.203125
1261		39.062500
1262		33.203125
1263		41.015625
1264		35.156250
1265		42.968750
1266		37.109375
1267		42.968750
1268		37.109375
1269		44.921875
1270		39.062500
1271		44.921875
1272		41.015625
1273		44.921875
1274		41.015625
1275		46.875000
1276		42.968750
1277		48.828125
1278		42.968750
1279		50.781250
1280		44.921875
1281		50.781250
1282		44.921875
1283		52.734375
1284		46.875000
1285		52.734375
1286		46.875000
1287		54.687500
1288		50.781250
1289		54.687500
1290		50.781250
1291		54.687500
1292		50.781250
1293		56.640625
1294		50.781250
1295		58.593750
1296		52.734375
1297		58.593750
1298		52.734375
1299		58.593750
1300		52.734375
1301		60.546875
1302		54.687500
1303		60.546875
1304		56.640625
1305		60.546875
1306		58.593750
1307		62.500000
1308		56.640625
1309		64.453125
1310		56.640625
1311		64.453125
1312		56.640625
1313		64.453125
1314		58.593750
1315		66.406250
1316		58.593750
1317		64.453125
1318		58.593750
1319		66.406250
1320		60.546875
1321		66.406250
1322		62.500000
1323		64.453125
1324		62.500000
1325		66.406250
1326		60.546875
1327		68.359375
1328		60.546875
1329		68.359375
1330		62.500000
1331		68.359375
1332		62.500000
1333		68.359375
1334		62.500000
1335		70.312500
1336		62.500000
1337		68.359375
1338		64.453125
1339		68.359375
1340		64.453125
1341		68.359375
1342		62.500000
1343		68.359375
1344		62.500000
1345		68.359375
1346		62.500000
1347		70.312500
1348		62.500000
1349		68.359375
1350		62.500000
1351		68.359375
1352		62.500000
1353		68.359375
1354		62.500000
1355		70.312500
1356		64.453125
1357		66.406250
1358		62.500000
1359		66.406250
1360		60.546875
1361		68.359375
1362		60.546875
1363		68.359375
1364		60.546875
1365		66.406250
1366		60.546875
1367		68.359375
1368		58.593750
1369		66.406250
1370		60.546875
1371		66.406250
1372		60.546875
1373		64.453125
1374		60.546875
1375		64.453125
1376		58.593750
1377		64.453125
1378		56.640625
1379		64.453125
1380		56.640625
1381		64.453125
1382		56.640625
1383		62.500000
1384		54.687500
1385		62.500000
1386		54.687500
1387		62.500000
1388		54.687500
1389		60.546875
1390		54.687500
1391		58.593750
1392		52.734375
1393		58.593750
1394		50.781250
1395		58.593750
1396		50.781250
1397		56.640625
1398		48.828125
1399		56.640625
1400		48.828125
1401		54.687500
1402		46.875000
1403		54.687500
1404		46.875000
1405		52.734375
1406		46.875000
1407		50.781250
1408		46.875000
1409		50.781250
1410		42.968750
1411		50.781250
1412		42.968750
1413		48.828125
1414		41.015625
1415		48.828125
1416		41.015625
1417		46.875000
1418		39.062500
1419		46.875000
1420		37.109375
1421		44.921875
1422		37.109375
1423		41.015625
1424		37.109375
1425		41.015625
1426		33.203125
1427		41.015625
1428		31.250000
1429		39.062500
1430		31.250000
1431		37.109375
1432		29.296875
1433		37.109375
1434		27.343750
1435		35.156250
1436		25.390625
1437		33.203125
1438		25.390625
1439		31.250000
1440		25.390625
1441		29.296875
1442		23.437500
1443		27.343750
1444		21.484375
1445		27.343750
1446		19.531250
1447		27.343750
1448		17.578125
1449		25.390625
1450		15.625000
1451		23.437500
1452		13.671875
1453		21.484375
1454		13.671875
1455		21.484375
1456		13.671875
1457		17.578125
1458		11.718750
1459		15.625000
1460		7.812500
1461		15.625000
1462		5.859375
1463		15.625000
1464		5.859375
1465		11.718750
1466		3.906250
1467		11.718750
1468		1.953125
1469		9.765625
1470		0.000000
1471		7.812500
1472		1.953125
1473		7.812500
1474		0.000000
1475		3.906250
1476		-3.906250
1477		3.906250
1478		-5.859375
1479		1.953125
1480		-7.812500
1481		0.000000
1482		-7.812500
1483		-1.953125
1484		-9.765625
1485		-1.953125
1486		-11.718750
1487		-3.906250
1488		-11.718750
1489		-5.859375
1490		-13.671875
1491		-7.812500
1492		-13.671875
1493		-9.765625
1494		-17.578125
1495		-9.765625
1496		-19.531250
1497		-11.718750
1498		-19.531250
1499		-13.671875
1500		-21.484375
1501		-15.625000
1502		-23.437500
1503		-15.625000
1504		-25.390625
1505		-17.578125
1506		-23.437500
1507		-21.484375
1508		-25.390625
1509		-21.484375
1510		-29.296875
1511		-23.437500
1512		-31.250000
1513		-23.437500
1514		-31.250000
1515		-25.390625
1516		-33.203125
1517		-25.390625
1518		-35.156250
1519		-27.343750
1520		-35.156250
1521		-27.343750
1522		-37.109375
1523		-29.296875
1524		-35.156250
1525		-31.250000
1526		-37.109375
1527		-33.203125
1528		-39.062500
1529		-31.250000
1530		-41.015625
1531		-33.203125
1532		-41.015625
1533		-35.156250
1534		-42.968750
1535		-35.156250
1536		-42.968750
1537		-37.109375
1538		-44.921875
1539		-37.109375
1540		-42.968750
1541		-39.062500
1542		-42.968750
1543		-41.015625
1544		-44.921875
1545		-39.062500
1546		-46.875000
1547		-41.015625
1548		-46.875000
1549		-41.015625
1550		-48.828125
1551		-41.015625
1552		-48.828125
1553		-41.015625
1554		-50.781250
1555		-42.968750
1556		-48.828125
1557		-42.968750
1558		-48.828125
1559		-44.921875
1560		-50.781250
1561		-44.921875
1562		-50.781250
1563		-44.921875
1564		-50.781250
1565		-44.921875
1566		-52.734375
1567		-44.921875
1568		-52.734375
1569		-44.921875
1570		-52.734375
1571		-44.921875
1572		-52.734375
1573		-46.875000
1574		-50.781250
1575		-46.875000
1576		-50.781250
1577		-46.875000
1578		-52.734375
1579		-46.875000
1580		-52.734375
1581		-46.875000
1582		-52.734375
1583		-46.875000
1584		-52.734375
1585		-46.875000
1586		-52.734375
1587		-44.921875
1588		-52.734375
1589		-44.921875
1590		-50.781250
1591		-46.875000
1592		-50.781250
1593		-46.875000
1594		-50.781250
1595		-44.921875
1596		-50.781250
1597		-44.921875
1598		-50.781250
1599		-44.921875
1600		-50.781250
1601		-42.968750
1602		-50.781250
1603		-42.968750
1604		-50.781250
1605		-42.968750
1606		-46.875000
1607		-42.968750
1608		-46.875000
1609		-42.968750
1610		-46.875000
1611		-41.015625
1612		-46.875000
1613		-39.062500
1614		-46.875000
1615		-39.062500
1616		-44.921875
1617		-37.109375
1618		-44.921875
1619		-37.109375
1620		-42.968750
1621		-37.109375
1622		-42.968750
1623		-35.156250
1624		-39.062500
1625		-37.109375
1626		-39.062500
1627		-35.156250
1628		-39.062500
1629		-33.203125
1630		-39.062500
1631		-31.250000
1632		-37.109375
1633		-31.250000
1634		-37.109375
1635		-29.296875
1636		-35.156250
1637		-27.343750
1638		-35.156250
1639		-27.343750
1640		-33.203125
1641		-27.343750
1642		-31.250000
1643		-27.343750
1644		-29.296875
1645		-23.437500
1646		-29.296875
1647		-21.484375
1648		-27.343750
1649		-21.484375
1650		-27.343750
1651		-19.531250
1652		-25.390625
1653		-17.578125
1654		-23.437500
1655		-17.578125
1656		-23.437500
1657		-15.625000
1658		-19.531250
1659		-15.625000
1660		-17.578125
1661		-13.671875
1662		-19.531250
1663		-11.718750
1664		-17.578125
1665		-9.765625
1666		-15.625000
1667		-9.765625
1668		-15.625000
1669		-7.812500
1670		-13.671875
1671		-5.859375
1672		-11.718750
1673		-3.906250
1674		-9.765625
1675		-3.906250
1676		-5.859375
1677		-1.953125
1678		-5.859375
1679		0.000000
1680		-5.859375
1681		1.953125
1682		-3.906250
1683		3.906250
1684		-1.953125
1685		3.906250
1686		0.000000
1687		5.859375
1688		0.000000
1689		7.812500
1690		3.906250
1691		9.765625
1692		5.859375
1693		9.765625
1694		5.859375
1695		11.718750
1696		7.812500
1697		13.671875
1698		9.765625
1699		15.625000
1700		9.765625
1701		17.578125
1702		11.718750
1703		19.531250
1704		13.671875
1705		19.531250
1706		13.671875
1707		21.484375
1708		17.578125
1709		21.484375
1710		19.531250
1711		23.437500
1712		19.531250
1713		27.343750
1714		19.531250
1715		29.296875
1716		21.484375
1717		29.296875
1718		23.437500
1719		31.250000
1720		25.390625
1721		31.250000
1722		25.390625
1723		33.203125
1724		27.343750
1725		35.156250
1726		31.250000
1727		35.156250
1728		31.250000
1729		39.062500
1730		31.250000
1731		39.062500
1732		33.203125
1733		41.015625
1734		33.203125
1735		41.015625
1736		35.156250
1737		42.968750
1738		37.109375
1739		42.968750
1740		37.109375
1741		44.921875
1742		41.015625
1743		44.921875
1744		42.968750
1745		46.875000
1746		41.015625
1747		48.828125
1748		42.968750
1749		48.828125
1750		42.968750
1751		50.781250
1752		44.921875
1753		52.734375
1754		46.875000
1755		52.734375
1756		46.875000
1757		54.687500
1758		48.828125
1759		54.687500
1760		50.781250
1761		54.687500
1762		50.781250
1763		56.640625
1764		50.781250
1765		58.593750
1766		52.734375
1767		58.593750
1768		52.734375
1769		60.546875
1770		52.734375
1771		60.546875
1772		54.687500
1773		60.546875
1774		54.687500
1775		60.546875
1776		56.640625
1777		60.546875
1778		58.593750
1779		62.500000
1780		56.640625
1781		64.453125
1782		56.640625
1783		64.453125
1784		56.640625
1785		64.453125
1786		58.593750
1787		66.406250
1788		58.593750
1789		66.406250
1790		58.593750
1791		66.406250
1792		62.500000
1793		64.453125
1794		62.500000
1795		64.453125
1796		60.546875
1797		68.359375
1798		60.546875
1799		68.359375
1800		60.546875
1801		68.359375
1802		60.546875
1803		68.359375
1804		60.546875
1805		68.359375
1806		62.500000
1807		70.312500
1808		62.500000
1809		68.359375
1810		64.453125
1811		66.406250
1812		62.500000
1813		68.359375
1814		62.500000
1815		68.359375
1816		62.500000
1817		70.312500
1818		62.500000
1819		70.312500
1820		62.500000
1821		70.312500
1822		62.500000
1823		70.312500
1824		62.500000
1825		68.359375
1826		64.453125
1827		66.406250
1828		64.453125
1829		66.406250
1830		60.546875
1831		68.359375
1832		60.546875
1833		68.359375
1834		62.500000
1835		66.406250
1836		60.546875
1837		66.406250
1838		60.546875
1839		66.406250
1840		60.546875
1841		66.406250
1842		60.546875
1843		66.406250
1844		60.546875
1845		64.453125
1846		58.593750
1847		64.453125
1848		58.593750
1849		64.453125
1850		56.640625
1851		64.453125
1852		56.640625
1853		62.500000
1854		54.687500
1855		62.500000
1856		54.687500
1857		60.546875
1858		54.687500
1859		60.546875
1860		54.687500
1861		58.593750
1862		54.687500
1863		58.593750
1864		52.734375
1865		58.593750
1866		50.781250
1867		56.640625
1868		50.781250
1869		56.640625
1870		48.828125
1871		56.640625
1872		48.828125
1873		54.687500
1874		46.875000
1875		54.687500
1876		48.828125
1877		50.781250
1878		46.875000
1879		50.781250
1880		44.921875
1881		50.781250
1882		42.968750
1883		50.781250
1884		41.015625
1885		48.828125
1886		41.015625
1887		48.828125
1888		39.062500
1889		46.875000
1890		39.062500
1891		44.921875
1892		37.109375
1893		42.968750
1894		37.109375
1895		41.015625
1896		35.156250
1897		39.062500
1898		33.203125
1899		39.062500
1900		31.250000
1901		39.062500
1902		31.250000
1903		37.109375
1904		29.296875
1905		37.109375
1906		27.343750
1907		35.156250
1908		27.343750
1909		33.203125
1910		25.390625
1911		31.250000
1912		25.390625
1913		29.296875
1914		21.484375
1915		27.343750
1916		21.484375
1917		27.343750
1918		19.531250
1919		23.437500
1920		19.531250
1921		23.437500
1922		17.578125
1923		21.484375
1924		15.625000
1925		21.484375
1926		13.671875
1927		21.484375
1928		13.671875
1929		17.578125
1930		9.765625
1931		15.625000
1932		9.765625
1933		13.671875
1934		7.812500
1935		11.718750
1936		5.859375
1937		11.718750
1938		3.906250
1939		9.765625
1940		3.906250
1941		7.812500
1942		1.953125
1943		5.859375
1944		0.000000
1945		3.906250
1946		-1.953125
1947		1.953125
1948		-3.906250
1949		1.953125
1950		-3.906250
1951		0.000000
1952		-5.859375
1953		-1.953125
1954		-7.812500
1955		-3.906250
1956		-9.765625
1957		-5.859375
1958		-9.765625
1959		-5.859375
1960		-11.718750
1961		-7.812500
1962		-13.671875
1963		-9.765625
1964		-15.625000
1965		-9.765625
1966		-15.625000
1967		-11.718750
1968		-17.578125
1969		-13.671875
1970		-19.531250
1971		-15.625000
1972		-21.484375
1973		-15.625000
1974		-23.437500
1975		-17.578125
1976		-23.437500
1977		-19.531250
1978		-25.390625
1979		-21.484375
1980		-27.343750
1981		-21.484375
1982		-27.343750
1983		-23.437500
1984		-27.343750
1985		-25.390625
1986		-29.296875
1987		-25.390625
1988		-31.250000
1989		-27.343750
1990		-33.203125
1991		-27.343750
1992		-35.156250
1993		-29.296875
1994		-35.156250
1995		-31.250000
1996		-35.156250
1997		-33.203125
1998		-37.109375
1999		-33.203125
2000		-37.109375
2001		-35.156250
2002		-39.062500
2003		-35.156250
2004		-39.062500
2005		-35.156250
2006		-41.015625
2007		-37.109375
2008		-41.015625
2009		-37.109375
2010		-42.968750
2011		-39.062500
2012		-42.968750
2013		-41.015625
2014		-44.921875
2015		-41.015625
2016		-44.921875
2017		-41.015625
2018		-44.921875
2019		-41.015625
2020		-46.875000
2021		-42.968750
2022		-46.875000
2023		-42.968750
2024		-46.875000
2025		-42.968750
2026		-48.828125
2027		-44.921875
2028		-48.828125
2029		-44.921875
2030		-48.828125
2031		-44.921875
2032		-48.828125
2033		-44.921875
2034		-50.781250
2035		-46.875000
2036		-50.781250
2037		-46.875000
2038		-50.781250
2039		-46.875000
2040		-50.781250
2041		-46.875000
2042		-50.781250
2043		-46.875000
2044		-50.781250
2045		-46.875000
2046		-50.781250
2047		-46.875000
2048		-50.781250
2049		-46.875000
2050		-50.781250
2051		-46.875000
2052		-50.781250
2053		-46.875000
2054		-50.781250
2055		-48.828125
2056		-50.781250
2057		-46.875000
2058		-50.781250
2059		-46.875000
2060		-50.781250
2061		-46.875000
2062		-50.781250
2063		-46.875000
2064		-50.781250
2065		-46.875000
2066		-48.828125
2067		-46.875000
2068		-48.828125
2069		-46.875000
2070		-48.828125
2071		-44.921875
2072		-48.828125
2073		-44.921875
2074		-48.828125
2075		-44.921875
2076		-46.875000
2077		-42.968750
2078		-46.875000
2079		-42.968750
2080		-46.875000
2081		-42.968750
2082		-46.875000
2083		-41.015625
2084		-44.921875
2085		-41.015625
2086		-44.921875
2087		-41.015625
2088		-42.968750
2089		-39.062500
2090		-42.968750
2091		-39.062500
2092		-42.968750
2093		-37.109375
2094		-41.015625
2095		-37.109375
2096		-39.062500
2097		-37.109375
2098		-39.062500
2099		-35.156250
2100		-37.109375
2101		-33.203125
2102		-37.109375
2103		-33.203125
2104		-35.156250
2105		-31.250000
2106		-35.156250
2107		-31.250000
2108		-33.203125
2109		-29.296875
2110		-31.250000
2111		-27.343750
2112		-31.250000
2113		-27.343750
2114		-29.296875
2115		-25.390625
2116		-29.296875
2117		-25.390625
2118		-27.343750
2119		-23.437500
2120		-25.390625
2121		-21.484375
2122		-25.390625
2123		-21.484375
2124		-23.437500
2125		-19.531250
2126		-21.484375
2127		-17.578125
2128		-19.531250
2129		-15.625000
2130		-19.531250
2131		-15.625000
2132		-17.578125
2133		-13.671875
2134		-15.625000
2135		-11.718750
2136		-15.625000
2137		-11.718750
2138		-13.671875
2139		-9.765625
2140		-11.718750
2141		-7.812500
2142		-9.765625
2143		-5.859375
2144		-9.765625
2145		-3.906250
2146		-7.812500
2147		-3.906250
2148		-5.859375
2149		-1.953125
2150		-3.906250
2151		0.000000
2152		-3.906250
2153		0.000000
2154		-1.953125
2155		1.953125
2156		0.000000
2157		3.906250
2158		1.953125
2159		5.859375
2160		3.906250
2161		7.812500
2162		3.906250
2163		7.812500
2164		5.859375
2165		9.765625
2166		7.812500
2167		11.718750
2168		9.765625
2169		13.671875
2170		11.718750
2171		15.625000
2172		11.718750
2173		15.625000
2174		13.671875
2175		17.578125
2176		15.625000
2177		19.531250
2178		17.578125
2179		21.484375
2180		17.578125
2181		21.484375
2182		19.531250
2183		23.437500
2184		21.484375
2185		25.390625
2186		21.484375
2187		27.343750
2188		23.437500
2189		27.343750
2190		25.390625
2191		29.296875
2192		27.343750
2193		31.250000
2194		27.343750
2195		33.203125
2196		29.296875
2197		33.203125
2198		31.250000
2199		35.156250
2200		33.203125
2201		37.109375
2202		33.203125
2203		37.109375
2204		35.156250
2205		39.062500
2206		37.109375
2207		41.015625
2208		37.109375
2209		41.015625
2210		39.062500
2211		42.968750
2212		39.062500
2213		42.968750
2214		41.015625
2215		44.921875
2216		42.968750
2217		46.875000
2218		42.968750
2219		46.875000
2220		44.921875
2221		48.828125
2222		44.921875
2223		50.781250
2224		46.875000
2225		50.781250
2226		46.875000
2227		50.781250
2228		48.828125
2229		52.734375
2230		50.781250
2231		52.734375
2232		50.781250
2233		54.687500
2234		52.734375
2235		54.687500
2236		52.734375
2237		56.640625
2238		52.734375
2239		56.640625
2240		54.687500
2241		58.593750
2242		54.687500
2243		58.593750
2244		56.640625
2245		60.546875
2246		56.640625
2247		60.546875
2248		58.593750
2249		60.546875
2250		58.593750
2251		62.500000
2252		58.593750
2253		62.500000
2254		58.593750
2255		62.500000
2256		60.546875
2257		62.500000
2258		60.546875
2259		64.453125
2260		60.546875
2261		64.453125
2262		60.546875
2263		64.453125
2264		62.500000
2265		64.453125
2266		62.500000
2267		66.406250
2268		62.500000
2269		66.406250
2270		62.500000
2271		66.406250
2272		62.500000
2273		66.406250
2274		62.500000
2275		66.406250
2276		64.453125
2277		66.406250
2278		62.500000
2279		66.406250
2280		64.453125
2281		68.359375
2282		64.453125
2283		66.406250
2284		64.453125
2285		68.359375
2286		62.500000
2287		68.359375
2288		64.453125
2289		68.359375
2290		64.453125
2291		68.359375
2292		64.453125
2293		68.359375
2294		64.453125
2295		68.359375
2296		64.453125
2297		66.406250
2298		64.453125
2299		66.406250
2300		62.500000
2301		66.406250
2302		62.500000
2303		66.406250
2304		62.500000
2305		66.406250
2306		62.500000
2307		66.406250
2308		62.500000
2309		66.406250
2310		62.500000
2311		64.453125
2312		62.500000
2313		64.453125
2314		60.546875
2315		64.453125
2316		60.546875
2317		64.453125
2318		60.546875
2319		62.500000
2320		58.593750
2321		62.500000
2322		58.593750
2323		62.500000
2324		58.593750
2325		60.546875
2326		56.640625
2327		60.546875
2328		56.640625
2329		60.546875
2330		56.640625
2331		58.593750
2332		54.687500
2333		58.593750
2334		54.687500
2335		58.593750
2336		52.734375
2337		56.640625
2338		52.734375
2339		56.640625
2340		50.781250
2341		54.687500
2342		50.781250
2343		54.687500
2344		48.828125
2345		52.734375
2346		48.828125
2347		52.734375
2348		46.875000
2349		50.781250
2350		46.875000
2351		50.781250
2352		44.921875
2353		48.828125
2354		42.968750
2355		48.828125
2356		42.968750
2357		46.875000
2358		41.015625
2359		44.921875
2360		41.015625
2361		44.921875
2362		39.062500
2363		42.968750
2364		37.109375
2365		41.015625
2366		37.109375
2367		41.015625
2368		35.156250
2369		39.062500
2370		33.203125
2371		39.062500
2372		33.203125
2373		37.109375
2374		31.250000
2375		35.156250
2376		29.296875
2377		35.156250
2378		29.296875
2379		33.203125
2380		27.343750
2381		31.250000
2382		25.390625
2383		29.296875
2384		25.390625
2385		29.296875
2386		21.484375
2387		27.343750
2388		21.484375
2389		25.390625
2390		19.531250
2391		23.437500
2392		17.578125
2393		21.484375
2394		17.578125
2395		21.484375
2396		15.625000
2397		19.531250
2398		13.671875
2399		17.578125
2400		11.718750
2401		17.578125
2402		9.765625
2403		15.625000
2404		9.765625
2405		13.671875
2406		7.812500
2407		11.718750
2408		5.859375
2409		9.765625
2410		3.906250
2411		9.765625
2412		1.953125
2413		7.812500
2414		1.953125
2415		5.859375
2416		0.000000
2417		3.906250
2418		-1.953125
2419		1.953125
2420		-3.906250
2421		0.000000
2422		-5.859375
2423		0.000000
2424		-5.859375
2425		-1.953125
2426		-7.812500
2427		-3.906250
2428		-9.765625
2429		-5.859375
2430		-11.718750
2431		-7.812500
2432		-11.718750
2433		-7.812500
2434		-13.671875
2435		-9.765625
2436		-15.625000
2437		-11.718750
2438		-17.578125
2439		-13.671875
2440		-19.531250
2441		-13.671875
2442		-19.531250
2443		-15.625000
2444		-21.484375
2445		-17.578125
2446		-23.437500
2447		-19.531250
2448		-23.437500
2449		-19.531250
2450		-25.390625
2451		-21.484375
2452		-27.343750
2453		-21.484375
2454		-27.343750
2455		-23.437500
2456		-29.296875
2457		-25.390625
2458		-31.250000
2459		-27.343750
2460		-31.250000
2461		-27.343750
2462		-33.203125
2463		-29.296875
2464		-33.203125
2465		-29.296875
2466		-35.156250
2467		-31.250000
2468		-37.109375
2469		-33.203125
2470		-37.109375
2471		-33.203125
2472		-39.062500
2473		-35.156250
2474		-39.062500
2475		-35.156250
2476		-41.015625
2477		-37.109375
2478		-41.015625
2479		-37.109375
2480		-42.968750
2481		-37.109375
2482		-42.968750
2483		-39.062500
2484		-44.921875
2485		-41.015625
2486		-44.921875
2487		-41.015625
2488		-44.921875
2489		-41.015625
2490		-46.875000
2491		-42.968750
2492		-46.875000
2493		-42.968750
2494		-46.875000
2495		-42.968750
2496		-48.828125
2497		-44.921875
2498		-48.828125
2499		-44.921875
2500		-48.828125
2501		-44.921875
2502		-48.828125
2503		-44.921875
2504		-50.781250
2505		-46.875000
2506		-50.781250
2507		-46.875000
2508		-50.781250
2509		-46.875000
2510		-50.781250
2511		-46.875000
2512		-50.781250
2513		-46.875000
2514		-50.781250
2515		-46.875000
2516		-50.781250
2517		-48.828125
2518		-50.781250
2519		-48.828125
2520		-50.781250
2521		-46.875000
2522		-50.781250
2523		-46.875000
2524		-50.781250
2525		-46.875000
2526		-52.734375
2527		-46.875000
2528		-50.781250
2529		-48.828125
2530		-50.781250
2531		-46.875000
2532		-50.781250
2533		-46.875000
2534		-50.781250
2535		-46.875000
2536		-50.781250
2537		-46.875000
2538		-50.781250
2539		-46.875000
2540		-48.828125
2541		-44.921875
2542		-48.828125
2543		-44.921875
2544		-48.828125
2545		-44.921875
2546		-46.875000
2547		-44.921875
2548		-46.875000
2549		-42.968750
2550		-46.875000
2551		-42.968750
2552		-44.921875
2553		-42.968750
2554		-44.921875
2555		-41.015625
2556		-44.921875
2557		-41.015625
2558		-42.968750
2559		-41.015625
2560		-42.968750
2561		-39.062500
2562		-42.968750
2563		-39.062500
2564		-42.968750
2565		-37.109375
2566		-41.015625
2567		-37.109375
2568		-39.062500
2569		-35.156250
2570		-39.062500
2571		-35.156250
2572		-37.109375
2573		-33.203125
2574		-37.109375
2575		-33.203125
2576		-35.156250
2577		-31.250000
2578		-33.203125
2579		-29.296875
2580		-33.203125
2581		-27.343750
2582		-31.250000
2583		-27.343750
2584		-31.250000
2585		-27.343750
2586		-31.250000
2587		-25.390625
2588		-27.343750
2589		-23.437500
2590		-27.343750
2591		-23.437500
2592		-25.390625
2593		-21.484375
2594		-25.390625
2595		-19.531250
2596		-23.437500
2597		-19.531250
2598		-21.484375
2599		-17.578125
2600		-19.531250
2601		-15.625000
2602		-19.531250
2603		-13.671875
2604		-17.578125
2605		-13.671875
2606		-15.625000
2607		-11.718750
2608		-15.625000
2609		-9.765625
2610		-13.671875
2611		-9.765625
2612		-11.718750
2613		-7.812500
2614		-11.718750
2615		-5.859375
2616		-9.765625
2617		-5.859375
2618		-7.812500
2619		-3.906250
2620		-5.859375
2621		0.000000
2622		-3.906250
2623		0.000000
2624		-1.953125
2625		1.953125
2626		-1.953125
2627		3.906250
2628		0.000000
2629		3.906250
2630		1.953125
2631		5.859375
2632		3.906250
2633		7.812500
2634		5.859375
2635		9.765625
2636		5.859375
2637		11.718750
2638		7.812500
2639		11.718750
2640		9.765625
2641		13.671875
2642		11.718750
2643		15.625000
2644		11.718750
2645		17.578125
2646		13.671875
2647		19.531250
2648		15.625000
2649		19.531250
2650		17.578125
2651		21.484375
2652		19.531250
2653		23.437500
2654		19.531250
2655		25.390625
2656		21.484375
2657		25.390625
2658		23.437500
2659		27.343750
2660		25.390625
2661		29.296875
2662		25.390625
2663		31.250000
2664		27.343750
2665		31.250000
2666		29.296875
2667		33.203125
2668		31.250000
2669		35.156250
2670		31.250000
2671		35.156250
2672		33.203125
2673		37.109375
2674		33.203125
2675		39.062500
2676		35.156250
2677		39.062500
2678		37.109375
2679		41.015625
2680		39.062500
2681		42.968750
2682		39.062500
2683		42.968750
2684		41.015625
2685		44.921875
2686		42.968750
2687		44.921875
2688		42.968750
2689		46.875000
2690		44.921875
2691		46.875000
2692		44.921875
2693		48.828125
2694		46.875000
2695		50.781250
2696		46.875000
2697		50.781250
2698		48.828125
2699		52.734375
2700		48.828125
2701		52.734375
2702		50.781250
2703		54.687500
2704		50.781250
2705		54.687500
2706		52.734375
2707		56.640625
2708		52.734375
2709		56.640625
2710		54.687500
2711		58.593750
2712		54.687500
2713		58.593750
2714		54.687500
2715		58.593750
2716		56.640625
2717		60.546875
2718		56.640625
2719		60.546875
2720		56.640625
2721		62.500000
2722		58.593750
2723		62.500000
2724		58.593750
2725		62.500000
2726		58.593750
2727		62.500000
2728		60.546875
2729		64.453125
2730		60.546875
2731		64.453125
2732		60.546875
2733		64.453125
2734		62.500000
2735		64.453125
2736		62.500000
2737		66.406250
2738		60.546875
2739		66.406250
2740		62.500000
2741		66.406250
2742		62.500000
2743		66.406250
2744		64.453125
2745		66.406250
2746		64.453125
2747		66.406250
2748		64.453125
2749		68.359375
2750		62.500000
2751		66.406250
2752		64.453125
2753		68.359375
2754		64.453125
2755		68.359375
2756		64.453125
2757		68.359375
2758		64.453125
2759		68.359375
2760		64.453125
2761		68.359375
2762		64.453125
2763		68.359375
2764		64.453125
2765		66.406250
2766		64.453125
2767		66.406250
2768		64.453125
2769		66.406250
2770		64.453125
2771		66.406250
2772		62.500000
2773		66.406250
2774		62.500000
2775		66.406250
2776		62.500000
2777		66.406250
2778		62.500000
2779		66.406250
2780		62.500000
2781		64.453125
2782		62.500000
2783		64.453125
2784		60.546875
2785		64.453125
2786		60.546875
2787		64.453125
2788		60.546875
2789		62.500000
2790		58.593750
2791		62.500000
2792		58.593750
2793		62.500000
2794		58.593750
2795		62.500000
2796		56.640625
2797		60.546875
2798		56.640625
2799		60.546875
2800		56.640625
2801		58.593750
2802		54.687500
2803		58.593750
2804		54.687500
2805		58.593750
2806		52.734375
2807		56.640625
2808		52.734375
2809		56.640625
2810		52.734375
2811		54.687500
2812		50.781250
2813		54.687500
2814		48.828125
2815		52.734375
2816		48.828125
2817		52.734375
2818		46.875000
2819		50.781250
2820		46.875000
2821		50.781250
2822		44.921875
2823		48.828125
2824		44.921875
2825		48.828125
2826		42.968750
2827		48.828125
2828		41.015625
2829		46.875000
2830		41.015625
2831		44.921875
2832		39.062500
2833		42.968750
2834		39.062500
2835		42.968750
2836		37.109375
2837		41.015625
2838		37.109375
2839		39.062500
2840		35.156250
2841		39.062500
2842		33.203125
2843		37.109375
2844		33.203125
2845		35.156250
2846		31.250000
2847		35.156250
2848		29.296875
2849		33.203125
2850		27.343750
2851		31.250000
2852		27.343750
2853		31.250000
2854		23.437500
2855		29.296875
2856		23.437500
2857		27.343750
2858		21.484375
2859		25.390625
2860		19.531250
2861		23.437500
2862		19.531250
2863		23.437500
2864		17.578125
2865		21.484375
2866		15.625000
2867		19.531250
2868		15.625000
2869		17.578125
2870		13.671875
2871		17.578125
2872		11.718750
2873		15.625000
2874		9.765625
2875		13.671875
2876		7.812500
2877		11.718750
2878		5.859375
2879		9.765625
2880		5.859375
2881		9.765625
2882		3.906250
2883		7.812500
2884		1.953125
2885		5.859375
2886		0.000000
2887		3.906250
2888		-1.953125
2889		1.953125
2890		-1.953125
2891		1.953125
2892		-3.906250
2893		0.000000
2894		-5.859375
2895		-1.953125
2896		-7.812500
2897		-3.906250
2898		-9.765625
2899		-3.906250
2900		-11.718750
2901		-5.859375
2902		-11.718750
2903		-7.812500
2904		-13.671875
2905		-9.765625
2906		-13.671875
2907		-11.718750
2908		-15.625000
2909		-11.718750
2910		-17.578125
2911		-13.671875
2912		-19.531250
2913		-15.625000
2914		-21.484375
2915		-17.578125
2916		-21.484375
2917		-17.578125
2918		-23.437500
2919		-17.578125
2920		-23.437500
2921		-21.484375
2922		-25.390625
2923		-21.484375
2924		-27.343750
2925		-23.437500
2926		-29.296875
2927		-25.390625
2928		-29.296875
2929		-25.390625
2930		-31.250000
2931		-27.343750
2932		-33.203125
2933		-29.296875
2934		-33.203125
2935		-29.296875
2936		-35.156250
2937		-31.250000
2938		-35.156250
2939		-33.203125
2940		-37.109375
2941		-33.203125
2942		-37.109375
2943		-33.203125
2944		-39.062500
2945		-35.156250
2946		-39.062500
2947		-35.156250
2948		-41.015625
2949		-37.109375
2950		-42.968750
2951		-39.062500
2952		-42.968750
2953		-39.062500
2954		-42.968750
2955		-39.062500
2956		-44.921875
2957		-39.062500
2958		-44.921875
2959		-41.015625
2960		-44.921875
2961		-41.015625
2962		-46.875000
2963		-42.968750
2964		-46.875000
2965		-42.968750
2966		-46.875000
2967		-44.921875
2968		-48.828125
2969		-44.921875
2970		-48.828125
2971		-44.921875
2972		-48.828125
2973		-44.921875
2974		-48.828125
2975		-44.921875
2976		-50.781250
2977		-46.875000
2978		-48.828125
2979		-46.875000
2980		-50.781250
2981		-46.875000
2982		-50.781250
2983		-46.875000
2984		-50.781250
2985		-46.875000
2986		-50.781250
2987		-46.875000
2988		-50.781250
2989		-46.875000
2990		-50.781250
2991		-48.828125
2992		-50.781250
2993		-46.875000
2994		-52.734375
2995		-48.828125
2996		-50.781250
2997		-46.875000
2998		-50.781250
2999		-46.875000
3000		-50.781250
3001		-46.875000
3002		-50.781250
3003		-46.875000
3004		-50.781250
3005		-46.875000
3006		-50.781250
3007		-46.875000
3008		-48.828125
3009		-44.921875
3010		-48.828125
3011		-44.921875
3012		-48.828125
3013		-44.921875
3014		-48.828125
3015		-44.921875
3016		-48.828125
3017		-42.968750
3018		-48.828125
3019		-44.921875
3020		-46.875000
3021		-42.968750
3022		-46.875000
3023		-42.968750
3024		-44.921875
3025		-41.015625
3026		-44.921875
3027		-41.015625
3028		-42.968750
3029		-41.015625
3030		-42.968750
3031		-39.062500
3032		-42.968750
3033		-39.062500
3034		-42.968750
3035		-37.109375
3036		-41.015625
3037		-37.109375
3038		-39.062500
3039		-37.109375
3040		-39.062500
3041		-35.156250
3042		-37.109375
3043		-33.203125
3044		-37.109375
3045		-33.203125
3046		-35.156250
3047		-31.250000
3048		-35.156250
3049		-31.250000
3050		-33.203125
3051		-29.296875
3052		-33.203125
3053		-29.296875
3054		-31.250000
3055		-27.343750
3056		-29.296875
3057		-25.390625
3058		-29.296875
3059		-25.390625
3060		-27.343750
3061		-23.437500
3062		-25.390625
3063		-21.484375
3064		-25.390625
3065		-21.484375
3066		-23.437500
3067		-19.531250
3068		-21.484375
3069		-17.578125
3070		-21.484375
3071		-17.578125
3072		-19.531250
3073		-15.625000
3074		-19.531250
3075		-13.671875
3076		-15.625000
3077		-13.671875
3078		-15.625000
3079		-9.765625
3080		-13.671875
3081		-9.765625
3082		-11.718750
3083		-7.812500
3084		-11.718750
3085		-5.859375
3086		-9.765625
3087		-5.859375
3088		-7.812500
3089		-3.906250
3090		-5.859375
3091		-1.953125
3092		-5.859375
3093		0.000000
3094		-3.906250
3095		1.953125
3096		-1.953125
3097		1.953125
3098		0.000000
3099		3.906250
3100		0.000000
3101		5.859375
3102		1.953125
3103		7.812500
3104		3.906250
3105		7.812500
3106		5.859375
3107		11.718750
3108		7.812500
3109		11.718750
3110		9.765625
3111		13.671875
3112		9.765625
3113		15.625000
3114		11.718750
3115		15.625000
3116		13.671875
3117		17.578125
3118		15.625000
3119		19.531250
3120		17.578125
3121		21.484375
3122		17.578125
3123		21.484375
3124		19.531250
3125		23.437500
3126		21.484375
3127		25.390625
3128		23.437500
3129		27.343750
3130		25.390625
3131		29.296875
3132		25.390625
3133		29.296875
3134		27.343750
3135		31.250000
3136		27.343750
3137		33.203125
3138		29.296875
3139		33.203125
3140		31.250000
3141		35.156250
3142		31.250000
3143		37.109375
3144		33.203125
3145		39.062500
3146		35.156250
3147		39.062500
3148		37.109375
3149		41.015625
3150		37.109375
3151		41.015625
3152		39.062500
3153		42.968750
3154		41.015625
3155		44.921875
3156		41.015625
3157		44.921875
3158		42.968750
3159		46.875000
3160		42.968750
3161		46.875000
3162		44.921875
3163		48.828125
3164		44.921875
3165		50.781250
3166		46.875000
3167		50.781250
3168		48.828125
3169		52.734375
3170		48.828125
3171		52.734375
3172		50.781250
3173		54.687500
3174		50.781250
3175		54.687500
3176		50.781250
3177		54.687500
3178		52.734375
3179		56.640625
3180		54.687500
3181		56.640625
3182		54.687500
3183		58.593750
3184		54.687500
3185		58.593750
3186		54.687500
3187		60.546875
3188		56.640625
3189		60.546875
3190		58.593750
3191		62.500000
3192		58.593750
3193		62.500000
3194		58.593750
3195		62.500000
3196		58.593750
3197		62.500000
3198		60.546875
3199		64.453125
3200		60.546875
3201		64.453125
3202		60.546875
3203		66.406250
3204		62.500000
3205		64.453125
3206		62.500000
3207		66.406250
3208		62.500000
3209		66.406250
3210		62.500000
3211		66.406250
3212		62.500000
3213		66.406250
3214		64.453125
3215		66.406250
3216		64.453125
3217		66.406250
3218		62.500000
3219		68.359375
3220		64.453125
3221		66.406250
3222		64.453125
3223		68.359375
3224		64.453125
3225		68.359375
3226		64.453125
3227		68.359375
3228		64.453125
3229		68.359375
3230		64.453125
3231		68.359375
3232		64.453125
3233		68.359375
3234		62.500000
3235		68.359375
3236		64.453125
3237		68.359375
3238		64.453125
3239		68.359375
3240		64.453125
3241		66.406250
3242		64.453125
3243		68.359375
3244		64.453125
3245		66.406250
3246		62.500000
3247		66.406250
3248		62.500000
3249		66.406250
3250		62.500000
3251		66.406250
3252		62.500000
3253		66.406250
3254		60.546875
3255		66.406250
3256		60.546875
3257		64.453125
3258		60.546875
3259		64.453125
3260		60.546875
3261		64.453125
3262		58.593750
3263		62.500000
3264		58.593750
3265		62.500000
3266		58.593750
3267		62.500000
3268		56.640625
3269		60.546875
3270		56.640625
3271		60.546875
3272		56.640625
3273		58.593750
3274		54.687500
3275		58.593750
3276		54.687500
3277		58.593750
3278		52.734375
3279		56.640625
3280		52.734375
3281		56.640625
3282		50.781250
3283		56.640625
3284		50.781250
3285		54.687500
3286		48.828125
3287		52.734375
3288		48.828125
3289		52.734375
3290		48.828125
3291		50.781250
3292		44.921875
3293		50.781250
3294		44.921875
3295		48.828125
3296		44.921875
3297		48.828125
3298		42.968750
3299		46.875000
3300		41.015625
3301		46.875000
3302		41.015625
3303		44.921875
3304		39.062500
3305		42.968750
3306		39.062500
3307		42.968750
3308		35.156250
3309		41.015625
3310		35.156250
3311		41.015625
3312		35.156250
3313		39.062500
3314		33.203125
3315		37.109375
3316		31.250000
3317		35.156250
3318		31.250000
3319		35.156250
3320		29.296875
3321		33.203125
3322		27.343750
3323		31.250000
3324		25.390625
3325		31.250000
3326		25.390625
3327		29.296875
3328		23.437500
3329		27.343750
3330		21.484375
3331		27.343750
3332		19.531250
3333		25.390625
3334		19.531250
3335		23.437500
3336		17.578125
3337		21.484375
3338		15.625000
3339		19.531250
3340		13.671875
3341		17.578125
3342		13.671875
3343		17.578125
3344		11.718750
3345		15.625000
3346		9.765625
3347		13.671875
3348		7.812500
3349		11.718750
3350		5.859375
3351		11.718750
3352		3.906250
3353		9.765625
3354		3.906250
3355		7.812500
3356		1.953125
3357		5.859375
3358		0.000000
3359		3.906250
3360		0.000000
3361		3.906250
3362		-1.953125
3363		1.953125
3364		-3.906250
3365		0.000000
3366		-5.859375
3367		-1.953125
3368		-7.812500
3369		-3.906250
3370		-7.812500
3371		-5.859375
3372		-9.765625
3373		-5.859375
3374		-11.718750
3375		-7.812500
3376		-13.671875
3377		-9.765625
3378		-15.625000
3379		-9.765625
3380		-15.625000
3381		-11.718750
3382		-17.578125
3383		-13.671875
3384		-19.531250
3385		-15.625000
3386		-19.531250
3387		-15.625000
3388		-21.484375
3389		-17.578125
3390		-23.437500
3391		-19.531250
3392		-23.437500
3393		-21.484375
3394		-25.390625
3395		-21.484375
3396		-27.343750
3397		-23.437500
3398		-29.296875
3399		-23.437500
3400		-29.296875
3401		-25.390625
3402		-31.250000
3403		-25.390625
3404		-33.203125
3405		-27.343750
3406		-33.203125
3407		-29.296875
3408		-35.156250
3409		-31.250000
3410		-35.156250
3411		-31.250000
3412		-37.109375
3413		-33.203125
3414		-37.109375
3415		-33.203125
3416		-39.062500
3417		-35.156250
3418		-39.062500
3419		-35.156250
3420		-41.015625
3421		-37.109375
3422		-41.015625
3423		-37.109375
3424		-42.968750
3425		-39.062500
3426		-42.968750
3427		-39.062500
3428		-42.968750
3429		-41.015625
3430		-44.921875
3431		-41.015625
3432		-44.921875
3433		-41.015625
3434		-44.921875
3435		-42.968750
3436		-46.875000
3437		-42.968750
3438		-46.875000
3439		-42.968750
3440		-46.875000
3441		-44.921875
3442		-48.828125
3443		-44.921875
3444		-48.828125
3445		-44.921875
3446		-48.828125
3447		-44.921875
3448		-48.828125
3449		-46.875000
3450		-50.781250
3451		-46.875000
3452		-50.781250
3453		-46.875000
3454		-50.781250
3455		-46.875000
3456		-50.781250
3457		-46.875000
3458		-50.781250
3459		-46.875000
3460		-50.781250
3461		-46.875000
3462		-50.781250
3463		-46.875000
3464		-50.781250
3465		-46.875000
3466		-50.781250
3467		-46.875000
3468		-50.781250
3469		-46.875000
3470		-50.781250
3471		-46.875000
3472		-50.781250
3473		-46.875000
3474		-48.828125
3475		-46.875000
3476		-50.781250
3477		-46.875000
3478		-50.781250
3479		-44.921875
3480		-48.828125
3481		-44.921875
3482		-48.828125
3483		-44.921875
3484		-48.828125
3485		-44.921875
3486		-48.828125
3487		-44.921875
3488		-46.875000
3489		-42.968750
3490		-46.875000
3491		-42.968750
3492		-46.875000
3493		-42.968750
3494		-46.875000
3495		-41.015625
3496		-44.921875
3497		-41.015625
3498		-42.968750
3499		-41.015625
3500		-42.968750
3501		-39.062500
3502		-42.968750
3503		-39.062500
3504		-41.015625
3505		-37.109375
3506		-41.015625
3507		-37.109375
3508		-39.062500
3509		-35.156250
3510		-39.062500
3511		-35.156250
3512		-37.109375
3513		-33.203125
3514		-37.109375
3515		-33.203125
3516		-35.156250
3517		-31.250000
3518		-35.156250
3519		-31.250000
3520		-33.203125
3521		-29.296875
3522		-33.203125
3523		-29.296875
3524		-31.250000
3525		-27.343750
3526		-31.250000
3527		-25.390625
3528		-29.296875
3529		-25.390625
3530		-27.343750
3531		-23.437500
3532		-27.343750
3533		-23.437500
3534		-25.390625
3535		-21.484375
3536		-23.437500
3537		-19.531250
3538		-21.484375
3539		-17.578125
3540		-21.484375
3541		-17.578125
3542		-19.531250
3543		-15.625000
3544		-17.578125
3545		-13.671875
3546		-17.578125
3547		-13.671875
3548		-15.625000
3549		-11.718750
3550		-13.671875
3551		-9.765625
3552		-11.718750
3553		-7.812500
3554		-11.718750
3555		-7.812500
3556		-9.765625
3557		-5.859375
3558		-7.812500
3559		-3.906250
3560		-5.859375
3561		-1.953125
3562		-3.906250
3563		-1.953125
3564		-3.906250
3565		0.000000
3566		-1.953125
3567		1.953125
3568		0.000000
3569		3.906250
3570		1.953125
3571		5.859375
3572		1.953125
3573		7.812500
3574		3.906250
3575		7.812500
3576		5.859375
3577		9.765625
3578		5.859375
3579		11.718750
3580		9.765625
3581		13.671875
3582		9.765625
3583		13.671875
3584		11.718750
3585		15.625000
3586		13.671875
3587		17.578125
3588		15.625000
3589		19.531250
3590		15.625000
3591		19.531250
3592		17.578125
3593		21.484375
3594		19.531250
3595		23.437500
3596		19.531250
3597		25.390625
3598		23.437500
3599		25.390625
3600		23.437500
3601		27.343750
3602		25.390625
3603		29.296875
3604		27.343750
3605		31.250000
3606		27.343750
3607		31.250000
3608		29.296875
3609		33.203125
3610		31.250000
3611		35.156250
3612		33.203125
3613		37.109375
3614		33.203125
3615		37.109375
3616		35.156250
3617		39.062500
3618		35.156250
3619		39.062500
3620		37.109375
3621		41.015625
3622		39.062500
3623		42.968750
3624		39.062500
3625		42.968750
3626		41.015625
3627		44.921875
3628		41.015625
3629		46.875000
3630		42.968750
3631		46.875000
3632		44.921875
3633		48.828125
3634		44.921875
3635		48.828125
3636		46.875000
3637		50.781250
3638		46.875000
3639		50.781250
3640		48.828125
3641		52.734375
3642		50.781250
3643		52.734375
3644		50.781250
3645		54.687500
3646		52.734375
3647		54.687500
3648		52.734375
3649		56.640625
3650		54.687500
3651		56.640625
3652		54.687500
3653		58.593750
3654		54.687500
3655		58.593750
3656		56.640625
3657		58.593750
3658		56.640625
3659		60.546875
3660		58.593750
3661		60.546875
3662		58.593750
3663		62.500000
3664		58.593750
3665		62.500000
3666		60.546875
3667		62.500000
3668		60.546875
3669		64.453125
3670		60.546875
3671		64.453125
3672		60.546875
3673		64.453125
3674		60.546875
3675		66.406250
3676		62.500000
3677		64.453125
3678		62.500000
3679		66.406250
3680		62.500000
3681		66.406250
3682		64.453125
3683		66.406250
3684		64.453125
3685		66.406250
3686		62.500000
3687		68.359375
3688		64.453125
3689		68.359375
3690		64.453125
3691		68.359375
3692		64.453125
3693		66.406250
3694		64.453125
3695		68.359375
3696		64.453125
3697		68.359375
3698		64.453125
3699		68.359375
3700		64.453125
3701		68.359375
3702		64.453125
3703		68.359375
3704		64.453125
3705		68.359375
3706		64.453125
3707		68.359375
3708		64.453125
3709		68.359375
3710		64.453125
3711		68.359375
3712		62.500000
3713		68.359375
3714		64.453125
3715		66.406250
3716		64.453125
3717		66.406250
3718		62.500000
3719		66.406250
3720		62.500000
3721		66.406250
3722		62.500000
3723		66.406250
3724		62.500000
3725		64.453125
3726		62.500000
3727		64.453125
3728		60.546875
3729		64.453125
3730		60.546875
3731		64.453125
3732		60.546875
3733		64.453125
3734		58.593750
3735		62.500000
3736		58.593750
3737		62.500000
3738		58.593750
3739		60.546875
3740		56.640625
3741		60.546875
3742		56.640625
3743		60.546875
3744		56.640625
3745		58.593750
3746		54.687500
3747		58.593750
3748		54.687500
3749		58.593750
3750		52.734375
3751		56.640625
3752		52.734375
3753		56.640625
3754		50.781250
3755		54.687500
3756		50.781250
3757		54.687500
3758		48.828125
3759		52.734375
3760		48.828125
3761		52.734375
3762		46.875000
3763		50.781250
3764		46.875000
3765		50.781250
3766		44.921875
3767		48.828125
3768		44.921875
3769		48.828125
3770		42.968750
3771		46.875000
3772		41.015625
3773		44.921875
3774		41.015625
3775		44.921875
3776		39.062500
3777		42.968750
3778		37.109375
3779		41.015625
3780		37.109375
3781		41.015625
3782		35.156250
3783		39.062500
3784		33.203125
3785		37.109375
3786		33.203125
3787		39.062500
3788		31.250000
3789		35.156250
3790		29.296875
3791		35.156250
3792		29.296875
3793		33.203125
3794		27.343750
3795		31.250000
3796		25.390625
3797		29.296875
3798		25.390625
3799		29.296875
3800		23.437500
3801		27.343750
3802		21.484375
3803		25.390625
3804		19.531250
3805		23.437500
3806		19.531250
3807		23.437500
3808		15.625000
3809		21.484375
3810		15.625000
3811		19.531250
3812		13.671875
3813		17.578125
3814		11.718750
3815		17.578125
3816		11.718750
3817		15.625000
3818		9.765625
3819		13.671875
3820		7.812500
3821		11.718750
3822		5.859375
3823		9.765625
3824		3.906250
3825		7.812500
3826		3.906250
3827		7.812500
3828		1.953125
3829		5.859375
3830		0.000000
3831		3.906250
3832		-1.953125
3833		1.953125
3834		-3.906250
3835		1.953125
3836		-5.859375
3837		0.000000
3838		-5.859375
3839		-1.953125
3840		-7.812500
3841		-3.906250
3842		-9.765625
3843		-5.859375
3844		-11.718750
3845		-5.859375
3846		-11.718750
3847		-7.812500
3848		-13.671875
3849		-9.765625
3850		-15.625000
3851		-11.718750
3852		-15.625000
3853		-11.718750
3854		-17.578125
3855		-13.671875
3856		-19.531250
3857		-15.625000
3858		-21.484375
3859		-15.625000
3860		-21.484375
3861		-17.578125
3862		-23.437500
3863		-19.531250
3864		-25.390625
3865		-21.484375
3866		-25.390625
3867		-21.484375
3868		-27.343750
3869		-23.437500
3870		-29.296875
3871		-25.390625
3872		-29.296875
3873		-25.390625
3874		-31.250000
3875		-27.343750
3876		-33.203125
3877		-29.296875
3878		-33.203125
3879		-29.296875
3880		-35.156250
3881		-31.250000
3882		-35.156250
3883		-31.250000
3884		-37.109375
3885		-33.203125
3886		-37.109375
3887		-33.203125
3888		-39.062500
3889		-35.156250
3890		-39.062500
3891		-35.156250
3892		-41.015625
3893		-37.109375
3894		-41.015625
3895		-37.109375
3896		-42.968750
3897		-39.062500
3898		-42.968750
3899		-39.062500
3900		-42.968750
3901		-41.015625
3902		-44.921875
3903		-41.015625
3904		-44.921875
3905		-41.015625
3906		-46.875000
3907		-42.968750
3908		-46.875000
3909		-42.968750
3910		-46.875000
3911		-42.968750
3912		-46.875000
3913		-44.921875
3914		-48.828125
3915		-44.921875
3916		-48.828125
3917		-44.921875
3918		-48.828125
3919		-44.921875
3920		-48.828125
3921		-46.875000
3922		-50.781250
3923		-46.875000
3924		-50.781250
3925		-44.921875
3926		-50.781250
3927		-46.875000
3928		-50.781250
3929		-46.875000
3930		-50.781250
3931		-46.875000
3932		-50.781250
3933		-46.875000
3934		-50.781250
3935		-46.875000
3936		-50.781250
3937		-46.875000
3938		-50.781250
3939		-46.875000
3940		-50.781250
3941		-46.875000
3942		-50.781250
3943		-46.875000
3944		-48.828125
3945		-46.875000
3946		-48.828125
3947		-46.875000
3948		-48.828125
3949		-44.921875
3950		-48.828125
3951		-44.921875
3952		-48.828125
3953		-44.921875
3954		-48.828125
3955		-44.921875
3956		-46.875000
3957		-44.921875
3958		-46.875000
3959		-42.968750
3960		-46.875000
3961		-42.968750
3962		-44.921875
3963		-42.968750
3964		-44.921875
3965		-42.968750
3966		-44.921875
3967		-41.015625
3968		-44.921875
3969		-41.015625
3970		-42.968750
3971		-39.062500
3972		-42.968750
3973		-39.062500
3974		-42.968750
3975		-39.062500
3976		-41.015625
3977		-37.109375
3978		-41.015625
3979		-37.109375
3980		-39.062500
3981		-35.156250
3982		-39.062500
3983		-35.156250
3984		-37.109375
3985		-33.203125
3986		-35.156250
3987		-33.203125
3988		-35.156250
3989		-31.250000
3990		-33.203125
3991		-31.250000
3992		-33.203125
3993		-29.296875
3994		-33.203125
3995		-27.343750
3996		-31.250000
3997		-27.343750
3998		-29.296875
3999		-25.390625
4000		-29.296875
4001		-23.437500
4002		-27.343750
4003		-23.437500
4004		-25.390625
4005		-21.484375
4006		-25.390625
4007		-19.531250
4008		-23.437500
4009		-19.531250
4010		-21.484375
4011		-17.578125
4012		-19.531250
4013		-15.625000
4014		-19.531250
4015		-15.625000
4016		-17.578125
4017		-13.671875
4018		-15.625000
4019		-11.718750
4020		-15.625000
4021		-11.718750
4022		-13.671875
4023		-7.812500
4024		-11.718750
4025		-7.812500
4026		-9.765625
4027		-5.859375
4028		-7.812500
4029		-3.906250
4030		-7.812500
4031		-3.906250
4032		-5.859375
4033		-1.953125
4034		-3.906250
4035		0.000000
4036		-1.953125
4037		1.953125
4038		0.000000
4039		1.953125
4040		0.000000
4041		3.906250
4042		1.953125
4043		5.859375
4044		1.953125
4045		7.812500
4046		5.859375
4047		9.765625
4048		5.859375
4049		11.718750
4050		7.812500
4051		11.718750
4052		9.765625
4053		13.671875
4054		11.718750
4055		15.625000
4056		11.718750
4057		17.578125
4058		13.671875
4059		17.578125
4060		15.625000
4061		19.531250
4062		17.578125
4063		21.484375
4064		19.531250
4065		23.437500
4066		19.531250
4067		25.390625
4068		21.484375
4069		25.390625
4070		23.437500
4071		27.343750
4072		25.390625
4073		29.296875
4074		25.390625
4075		31.250000
4076		27.343750
4077		31.250000
4078		27.343750
4079		33.203125
4080		31.250000
4081		35.156250
4082		31.250000
4083		37.109375
4084		33.203125
4085		37.109375
4086		35.156250
4087		39.062500
4088		35.156250
4089		39.062500
4090		37.109375
4091		41.015625
4092		37.109375
4093		42.968750
4094		39.062500
4095		42.968750
4096		41.015625
4097		44.921875
4098		42.968750
4099		44.921875
4100		42.968750
4101		46.875000
4102		44.921875
4103		48.828125
4104		44.921875
4105		48.828125
4106		46.875000
4107		50.781250
4108		46.875000
4109		50.781250
4110		48.828125
4111		52.734375
4112		48.828125
4113		52.734375
4114		50.781250
4115		54.687500
4116		50.781250
4117		54.687500
4118		52.734375
4119		56.640625
4120		52.734375
4121		56.640625
4122		54.687500
4123		58.593750
4124		54.687500
4125		58.593750
4126		56.640625
4127		60.546875
4128		56.640625
4129		60.546875
4130		58.593750
4131		60.546875
4132		58.593750
4133		62.500000
4134		58.593750
4135		62.500000
4136		58.593750
4137		62.500000
4138		60.546875
4139		64.453125
4140		60.546875
4141		64.453125
4142		60.546875
4143		64.453125
4144		60.546875
4145		66.406250
4146		62.500000
4147		66.406250
4148		62.500000
4149		66.406250
4150		62.500000
4151		66.406250
4152		64.453125
4153		66.406250
4154		64.453125
4155		68.359375
4156		64.453125
4157		68.359375
4158		64.453125
4159		68.359375
4160		64.453125
4161		68.359375
4162		64.453125
4163		68.359375
4164		64.453125
4165		68.359375
4166		66.406250
4167		68.359375
4168		64.453125
4169		68.359375
4170		64.453125
4171		68.359375
4172		64.453125
4173		68.359375
4174		64.453125
4175		68.359375
4176		64.453125
4177		68.359375
4178		64.453125
4179		68.359375
4180		64.453125
4181		68.359375
4182		64.453125
4183		68.359375
4184		64.453125
4185		68.359375
4186		64.453125
4187		68.359375
4188		64.453125
4189		68.359375
4190		64.453125
4191		66.406250
4192		64.453125
4193		66.406250
4194		62.500000
4195		66.406250
4196		62.500000
4197		66.406250
4198		62.500000
4199		64.453125
4200		60.546875
4201		64.453125
4202		60.546875
4203		64.453125
4204		60.546875
4205		64.453125
4206		58.593750
4207		62.500000
4208		58.593750
4209		64.453125
4210		58.593750
4211		62.500000
4212		56.640625
4213		62.500000
4214		56.640625
4215		60.546875
4216		54.687500
4217		60.546875
4218		54.687500
4219		58.593750
4220		54.687500
4221		58.593750
4222		52.734375
4223		58.593750
4224		52.734375
4225		56.640625
4226		50.781250
4227		54.687500
4228		50.781250
4229		54.687500
4230		50.781250
4231		52.734375
4232		48.828125
4233		52.734375
4234		46.875000
4235		50.781250
4236		46.875000
4237		50.781250
4238		44.921875
4239		48.828125
4240		44.921875
4241		48.828125
4242		42.968750
4243		46.875000
4244		42.968750
4245		44.921875
4246		41.015625
4247		44.921875
4248		39.062500
4249		42.968750
4250		39.062500
4251		42.968750
4252		35.156250
4253		41.015625
4254		35.156250
4255		39.062500
4256		35.156250
4257		39.062500
4258		33.203125
4259		37.109375
4260		31.250000
4261		35.156250
4262		31.250000
4263		35.156250
4264		29.296875
4265		33.203125
4266		25.390625
4267		31.250000
4268		25.390625
4269		29.296875
4270		25.390625
4271		27.343750
4272		23.437500
4273		27.343750
4274		21.484375
4275		25.390625
4276		19.531250
4277		23.437500
4278		17.578125
4279		21.484375
4280		17.578125
4281		21.484375
4282		15.625000
4283		19.531250
4284		13.671875
4285		17.578125
4286		11.718750
4287		15.625000
4288		11.718750
4289		15.625000
4290		7.812500
4291		13.671875
4292		7.812500
4293		11.718750
4294		5.859375
4295		9.765625
4296		3.906250
4297		7.812500
4298		3.906250
4299		7.812500
4300		1.953125
4301		5.859375
4302		-1.953125
4303		3.906250
4304		-1.953125
4305		1.953125
4306		-3.906250
4307		0.000000
4308		-5.859375
4309		0.000000
4310		-5.859375
4311		-1.953125
4312		-7.812500
4313		-3.906250
4314		-9.765625
4315		-5.859375
4316		-9.765625
4317		-7.812500
4318		-13.671875
4319		-7.812500
4320		-13.671875
4321		-9.765625
4322		-15.625000
4323		-11.718750
4324		-17.578125
4325		-13.671875
4326		-17.578125
4327		-13.671875
4328		-19.531250
4329		-15.625000
4330		-21.484375
4331		-15.625000
4332		-23.437500
4333		-19.531250
4334		-25.390625
4335		-19.531250
4336		-25.390625
4337		-19.531250
4338		-27.343750
4339		-23.437500
4340		-27.343750
4341		-23.437500
4342		-29.296875
4343		-25.390625
4344		-31.250000
4345		-25.390625
4346		-31.250000
4347		-27.343750
4348		-31.250000
4349		-29.296875
4350		-35.156250
4351		-29.296875
4352		-35.156250
4353		-29.296875
4354		-37.109375
4355		-31.250000
4356		-37.109375
4357		-31.250000
4358		-37.109375
4359		-33.203125
4360		-39.062500
4361		-35.156250
4362		-41.015625
4363		-35.156250
4364		-41.015625
4365		-37.109375
4366		-41.015625
4367		-37.109375
4368		-42.968750
4369		-39.062500
4370		-42.968750
4371		-39.062500
4372		-44.921875
4373		-41.015625
4374		-44.921875
4375		-39.062500
4376		-44.921875
4377		-41.015625
4378		-44.921875
4379		-42.968750
4380		-46.875000
4381		-42.968750
4382		-46.875000
4383		-42.968750
4384		-46.875000
4385		-42.968750
4386		-48.828125
4387		-42.968750
4388		-48.828125
4389		-42.968750
4390		-48.828125
4391		-44.921875
4392		-48.828125
4393		-44.921875
4394		-50.781250
4395		-44.921875
4396		-50.781250
4397		-44.921875
4398		-48.828125
4399		-46.875000
4400		-48.828125
4401		-46.875000
4402		-50.781250
4403		-44.921875
4404		-50.781250
4405		-46.875000
4406		-50.781250
4407		-44.921875
4408		-50.781250
4409		-44.921875
4410		-50.781250
4411		-44.921875
4412		-50.781250
4413		-44.921875
4414		-48.828125
4415		-44.921875
4416		-50.781250
4417		-44.921875
4418		-50.781250
4419		-44.921875
4420		-48.828125
4421		-44.921875
4422		-50.781250
4423		-44.921875
4424		-48.828125
4425		-42.968750
4426		-48.828125
4427		-42.968750
4428		-48.828125
4429		-42.968750
4430		-46.875000
4431		-42.968750
4432		-46.875000
4433		-42.968750
4434		-44.921875
4435		-42.968750
4436		-44.921875
4437		-41.015625
4438		-44.921875
4439		-39.062500
4440		-44.921875
4441		-39.062500
4442		-42.968750
4443		-39.062500
4444		-42.968750
4445		-37.109375
4446		-42.968750
4447		-37.109375
4448		-41.015625
4449		-37.109375
4450		-39.062500
4451		-35.156250
4452		-37.109375
4453		-35.156250
4454		-37.109375
4455		-33.203125
4456		-37.109375
4457		-33.203125
4458		-35.156250
4459		-31.250000
4460		-33.203125
4461		-31.250000
4462		-33.203125
4463		-29.296875
4464		-31.250000
4465		-29.296875
4466		-31.250000
4467		-27.343750
4468		-29.296875
4469		-25.390625
4470		-29.296875
4471		-25.390625
4472		-27.343750
4473		-23.437500
4474		-25.390625
4475		-21.484375
4476		-25.390625
4477		-21.484375
4478		-23.437500
4479		-19.531250
4480		-21.484375
4481		-17.578125
4482		-21.484375
4483		-17.578125
4484		-19.531250
4485		-15.625000
4486		-17.578125
4487		-13.671875
4488		-15.625000
4489		-11.718750
4490		-15.625000
4491		-11.718750
4492		-13.671875
4493		-9.765625
4494		-11.718750
4495		-7.812500
4496		-9.765625
4497		-5.859375
4498		-7.812500
4499		-5.859375
4500		-7.812500
4501		-3.906250
4502		-5.859375
4503		-1.953125
4504		-3.906250
4505		0.000000
4506		-3.906250
4507		1.953125
4508		-1.953125
4509		1.953125
4510		0.000000
4511		3.906250
4512		0.000000
4513		5.859375
4514		1.953125
4515		7.812500
4516		3.906250
4517		7.812500
4518		5.859375
4519		9.765625
4520		7.812500
4521		11.718750
4522		9.765625
4523		13.671875
4524		11.718750
4525		15.625000
4526		11.718750
4527		15.625000
4528		13.671875
4529		17.578125
4530		15.625000
4531		19.531250
4532		17.578125
4533		21.484375
4534		17.578125
4535		23.437500
4536		19.531250
4537		23.437500
4538		21.484375
4539		25.390625
4540		23.437500
4541		27.343750
4542		23.437500
4543		27.343750
4544		25.390625
4545		29.296875
4546		27.343750
4547		31.250000
4548		29.296875
4549		31.250000
4550		29.296875
4551		33.203125
4552		29.296875
4553		37.109375
4554		29.296875
4555		39.062500
4556		31.250000
4557		41.015625
4558		31.250000
4559		41.015625
4560		37.109375
4561		41.015625
4562		37.109375
4563		41.015625
4564		39.062500
4565		42.968750
4566		41.015625
4567		44.921875
4568		41.015625
4569		44.921875
4570		41.015625
4571		48.828125
4572		41.015625
4573		50.781250
4574		42.968750
4575		50.781250
4576		44.921875
4577		50.781250
4578		46.875000
4579		50.781250
4580		48.828125
4581		52.734375
4582		48.828125
4583		52.734375
4584		50.781250
4585		54.687500
4586		48.828125
4587		58.593750
4588		50.781250
4589		58.593750
4590		50.781250
4591		60.546875
4592		52.734375
4593		58.593750
4594		54.687500
4595		58.593750
4596		56.640625
4597		58.593750
4598		56.640625
4599		60.546875
4600		58.593750
4601		60.546875
4602		58.593750
4603		62.500000
4604		56.640625
4605		64.453125
4606		56.640625
4607		66.406250
4608		56.640625
4609		66.406250
4610		60.546875
4611		64.453125
4612		60.546875
4613		64.453125
4614		62.500000
4615		64.453125
4616		62.500000
4617		66.406250
4618		62.500000
4619		66.406250
4620		60.546875
4621		70.312500
4622		60.546875
4623		70.312500
4624		60.546875
4625		70.312500
4626		64.453125
4627		68.359375
4628		64.453125
4629		68.359375
4630		64.453125
4631		68.359375
4632		64.453125
4633		68.359375
4634		64.453125
4635		68.359375
4636		62.500000
4637		72.265625
4638		62.500000
4639		70.312500
4640		62.500000
4641		70.312500
4642		64.453125
4643		72.265625
4644		66.406250
4645		68.359375
4646		66.406250
4647		68.359375
4648		64.453125
4649		68.359375
4650		64.453125
4651		68.359375
4652		64.453125
4653		68.359375
4654		62.500000
4655		70.312500
4656		62.500000
4657		70.312500
4658		62.500000
4659		70.312500
4660		64.453125
4661		66.406250
4662		64.453125
4663		66.406250
4664		62.500000
4665		66.406250
4666		62.500000
4667		66.406250
4668		62.500000
4669		66.406250
4670		58.593750
4671		68.359375
4672		58.593750
4673		66.406250
4674		58.593750
4675		66.406250
4676		58.593750
4677		66.406250
4678		60.546875
4679		62.500000
4680		58.593750
4681		62.500000
4682		58.593750
4683		62.500000
4684		56.640625
4685		60.546875
4686		56.640625
4687		60.546875
4688		52.734375
4689		62.500000
4690		52.734375
4691		60.546875
4692		52.734375
4693		60.546875
4694		52.734375
4695		56.640625
4696		52.734375
4697		56.640625
4698		50.781250
4699		54.687500
4700		50.781250
4701		54.687500
4702		48.828125
4703		52.734375
4704		44.921875
4705		54.687500
4706		44.921875
4707		52.734375
4708		42.968750
4709		52.734375
4710		44.921875
4711		48.828125
4712		44.921875
4713		46.875000
4714		42.968750
4715		46.875000
4716		41.015625
4717		44.921875
4718		41.015625
4719		44.921875
4720		37.109375
4721		42.968750
4722		35.156250
4723		44.921875
4724		33.203125
4725		42.968750
4726		33.203125
4727		41.015625
4728		33.203125
4729		37.109375
4730		33.203125
4731		37.109375
4732		31.250000
4733		35.156250
4734		29.296875
4735		33.203125
4736		27.343750
4737		33.203125
4738		27.343750
4739		31.250000
4740		23.437500
4741		31.250000
4742		23.437500
4743		29.296875
4744		21.484375
4745		27.343750
4746		21.484375
4747		25.390625
4748		19.531250
4749		23.437500
4750		17.578125
4751		21.484375
4752		15.625000
4753		21.484375
4754		15.625000
4755		19.531250
4756		11.718750
4757		17.578125
4758		11.718750
4759		17.578125
4760		9.765625
4761		13.671875
4762		7.812500
4763		11.718750
4764		7.812500
4765		11.718750
4766		5.859375
4767		9.765625
4768		3.906250
4769		7.812500
4770		1.953125
4771		5.859375
4772		0.000000
4773		3.906250
4774		-1.953125
4775		3.906250
4776		-1.953125
4777		1.953125
4778		-3.906250
4779		0.000000
4780		-5.859375
4781		-1.953125
4782		-7.812500
4783		-3.906250
4784		-7.812500
4785		-3.906250
4786		-9.765625
4787		-5.859375
4788		-11.718750
4789		-7.812500
4790		-13.671875
4791		-9.765625
4792		-13.671875
4793		-9.765625
4794		-15.625000
4795		-11.718750
4796		-17.578125
4797		-13.671875
4798		-17.578125
4799		-15.625000
4800		-19.531250
4801		-15.625000
4802		-21.484375
4803		-17.578125
4804		-23.437500
4805		-19.531250
4806		-23.437500
4807		-19.531250
4808		-25.390625
4809		-21.484375
4810		-27.343750
4811		-23.437500
4812		-27.343750
4813		-23.437500
4814		-29.296875
4815		-25.390625
4816		-31.250000
4817		-27.343750
4818		-31.250000
4819		-27.343750
4820		-33.203125
4821		-29.296875
4822		-33.203125
4823		-29.296875
4824		-35.156250
4825		-31.250000
4826		-35.156250
4827		-33.203125
4828		-37.109375
4829		-33.203125
4830		-39.062500
4831		-35.156250
4832		-39.062500
4833		-35.156250
4834		-39.062500
4835		-37.109375
4836		-41.015625
4837		-37.109375
4838		-42.968750
4839		-37.109375
4840		-42.968750
4841		-39.062500
4842		-42.968750
4843		-39.062500
4844		-44.921875
4845		-41.015625
4846		-44.921875
4847		-41.015625
4848		-44.921875
4849		-42.968750
4850		-46.875000
4851		-42.968750
4852		-46.875000
4853		-42.968750
4854		-46.875000
4855		-42.968750
4856		-48.828125
4857		-42.968750
4858		-46.875000
4859		-44.921875
4860		-48.828125
4861		-44.921875
4862		-50.781250
4863		-44.921875
4864		-48.828125
4865		-44.921875
4866		-48.828125
4867		-44.921875
4868		-48.828125
4869		-46.875000
4870		-48.828125
4871		-46.875000
4872		-50.781250
4873		-46.875000
4874		-50.781250
4875		-46.875000
4876		-48.828125
4877		-46.875000
4878		-48.828125
4879		-46.875000
4880		-48.828125
4881		-46.875000
4882		-48.828125
4883		-46.875000
4884		-48.828125
4885		-46.875000
4886		-48.828125
4887		-46.875000
4888		-50.781250
4889		-44.921875
4890		-48.828125
4891		-44.921875
4892		-48.828125
4893		-44.921875
4894		-48.828125
4895		-44.921875
4896		-46.875000
4897		-44.921875
4898		-46.875000
4899		-42.968750
4900		-46.875000
4901		-42.968750
4902		-46.875000
4903		-42.968750
4904		-46.875000
4905		-41.015625
4906		-46.875000
4907		-41.015625
4908		-44.921875
4909		-41.015625
4910		-42.968750
4911		-39.062500
4912		-42.968750
4913		-39.062500
4914		-42.968750
4915		-39.062500
4916		-41.015625
4917		-37.109375
4918		-41.015625
4919		-37.109375
4920		-39.062500
4921		-37.109375
4922		-39.062500
4923		-33.203125
4924		-39.062500
4925		-33.203125
4926		-37.109375
4927		-33.203125
4928		-35.156250
4929		-33.203125
4930		-35.156250
4931		-31.250000
4932		-33.203125
4933		-29.296875
4934		-33.203125
4935		-29.296875
4936		-31.250000
4937		-27.343750
4938		-31.250000
4939		-27.343750
4940		-31.250000
4941		-25.390625
4942		-29.296875
4943		-23.437500
4944		-27.343750
4945		-23.437500
4946		-25.390625
4947		-21.484375
4948		-23.437500
4949		-19.531250
4950		-23.437500
4951		-19.531250
4952		-21.484375
4953		-17.578125
4954		-19.531250
4955		-15.625000
4956		-19.531250
4957		-13.671875
4958		-17.578125
4959		-13.671875
4960		-15.625000
4961		-11.718750
4962		-13.671875
4963		-9.765625
4964		-11.718750
4965		-7.812500
4966		-11.718750
4967		-7.812500
4968		-9.765625
4969		-5.859375
4970		-7.812500
4971		-3.906250
4972		-7.812500
4973		-1.953125
4974		-5.859375
4975		-1.953125
4976		-3.906250
4977		0.000000
4978		-1.953125
4979		1.953125
4980		-1.953125
4981		3.906250
4982		0.000000
4983		3.906250
4984		1.953125
4985		5.859375
4986		3.906250
4987		7.812500
4988		5.859375
4989		9.765625
4990		5.859375
4991		11.718750
4992		7.812500
4993		11.718750
4994		9.765625
4995		13.671875
4996		11.718750
4997		15.625000
4998		13.671875
4999		17.578125
5000		15.625000
5001		17.578125
5002		15.625000
5003		19.531250
5004		17.578125
5005		21.484375
5006		19.531250
5007		23.437500
5008		19.531250
5009		25.390625
5010		21.484375
5011		25.390625
5012		23.437500
5013		27.343750
5014		25.390625
5015		29.296875
5016		27.343750
5017		29.296875
5018		27.343750
5019		31.250000
5020		29.296875
5021		33.203125
5022		31.250000
5023		35.156250
5024		31.250000
5025		35.156250
5026		33.203125
5027		37.109375
5028		35.156250
5029		39.062500
5030		35.156250
5031		39.062500
5032		37.109375
5033		41.015625
5034		39.062500
5035		42.968750
5036		41.015625
5037		42.968750
5038		41.015625
5039		44.921875
5040		42.968750
5041		44.921875
5042		42.968750
5043		46.875000
5044		44.921875
5045		48.828125
5046		44.921875
5047		50.781250
5048		46.875000
5049		50.781250
5050		48.828125
5051		50.781250
5052		48.828125
5053		52.734375
5054		50.781250
5055		52.734375
5056		50.781250
5057		54.687500
5058		52.734375
5059		54.687500
5060		52.734375
5061		56.640625
5062		52.734375
5063		58.593750
5064		54.687500
5065		58.593750
5066		56.640625
5067		58.593750
5068		56.640625
5069		60.546875
5070		56.640625
5071		60.546875
5072		58.593750
5073		60.546875
5074		58.593750
5075		62.500000
5076		60.546875
5077		62.500000
5078		60.546875
5079		62.500000
5080		60.546875
5081		64.453125
5082		60.546875
5083		64.453125
5084		62.500000
5085		66.406250
5086		62.500000
5087		64.453125
5088		62.500000
5089		66.406250
5090		62.500000
5091		66.406250
5092		64.453125
5093		66.406250
5094		64.453125
5095		66.406250
5096		64.453125
5097		68.359375
5098		64.453125
5099		68.359375
5100		64.453125
5101		68.359375
5102		64.453125
5103		68.359375
5104		64.453125
5105		68.359375
5106		64.453125
5107		68.359375
5108		66.406250
5109		68.359375
5110		66.406250
5111		68.359375
5112		66.406250
5113		68.359375
5114		66.406250
5115		68.359375
5116		66.406250
5117		68.359375
5118		66.406250
5119		68.359375
5120		64.453125
5121		68.359375
5122		66.406250
5123		68.359375
5124		64.453125
5125		68.359375
5126		64.453125
5127		68.359375
5128		64.453125
5129		68.359375
5130		64.453125
5131		68.359375
5132		64.453125
5133		66.406250
5134		64.453125
5135		66.406250
5136		64.453125
5137		66.406250
5138		62.500000
5139		66.406250
5140		62.500000
5141		66.406250
5142		62.500000
5143		66.406250
5144		62.500000
5145		64.453125
5146		60.546875
5147		64.453125
5148		60.546875
5149		64.453125
5150		60.546875
5151		62.500000
5152		58.593750
5153		62.500000
5154		58.593750
5155		62.500000
5156		58.593750
5157		60.546875
5158		56.640625
5159		60.546875
5160		56.640625
5161		60.546875
5162		54.687500
5163		58.593750
5164		54.687500
5165		56.640625
5166		52.734375
5167		56.640625
5168		52.734375
5169		54.687500
5170		50.781250
5171		54.687500
5172		50.781250
5173		54.687500
5174		46.875000
5175		52.734375
5176		46.875000
5177		52.734375
5178		46.875000
5179		50.781250
5180		44.921875
5181		48.828125
5182		42.968750
5183		48.828125
5184		42.968750
5185		46.875000
5186		42.968750
5187		46.875000
5188		41.015625
5189		44.921875
5190		39.062500
5191		42.968750
5192		37.109375
5193		44.921875
5194		37.109375
5195		42.968750
5196		37.109375
5197		39.062500
5198		35.156250
5199		39.062500
5200		33.203125
5201		37.109375
5202		31.250000
5203		35.156250
5204		31.250000
5205		35.156250
5206		29.296875
5207		33.203125
5208		25.390625
5209		33.203125
5210		25.390625
5211		31.250000
5212		25.390625
5213		29.296875
5214		21.484375
5215		27.343750
5216		21.484375
5217		25.390625
5218		19.531250
5219		23.437500
5220		17.578125
5221		23.437500
5222		17.578125
5223		21.484375
5224		13.671875
5225		19.531250
5226		13.671875
5227		19.531250
5228		11.718750
5229		17.578125
5230		11.718750
5231		15.625000
5232		9.765625
5233		13.671875
5234		7.812500
5235		11.718750
5236		5.859375
5237		9.765625
5238		5.859375
5239		9.765625
5240		3.906250
5241		7.812500
5242		0.000000
5243		5.859375
5244		-1.953125
5245		5.859375
5246		-1.953125
5247		1.953125
5248		-3.906250
5249		0.000000
5250		-3.906250
5251		0.000000
5252		-5.859375
5253		-1.953125
5254		-7.812500
5255		-3.906250
5256		-9.765625
5257		-5.859375
5258		-11.718750
5259		-5.859375
5260		-13.671875
5261		-5.859375
5262		-13.671875
5263		-9.765625
5264		-15.625000
5265		-11.718750
5266		-15.625000
5267		-11.718750
5268		-17.578125
5269		-13.671875
5270		-19.531250
5271		-15.625000
5272		-21.484375
5273		-17.578125
5274		-21.484375
5275		-17.578125
5276		-25.390625
5277		-19.531250
5278		-25.390625
5279		-19.531250
5280		-27.343750
5281		-21.484375
5282		-27.343750
5283		-23.437500
5284		-29.296875
5285		-25.390625
5286		-29.296875
5287		-25.390625
5288		-31.250000
5289		-27.343750
5290		-31.250000
5291		-29.296875
5292		-33.203125
5293		-29.296875
5294		-35.156250
5295		-29.296875
5296		-35.156250
5297		-31.250000
5298		-37.109375
5299		-33.203125
5300		-37.109375
5301		-33.203125
5302		-39.062500
5303		-35.156250
5304		-39.062500
5305		-35.156250
5306		-39.062500
5307		-37.109375
5308		-41.015625
5309		-37.109375
5310		-42.968750
5311		-37.109375
5312		-42.968750
5313		-37.109375
5314		-42.968750
5315		-39.062500
5316		-44.921875
5317		-41.015625
5318		-44.921875
5319		-41.015625
5320		-44.921875
5321		-42.968750
5322		-46.875000
5323		-42.968750
5324		-46.875000
5325		-42.968750
5326		-48.828125
5327		-42.968750
5328		-48.828125
5329		-42.968750
5330		-46.875000
5331		-44.921875
5332		-48.828125
5333		-44.921875
5334		-48.828125
5335		-44.921875
5336		-48.828125
5337		-44.921875
5338		-48.828125
5339		-46.875000
5340		-48.828125
5341		-46.875000
5342		-50.781250
5343		-44.921875
5344		-50.781250
5345		-44.921875
5346		-50.781250
5347		-44.921875
5348		-48.828125
5349		-46.875000
5350		-48.828125
5351		-46.875000
5352		-48.828125
5353		-46.875000
5354		-48.828125
5355		-46.875000
5356		-48.828125
5357		-46.875000
5358		-48.828125
5359		-46.875000
5360		-50.781250
5361		-44.921875
5362		-48.828125
5363		-44.921875
5364		-48.828125
5365		-44.921875
5366		-46.875000
5367		-44.921875
5368		-46.875000
5369		-44.921875
5370		-46.875000
5371		-44.921875
5372		-46.875000
5373		-42.968750
5374		-44.921875
5375		-42.968750
5376		-44.921875
5377		-41.015625
5378		-44.921875
5379		-41.015625
5380		-44.921875
5381		-41.015625
5382		-42.968750
5383		-39.062500
5384		-42.968750
5385		-39.062500
5386		-41.015625
5387		-39.062500
5388		-41.015625
5389		-37.109375
5390		-41.015625
5391		-37.109375
5392		-39.062500
5393		-35.156250
5394		-39.062500
5395		-35.156250
5396		-37.109375
5397		-33.203125
5398		-37.109375
5399		-33.203125
5400		-35.156250
5401		-31.250000
5402		-35.156250
5403		-29.296875
5404		-33.203125
5405		-29.296875
5406		-31.250000
5407		-27.343750
5408		-31.250000
5409		-27.343750
5410		-29.296875
5411		-25.390625
5412		-27.343750
5413		-25.390625
5414		-27.343750
5415		-23.437500
5416		-25.390625
5417		-21.484375
5418		-25.390625
5419		-21.484375
5420		-23.437500
5421		-19.531250
5422		-21.484375
5423		-17.578125
5424		-21.484375
5425		-17.578125
5426		-19.531250
5427		-15.625000
5428		-17.578125
5429		-13.671875
5430		-15.625000
5431		-11.718750
5432		-15.625000
5433		-11.718750
5434		-13.671875
5435		-9.765625
5436		-11.718750
5437		-7.812500
5438		-9.765625
5439		-7.812500
5440		-9.765625
5441		-5.859375
5442		-7.812500
5443		-3.906250
5444		-5.859375
5445		-1.953125
5446		-3.906250
5447		0.000000
5448		-1.953125
5449		0.000000
5450		-1.953125
5451		1.953125
5452		0.000000
5453		3.906250
5454		1.953125
5455		5.859375
5456		3.906250
5457		7.812500
5458		3.906250
5459		7.812500
5460		5.859375
5461		9.765625
5462		7.812500
5463		11.718750
5464		9.765625
5465		13.671875
5466		11.718750
5467		13.671875
5468		11.718750
5469		15.625000
5470		13.671875
5471		17.578125
5472		15.625000
5473		19.531250
5474		17.578125
5475		21.484375
5476		17.578125
5477		21.484375
5478		19.531250
5479		23.437500
5480		21.484375
5481		25.390625
5482		23.437500
5483		27.343750
5484		25.390625
5485		27.343750
5486		25.390625
5487		29.296875
5488		27.343750
5489		31.250000
5490		29.296875
5491		33.203125
5492		29.296875
5493		33.203125
5494		31.250000
5495		35.156250
5496		33.203125
5497		37.109375
5498		33.203125
5499		37.109375
5500		35.156250
5501		39.062500
5502		37.109375
5503		41.015625
5504		39.062500
5505		41.015625
5506		39.062500
5507		42.968750
5508		41.015625
5509		44.921875
5510		41.015625
5511		44.921875
5512		42.968750
5513		46.875000
5514		44.921875
5515		46.875000
5516		44.921875
5517		48.828125
5518		46.875000
5519		50.781250
5520		48.828125
5521		50.781250
5522		48.828125
5523		52.734375
5524		48.828125
5525		52.734375
5526		50.781250
5527		54.687500
5528		52.734375
5529		54.687500
5530		52.734375
5531		56.640625
5532		52.734375
5533		56.640625
5534		54.687500
5535		58.593750
5536		54.687500
5537		58.593750
5538		56.640625
5539		58.593750
5540		56.640625
5541		60.546875
5542		58.593750
5543		60.546875
5544		58.593750
5545		62.500000
5546		58.593750
5547		62.500000
5548		60.546875
5549		62.500000
5550		60.546875
5551		64.453125
5552		60.546875
5553		64.453125
5554		62.500000
5555		64.453125
5556		62.500000
5557		64.453125
5558		62.500000
5559		66.406250
5560		62.500000
5561		66.406250
5562		64.453125
5563		66.406250
5564		64.453125
5565		66.406250
5566		64.453125
5567		66.406250
5568		64.453125
5569		68.359375
5570		64.453125
5571		68.359375
5572		64.453125
5573		68.359375
5574		64.453125
5575		68.359375
5576		66.406250
5577		68.359375
5578		66.406250
5579		68.359375
5580		66.406250
5581		68.359375
5582		66.406250
5583		68.359375
5584		66.406250
5585		68.359375
5586		66.406250
5587		68.359375
5588		66.406250
5589		68.359375
5590		66.406250
5591		68.359375
5592		66.406250
5593		68.359375
5594		64.453125
5595		68.359375
5596		64.453125
5597		68.359375
5598		64.453125
5599		68.359375
5600		64.453125
5601		68.359375
5602		64.453125
5603		68.359375
5604		64.453125
5605		66.406250
5606		64.453125
5607		66.406250
5608		64.453125
5609		66.406250
5610		62.500000
5611		66.406250
5612		62.500000
5613		66.406250
5614		62.500000
5615		64.453125
5616		60.546875
5617		64.453125
5618		60.546875
5619		64.453125
5620		60.546875
5621		62.500000
5622		60.546875
5623		62.500000
5624		58.593750
5625		62.500000
5626		58.593750
5627		62.500000
5628		56.640625
5629		60.546875
5630		56.640625
5631		60.546875
5632		54.687500
5633		58.593750
5634		54.687500
5635		58.593750
5636		52.734375
5637		56.640625
5638		52.734375
5639		56.640625
5640		52.734375
5641		54.687500
5642		50.781250
5643		54.687500
5644		48.828125
5645		52.734375
5646		48.828125
5647		52.734375
5648		46.875000
5649		50.781250
5650		46.875000
5651		50.781250
5652		44.921875
5653		48.828125
5654		44.921875
5655		48.828125
5656		42.968750
5657		46.875000
5658		41.015625
5659		44.921875
5660		41.015625
5661		44.921875
5662		39.062500
5663		42.968750
5664		39.062500
5665		42.968750
5666		37.109375
5667		41.015625
5668		35.156250
5669		39.062500
5670		33.203125
5671		37.109375
5672		33.203125
5673		37.109375
5674		31.250000
5675		35.156250
5676		31.250000
5677		33.203125
5678		29.296875
5679		33.203125
5680		27.343750
5681		31.250000
5682		25.390625
5683		29.296875
5684		25.390625
5685		29.296875
5686		23.437500
5687		27.343750
5688		21.484375
5689		25.390625
5690		19.531250
5691		23.437500
5692		19.531250
5693		21.484375
5694		17.578125
5695		21.484375
5696		15.625000
5697		19.531250
5698		13.671875
5699		17.578125
5700		11.718750
5701		15.625000
5702		11.718750
5703		13.671875
5704		9.765625
5705		13.671875
5706		7.812500
5707		11.718750
5708		5.859375
5709		9.765625
5710		3.906250
5711		7.812500
5712		3.906250
5713		7.812500
5714		1.953125
5715		5.859375
5716		0.000000
5717		3.906250
5718		-1.953125
5719		1.953125
5720		-3.906250
5721		0.000000
5722		-3.906250
5723		0.000000
5724		-5.859375
5725		-1.953125
5726		-7.812500
5727		-3.906250
5728		-9.765625
5729		-5.859375
5730		-9.765625
5731		-5.859375
5732		-11.718750
5733		-7.812500
5734		-13.671875
5735		-9.765625
5736		-15.625000
5737		-11.718750
5738		-15.625000
5739		-13.671875
5740		-17.578125
5741		-13.671875
5742		-19.531250
5743		-15.625000
5744		-21.484375
5745		-17.578125
5746		-21.484375
5747		-17.578125
5748		-23.437500
5749		-19.531250
5750		-25.390625
5751		-21.484375
5752		-25.390625
5753		-21.484375
5754		-27.343750
5755		-23.437500
5756		-29.296875
5757		-25.390625
5758		-29.296875
5759		-25.390625
5760		-31.250000
5761		-27.343750
5762		-31.250000
5763		-27.343750
5764		-33.203125
5765		-29.296875
5766		-35.156250
5767		-31.250000
5768		-35.156250
5769		-31.250000
5770		-37.109375
5771		-33.203125
5772		-37.109375
5773		-33.203125
5774		-39.062500
5775		-35.156250
5776		-39.062500
5777		-35.156250
5778		-39.062500
5779		-37.109375
5780		-41.015625
5781		-37.109375
5782		-41.015625
5783		-39.062500
5784		-42.968750
5785		-39.062500
5786		-42.968750
5787		-39.062500
5788		-44.921875
5789		-41.015625
5790		-44.921875
5791		-41.015625
5792		-44.921875
5793		-41.015625
5794		-44.921875
5795		-42.968750
5796		-46.875000
5797		-42.968750
5798		-46.875000
5799		-42.968750
5800		-46.875000
5801		-42.968750
5802		-46.875000
5803		-44.921875
5804		-46.875000
5805		-44.921875
5806		-48.828125
5807		-44.921875
5808		-48.828125
5809		-44.921875
5810		-48.828125
5811		-44.921875
5812		-48.828125
5813		-46.875000
5814		-48.828125
5815		-46.875000
5816		-48.828125
5817		-44.921875
5818		-48.828125
5819		-46.875000
5820		-48.828125
5821		-44.921875
5822		-48.828125
5823		-46.875000
5824		-48.828125
5825		-44.921875
5826		-48.828125
5827		-44.921875
5828		-48.828125
5829		-44.921875
5830		-48.828125
5831		-44.921875
5832		-48.828125
5833		-44.921875
5834		-46.875000
5835		-44.921875
5836		-46.875000
5837		-44.921875
5838		-46.875000
5839		-42.968750
5840		-46.875000
5841		-42.968750
5842		-46.875000
5843		-42.968750
5844		-44.921875
5845		-41.015625
5846		-44.921875
5847		-41.015625
5848		-44.921875
5849		-41.015625
5850		-42.968750
5851		-41.015625
5852		-42.968750
5853		-39.062500
5854		-42.968750
5855		-39.062500
5856		-41.015625
5857		-37.109375
5858		-41.015625
5859		-37.109375
5860		-39.062500
5861		-37.109375
5862		-39.062500
5863		-35.156250
5864		-39.062500
5865		-35.156250
5866		-37.109375
5867		-33.203125
5868		-35.156250
5869		-33.203125
5870		-35.156250
5871		-31.250000
5872		-33.203125
5873		-29.296875
5874		-33.203125
5875		-29.296875
5876		-31.250000
5877		-29.296875
5878		-31.250000
5879		-27.343750
5880		-29.296875
5881		-25.390625
5882		-29.296875
5883		-25.390625
5884		-27.343750
5885		-23.437500
5886		-25.390625
5887		-21.484375
5888		-25.390625
5889		-21.484375
5890		-23.437500
5891		-19.531250
5892		-21.484375
5893		-17.578125
5894		-21.484375
5895		-17.578125
5896		-19.531250
5897		-15.625000
5898		-17.578125
5899		-13.671875
5900		-17.578125
5901		-13.671875
5902		-15.625000
5903		-11.718750
5904		-13.671875
5905		-9.765625
5906		-11.718750
5907		-7.812500
5908		-9.765625
5909		-7.812500
5910		-9.765625
5911		-5.859375
5912		-7.812500
5913		-3.906250
5914		-5.859375
5915		-1.953125
5916		-3.906250
5917		0.000000
5918		-3.906250
5919		0.000000
5920		-1.953125
5921		1.953125
5922		0.000000
5923		3.906250
5924		1.953125
5925		5.859375
5926		3.906250
5927		5.859375
5928		3.906250
5929		7.812500
5930		5.859375
5931		9.765625
5932		7.812500
5933		11.718750
5934		7.812500
5935		13.671875
5936		9.765625
5937		13.671875
5938		11.718750
5939		15.625000
5940		13.671875
5941		17.578125
5942		15.625000
5943		19.531250
5944		17.578125
5945		19.531250
5946		17.578125
5947		21.484375
5948		19.531250
5949		23.437500
5950		21.484375
5951		25.390625
5952		23.437500
5953		27.343750
5954		23.437500
5955		27.343750
5956		25.390625
5957		29.296875
5958		27.343750
5959		31.250000
5960		27.343750
5961		33.203125
5962		29.296875
5963		33.203125
5964		31.250000
5965		35.156250
5966		33.203125
5967		37.109375
5968		33.203125
5969		37.109375
5970		35.156250
5971		39.062500
5972		37.109375
5973		41.015625
5974		37.109375
5975		41.015625
5976		39.062500
5977		42.968750
5978		41.015625
5979		44.921875
5980		41.015625
5981		44.921875
5982		42.968750
5983		46.875000
5984		42.968750
5985		48.828125
5986		44.921875
5987		48.828125
5988		46.875000
5989		48.828125
5990		46.875000
5991		50.781250
5992		48.828125
5993		52.734375
5994		48.828125
5995		52.734375
5996		50.781250
5997		54.687500
5998		50.781250
5999		54.687500
6000		52.734375
6001		56.640625
6002		54.687500
6003		56.640625
6004		54.687500
6005		58.593750
6006		54.687500
6007		58.593750
6008		56.640625
6009		60.546875
6010		56.640625
6011		60.546875
6012		58.593750
6013		60.546875
6014		58.593750
6015		62.500000
6016		58.593750
6017		62.500000
6018		60.546875
6019		62.500000
6020		60.546875
6021		64.453125
6022		60.546875
6023		64.453125
6024		60.546875
6025		64.453125
6026		62.500000
6027		64.453125
6028		62.500000
6029		66.406250
6030		62.500000
6031		66.406250
6032		64.453125
6033		66.406250
6034		64.453125
6035		68.359375
6036		64.453125
6037		68.359375
6038		64.453125
6039		68.359375
6040		64.453125
6041		68.359375
6042		66.406250
6043		70.312500
6044		66.406250
6045		68.359375
6046		66.406250
6047		68.359375
6048		66.406250
6049		68.359375
6050		66.406250
6051		70.312500
6052		66.406250
6053		70.312500
6054		66.406250
6055		70.312500
6056		66.406250
6057		70.312500
6058		66.406250
6059		70.312500
6060		66.406250
6061		70.312500
6062		66.406250
6063		70.312500
6064		66.406250
6065		70.312500
6066		66.406250
6067		70.312500
6068		66.406250
6069		70.312500
6070		66.406250
6071		68.359375
6072		64.453125
6073		68.359375
6074		64.453125
6075		68.359375
6076		64.453125
6077		68.359375
6078		64.453125
6079		66.406250
6080		64.453125
6081		66.406250
6082		64.453125
6083		66.406250
6084		62.500000
6085		66.406250
6086		62.500000
6087		66.406250
6088		62.500000
6089		64.453125
6090		60.546875
6091		64.453125
6092		60.546875
6093		64.453125
6094		60.546875
6095		62.500000
6096		58.593750
6097		62.500000
6098		58.593750
6099		62.500000
6100		58.593750
6101		60.546875
6102		56.640625
6103		60.546875
6104		56.640625
6105		58.593750
6106		54.687500
6107		58.593750
6108		54.687500
6109		58.593750
6110		52.734375
6111		56.640625
6112		50.781250
6113		56.640625
6114		50.781250
6115		54.687500
6116		50.781250
6117		54.687500
6118		48.828125
6119		52.734375
6120		48.828125
6121		52.734375
6122		46.875000
6123		50.781250
6124		44.921875
6125		48.828125
6126		44.921875
6127		48.828125
6128		42.968750
6129		46.875000
6130		42.968750
6131		46.875000
6132		41.015625
6133		44.921875
6134		39.062500
6135		42.968750
6136		39.062500
6137		41.015625
6138		37.109375
6139		41.015625
6140		35.156250
6141		39.062500
6142		35.156250
6143		37.109375
6144		33.203125
6145		37.109375
6146		31.250000
6147		35.156250
6148		31.250000
6149		35.156250
6150		29.296875
6151		33.203125
6152		27.343750
6153		31.250000
6154		25.390625
6155		29.296875
6156		25.390625
6157		27.343750
6158		23.437500
6159		27.343750
6160		21.484375
6161		25.390625
6162		19.531250
6163		23.437500
6164		19.531250
6165		23.437500
6166		17.578125
6167		21.484375
6168		15.625000
6169		19.531250
6170		13.671875
6171		17.578125
6172		11.718750
6173		15.625000
6174		9.765625
6175		15.625000
6176		9.765625
6177		13.671875
6178		7.812500
6179		11.718750
6180		5.859375
6181		9.765625
6182		3.906250
6183		7.812500
6184		3.906250
6185		7.812500
6186		1.953125
6187		5.859375
6188		0.000000
6189		3.906250
6190		-1.953125
6191		1.953125
6192		-3.906250
6193		0.000000
6194		-3.906250
6195		0.000000
6196		-5.859375
6197		-1.953125
6198		-7.812500
6199		-3.906250
6200		-9.765625
6201		-5.859375
6202		-11.718750
6203		-7.812500
6204		-13.671875
6205		-7.812500
6206		-13.671875
6207		-9.765625
6208		-15.625000
6209		-9.765625
6210		-15.625000
6211		-11.718750
6212		-17.578125
6213		-13.671875
6214		-19.531250
6215		-15.625000
6216		-19.531250
6217		-17.578125
6218		-21.484375
6219		-17.578125
6220		-23.437500
6221		-19.531250
6222		-25.390625
6223		-19.531250
6224		-27.343750
6225		-21.484375
6226		-27.343750
6227		-21.484375
6228		-31.250000
6229		-25.390625
6230		-29.296875
6231		-25.390625
6232		-31.250000
6233		-27.343750
6234		-33.203125
6235		-27.343750
6236		-33.203125
6237		-29.296875
6238		-35.156250
6239		-29.296875
6240		-35.156250
6241		-31.250000
6242		-37.109375
6243		-31.250000
6244		-37.109375
6245		-33.203125
6246		-41.015625
6247		-33.203125
6248		-39.062500
6249		-35.156250
6250		-41.015625
6251		-37.109375
6252		-41.015625
6253		-37.109375
6254		-42.968750
6255		-37.109375
6256		-42.968750
6257		-39.062500
6258		-44.921875
6259		-37.109375
6260		-42.968750
6261		-41.015625
6262		-46.875000
6263		-39.062500
6264		-44.921875
6265		-41.015625
6266		-44.921875
6267		-42.968750
6268		-46.875000
6269		-41.015625
6270		-48.828125
6271		-41.015625
6272		-46.875000
6273		-42.968750
6274		-46.875000
6275		-42.968750
6276		-48.828125
6277		-42.968750
6278		-48.828125
6279		-42.968750
6280		-48.828125
6281		-44.921875
6282		-48.828125
6283		-44.921875
6284		-48.828125
6285		-44.921875
6286		-50.781250
6287		-42.968750
6288		-48.828125
6289		-44.921875
6290		-48.828125
6291		-44.921875
6292		-50.781250
6293		-42.968750
6294		-50.781250
6295		-42.968750
6296		-52.734375
6297		-42.968750
6298		-48.828125
6299		-44.921875
6300		-48.828125
6301		-44.921875
6302		-48.828125
6303		-42.968750
6304		-48.828125
6305		-42.968750
6306		-48.828125
6307		-42.968750
6308		-46.875000
6309		-42.968750
6310		-48.828125
6311		-41.015625
6312		-48.828125
6313		-41.015625
6314		-44.921875
6315		-42.968750
6316		-44.921875
6317		-41.015625
6318		-44.921875
6319		-41.015625
6320		-46.875000
6321		-37.109375
6322		-44.921875
6323		-39.062500
6324		-42.968750
6325		-39.062500
6326		-42.968750
6327		-35.156250
6328		-42.968750
6329		-37.109375
6330		-42.968750
6331		-35.156250
6332		-39.062500
6333		-35.156250
6334		-39.062500
6335		-33.203125
6336		-39.062500
6337		-31.250000
6338		-39.062500
6339		-31.250000
6340		-35.156250
6341		-31.250000
6342		-35.156250
6343		-29.296875
6344		-37.109375
6345		-27.343750
6346		-35.156250
6347		-25.390625
6348		-31.250000
6349		-27.343750
6350		-29.296875
6351		-25.390625
6352		-29.296875
6353		-23.437500
6354		-29.296875
6355		-21.484375
6356		-27.343750
6357		-23.437500
6358		-25.390625
6359		-21.484375
6360		-25.390625
6361		-17.578125
6362		-23.437500
6363		-17.578125
6364		-23.437500
6365		-13.671875
6366		-19.531250
6367		-15.625000
6368		-19.531250
6369		-13.671875
6370		-19.531250
6371		-9.765625
6372		-17.578125
6373		-11.718750
6374		-13.671875
6375		-9.765625
6376		-15.625000
6377		-5.859375
6378		-13.671875
6379		-5.859375
6380		-11.718750
6381		-3.906250
6382		-7.812500
6383		-3.906250
6384		-7.812500
6385		-3.906250
6386		-5.859375
6387		0.000000
6388		-5.859375
6389		1.953125
6390		-3.906250
6391		1.953125
6392		0.000000
6393		3.906250
6394		-1.953125
6395		5.859375
6396		0.000000
6397		7.812500
6398		3.906250
6399		7.812500
6400		5.859375
6401		9.765625
6402		5.859375
6403		11.718750
6404		5.859375
6405		15.625000
6406		9.765625
6407		13.671875
6408		11.718750
6409		15.625000
6410		11.718750
6411		19.531250
6412		11.718750
6413		19.531250
6414		13.671875
6415		21.484375
6416		17.578125
6417		21.484375
6418		19.531250
6419		23.437500
6420		19.531250
6421		27.343750
6422		19.531250
6423		27.343750
6424		23.437500
6425		27.343750
6426		25.390625
6427		29.296875
6428		23.437500
6429		33.203125
6430		27.343750
6431		33.203125
6432		29.296875
6433		33.203125
6434		29.296875
6435		35.156250
6436		31.250000
6437		37.109375
6438		31.250000
6439		39.062500
6440		33.203125
6441		39.062500
6442		35.156250
6443		39.062500
6444		35.156250
6445		44.921875
6446		39.062500
6447		42.968750
6448		37.109375
6449		42.968750
6450		41.015625
6451		44.921875
6452		42.968750
6453		46.875000
6454		42.968750
6455		50.781250
6456		42.968750
6457		50.781250
6458		46.875000
6459		48.828125
6460		44.921875
6461		54.687500
6462		44.921875
6463		54.687500
6464		46.875000
6465		54.687500
6466		50.781250
6467		54.687500
6468		50.781250
6469		54.687500
6470		50.781250
6471		56.640625
6472		50.781250
6473		58.593750
6474		52.734375
6475		58.593750
6476		54.687500
6477		58.593750
6478		54.687500
6479		60.546875
6480		54.687500
6481		62.500000
6482		56.640625
6483		60.546875
6484		58.593750
6485		62.500000
6486		58.593750
6487		62.500000
6488		58.593750
6489		66.406250
6490		58.593750
6491		64.453125
6492		60.546875
6493		64.453125
6494		60.546875
6495		66.406250
6496		62.500000
6497		66.406250
6498		62.500000
6499		66.406250
6500		64.453125
6501		66.406250
6502		64.453125
6503		66.406250
6504		64.453125
6505		68.359375
6506		64.453125
6507		68.359375
6508		64.453125
6509		68.359375
6510		64.453125
6511		68.359375
6512		64.453125
6513		70.312500
6514		66.406250
6515		68.359375
6516		66.406250
6517		68.359375
6518		66.406250
6519		70.312500
6520		66.406250
6521		70.312500
6522		66.406250
6523		70.312500
6524		66.406250
6525		70.312500
6526		66.406250
6527		70.312500
6528		66.406250
6529		70.312500
6530		66.406250
6531		70.312500
6532		66.406250
6533		70.312500
6534		66.406250
6535		70.312500
6536		66.406250
6537		68.359375
6538		66.406250
6539		68.359375
6540		66.406250
6541		68.359375
6542		66.406250
6543		70.312500
6544		66.406250
6545		68.359375
6546		64.453125
6547		68.359375
6548		64.453125
6549		68.359375
6550		64.453125
6551		68.359375
6552		64.453125
6553		66.406250
6554		62.500000
6555		68.359375
6556		62.500000
6557		66.406250
6558		62.500000
6559		66.406250
6560		60.546875
6561		66.406250
6562		60.546875
6563		66.406250
6564		60.546875
6565		64.453125
6566		58.593750
6567		62.500000
6568		58.593750
6569		62.500000
6570		56.640625
6571		62.500000
6572		56.640625
6573		62.500000
6574		56.640625
6575		60.546875
6576		54.687500
6577		60.546875
6578		54.687500
6579		58.593750
6580		52.734375
6581		58.593750
6582		52.734375
6583		58.593750
6584		52.734375
6585		54.687500
6586		50.781250
6587		54.687500
6588		48.828125
6589		54.687500
6590		48.828125
6591		52.734375
6592		46.875000
6593		52.734375
6594		44.921875
6595		52.734375
6596		44.921875
6597		50.781250
6598		42.968750
6599		48.828125
6600		42.968750
6601		46.875000
6602		42.968750
6603		44.921875
6604		41.015625
6605		44.921875
6606		39.062500
6607		42.968750
6608		37.109375
6609		42.968750
6610		35.156250
6611		42.968750
6612		35.156250
6613		41.015625
6614		33.203125
6615		39.062500
6616		33.203125
6617		39.062500
6618		31.250000
6619		35.156250
6620		29.296875
6621		33.203125
6622		27.343750
6623		33.203125
6624		25.390625
6625		31.250000
6626		23.437500
6627		31.250000
6628		23.437500
6629		29.296875
6630		21.484375
6631		27.343750
6632		21.484375
6633		25.390625
6634		19.531250
6635		23.437500
6636		17.578125
6637		21.484375
6638		15.625000
6639		21.484375
6640		13.671875
6641		19.531250
6642		13.671875
6643		17.578125
6644		11.718750
6645		17.578125
6646		9.765625
6647		15.625000
6648		7.812500
6649		13.671875
6650		7.812500
6651		11.718750
6652		5.859375
6653		9.765625
6654		3.906250
6655		7.812500
6656		1.953125
6657		7.812500
6658		1.953125
6659		5.859375
6660		-1.953125
6661		3.906250
6662		-1.953125
6663		1.953125
6664		-3.906250
6665		0.000000
6666		-5.859375
6667		0.000000
6668		-5.859375
6669		-1.953125
6670		-9.765625
6671		-3.906250
6672		-9.765625
6673		-5.859375
6674		-11.718750
6675		-7.812500
6676		-15.625000
6677		-7.812500
6678		-13.671875
6679		-9.765625
6680		-15.625000
6681		-11.718750
6682		-17.578125
6683		-13.671875
6684		-17.578125
6685		-13.671875
6686		-19.531250
6687		-15.625000
6688		-21.484375
6689		-17.578125
6690		-23.437500
6691		-17.578125
6692		-23.437500
6693		-19.531250
6694		-25.390625
6695		-19.531250
6696		-25.390625
6697		-21.484375
6698		-27.343750
6699		-23.437500
6700		-29.296875
6701		-25.390625
6702		-29.296875
6703		-25.390625
6704		-31.250000
6705		-27.343750
6706		-33.203125
6707		-27.343750
6708		-33.203125
6709		-29.296875
6710		-35.156250
6711		-29.296875
6712		-35.156250
6713		-31.250000
6714		-37.109375
6715		-33.203125
6716		-37.109375
6717		-33.203125
6718		-39.062500
6719		-35.156250
6720		-39.062500
6721		-35.156250
6722		-39.062500
6723		-37.109375
6724		-41.015625
6725		-37.109375
6726		-41.015625
6727		-37.109375
6728		-42.968750
6729		-37.109375
6730		-42.968750
6731		-39.062500
6732		-44.921875
6733		-39.062500
6734		-44.921875
6735		-41.015625
6736		-44.921875
6737		-41.015625
6738		-44.921875
6739		-41.015625
6740		-46.875000
6741		-41.015625
6742		-46.875000
6743		-42.968750
6744		-48.828125
6745		-42.968750
6746		-46.875000
6747		-42.968750
6748		-46.875000
6749		-44.921875
6750		-48.828125
6751		-44.921875
6752		-46.875000
6753		-44.921875
6754		-48.828125
6755		-44.921875
6756		-48.828125
6757		-44.921875
6758		-48.828125
6759		-44.921875
6760		-50.781250
6761		-44.921875
6762		-48.828125
6763		-44.921875
6764		-48.828125
6765		-44.921875
6766		-48.828125
6767		-44.921875
6768		-48.828125
6769		-44.921875
6770		-46.875000
6771		-44.921875
6772		-48.828125
6773		-44.921875
6774		-48.828125
6775		-42.968750
6776		-46.875000
6777		-44.921875
6778		-48.828125
6779		-42.968750
6780		-46.875000
6781		-42.968750
6782		-46.875000
6783		-42.968750
6784		-44.921875
6785		-42.968750
6786		-44.921875
6787		-41.015625
6788		-44.921875
6789		-41.015625
6790		-42.968750
6791		-41.015625
6792		-44.921875
6793		-39.062500
6794		-42.968750
6795		-39.062500
6796		-42.968750
6797		-37.109375
6798		-41.015625
6799		-37.109375
6800		-41.015625
6801		-35.156250
6802		-39.062500
6803		-37.109375
6804		-39.062500
6805		-35.156250
6806		-39.062500
6807		-33.203125
6808		-37.109375
6809		-33.203125
6810		-35.156250
6811		-31.250000
6812		-35.156250
6813		-31.250000
6814		-33.203125
6815		-29.296875
6816		-33.203125
6817		-29.296875
6818		-33.203125
6819		-27.343750
6820		-31.250000
6821		-27.343750
6822		-29.296875
6823		-25.390625
6824		-29.296875
6825		-23.437500
6826		-27.343750
6827		-23.437500
6828		-25.390625
6829		-21.484375
6830		-25.390625
6831		-19.531250
6832		-23.437500
6833		-19.531250
6834		-21.484375
6835		-17.578125
6836		-21.484375
6837		-17.578125
6838		-19.531250
6839		-15.625000
6840		-17.578125
6841		-13.671875
6842		-17.578125
6843		-11.718750
6844		-13.671875
6845		-11.718750
6846		-13.671875
6847		-9.765625
6848		-11.718750
6849		-7.812500
6850		-9.765625
6851		-5.859375
6852		-9.765625
6853		-3.906250
6854		-7.812500
6855		-3.906250
6856		-5.859375
6857		-1.953125
6858		-5.859375
6859		0.000000
6860		-3.906250
6861		0.000000
6862		-1.953125
6863		1.953125
6864		0.000000
6865		3.906250
6866		1.953125
6867		5.859375
6868		1.953125
6869		7.812500
6870		3.906250
6871		9.765625
6872		5.859375
6873		9.765625
6874		7.812500
6875		11.718750
6876		9.765625
6877		13.671875
6878		11.718750
6879		13.671875
6880		11.718750
6881		15.625000
6882		13.671875
6883		17.578125
6884		15.625000
6885		19.531250
6886		17.578125
6887		21.484375
6888		17.578125
6889		21.484375
6890		19.531250
6891		23.437500
6892		21.484375
6893		25.390625
6894		21.484375
6895		27.343750
6896		23.437500
6897		29.296875
6898		25.390625
6899		29.296875
6900		27.343750
6901		31.250000
6902		29.296875
6903		33.203125
6904		29.296875
6905		33.203125
6906		31.250000
6907		35.156250
6908		33.203125
6909		37.109375
6910		33.203125
6911		37.109375
6912		35.156250
6913		39.062500
6914		37.109375
6915		41.015625
6916		37.109375
6917		41.015625
6918		39.062500
6919		42.968750
6920		39.062500
6921		44.921875
6922		41.015625
6923		44.921875
6924		42.968750
6925		46.875000
6926		44.921875
6927		48.828125
6928		44.921875
6929		48.828125
6930		46.875000
6931		50.781250
6932		46.875000
6933		50.781250
6934		48.828125
6935		52.734375
6936		50.781250
6937		52.734375
6938		50.781250
6939		54.687500
6940		50.781250
6941		54.687500
6942		52.734375
6943		56.640625
6944		54.687500
6945		56.640625
6946		54.687500
6947		58.593750
6948		56.640625
6949		58.593750
6950		56.640625
6951		60.546875
6952		56.640625
6953		60.546875
6954		58.593750
6955		60.546875
6956		58.593750
6957		62.500000
6958		58.593750
6959		62.500000
6960		60.546875
6961		64.453125
6962		60.546875
6963		64.453125
6964		60.546875
6965		64.453125
6966		62.500000
6967		64.453125
6968		62.500000
6969		66.406250
6970		62.500000
6971		66.406250
6972		62.500000
6973		68.359375
6974		64.453125
6975		68.359375
6976		64.453125
6977		68.359375
6978		64.453125
6979		68.359375
6980		64.453125
6981		68.359375
6982		66.406250
6983		68.359375
6984		64.453125
6985		70.312500
6986		66.406250
6987		70.312500
6988		66.406250
6989		70.312500
6990		66.406250
6991		70.312500
6992		66.406250
6993		70.312500
6994		66.406250
6995		70.312500
6996		66.406250
6997		70.312500
6998		66.406250
6999		70.312500
7000		66.406250
7001		70.312500
7002		66.406250
7003		70.312500
7004		66.406250
7005		70.312500
7006		66.406250
7007		70.312500
7008		64.453125
7009		70.312500
7010		66.406250
7011		70.312500
7012		66.406250
7013		68.359375
7014		66.406250
7015		68.359375
7016		64.453125
7017		68.359375
7018		62.500000
7019		68.359375
7020		64.453125
7021		68.359375
7022		64.453125
7023		66.406250
7024		64.453125
7025		66.406250
7026		62.500000
7027		66.406250
7028		62.500000
7029		66.406250
7030		62.500000
7031		66.406250
7032		60.546875
7033		64.453125
7034		60.546875
7035		64.453125
7036		60.546875
7037		64.453125
7038		60.546875
7039		62.500000
7040		58.593750
7041		62.500000
7042		58.593750
7043		60.546875
7044		56.640625
7045		60.546875
7046		56.640625
7047		58.593750
7048		54.687500
7049		58.593750
7050		54.687500
7051		58.593750
7052		52.734375
7053		56.640625
7054		52.734375
7055		56.640625
7056		50.781250
7057		54.687500
7058		50.781250
7059		54.687500
7060		48.828125
7061		52.734375
7062		46.875000
7063		52.734375
7064		46.875000
7065		50.781250
7066		44.921875
7067		48.828125
7068		44.921875
7069		48.828125
7070		42.968750
7071		48.828125
7072		42.968750
7073		46.875000
7074		39.062500
7075		44.921875
7076		41.015625
7077		44.921875
7078		39.062500
7079		42.968750
7080		37.109375
7081		41.015625
7082		35.156250
7083		41.015625
7084		35.156250
7085		39.062500
7086		33.203125
7087		37.109375
7088		31.250000
7089		35.156250
7090		31.250000
7091		35.156250
7092		29.296875
7093		33.203125
7094		27.343750
7095		31.250000
7096		25.390625
7097		31.250000
7098		25.390625
7099		29.296875
7100		23.437500
7101		27.343750
7102		21.484375
7103		25.390625
7104		19.531250
7105		25.390625
7106		19.531250
7107		23.437500
7108		17.578125
7109		21.484375
7110		15.625000
7111		19.531250
7112		13.671875
7113		17.578125
7114		11.718750
7115		15.625000
7116		11.718750
7117		15.625000
7118		9.765625
7119		13.671875
7120		7.812500
7121		11.718750
7122		5.859375
7123		9.765625
7124		3.906250
7125		9.765625
7126		1.953125
7127		7.812500
7128		1.953125
7129		5.859375
7130		0.000000
7131		3.906250
7132		-1.953125
7133		1.953125
7134		-1.953125
7135		1.953125
7136		-3.906250
7137		0.000000
7138		-5.859375
7139		-1.953125
7140		-7.812500
7141		-3.906250
7142		-9.765625
7143		-3.906250
7144		-9.765625
7145		-5.859375
7146		-11.718750
7147		-7.812500
7148		-13.671875
7149		-9.765625
7150		-15.625000
7151		-9.765625
7152		-15.625000
7153		-11.718750
7154		-17.578125
7155		-13.671875
7156		-19.531250
7157		-15.625000
7158		-21.484375
7159		-17.578125
7160		-21.484375
7161		-17.578125
7162		-23.437500
7163		-19.531250
7164		-23.437500
7165		-21.484375
7166		-25.390625
7167		-21.484375
7168		-27.343750
7169		-23.437500
7170		-29.296875
7171		-23.437500
7172		-29.296875
7173		-25.390625
7174		-31.250000
7175		-27.343750
7176		-31.250000
7177		-27.343750
7178		-33.203125
7179		-29.296875
7180		-33.203125
7181		-31.250000
7182		-35.156250
7183		-31.250000
7184		-35.156250
7185		-31.250000
7186		-37.109375
7187		-33.203125
7188		-37.109375
7189		-33.203125
7190		-39.062500
7191		-35.156250
7192		-41.015625
7193		-35.156250
7194		-41.015625
7195		-37.109375
7196		-41.015625
7197		-37.109375
7198		-41.015625
7199		-39.062500
7200		-42.968750
7201		-39.062500
7202		-42.968750
7203		-39.062500
7204		-44.921875
7205		-41.015625
7206		-44.921875
7207		-41.015625
7208		-46.875000
7209		-41.015625
7210		-44.921875
7211		-42.968750
7212		-46.875000
7213		-42.968750
7214		-46.875000
7215		-42.968750
7216		-46.875000
7217		-42.968750
7218		-46.875000
7219		-42.968750
7220		-48.828125
7221		-42.968750
7222		-46.875000
7223		-44.921875
7224		-48.828125
7225		-44.921875
7226		-48.828125
7227		-44.921875
7228		-48.828125
7229		-44.921875
7230		-48.828125
7231		-44.921875
7232		-48.828125
7233		-44.921875
7234		-48.828125
7235		-44.921875
7236		-48.828125
7237		-44.921875
7238		-48.828125
7239		-44.921875
7240		-48.828125
7241		-44.921875
7242		-46.875000
7243		-44.921875
7244		-48.828125
7245		-42.968750
7246		-46.875000
7247		-42.968750
7248		-46.875000
7249		-42.968750
7250		-46.875000
7251		-42.968750
7252		-46.875000
7253		-42.968750
7254		-46.875000
7255		-41.015625
7256		-44.921875
7257		-42.968750
7258		-44.921875
7259		-41.015625
7260		-44.921875
7261		-41.015625
7262		-42.968750
7263		-41.015625
7264		-42.968750
7265		-39.062500
7266		-42.968750
7267		-39.062500
7268		-41.015625
7269		-37.109375
7270		-41.015625
7271		-37.109375
7272		-41.015625
7273		-37.109375
7274		-39.062500
7275		-35.156250
7276		-39.062500
7277		-33.203125
7278		-37.109375
7279		-33.203125
7280		-37.109375
7281		-33.203125
7282		-35.156250
7283		-31.250000
7284		-35.156250
7285		-29.296875
7286		-33.203125
7287		-29.296875
7288		-33.203125
7289		-29.296875
7290		-31.250000
7291		-27.343750
7292		-29.296875
7293		-25.390625
7294		-29.296875
7295		-25.390625
7296		-27.343750
7297		-23.437500
7298		-25.390625
7299		-21.484375
7300		-25.390625
7301		-21.484375
7302		-23.437500
7303		-19.531250
7304		-21.484375
7305		-17.578125
7306		-21.484375
7307		-17.578125
7308		-19.531250
7309		-15.625000
7310		-17.578125
7311		-13.671875
7312		-17.578125
7313		-13.671875
7314		-15.625000
7315		-11.718750
7316		-13.671875
7317		-9.765625
7318		-11.718750
7319		-7.812500
7320		-11.718750
7321		-7.812500
7322		-9.765625
7323		-5.859375
7324		-7.812500
7325		-3.906250
7326		-7.812500
7327		-1.953125
7328		-5.859375
7329		0.000000
7330		-3.906250
7331		0.000000
7332		-1.953125
7333		1.953125
7334		-1.953125
7335		3.906250
7336		0.000000
7337		3.906250
7338		1.953125
7339		5.859375
7340		3.906250
7341		7.812500
7342		5.859375
7343		9.765625
7344		5.859375
7345		9.765625
7346		7.812500
7347		11.718750
7348		9.765625
7349		13.671875
7350		11.718750
7351		15.625000
7352		11.718750
7353		17.578125
7354		15.625000
7355		19.531250
7356		15.625000
7357		19.531250
7358		17.578125
7359		21.484375
7360		19.531250
7361		23.437500
7362		19.531250
7363		25.390625
7364		21.484375
7365		25.390625
7366		23.437500
7367		27.343750
7368		25.390625
7369		29.296875
7370		25.390625
7371		31.250000
7372		27.343750
7373		31.250000
7374		29.296875
7375		33.203125
7376		31.250000
7377		35.156250
7378		31.250000
7379		35.156250
7380		33.203125
7381		37.109375
7382		35.156250
7383		39.062500
7384		35.156250
7385		39.062500
7386		37.109375
7387		41.015625
7388		39.062500
7389		42.968750
7390		39.062500
7391		42.968750
7392		41.015625
7393		44.921875
7394		42.968750
7395		46.875000
7396		42.968750
7397		46.875000
7398		44.921875
7399		48.828125
7400		46.875000
7401		48.828125
7402		46.875000
7403		50.781250
7404		48.828125
7405		52.734375
7406		48.828125
7407		52.734375
7408		50.781250
7409		54.687500
7410		50.781250
7411		54.687500
7412		52.734375
7413		56.640625
7414		52.734375
7415		56.640625
7416		52.734375
7417		58.593750
7418		54.687500
7419		58.593750
7420		56.640625
7421		58.593750
7422		56.640625
7423		60.546875
7424		56.640625
7425		60.546875
7426		58.593750
7427		62.500000
7428		58.593750
7429		62.500000
7430		60.546875
7431		62.500000
7432		60.546875
7433		64.453125
7434		60.546875
7435		64.453125
7436		62.500000
7437		66.406250
7438		62.500000
7439		66.406250
7440		62.500000
7441		66.406250
7442		64.453125
7443		66.406250
7444		64.453125
7445		68.359375
7446		64.453125
7447		66.406250
7448		64.453125
7449		68.359375
7450		64.453125
7451		68.359375
7452		64.453125
7453		68.359375
7454		64.453125
7455		68.359375
7456		64.453125
7457		70.312500
7458		66.406250
7459		68.359375
7460		66.406250
7461		70.312500
7462		66.406250
7463		70.312500
7464		66.406250
7465		70.312500
7466		66.406250
7467		70.312500
7468		66.406250
7469		70.312500
7470		66.406250
7471		70.312500
7472		66.406250
7473		70.312500
7474		66.406250
7475		70.312500
7476		66.406250
7477		70.312500
7478		64.453125
7479		70.312500
7480		66.406250
7481		70.312500
7482		66.406250
7483		70.312500
7484		66.406250
7485		68.359375
7486		64.453125
7487		68.359375
7488		64.453125
7489		68.359375
7490		64.453125
7491		68.359375
7492		64.453125
7493		68.359375
7494		62.500000
7495		68.359375
7496		62.500000
7497		66.406250
7498		62.500000
7499		66.406250
7500		62.500000
7501		66.406250
7502		62.500000
7503		64.453125
7504		60.546875
7505		64.453125
7506		58.593750
7507		64.453125
7508		60.546875
7509		62.500000
7510		58.593750
7511		62.500000
7512		58.593750
7513		62.500000
7514		56.640625
7515		60.546875
7516		56.640625
7517		60.546875
7518		54.687500
7519		58.593750
7520		54.687500
7521		58.593750
7522		54.687500
7523		56.640625
7524		52.734375
7525		56.640625
7526		52.734375
7527		56.640625
7528		50.781250
7529		54.687500
7530		50.781250
7531		52.734375
7532		48.828125
7533		52.734375
7534		46.875000
7535		50.781250
7536		46.875000
7537		50.781250
7538		44.921875
7539		48.828125
7540		44.921875
7541		48.828125
7542		42.968750
7543		46.875000
7544		41.015625
7545		44.921875
7546		41.015625
7547		44.921875
7548		39.062500
7549		42.968750
7550		39.062500
7551		42.968750
7552		37.109375
7553		41.015625
7554		35.156250
7555		39.062500
7556		33.203125
7557		37.109375
7558		33.203125
7559		37.109375
7560		31.250000
7561		35.156250
7562		29.296875
7563		33.203125
7564		27.343750
7565		33.203125
7566		27.343750
7567		31.250000
7568		25.390625
7569		29.296875
7570		23.437500
7571		29.296875
7572		23.437500
7573		27.343750
7574		21.484375
7575		25.390625
7576		19.531250
7577		23.437500
7578		17.578125
7579		21.484375
7580		15.625000
7581		21.484375
7582		15.625000
7583		19.531250
7584		13.671875
7585		17.578125
7586		11.718750
7587		15.625000
7588		9.765625
7589		13.671875
7590		7.812500
7591		13.671875
7592		7.812500
7593		11.718750
7594		5.859375
7595		9.765625
7596		3.906250
7597		7.812500
7598		1.953125
7599		5.859375
7600		0.000000
7601		5.859375
7602		-1.953125
7603		3.906250
7604		-1.953125
7605		1.953125
7606		-3.906250
7607		1.953125
7608		-5.859375
7609		0.000000
7610		-5.859375
7611		-1.953125
7612		-9.765625
7613		-3.906250
7614		-9.765625
7615		-5.859375
7616		-11.718750
7617		-5.859375
7618		-11.718750
7619		-7.812500
7620		-13.671875
7621		-9.765625
7622		-15.625000
7623		-11.718750
7624		-17.578125
7625		-11.718750
7626		-17.578125
7627		-13.671875
7628		-19.531250
7629		-15.625000
7630		-21.484375
7631		-15.625000
7632		-21.484375
7633		-17.578125
7634		-23.437500
7635		-19.531250
7636		-25.390625
7637		-21.484375
7638		-25.390625
7639		-21.484375
7640		-27.343750
7641		-23.437500
7642		-29.296875
7643		-23.437500
7644		-29.296875
7645		-25.390625
7646		-31.250000
7647		-27.343750
7648		-31.250000
7649		-27.343750
7650		-33.203125
7651		-29.296875
7652		-35.156250
7653		-31.250000
7654		-35.156250
7655		-31.250000
7656		-35.156250
7657		-33.203125
7658		-37.109375
7659		-33.203125
7660		-37.109375
7661		-35.156250
7662		-39.062500
7663		-35.156250
7664		-39.062500
7665		-35.156250
7666		-41.015625
7667		-37.109375
7668		-42.968750
7669		-37.109375
7670		-42.968750
7671		-39.062500
7672		-42.968750
7673		-39.062500
7674		-44.921875
7675		-39.062500
7676		-44.921875
7677		-41.015625
7678		-44.921875
7679		-41.015625
7680		-44.921875
7681		-42.968750
7682		-44.921875
7683		-42.968750
7684		-46.875000
7685		-42.968750
7686		-46.875000
7687		-42.968750
7688		-46.875000
7689		-42.968750
7690		-48.828125
7691		-42.968750
7692		-46.875000
7693		-44.921875
7694		-48.828125
7695		-44.921875
7696		-48.828125
7697		-44.921875
7698		-48.828125
7699		-44.921875
7700		-48.828125
7701		-44.921875
7702		-48.828125
7703		-44.921875
7704		-48.828125
7705		-44.921875
7706		-48.828125
7707		-44.921875
7708		-48.828125
7709		-44.921875
7710		-48.828125
7711		-44.921875
7712		-48.828125
7713		-44.921875
7714		-48.828125
7715		-44.921875
7716		-46.875000
7717		-44.921875
7718		-46.875000
7719		-44.921875
7720		-46.875000
7721		-42.968750
7722		-46.875000
7723		-42.968750
7724		-46.875000
7725		-42.968750
7726		-46.875000
7727		-42.968750
7728		-44.921875
7729		-41.015625
7730		-44.921875
7731		-41.015625
7732		-44.921875
7733		-41.015625
7734		-42.968750
7735		-39.062500
7736		-42.968750
7737		-37.109375
7738		-42.968750
7739		-39.062500
7740		-41.015625
7741		-37.109375
7742		-41.015625
7743		-37.109375
7744		-39.062500
7745		-37.109375
7746		-39.062500
7747		-35.156250
7748		-37.109375
7749		-33.203125
7750		-37.109375
7751		-33.203125
7752		-35.156250
7753		-33.203125
7754		-35.156250
7755		-31.250000
7756		-35.156250
7757		-31.250000
7758		-33.203125
7759		-29.296875
7760		-33.203125
7761		-29.296875
7762		-31.250000
7763		-27.343750
7764		-31.250000
7765		-25.390625
7766		-29.296875
7767		-25.390625
7768		-27.343750
7769		-21.484375
7770		-25.390625
7771		-21.484375
7772		-25.390625
7773		-21.484375
7774		-23.437500
7775		-19.531250
7776		-23.437500
7777		-17.578125
7778		-21.484375
7779		-17.578125
7780		-19.531250
7781		-15.625000
7782		-17.578125
7783		-13.671875
7784		-17.578125
7785		-13.671875
7786		-15.625000
7787		-11.718750
7788		-15.625000
7789		-9.765625
7790		-11.718750
7791		-7.812500
7792		-11.718750
7793		-7.812500
7794		-9.765625
7795		-5.859375
7796		-7.812500
7797		-3.906250
7798		-5.859375
7799		-1.953125
7800		-5.859375
7801		0.000000
7802		-3.906250
7803		0.000000
7804		-1.953125
7805		1.953125
7806		0.000000
7807		3.906250
7808		0.000000
7809		5.859375
7810		0.000000
7811		5.859375
7812		3.906250
7813		7.812500
7814		5.859375
7815		9.765625
7816		7.812500
7817		11.718750
7818		7.812500
7819		11.718750
7820		9.765625
7821		13.671875
7822		11.718750
7823		15.625000
7824		13.671875
7825		17.578125
7826		13.671875
7827		19.531250
7828		15.625000
7829		19.531250
7830		17.578125
7831		21.484375
7832		19.531250
7833		23.437500
7834		21.484375
7835		25.390625
7836		21.484375
7837		25.390625
7838		23.437500
7839		27.343750
7840		25.390625
7841		29.296875
7842		25.390625
7843		29.296875
7844		27.343750
7845		31.250000
7846		29.296875
7847		33.203125
7848		31.250000
7849		35.156250
7850		31.250000
7851		35.156250
7852		33.203125
7853		37.109375
7854		35.156250
7855		39.062500
7856		35.156250
7857		39.062500
7858		37.109375
7859		41.015625
7860		37.109375
7861		42.968750
7862		39.062500
7863		42.968750
7864		41.015625
7865		44.921875
7866		41.015625
7867		46.875000
7868		42.968750
7869		46.875000
7870		44.921875
7871		48.828125
7872		46.875000
7873		50.781250
7874		46.875000
7875		50.781250
7876		46.875000
7877		52.734375
7878		48.828125
7879		52.734375
7880		50.781250
7881		54.687500
7882		50.781250
7883		54.687500
7884		52.734375
7885		56.640625
7886		52.734375
7887		56.640625
7888		54.687500
7889		58.593750
7890		54.687500
7891		58.593750
7892		54.687500
7893		58.593750
7894		56.640625
7895		60.546875
7896		56.640625
7897		60.546875
7898		58.593750
7899		62.500000
7900		58.593750
7901		62.500000
7902		58.593750
7903		62.500000
7904		58.593750
7905		64.453125
7906		60.546875
7907		64.453125
7908		62.500000
7909		64.453125
7910		62.500000
7911		66.406250
7912		62.500000
7913		66.406250
7914		62.500000
7915		66.406250
7916		64.453125
7917		66.406250
7918		64.453125
7919		66.406250
7920		64.453125
7921		68.359375
7922		64.453125
7923		68.359375
7924		64.453125
7925		68.359375
7926		64.453125
7927		68.359375
7928		66.406250
7929		70.312500
7930		66.406250
7931		70.312500
7932		66.406250
7933		70.312500
7934		66.406250
7935		70.312500
7936		66.406250
7937		70.312500
7938		66.406250
7939		70.312500
7940		66.406250
7941		70.312500
7942		66.406250
7943		70.312500
7944		66.406250
7945		70.312500
7946		66.406250
7947		70.312500
7948		66.406250
7949		70.312500
7950		66.406250
7951		68.359375
7952		66.406250
7953		70.312500
7954		66.406250
7955		68.359375
7956		64.453125
7957		68.359375
7958		64.453125
7959		68.359375
7960		64.453125
7961		70.312500
7962		64.453125
7963		68.359375
7964		64.453125
7965		66.406250
7966		62.500000
7967		68.359375
7968		62.500000
7969		66.406250
7970		62.500000
7971		66.406250
7972		62.500000
7973		64.453125
7974		60.546875
7975		64.453125
7976		60.546875
7977		64.453125
7978		60.546875
7979		64.453125
7980		58.593750
7981		62.500000
7982		58.593750
7983		62.500000
7984		58.593750
7985		60.546875
7986		56.640625
7987		60.546875
7988		56.640625
7989		60.546875
7990		54.687500
7991		58.593750
7992		54.687500
7993		58.593750
7994		52.734375
7995		56.640625
7996		52.734375
7997		56.640625
7998		50.781250
7999		54.687500
8000		50.781250
8001		54.687500
8002		48.828125
8003		52.734375
8004		48.828125
8005		52.734375
8006		46.875000
8007		50.781250
8008		46.875000
8009		50.781250
8010		44.921875
8011		48.828125
8012		42.968750
8013		46.875000
8014		42.968750
8015		46.875000
8016		41.015625
8017		44.921875
8018		41.015625
8019		44.921875
8020		39.062500
8021		42.968750
8022		37.109375
8023		41.015625
8024		35.156250
8025		39.062500
8026		35.156250
8027		39.062500
8028		33.203125
8029		37.109375
8030		33.203125
8031		35.156250
8032		29.296875
8033		35.156250
8034		29.296875
8035		33.203125
8036		27.343750
8037		31.250000
8038		25.390625
8039		31.250000
8040		25.390625
8041		29.296875
8042		23.437500
8043		27.343750
8044		21.484375
8045		25.390625
8046		19.531250
8047		23.437500
8048		19.531250
8049		23.437500
8050		17.578125
8051		21.484375
8052		15.625000
8053		19.531250
8054		13.671875
8055		17.578125
8056		13.671875
8057		17.578125
8058		11.718750
8059		15.625000
8060		9.765625
8061		13.671875
8062		7.812500
8063		11.718750
8064		5.859375
8065		9.765625
8066		3.906250
8067		9.765625
8068		3.906250
8069		7.812500
8070		1.953125
8071		5.859375
8072		0.000000
8073		3.906250
8074		-1.953125
8075		1.953125
8076		-1.953125
8077		1.953125
8078		-3.906250
8079		0.000000
8080		-5.859375
8081		-1.953125
8082		-7.812500
8083		-3.906250
8084		-7.812500
8085		-3.906250
8086		-9.765625
8087		-5.859375
8088		-11.718750
8089		-7.812500
8090		-13.671875
8091		-9.765625
8092		-15.625000
8093		-11.718750
8094		-15.625000
8095		-11.718750
8096		-17.578125
8097		-13.671875
8098		-19.531250
8099		-15.625000
8100		-19.531250
8101		-15.625000
8102		-21.484375
8103		-17.578125
8104		-23.437500
8105		-19.531250
8106		-25.390625
8107		-21.484375
8108		-25.390625
8109		-21.484375
8110		-27.343750
8111		-23.437500
8112		-27.343750
8113		-23.437500
8114		-29.296875
8115		-25.390625
8116		-31.250000
8117		-27.343750
8118		-31.250000
8119		-27.343750
8120		-33.203125
8121		-29.296875
8122		-33.203125
8123		-29.296875
8124		-35.156250
8125		-31.250000
8126		-35.156250
8127		-31.250000
8128		-37.109375
8129		-33.203125
8130		-37.109375
8131		-35.156250
8132		-39.062500
8133		-35.156250
8134		-41.015625
8135		-35.156250
8136		-41.015625
8137		-37.109375
8138		-41.015625
8139		-37.109375
8140		-42.968750
8141		-39.062500
8142		-42.968750
8143		-39.062500
8144		-42.968750
8145		-41.015625
8146		-44.921875
8147		-41.015625
8148		-44.921875
8149		-41.015625
8150		-44.921875
8151		-41.015625
8152		-44.921875
8153		-42.968750
8154		-46.875000
8155		-42.968750
8156		-46.875000
8157		-42.968750
8158		-46.875000
8159		-42.968750
8160		-46.875000
8161		-44.921875
8162		-48.828125
8163		-44.921875
8164		-48.828125
8165		-44.921875
8166		-48.828125
8167		-44.921875
8168		-48.828125
8169		-44.921875
8170		-48.828125
8171		-44.921875
8172		-48.828125
8173		-44.921875
8174		-48.828125
8175		-44.921875
8176		-48.828125
8177		-44.921875
8178		-48.828125
8179		-44.921875
8180		-48.828125
8181		-44.921875
8182		-48.828125
8183		-44.921875
8184		-48.828125
8185		-44.921875
8186		-48.828125
8187		-44.921875
8188		-48.828125
8189		-44.921875
8190		-46.875000
8191		-44.921875
8192		-46.875000
8193		-42.968750
8194		-46.875000
8195		-42.968750
8196		-46.875000
8197		-42.968750
8198		-44.921875
8199		-42.968750
8200		-44.921875
8201		-41.015625
8202		-44.921875
8203		-41.015625
8204		-42.968750
8205		-41.015625
8206		-42.968750
8207		-41.015625
8208		-42.968750
8209		-39.062500
8210		-41.015625
8211		-39.062500
8212		-41.015625
8213		-37.109375
8214		-41.015625
8215		-37.109375
8216		-39.062500
8217		-37.109375
8218		-39.062500
8219		-35.156250
8220		-37.109375
8221		-35.156250
8222		-37.109375
8223		-33.203125
8224		-35.156250
8225		-33.203125
8226		-35.156250
8227		-31.250000
8228		-33.203125
8229		-29.296875
8230		-33.203125
8231		-29.296875
8232		-31.250000
8233		-29.296875
8234		-31.250000
8235		-27.343750
8236		-29.296875
8237		-25.390625
8238		-27.343750
8239		-25.390625
8240		-27.343750
8241		-23.437500
8242		-25.390625
8243		-21.484375
8244		-23.437500
8245		-21.484375
8246		-23.437500
8247		-19.531250
8248		-21.484375
8249		-17.578125
8250		-19.531250
8251		-17.578125
8252		-19.531250
8253		-15.625000
8254		-17.578125
8255		-13.671875
8256		-15.625000
8257		-13.671875
8258		-15.625000
8259		-11.718750
8260		-13.671875
8261		-9.765625
8262		-11.718750
8263		-7.812500
8264		-11.718750
8265		-7.812500
8266		-9.765625
8267		-5.859375
8268		-7.812500
8269		-3.906250
8270		-5.859375
8271		-1.953125
8272		-5.859375
8273		0.000000
8274		-3.906250
8275		1.953125
8276		-1.953125
8277		1.953125
8278		0.000000
8279		3.906250
8280		0.000000
8281		5.859375
8282		1.953125
8283		7.812500
8284		3.906250
8285		7.812500
8286		5.859375
8287		9.765625
8288		7.812500
8289		11.718750
8290		7.812500
8291		11.718750
8292		9.765625
8293		13.671875
8294		11.718750
8295		15.625000
8296		13.671875
8297		17.578125
8298		15.625000
8299		19.531250
8300		15.625000
8301		19.531250
8302		17.578125
8303		21.484375
8304		19.531250
8305		23.437500
8306		21.484375
8307		25.390625
8308		23.437500
8309		27.343750
8310		23.437500
8311		27.343750
8312		25.390625
8313		29.296875
8314		27.343750
8315		31.250000
8316		29.296875
8317		33.203125
8318		29.296875
8319		35.156250
8320		31.250000
8321		35.156250
8322		33.203125
8323		37.109375
8324		33.203125
8325		37.109375
8326		35.156250
8327		39.062500
8328		37.109375
8329		41.015625
8330		37.109375
8331		42.968750
8332		39.062500
8333		42.968750
8334		41.015625
8335		42.968750
8336		41.015625
8337		44.921875
8338		42.968750
8339		46.875000
8340		44.921875
8341		46.875000
8342		44.921875
8343		48.828125
8344		46.875000
8345		48.828125
8346		46.875000
8347		50.781250
8348		46.875000
8349		52.734375
8350		48.828125
8351		52.734375
8352		50.781250
8353		54.687500
8354		50.781250
8355		54.687500
8356		52.734375
8357		56.640625
8358		52.734375
8359		56.640625
8360		54.687500
8361		56.640625
8362		54.687500
8363		58.593750
8364		56.640625
8365		60.546875
8366		56.640625
8367		60.546875
8368		56.640625
8369		62.500000
8370		56.640625
8371		62.500000
8372		58.593750
8373		62.500000
8374		60.546875
8375		62.500000
8376		60.546875
8377		64.453125
8378		60.546875
8379		64.453125
8380		62.500000
8381		64.453125
8382		62.500000
8383		66.406250
8384		62.500000
8385		66.406250
8386		62.500000
8387		66.406250
8388		64.453125
8389		66.406250
8390		62.500000
8391		68.359375
8392		64.453125
8393		68.359375
8394		64.453125
8395		68.359375
8396		64.453125
8397		68.359375
8398		64.453125
8399		68.359375
8400		66.406250
8401		68.359375
8402		64.453125
8403		70.312500
8404		66.406250
8405		68.359375
8406		66.406250
8407		68.359375
8408		66.406250
8409		70.312500
8410		66.406250
8411		70.312500
8412		66.406250
8413		70.312500
8414		66.406250
8415		70.312500
8416		66.406250
8417		68.359375
8418		66.406250
8419		70.312500
8420		64.453125
8421		70.312500
8422		64.453125
8423		70.312500
8424		66.406250
8425		68.359375
8426		64.453125
8427		68.359375
8428		64.453125
8429		68.359375
8430		64.453125
8431		68.359375
8432		64.453125
8433		68.359375
8434		64.453125
8435		66.406250
8436		62.500000
8437		66.406250
8438		62.500000
8439		66.406250
8440		62.500000
8441		66.406250
8442		62.500000
8443		66.406250
8444		60.546875
8445		66.406250
8446		60.546875
8447		64.453125
8448		60.546875
8449		64.453125
8450		58.593750
8451		62.500000
8452		58.593750
8453		62.500000
8454		58.593750
8455		60.546875
8456		56.640625
8457		60.546875
8458		56.640625
8459		60.546875
8460		54.687500
8461		58.593750
8462		54.687500
8463		58.593750
8464		54.687500
8465		58.593750
8466		52.734375
8467		56.640625
8468		50.781250
8469		54.687500
8470		50.781250
8471		54.687500
8472		48.828125
8473		52.734375
8474		48.828125
8475		52.734375
8476		46.875000
8477		50.781250
8478		46.875000
8479		50.781250
8480		44.921875
8481		48.828125
8482		44.921875
8483		48.828125
8484		42.968750
8485		46.875000
8486		41.015625
8487		44.921875
8488		41.015625
8489		44.921875
8490		39.062500
8491		42.968750
8492		37.109375
8493		42.968750
8494		37.109375
8495		41.015625
8496		35.156250
8497		39.062500
8498		33.203125
8499		39.062500
8500		33.203125
8501		37.109375
8502		31.250000
8503		35.156250
8504		29.296875
8505		35.156250
8506		29.296875
8507		33.203125
8508		27.343750
8509		31.250000
8510		25.390625
8511		29.296875
8512		23.437500
8513		27.343750
8514		21.484375
8515		27.343750
8516		21.484375
8517		25.390625
8518		19.531250
8519		23.437500
8520		17.578125
8521		21.484375
8522		15.625000
8523		19.531250
8524		15.625000
8525		19.531250
8526		13.671875
8527		17.578125
8528		11.718750
8529		15.625000
8530		9.765625
8531		13.671875
8532		7.812500
8533		11.718750
8534		7.812500
8535		11.718750
8536		3.906250
8537		9.765625
8538		3.906250
8539		7.812500
8540		1.953125
8541		5.859375
8542		0.000000
8543		5.859375
8544		0.000000
8545		3.906250
8546		-1.953125
8547		1.953125
8548		-3.906250
8549		0.000000
8550		-5.859375
8551		-1.953125
8552		-5.859375
8553		-3.906250
8554		-9.765625
8555		-3.906250
8556		-9.765625
8557		-5.859375
8558		-11.718750
8559		-7.812500
8560		-11.718750
8561		-7.812500
8562		-13.671875
8563		-9.765625
8564		-15.625000
8565		-11.718750
8566		-17.578125
8567		-11.718750
8568		-17.578125
8569		-13.671875
8570		-19.531250
8571		-15.625000
8572		-21.484375
8573		-17.578125
8574		-23.437500
8575		-17.578125
8576		-23.437500
8577		-19.531250
8578		-25.390625
8579		-21.484375
8580		-27.343750
8581		-23.437500
8582		-27.343750
8583		-23.437500
8584		-29.296875
8585		-25.390625
8586		-29.296875
8587		-25.390625
8588		-31.250000
8589		-27.343750
8590		-33.203125
8591		-29.296875
8592		-33.203125
8593		-29.296875
8594		-35.156250
8595		-31.250000
8596		-35.156250
8597		-31.250000
8598		-37.109375
8599		-33.203125
8600		-37.109375
8601		-33.203125
8602		-39.062500
8603		-35.156250
8604		-41.015625
8605		-37.109375
8606		-41.015625
8607		-37.109375
8608		-41.015625
8609		-37.109375
8610		-42.968750
8611		-39.062500
8612		-42.968750
8613		-39.062500
8614		-42.968750
8615		-41.015625
8616		-44.921875
8617		-41.015625
8618		-44.921875
8619		-41.015625
8620		-46.875000
8621		-41.015625
8622		-46.875000
8623		-42.968750
8624		-46.875000
8625		-42.968750
8626		-46.875000
8627		-42.968750
8628		-48.828125
8629		-42.968750
8630		-46.875000
8631		-44.921875
8632		-48.828125
8633		-44.921875
8634		-48.828125
8635		-44.921875
8636		-48.828125
8637		-44.921875
8638		-48.828125
8639		-44.921875
8640		-48.828125
8641		-44.921875
8642		-50.781250
8643		-44.921875
8644		-48.828125
8645		-44.921875
8646		-48.828125
8647		-46.875000
8648		-50.781250
8649		-44.921875
8650		-48.828125
8651		-44.921875
8652		-48.828125
8653		-44.921875
8654		-50.781250
8655		-44.921875
8656		-48.828125
8657		-44.921875
8658		-50.781250
8659		-42.968750
8660		-48.828125
8661		-44.921875
8662		-48.828125
8663		-44.921875
8664		-46.875000
8665		-42.968750
8666		-46.875000
8667		-42.968750
8668		-46.875000
8669		-42.968750
8670		-44.921875
8671		-42.968750
8672		-44.921875
8673		-41.015625
8674		-44.921875
8675		-41.015625
8676		-42.968750
8677		-41.015625
8678		-42.968750
8679		-39.062500
8680		-42.968750
8681		-39.062500
8682		-42.968750
8683		-39.062500
8684		-42.968750
8685		-37.109375
8686		-41.015625
8687		-37.109375
8688		-39.062500
8689		-35.156250
8690		-41.015625
8691		-33.203125
8692		-39.062500
8693		-33.203125
8694		-39.062500
8695		-31.250000
8696		-37.109375
8697		-31.250000
8698		-35.156250
8699		-31.250000
8700		-35.156250
8701		-29.296875
8702		-33.203125
8703		-29.296875
8704		-31.250000
8705		-27.343750
8706		-31.250000
8707		-25.390625
8708		-31.250000
8709		-23.437500
8710		-27.343750
8711		-23.437500
8712		-29.296875
8713		-21.484375
8714		-25.390625
8715		-21.484375
8716		-23.437500
8717		-19.531250
8718		-23.437500
8719		-19.531250
8720		-21.484375
8721		-17.578125
8722		-21.484375
8723		-15.625000
8724		-21.484375
8725		-13.671875
8726		-19.531250
8727		-11.718750
8728		-17.578125
8729		-9.765625
8730		-15.625000
8731		-9.765625
8732		-15.625000
8733		-7.812500
8734		-11.718750
8735		-7.812500
8736		-9.765625
8737		-5.859375
8738		-9.765625
8739		-3.906250
8740		-7.812500
8741		-1.953125
8742		-5.859375
8743		0.000000
8744		-7.812500
8745		1.953125
8746		-3.906250
8747		1.953125
8748		-1.953125
8749		3.906250
8750		0.000000
8751		3.906250
8752		1.953125
8753		5.859375
8754		3.906250
8755		7.812500
8756		3.906250
8757		9.765625
8758		5.859375
8759		11.718750
8760		7.812500
8761		13.671875
8762		7.812500
8763		13.671875
8764		9.765625
8765		15.625000
8766		11.718750
8767		17.578125
8768		13.671875
8769		17.578125
8770		15.625000
8771		19.531250
8772		17.578125
8773		21.484375
8774		17.578125
8775		23.437500
8776		19.531250
8777		25.390625
8778		19.531250
8779		27.343750
8780		21.484375
8781		27.343750
8782		23.437500
8783		29.296875
8784		25.390625
8785		29.296875
8786		27.343750
8787		31.250000
8788		29.296875
8789		33.203125
8790		29.296875
8791		35.156250
8792		29.296875
8793		37.109375
8794		31.250000
8795		37.109375
8796		31.250000
8797		39.062500
8798		35.156250
8799		41.015625
8800		35.156250
8801		41.015625
8802		37.109375
8803		41.015625
8804		39.062500
8805		42.968750
8806		39.062500
8807		44.921875
8808		41.015625
8809		46.875000
8810		41.015625
8811		48.828125
8812		42.968750
8813		50.781250
8814		42.968750
8815		50.781250
8816		44.921875
8817		52.734375
8818		46.875000
8819		50.781250
8820		48.828125
8821		52.734375
8822		48.828125
8823		54.687500
8824		48.828125
8825		56.640625
8826		48.828125
8827		56.640625
8828		50.781250
8829		58.593750
8830		50.781250
8831		58.593750
8832		52.734375
8833		58.593750
8834		52.734375
8835		60.546875
8836		56.640625
8837		58.593750
8838		56.640625
8839		60.546875
8840		56.640625
8841		62.500000
8842		56.640625
8843		64.453125
8844		56.640625
8845		64.453125
8846		58.593750
8847		64.453125
8848		58.593750
8849		64.453125
8850		60.546875
8851		66.406250
8852		60.546875
8853		64.453125
8854		62.500000
8855		66.406250
8856		62.500000
8857		68.359375
8858		60.546875
8859		68.359375
8860		62.500000
8861		68.359375
8862		62.500000
8863		68.359375
8864		62.500000
8865		70.312500
8866		62.500000
8867		68.359375
8868		64.453125
8869		70.312500
8870		64.453125
8871		68.359375
8872		66.406250
8873		68.359375
8874		64.453125
8875		70.312500
8876		64.453125
8877		70.312500
8878		64.453125
8879		70.312500
8880		64.453125
8881		70.312500
8882		64.453125
8883		72.265625
8884		64.453125
8885		70.312500
8886		66.406250
8887		68.359375
8888		66.406250
8889		68.359375
8890		64.453125
8891		70.312500
8892		64.453125
8893		70.312500
8894		62.500000
8895		70.312500
8896		62.500000
8897		70.312500
8898		62.500000
8899		70.312500
8900		62.500000
8901		70.312500
8902		64.453125
8903		70.312500
8904		64.453125
8905		66.406250
8906		64.453125
8907		68.359375
8908		60.546875
8909		68.359375
8910		60.546875
8911		68.359375
8912		60.546875
8913		66.406250
8914		58.593750
8915		66.406250
8916		58.593750
8917		66.406250
8918		58.593750
8919		66.406250
8920		60.546875
8921		62.500000
8922		58.593750
8923		62.500000
8924		56.640625
8925		62.500000
8926		56.640625
8927		64.453125
8928		54.687500
8929		60.546875
8930		54.687500
8931		60.546875
8932		52.734375
8933		60.546875
8934		52.734375
8935		58.593750
8936		52.734375
8937		56.640625
8938		52.734375
8939		56.640625
8940		48.828125
8941		54.687500
8942		48.828125
8943		54.687500
8944		46.875000
8945		54.687500
8946		46.875000
8947		54.687500
8948		44.921875
8949		50.781250
8950		44.921875
8951		50.781250
8952		44.921875
8953		48.828125
8954		42.968750
8955		46.875000
8956		42.968750
8957		44.921875
8958		39.062500
8959		46.875000
8960		37.109375
8961		44.921875
8962		37.109375
8963		44.921875
8964		35.156250
8965		42.968750
8966		33.203125
8967		41.015625
8968		33.203125
8969		39.062500
8970		33.203125
8971		37.109375
8972		31.250000
8973		35.156250
8974		27.343750
8975		37.109375
8976		27.343750
8977		35.156250
8978		25.390625
8979		33.203125
8980		23.437500
8981		31.250000
8982		23.437500
8983		29.296875
8984		21.484375
8985		29.296875
8986		21.484375
8987		27.343750
8988		19.531250
8989		23.437500
8990		17.578125
8991		23.437500
8992		15.625000
8993		23.437500
8994		13.671875
8995		21.484375
8996		11.718750
8997		19.531250
8998		9.765625
8999		17.578125
9000		9.765625
9001		17.578125
9002		7.812500
9003		13.671875
9004		7.812500
9005		11.718750
9006		5.859375
9007		9.765625
9008		1.953125
9009		9.765625
9010		1.953125
9011		9.765625
9012		0.000000
9013		7.812500
9014		-1.953125
9015		5.859375
9016		-3.906250
9017		3.906250
9018		-3.906250
9019		1.953125
9020		-5.859375
9021		0.000000
9022		-5.859375
9023		-1.953125
9024		-9.765625
9025		-3.906250
9026		-11.718750
9027		-3.906250
9028		-11.718750
9029		-5.859375
9030		-13.671875
9031		-7.812500
9032		-15.625000
9033		-7.812500
9034		-17.578125
9035		-9.765625
9036		-17.578125
9037		-11.718750
9038		-17.578125
9039		-13.671875
9040		-19.531250
9041		-15.625000
9042		-23.437500
9043		-15.625000
9044		-23.437500
9045		-17.578125
9046		-25.390625
9047		-17.578125
9048		-27.343750
9049		-19.531250
9050		-27.343750
9051		-21.484375
9052		-29.296875
9053		-23.437500
9054		-29.296875
9055		-25.390625
9056		-29.296875
9057		-27.343750
9058		-33.203125
9059		-25.390625
9060		-33.203125
9061		-27.343750
9062		-35.156250
9063		-29.296875
9064		-37.109375
9065		-29.296875
9066		-37.109375
9067		-31.250000
9068		-39.062500
9069		-31.250000
9070		-39.062500
9071		-33.203125
9072		-39.062500
9073		-35.156250
9074		-39.062500
9075		-35.156250
9076		-41.015625
9077		-35.156250
9078		-42.968750
9079		-37.109375
9080		-42.968750
9081		-39.062500
9082		-42.968750
9083		-39.062500
9084		-44.921875
9085		-39.062500
9086		-44.921875
9087		-39.062500
9088		-44.921875
9089		-41.015625
9090		-44.921875
9091		-42.968750
9092		-48.828125
9093		-41.015625
9094		-48.828125
9095		-41.015625
9096		-48.828125
9097		-42.968750
9098		-48.828125
9099		-42.968750
9100		-48.828125
9101		-42.968750
9102		-50.781250
9103		-42.968750
9104		-48.828125
9105		-44.921875
9106		-48.828125
9107		-44.921875
9108		-50.781250
9109		-44.921875
9110		-50.781250
9111		-44.921875
9112		-50.781250
9113		-44.921875
9114		-52.734375
9115		-44.921875
9116		-50.781250
9117		-44.921875
9118		-50.781250
9119		-44.921875
9120		-50.781250
9121		-44.921875
9122		-48.828125
9123		-46.875000
9124		-48.828125
9125		-46.875000
9126		-50.781250
9127		-42.968750
9128		-50.781250
9129		-44.921875
9130		-50.781250
9131		-44.921875
9132		-50.781250
9133		-42.968750
9134		-50.781250
9135		-42.968750
9136		-50.781250
9137		-42.968750
9138		-46.875000
9139		-42.968750
9140		-46.875000
9141		-42.968750
9142		-48.828125
9143		-41.015625
9144		-46.875000
9145		-41.015625
9146		-46.875000
9147		-39.062500
9148		-46.875000
9149		-39.062500
9150		-44.921875
9151		-39.062500
9152		-44.921875
9153		-37.109375
9154		-44.921875
9155		-37.109375
9156		-41.015625
9157		-37.109375
9158		-41.015625
9159		-37.109375
9160		-41.015625
9161		-33.203125
9162		-41.015625
9163		-33.203125
9164		-39.062500
9165		-31.250000
9166		-39.062500
9167		-31.250000
9168		-37.109375
9169		-31.250000
9170		-37.109375
9171		-29.296875
9172		-33.203125
9173		-29.296875
9174		-33.203125
9175		-29.296875
9176		-33.203125
9177		-27.343750
9178		-33.203125
9179		-23.437500
9180		-31.250000
9181		-25.390625
9182		-29.296875
9183		-23.437500
9184		-27.343750
9185		-21.484375
9186		-27.343750
9187		-19.531250
9188		-25.390625
9189		-19.531250
9190		-23.437500
9191		-19.531250
9192		-21.484375
9193		-15.625000
9194		-21.484375
9195		-15.625000
9196		-21.484375
9197		-13.671875
9198		-19.531250
9199		-11.718750
9200		-17.578125
9201		-9.765625
9202		-15.625000
9203		-9.765625
9204		-13.671875
9205		-7.812500
9206		-11.718750
9207		-7.812500
9208		-9.765625
9209		-5.859375
9210		-9.765625
9211		-1.953125
9212		-9.765625
9213		-1.953125
9214		-7.812500
9215		0.000000
9216		-5.859375
9217		1.953125
9218		-3.906250
9219		1.953125
9220		-1.953125
9221		3.906250
9222		0.000000
9223		3.906250
9224		1.953125
9225		5.859375
9226		1.953125
9227		9.765625
9228		3.906250
9229		9.765625
9230		3.906250
9231		11.718750
9232		7.812500
9233		13.671875
9234		7.812500
9235		15.625000
9236		7.812500
9237		17.578125
9238		11.718750
9239		17.578125
9240		13.671875
9241		17.578125
9242		15.625000
9243		19.531250
9244		15.625000
9245		23.437500
9246		17.578125
9247		25.390625
9248		17.578125
9249		25.390625
9250		19.531250
9251		27.343750
9252		21.484375
9253		29.296875
9254		21.484375
9255		29.296875
9256		25.390625
9257		29.296875
9258		27.343750
9259		31.250000
9260		27.343750
9261		33.203125
9262		27.343750
9263		35.156250
9264		29.296875
9265		37.109375
9266		31.250000
9267		39.062500
9268		33.203125
9269		41.015625
9270		33.203125
9271		41.015625
9272		35.156250
9273		41.015625
9274		39.062500
9275		41.015625
9276		37.109375
9277		44.921875
9278		39.062500
9279		46.875000
9280		39.062500
9281		46.875000
9282		41.015625
9283		48.828125
9284		42.968750
9285		50.781250
9286		42.968750
9287		50.781250
9288		42.968750
9289		50.781250
9290		46.875000
9291		52.734375
9292		48.828125
9293		52.734375
9294		48.828125
9295		54.687500
9296		48.828125
9297		56.640625
9298		50.781250
9299		56.640625
9300		50.781250
9301		56.640625
9302		52.734375
9303		58.593750
9304		52.734375
9305		58.593750
9306		54.687500
9307		60.546875
9308		56.640625
9309		58.593750
9310		56.640625
9311		60.546875
9312		54.687500
9313		62.500000
9314		56.640625
9315		64.453125
9316		56.640625
9317		64.453125
9318		58.593750
9319		64.453125
9320		58.593750
9321		66.406250
9322		58.593750
9323		66.406250
9324		60.546875
9325		64.453125
9326		62.500000
9327		64.453125
9328		60.546875
9329		68.359375
9330		60.546875
9331		68.359375
9332		60.546875
9333		68.359375
9334		60.546875
9335		68.359375
9336		62.500000
9337		70.312500
9338		62.500000
9339		68.359375
9340		64.453125
9341		68.359375
9342		64.453125
9343		68.359375
9344		64.453125
9345		70.312500
9346		62.500000
9347		70.312500
9348		64.453125
9349		70.312500
9350		62.500000
9351		70.312500
9352		64.453125
9353		70.312500
9354		62.500000
9355		70.312500
9356		64.453125
9357		68.359375
9358		64.453125
9359		68.359375
9360		64.453125
9361		70.312500
9362		62.500000
9363		70.312500
9364		62.500000
9365		70.312500
9366		62.500000
9367		70.312500
9368		62.500000
9369		70.312500
9370		62.500000
9371		70.312500
9372		62.500000
9373		70.312500
9374		64.453125
9375		66.406250
9376		62.500000
9377		66.406250
9378		60.546875
9379		68.359375
9380		60.546875
9381		68.359375
9382		60.546875
9383		66.406250
9384		58.593750
9385		66.406250
9386		58.593750
9387		64.453125
9388		58.593750
9389		66.406250
9390		58.593750
9391		64.453125
9392		58.593750
9393		62.500000
9394		56.640625
9395		62.500000
9396		54.687500
9397		62.500000
9398		54.687500
9399		62.500000
9400		54.687500
9401		60.546875
9402		52.734375
9403		60.546875
9404		52.734375
9405		58.593750
9406		50.781250
9407		56.640625
9408		52.734375
9409		56.640625
9410		50.781250
9411		54.687500
9412		48.828125
9413		54.687500
9414		48.828125
9415		54.687500
9416		46.875000
9417		54.687500
9418		44.921875
9419		52.734375
9420		44.921875
9421		52.734375
9422		42.968750
9423		50.781250
9424		42.968750
9425		46.875000
9426		42.968750
9427		46.875000
9428		39.062500
9429		44.921875
9430		37.109375
9431		44.921875
9432		37.109375
9433		44.921875
9434		35.156250
9435		42.968750
9436		35.156250
9437		42.968750
9438		33.203125
9439		41.015625
9440		33.203125
9441		39.062500
9442		31.250000
9443		35.156250
9444		29.296875
9445		35.156250
9446		27.343750
9447		35.156250
9448		27.343750
9449		33.203125
9450		23.437500
9451		33.203125
9452		23.437500
9453		31.250000
9454		21.484375
9455		29.296875
9456		21.484375
9457		27.343750
9458		21.484375
9459		25.390625
9460		19.531250
9461		23.437500
9462		15.625000
9463		21.484375
9464		13.671875
9465		21.484375
9466		13.671875
9467		19.531250
9468		9.765625
9469		17.578125
9470		9.765625
9471		17.578125
9472		7.812500
9473		15.625000
9474		5.859375
9475		11.718750
9476		7.812500
9477		9.765625
9478		1.953125
9479		9.765625
9480		1.953125
9481		9.765625
9482		0.000000
9483		7.812500
9484		0.000000
9485		5.859375
9486		-3.906250
9487		3.906250
9488		-3.906250
9489		1.953125
9490		-5.859375
9491		0.000000
9492		-5.859375
9493		-1.953125
9494		-7.812500
9495		-3.906250
9496		-11.718750
9497		-3.906250
9498		-11.718750
9499		-3.906250
9500		-13.671875
9501		-7.812500
9502		-15.625000
9503		-7.812500
9504		-17.578125
9505		-9.765625
9506		-19.531250
9507		-11.718750
9508		-19.531250
9509		-11.718750
9510		-19.531250
9511		-15.625000
9512		-21.484375
9513		-15.625000
9514		-23.437500
9515		-17.578125
9516		-25.390625
9517		-17.578125
9518		-27.343750
9519		-19.531250
9520		-27.343750
9521		-21.484375
9522		-27.343750
9523		-21.484375
9524		-29.296875
9525		-23.437500
9526		-29.296875
9527		-27.343750
9528		-31.250000
9529		-27.343750
9530		-33.203125
9531		-27.343750
9532		-35.156250
9533		-27.343750
9534		-37.109375
9535		-29.296875
9536		-37.109375
9537		-31.250000
9538		-39.062500
9539		-31.250000
9540		-39.062500
9541		-31.250000
9542		-39.062500
9543		-35.156250
9544		-39.062500
9545		-35.156250
9546		-42.968750
9547		-35.156250
9548		-42.968750
9549		-37.109375
9550		-44.921875
9551		-37.109375
9552		-44.921875
9553		-37.109375
9554		-44.921875
9555		-39.062500
9556		-46.875000
9557		-39.062500
9558		-44.921875
9559		-41.015625
9560		-46.875000
9561		-42.968750
9562		-48.828125
9563		-41.015625
9564		-48.828125
9565		-42.968750
9566		-48.828125
9567		-42.968750
9568		-50.781250
9569		-42.968750
9570		-50.781250
9571		-42.968750
9572		-50.781250
9573		-42.968750
9574		-50.781250
9575		-42.968750
9576		-48.828125
9577		-46.875000
9578		-48.828125
9579		-46.875000
9580		-52.734375
9581		-44.921875
9582		-50.781250
9583		-44.921875
9584		-52.734375
9585		-44.921875
9586		-52.734375
9587		-44.921875
9588		-52.734375
9589		-44.921875
9590		-52.734375
9591		-44.921875
9592		-50.781250
9593		-46.875000
9594		-48.828125
9595		-46.875000
9596		-50.781250
9597		-44.921875
9598		-50.781250
9599		-44.921875
9600		-50.781250
9601		-44.921875
9602		-50.781250
9603		-44.921875
9604		-50.781250
9605		-42.968750
9606		-50.781250
9607		-42.968750
9608		-48.828125
9609		-42.968750
9610		-46.875000
9611		-44.921875
9612		-48.828125
9613		-41.015625
9614		-48.828125
9615		-41.015625
9616		-48.828125
9617		-41.015625
9618		-46.875000
9619		-41.015625
9620		-46.875000
9621		-39.062500
9622		-46.875000
9623		-39.062500
9624		-44.921875
9625		-39.062500
9626		-42.968750
9627		-39.062500
9628		-41.015625
9629		-37.109375
9630		-42.968750
9631		-35.156250
9632		-41.015625
9633		-35.156250
9634		-39.062500
9635		-35.156250
9636		-39.062500
9637		-33.203125
9638		-37.109375
9639		-31.250000
9640		-37.109375
9641		-31.250000
9642		-35.156250
9643		-31.250000
9644		-33.203125
9645		-29.296875
9646		-33.203125
9647		-27.343750
9648		-33.203125
9649		-25.390625
9650		-31.250000
9651		-25.390625
9652		-31.250000
9653		-23.437500
9654		-29.296875
9655		-23.437500
9656		-27.343750
9657		-21.484375
9658		-27.343750
9659		-19.531250
9660		-23.437500
9661		-19.531250
9662		-23.437500
9663		-17.578125
9664		-23.437500
9665		-15.625000
9666		-21.484375
9667		-15.625000
9668		-19.531250
9669		-13.671875
9670		-19.531250
9671		-11.718750
9672		-17.578125
9673		-9.765625
9674		-15.625000
9675		-9.765625
9676		-13.671875
9677		-9.765625
9678		-11.718750
9679		-7.812500
9680		-11.718750
9681		-3.906250
9682		-11.718750
9683		-3.906250
9684		-7.812500
9685		-1.953125
9686		-7.812500
9687		0.000000
9688		-5.859375
9689		1.953125
9690		-3.906250
9691		3.906250
9692		-1.953125
9693		3.906250
9694		0.000000
9695		3.906250
9696		1.953125
9697		7.812500
9698		1.953125
9699		9.765625
9700		3.906250
9701		11.718750
9702		5.859375
9703		11.718750
9704		5.859375
9705		13.671875
9706		7.812500
9707		15.625000
9708		9.765625
9709		17.578125
9710		13.671875
9711		17.578125
9712		13.671875
9713		17.578125
9714		15.625000
9715		21.484375
9716		15.625000
9717		23.437500
9718		17.578125
9719		23.437500
9720		19.531250
9721		25.390625
9722		21.484375
9723		27.343750
9724		21.484375
9725		27.343750
9726		23.437500
9727		29.296875
9728		25.390625
9729		29.296875
9730		27.343750
9731		33.203125
9732		27.343750
9733		35.156250
9734		27.343750
9735		37.109375
9736		31.250000
9737		37.109375
9738		31.250000
9739		37.109375
9740		33.203125
9741		39.062500
9742		33.203125
9743		41.015625
9744		37.109375
9745		41.015625
9746		39.062500
9747		41.015625
9748		39.062500
9749		44.921875
9750		39.062500
9751		44.921875
9752		39.062500
9753		46.875000
9754		41.015625
9755		48.828125
9756		42.968750
9757		48.828125
9758		42.968750
9759		50.781250
9760		44.921875
9761		50.781250
9762		46.875000
9763		50.781250
9764		46.875000
9765		52.734375
9766		48.828125
9767		54.687500
9768		48.828125
9769		56.640625
9770		50.781250
9771		56.640625
9772		50.781250
9773		58.593750
9774		50.781250
9775		58.593750
9776		52.734375
9777		58.593750
9778		54.687500
9779		58.593750
9780		54.687500
9781		60.546875
9782		54.687500
9783		60.546875
9784		56.640625
9785		62.500000
9786		54.687500
9787		62.500000
9788		56.640625
9789		64.453125
9790		58.593750
9791		64.453125
9792		58.593750
9793		64.453125
9794		60.546875
9795		64.453125
9796		62.500000
9797		64.453125
9798		60.546875
9799		66.406250
9800		60.546875
9801		68.359375
9802		62.500000
9803		68.359375
9804		62.500000
9805		68.359375
9806		60.546875
9807		68.359375
9808		62.500000
9809		68.359375
9810		62.500000
9811		68.359375
9812		64.453125
9813		68.359375
9814		62.500000
9815		68.359375
9816		62.500000
9817		68.359375
9818		62.500000
9819		70.312500
9820		62.500000
9821		70.312500
9822		62.500000
9823		70.312500
9824		64.453125
9825		70.312500
9826		64.453125
9827		70.312500
9828		64.453125
9829		68.359375
9830		64.453125
9831		68.359375
9832		62.500000
9833		68.359375
9834		62.500000
9835		70.312500
9836		62.500000
9837		68.359375
9838		62.500000
9839		68.359375
9840		62.500000
9841		70.312500
9842		60.546875
9843		68.359375
9844		62.500000
9845		68.359375
9846		64.453125
9847		66.406250
9848		60.546875
9849		66.406250
9850		60.546875
9851		66.406250
9852		60.546875
9853		66.406250
9854		58.593750
9855		66.406250
9856		58.593750
9857		66.406250
9858		58.593750
9859		64.453125
9860		58.593750
9861		64.453125
9862		58.593750
9863		62.500000
9864		58.593750
9865		60.546875
9866		54.687500
9867		62.500000
9868		54.687500
9869		62.500000
9870		54.687500
9871		60.546875
9872		52.734375
9873		60.546875
9874		52.734375
9875		58.593750
9876		50.781250
9877		58.593750
9878		52.734375
9879		56.640625
9880		50.781250
9881		54.687500
9882		48.828125
9883		54.687500
9884		46.875000
9885		54.687500
9886		46.875000
9887		52.734375
9888		44.921875
9889		52.734375
9890		44.921875
9891		50.781250
9892		42.968750
9893		50.781250
9894		42.968750
9895		48.828125
9896		42.968750
9897		46.875000
9898		41.015625
9899		44.921875
9900		39.062500
9901		44.921875
9902		37.109375
9903		44.921875
9904		35.156250
9905		42.968750
9906		35.156250
9907		41.015625
9908		33.203125
9909		41.015625
9910		33.203125
9911		39.062500
9912		33.203125
9913		37.109375
9914		31.250000
9915		35.156250
9916		27.343750
9917		35.156250
9918		25.390625
9919		33.203125
9920		25.390625
9921		33.203125
9922		23.437500
9923		31.250000
9924		21.484375
9925		29.296875
9926		21.484375
9927		27.343750
9928		21.484375
9929		25.390625
9930		19.531250
9931		23.437500
9932		15.625000
9933		23.437500
9934		13.671875
9935		23.437500
9936		11.718750
9937		21.484375
9938		11.718750
9939		19.531250
9940		9.765625
9941		17.578125
9942		7.812500
9943		15.625000
9944		7.812500
9945		13.671875
9946		7.812500
9947		11.718750
9948		5.859375
9949		9.765625
9950		1.953125
9951		9.765625
9952		1.953125
9953		7.812500
9954		-1.953125
9955		5.859375
9956		-3.906250
9957		3.906250
9958		-3.906250
9959		3.906250
9960		-5.859375
9961		1.953125
9962		-5.859375
9963		-1.953125
9964		-7.812500
9965		-3.906250
9966		-9.765625
9967		-3.906250
9968		-11.718750
9969		-3.906250
9970		-13.671875
9971		-5.859375
9972		-13.671875
9973		-7.812500
9974		-15.625000
9975		-9.765625
9976		-17.578125
9977		-9.765625
9978		-17.578125
9979		-11.718750
9980		-19.531250
9981		-15.625000
9982		-21.484375
9983		-15.625000
9984		-23.437500
9985		-15.625000
9986		-25.390625
9987		-17.578125
9988		-25.390625
9989		-19.531250
9990		-27.343750
9991		-19.531250
9992		-29.296875
9993		-21.484375
9994		-29.296875
9995		-23.437500
9996		-29.296875
9997		-25.390625
9998		-31.250000
9999		-27.343750
10000		-33.203125
