Channel              :		CH1
Frequency            :		  ?
Period               :		  ?
PK-PK                :		2.852V
Probe attenuation    :		1X
Voltage per ADC value:		2.441406mV
Time interval        :		1000.00000us

index		CH1_Voltage(mV)
1		-507.812500
2		-507.812500
3		-507.812500
4		-507.812500
5		-546.875000
6		-507.812500
7		-507.812500
8		-546.875000
9		-546.875000
10		-546.875000
11		-546.875000
12		-546.875000
13		-546.875000
14		-546.875000
15		-546.875000
16		-585.937500
17		-585.937500
18		-585.937500
19		-585.937500
20		-585.937500
21		-585.937500
22		-585.937500
23		-625.000000
24		-625.000000
25		-625.000000
26		-625.000000
27		-625.000000
28		-625.000000
29		-625.000000
30		-625.000000
31		-625.000000
32		-625.000000
33		-664.062500
34		-664.062500
35		-664.062500
36		-664.062500
37		-664.062500
38		-664.062500
39		-664.062500
40		-664.062500
41		-664.062500
42		-703.125000
43		-703.125000
44		-703.125000
45		-703.125000
46		-703.125000
47		-703.125000
48		-703.125000
49		-703.125000
50		-703.125000
51		-703.125000
52		-742.187500
53		-742.187500
54		-742.187500
55		-742.187500
56		-742.187500
57		-742.187500
58		-742.187500
59		-742.187500
60		-781.250000
61		-781.250000
62		-781.250000
63		-781.250000
64		-781.250000
65		-781.250000
66		-781.250000
67		-781.250000
68		-781.250000
69		-781.250000
70		-820.312500
71		-820.312500
72		-820.312500
73		-820.312500
74		-820.312500
75		-820.312500
76		-820.312500
77		-820.312500
78		-820.312500
79		-820.312500
80		-859.375000
81		-859.375000
82		-859.375000
83		-859.375000
84		-859.375000
85		-859.375000
86		-859.375000
87		-859.375000
88		-859.375000
89		-859.375000
90		-898.437500
91		-898.437500
92		-898.437500
93		-898.437500
94		-898.437500
95		-898.437500
96		-898.437500
97		-898.437500
98		-898.437500
99		-898.437500
100		-898.437500
101		-937.500000
102		-898.437500
103		-937.500000
104		-937.500000
105		-937.500000
106		-937.500000
107		-937.500000
108		-937.500000
109		-937.500000
110		-937.500000
111		-937.500000
112		-937.500000
113		-937.500000
114		-937.500000
115		-937.500000
116		-937.500000
117		-937.500000
118		-976.562500
119		-976.562500
120		-976.562500
121		-976.562500
122		-976.562500
123		-976.562500
124		-976.562500
125		-976.562500
126		-1015.625000
127		-1015.625000
128		-1015.625000
129		-1015.625000
130		-1015.625000
131		-1015.625000
132		-1015.625000
133		-1015.625000
134		-1015.625000
135		-1015.625000
136		-1015.625000
137		-1015.625000
138		-1015.625000
139		-1015.625000
140		-1015.625000
141		-1015.625000
142		-1015.625000
143		-1054.687500
144		-1054.687500
145		-1054.687500
146		-1054.687500
147		-1054.687500
148		-1054.687500
149		-1054.687500
150		-1054.687500
151		-1054.687500
152		-1054.687500
153		-1054.687500
154		-1054.687500
155		-1054.687500
156		-1054.687500
157		-1054.687500
158		-1054.687500
159		-1054.687500
160		-1093.750000
161		-1093.750000
162		-1093.750000
163		-1093.750000
164		-1093.750000
165		-1093.750000
166		-1093.750000
167		-1093.750000
168		-1093.750000
169		-1093.750000
170		-1093.750000
171		-1093.750000
172		-1093.750000
173		-1093.750000
174		-1093.750000
175		-1093.750000
176		-1093.750000
177		-1132.812500
178		-1093.750000
179		-1132.812500
180		-1132.812500
181		-1132.812500
182		-1132.812500
183		-1132.812500
184		-1132.812500
185		-1132.812500
186		-1132.812500
187		-1132.812500
188		-1132.812500
189		-1132.812500
190		-1132.812500
191		-1132.812500
192		-1132.812500
193		-1132.812500
194		-1132.812500
195		-1171.875000
196		-1132.812500
197		-1132.812500
198		-1171.875000
199		-1171.875000
200		-1171.875000
201		-1171.875000
202		-1171.875000
203		-1171.875000
204		-1171.875000
205		-1171.875000
206		-1171.875000
207		-1171.875000
208		-1171.875000
209		-1171.875000
210		-1171.875000
211		-1171.875000
212		-1171.875000
213		-1171.875000
214		-1171.875000
215		-1171.875000
216		-1171.875000
217		-1171.875000
218		-1210.937500
219		-1210.937500
220		-1210.937500
221		-1210.937500
222		-1210.937500
223		-1210.937500
224		-1210.937500
225		-1210.937500
226		-1210.937500
227		-1210.937500
228		-1210.937500
229		-1210.937500
230		-1210.937500
231		-1210.937500
232		-1210.937500
233		-1210.937500
234		-1210.937500
235		-1210.937500
236		-1210.937500
237		-1210.937500
238		-1210.937500
239		-1210.937500
240		-1210.937500
241		-1210.937500
242		-1210.937500
243		-1210.937500
244		-1210.937500
245		-1210.937500
246		-1210.937500
247		-1250.000000
248		-1250.000000
249		-1250.000000
250		-1250.000000
251		-1250.000000
252		-1250.000000
253		-1250.000000
254		-1250.000000
255		-1250.000000
256		-1250.000000
257		-1250.000000
258		-1250.000000
259		-1250.000000
260		-1250.000000
261		-1250.000000
262		-1250.000000
263		-1250.000000
264		-1250.000000
265		-1250.000000
266		-1250.000000
267		-1250.000000
268		-1250.000000
269		-1250.000000
270		-1250.000000
271		-1250.000000
272		-1250.000000
273		-1250.000000
274		-1250.000000
275		-1250.000000
276		-1250.000000
277		-1250.000000
278		-1250.000000
279		-1250.000000
280		-1250.000000
281		-1250.000000
282		-1250.000000
283		-1250.000000
284		-1250.000000
285		-1250.000000
286		-1289.062500
287		-1289.062500
288		-1289.062500
289		-1289.062500
290		-1289.062500
291		-1250.000000
292		-1289.062500
293		-1289.062500
294		-1289.062500
295		-1289.062500
296		-1289.062500
297		-1250.000000
298		-1289.062500
299		-1289.062500
300		-1289.062500
301		-1289.062500
302		-1289.062500
303		-1289.062500
304		-1289.062500
305		-1289.062500
306		-1289.062500
307		-1289.062500
308		-1289.062500
309		-1289.062500
310		-1289.062500
311		-1289.062500
312		-1289.062500
313		-1289.062500
314		-1289.062500
315		-1289.062500
316		-1289.062500
317		-1289.062500
318		-1289.062500
319		-1289.062500
320		-1289.062500
321		-1289.062500
322		-1289.062500
323		-1289.062500
324		-1289.062500
325		-1289.062500
326		-1289.062500
327		-1289.062500
328		-1289.062500
329		-1289.062500
330		-1289.062500
331		-1289.062500
332		-1289.062500
333		-1289.062500
334		-1289.062500
335		-1289.062500
336		-1289.062500
337		-1289.062500
338		-1289.062500
339		-1289.062500
340		-1289.062500
341		-1289.062500
342		-1289.062500
343		-1289.062500
344		-1289.062500
345		-1289.062500
346		-1289.062500
347		-1289.062500
348		-1289.062500
349		-1289.062500
350		-1289.062500
351		-1289.062500
352		-1289.062500
353		-1289.062500
354		-1289.062500
355		-1289.062500
356		-1289.062500
357		-1289.062500
358		-1289.062500
359		-1289.062500
360		-1289.062500
361		-1289.062500
362		-1289.062500
363		-1289.062500
364		-1289.062500
365		-1289.062500
366		-1289.062500
367		-1289.062500
368		-1289.062500
369		-1289.062500
370		-1289.062500
371		-1289.062500
372		-1289.062500
373		-1289.062500
374		-1289.062500
375		-1289.062500
376		-1289.062500
377		-1289.062500
378		-1289.062500
379		-1289.062500
380		-1289.062500
381		-1289.062500
382		-1289.062500
383		-1289.062500
384		-1289.062500
385		-1289.062500
386		-1289.062500
387		-1289.062500
388		-1289.062500
389		-1289.062500
390		-1289.062500
391		-1289.062500
392		-1289.062500
393		-1289.062500
394		-1289.062500
395		-1289.062500
396		-1289.062500
397		-1289.062500
398		-1289.062500
399		-1289.062500
400		-1289.062500
401		-1289.062500
402		-1289.062500
403		-1289.062500
404		-1289.062500
405		-1289.062500
406		-1289.062500
407		-1289.062500
408		-1289.062500
409		-1289.062500
410		-1289.062500
411		-1289.062500
412		-1289.062500
413		-1289.062500
414		-1289.062500
415		-1289.062500
416		-1289.062500
417		-1289.062500
418		-1289.062500
419		-1289.062500
420		-1289.062500
421		-1289.062500
422		-1289.062500
423		-1289.062500
424		-1289.062500
425		-1289.062500
426		-1289.062500
427		-1289.062500
428		-1289.062500
429		-1250.000000
430		-1289.062500
431		-1250.000000
432		-1289.062500
433		-1289.062500
434		-1250.000000
435		-1250.000000
436		-1289.062500
437		-1250.000000
438		-1250.000000
439		-1250.000000
440		-1250.000000
441		-1250.000000
442		-1250.000000
443		-1250.000000
444		-1250.000000
445		-1250.000000
446		-1250.000000
447		-1250.000000
448		-1250.000000
449		-1250.000000
450		-1250.000000
451		-1250.000000
452		-1250.000000
453		-1250.000000
454		-1250.000000
455		-1250.000000
456		-1250.000000
457		-1250.000000
458		-1250.000000
459		-1250.000000
460		-1250.000000
461		-1250.000000
462		-1250.000000
463		-1250.000000
464		-1250.000000
465		-1250.000000
466		-1250.000000
467		-1250.000000
468		-1250.000000
469		-1250.000000
470		-1250.000000
471		-1250.000000
472		-1210.937500
473		-1210.937500
474		-1210.937500
475		-1210.937500
476		-1210.937500
477		-1210.937500
478		-1210.937500
479		-1210.937500
480		-1210.937500
481		-1210.937500
482		-1210.937500
483		-1210.937500
484		-1210.937500
485		-1210.937500
486		-1210.937500
487		-1210.937500
488		-1210.937500
489		-1210.937500
490		-1210.937500
491		-1210.937500
492		-1210.937500
493		-1210.937500
494		-1171.875000
495		-1171.875000
496		-1171.875000
497		-1171.875000
498		-1171.875000
499		-1171.875000
500		-1171.875000
501		-1171.875000
502		-1171.875000
503		-1171.875000
504		-1171.875000
505		-1171.875000
506		-1171.875000
507		-1171.875000
508		-1171.875000
509		-1171.875000
510		-1171.875000
511		-1171.875000
512		-1171.875000
513		-1171.875000
514		-1171.875000
515		-1171.875000
516		-1132.812500
517		-1171.875000
518		-1171.875000
519		-1171.875000
520		-1171.875000
521		-1171.875000
522		-1171.875000
523		-1171.875000
524		-1171.875000
525		-1171.875000
526		-1171.875000
527		-1171.875000
528		-1132.812500
529		-1132.812500
530		-1132.812500
531		-1132.812500
532		-1132.812500
533		-1132.812500
534		-1132.812500
535		-1132.812500
536		-1132.812500
537		-1132.812500
538		-1132.812500
539		-1132.812500
540		-1132.812500
541		-1132.812500
542		-1132.812500
543		-1132.812500
544		-1093.750000
545		-1132.812500
546		-1132.812500
547		-1132.812500
548		-1132.812500
549		-1093.750000
550		-1093.750000
551		-1093.750000
552		-1093.750000
553		-1093.750000
554		-1093.750000
555		-1093.750000
556		-1093.750000
557		-1093.750000
558		-1093.750000
559		-1093.750000
560		-1093.750000
561		-1093.750000
562		-1093.750000
563		-1093.750000
564		-1093.750000
565		-1093.750000
566		-1093.750000
567		-1093.750000
568		-1054.687500
569		-1054.687500
570		-1054.687500
571		-1054.687500
572		-1054.687500
573		-1054.687500
574		-1054.687500
575		-1054.687500
576		-1054.687500
577		-1054.687500
578		-1054.687500
579		-1054.687500
580		-1054.687500
581		-1054.687500
582		-1054.687500
583		-1054.687500
584		-1054.687500
585		-1054.687500
586		-1054.687500
587		-1015.625000
588		-1015.625000
589		-1015.625000
590		-1015.625000
591		-1015.625000
592		-1015.625000
593		-1015.625000
594		-1015.625000
595		-1015.625000
596		-1015.625000
597		-1015.625000
598		-1015.625000
599		-1015.625000
600		-1015.625000
601		-1015.625000
602		-1015.625000
603		-1015.625000
604		-976.562500
605		-976.562500
606		-976.562500
607		-976.562500
608		-976.562500
609		-976.562500
610		-976.562500
611		-976.562500
612		-976.562500
613		-976.562500
614		-976.562500
615		-976.562500
616		-976.562500
617		-976.562500
618		-976.562500
619		-976.562500
620		-976.562500
621		-937.500000
622		-937.500000
623		-937.500000
624		-937.500000
625		-937.500000
626		-937.500000
627		-937.500000
628		-937.500000
629		-937.500000
630		-937.500000
631		-937.500000
632		-937.500000
633		-937.500000
634		-898.437500
635		-937.500000
636		-898.437500
637		-898.437500
638		-898.437500
639		-898.437500
640		-898.437500
641		-898.437500
642		-898.437500
643		-898.437500
644		-898.437500
645		-898.437500
646		-898.437500
647		-898.437500
648		-898.437500
649		-898.437500
650		-898.437500
651		-859.375000
652		-859.375000
653		-859.375000
654		-859.375000
655		-859.375000
656		-859.375000
657		-859.375000
658		-859.375000
659		-859.375000
660		-859.375000
661		-859.375000
662		-820.312500
663		-859.375000
664		-820.312500
665		-820.312500
666		-820.312500
667		-820.312500
668		-820.312500
669		-820.312500
670		-820.312500
671		-820.312500
672		-820.312500
673		-820.312500
674		-820.312500
675		-781.250000
676		-781.250000
677		-781.250000
678		-820.312500
679		-781.250000
680		-781.250000
681		-781.250000
682		-781.250000
683		-781.250000
684		-781.250000
685		-781.250000
686		-781.250000
687		-781.250000
688		-781.250000
689		-742.187500
690		-742.187500
691		-742.187500
692		-742.187500
693		-742.187500
694		-742.187500
695		-742.187500
696		-742.187500
697		-703.125000
698		-703.125000
699		-742.187500
700		-703.125000
701		-703.125000
702		-703.125000
703		-703.125000
704		-703.125000
705		-703.125000
706		-703.125000
707		-664.062500
708		-703.125000
709		-703.125000
710		-664.062500
711		-664.062500
712		-664.062500
713		-664.062500
714		-664.062500
715		-664.062500
716		-664.062500
717		-664.062500
718		-664.062500
719		-664.062500
720		-664.062500
721		-664.062500
722		-664.062500
723		-664.062500
724		-625.000000
725		-625.000000
726		-625.000000
727		-625.000000
728		-625.000000
729		-625.000000
730		-625.000000
731		-585.937500
732		-625.000000
733		-585.937500
734		-585.937500
735		-585.937500
736		-585.937500
737		-585.937500
738		-585.937500
739		-585.937500
740		-585.937500
741		-585.937500
742		-585.937500
743		-546.875000
744		-546.875000
745		-546.875000
746		-546.875000
747		-546.875000
748		-546.875000
749		-546.875000
750		-546.875000
751		-507.812500
752		-507.812500
753		-507.812500
754		-507.812500
755		-507.812500
756		-507.812500
757		-507.812500
758		-507.812500
759		-507.812500
760		-507.812500
761		-507.812500
762		-468.750000
763		-468.750000
764		-468.750000
765		-468.750000
766		-468.750000
767		-468.750000
768		-468.750000
769		-429.687500
770		-429.687500
771		-429.687500
772		-429.687500
773		-429.687500
774		-429.687500
775		-429.687500
776		-429.687500
777		-429.687500
778		-390.625000
779		-390.625000
780		-390.625000
781		-390.625000
782		-390.625000
783		-390.625000
784		-390.625000
785		-390.625000
786		-390.625000
787		-351.562500
788		-351.562500
789		-351.562500
790		-351.562500
791		-351.562500
792		-351.562500
793		-273.437500
794		-351.562500
795		-312.500000
796		-312.500000
797		-312.500000
798		-312.500000
799		-312.500000
800		-312.500000
801		-312.500000
802		-273.437500
803		-273.437500
804		-273.437500
805		-273.437500
806		-273.437500
807		-273.437500
808		-273.437500
809		-273.437500
810		-234.375000
811		-234.375000
812		-234.375000
813		-234.375000
814		-234.375000
815		-234.375000
816		-234.375000
817		-234.375000
818		-195.312500
819		-195.312500
820		-195.312500
821		-195.312500
822		-195.312500
823		-195.312500
824		-195.312500
825		-156.250000
826		-156.250000
827		-156.250000
828		-156.250000
829		-156.250000
830		-156.250000
831		-156.250000
832		-156.250000
833		-117.187500
834		-117.187500
835		-117.187500
836		-117.187500
837		-117.187500
838		-78.125000
839		-78.125000
840		-78.125000
841		-78.125000
842		-78.125000
843		-78.125000
844		-78.125000
845		-78.125000
846		-78.125000
847		-39.062500
848		-39.062500
849		-39.062500
850		-39.062500
851		-39.062500
852		0.000000
853		0.000000
854		0.000000
855		0.000000
856		0.000000
857		0.000000
858		39.062500
859		39.062500
860		39.062500
861		39.062500
862		39.062500
863		39.062500
864		39.062500
865		78.125000
866		78.125000
867		78.125000
868		78.125000
869		78.125000
870		78.125000
871		78.125000
872		117.187500
873		117.187500
874		117.187500
875		117.187500
876		156.250000
877		156.250000
878		117.187500
879		156.250000
880		156.250000
881		156.250000
882		156.250000
883		156.250000
884		195.312500
885		195.312500
886		195.312500
887		195.312500
888		195.312500
889		195.312500
890		195.312500
891		234.375000
892		234.375000
893		234.375000
894		234.375000
895		273.437500
896		273.437500
897		273.437500
898		273.437500
899		273.437500
900		273.437500
901		273.437500
902		312.500000
903		312.500000
904		312.500000
905		312.500000
906		312.500000
907		312.500000
908		351.562500
909		351.562500
910		351.562500
911		351.562500
912		351.562500
913		390.625000
914		390.625000
915		390.625000
916		390.625000
917		390.625000
918		390.625000
919		390.625000
920		429.687500
921		429.687500
922		429.687500
923		429.687500
924		429.687500
925		429.687500
926		429.687500
927		468.750000
928		468.750000
929		468.750000
930		507.812500
931		507.812500
932		507.812500
933		507.812500
934		507.812500
935		507.812500
936		546.875000
937		546.875000
938		546.875000
939		546.875000
940		546.875000
941		546.875000
942		546.875000
943		546.875000
944		585.937500
945		585.937500
946		585.937500
947		585.937500
948		625.000000
949		625.000000
950		625.000000
951		625.000000
952		625.000000
953		664.062500
954		664.062500
955		664.062500
956		664.062500
957		664.062500
958		664.062500
959		703.125000
960		703.125000
961		703.125000
962		703.125000
963		703.125000
964		703.125000
965		742.187500
966		742.187500
967		742.187500
968		742.187500
969		781.250000
970		781.250000
971		781.250000
972		781.250000
973		781.250000
974		781.250000
975		781.250000
976		781.250000
977		820.312500
978		820.312500
979		820.312500
980		820.312500
981		820.312500
982		820.312500
983		859.375000
984		859.375000
985		859.375000
986		859.375000
987		859.375000
988		898.437500
989		898.437500
990		898.437500
991		898.437500
992		898.437500
993		898.437500
994		937.500000
995		937.500000
996		937.500000
997		937.500000
998		937.500000
999		937.500000
1000		976.562500
1001		976.562500
1002		976.562500
1003		976.562500
1004		976.562500
1005		976.562500
1006		1015.625000
1007		1015.625000
1008		1015.625000
1009		1015.625000
1010		1015.625000
1011		1015.625000
1012		1054.687500
1013		1054.687500
1014		1054.687500
1015		1054.687500
1016		1054.687500
1017		1054.687500
1018		1093.750000
1019		1093.750000
1020		1093.750000
1021		1054.687500
1022		1093.750000
1023		1093.750000
1024		1132.812500
1025		1132.812500
1026		1132.812500
1027		1132.812500
1028		1132.812500
1029		1132.812500
1030		1132.812500
1031		1132.812500
1032		1171.875000
1033		1171.875000
1034		1171.875000
1035		1171.875000
1036		1171.875000
1037		1210.937500
1038		1210.937500
1039		1210.937500
1040		1210.937500
1041		1210.937500
1042		1210.937500
1043		1210.937500
1044		1250.000000
1045		1250.000000
1046		1250.000000
1047		1250.000000
1048		1250.000000
1049		1250.000000
1050		1250.000000
1051		1289.062500
1052		1289.062500
1053		1289.062500
1054		1289.062500
1055		1289.062500
1056		1289.062500
1057		1328.125000
1058		1328.125000
1059		1328.125000
1060		1328.125000
1061		1328.125000
1062		1328.125000
1063		1328.125000
1064		1328.125000
1065		1367.187500
1066		1367.187500
1067		1367.187500
1068		1367.187500
1069		1367.187500
1070		1367.187500
1071		1367.187500
1072		1406.250000
1073		1406.250000
1074		1406.250000
1075		1406.250000
1076		1406.250000
1077		1445.312500
1078		1445.312500
1079		1445.312500
1080		1445.312500
1081		1445.312500
1082		1445.312500
1083		1445.312500
1084		1445.312500
1085		1445.312500
1086		1445.312500
1087		1484.375000
1088		1445.312500
1089		1484.375000
1090		1484.375000
1091		1484.375000
1092		1484.375000
1093		1484.375000
1094		1523.437500
1095		1523.437500
1096		1523.437500
1097		1523.437500
1098		1523.437500
1099		1523.437500
1100		1523.437500
1101		1523.437500
1102		1523.437500
1103		1523.437500
1104		1523.437500
1105		1562.500000
1106		1562.500000
1107		1562.500000
1108		1562.500000
1109		1562.500000
1110		1562.500000
1111		1601.562500
1112		1601.562500
1113		1601.562500
1114		1601.562500
1115		1601.562500
1116		1601.562500
1117		1601.562500
1118		1601.562500
1119		1601.562500
1120		1601.562500
1121		1601.562500
1122		1601.562500
1123		1601.562500
1124		1601.562500
1125		1640.625000
1126		1640.625000
1127		1640.625000
1128		1640.625000
1129		1640.625000
1130		1640.625000
1131		1640.625000
1132		1679.687500
1133		1679.687500
1134		1679.687500
1135		1679.687500
1136		1679.687500
1137		1679.687500
1138		1679.687500
1139		1679.687500
1140		1679.687500
1141		1679.687500
1142		1679.687500
1143		1679.687500
1144		1679.687500
1145		1679.687500
1146		1718.750000
1147		1718.750000
1148		1718.750000
1149		1718.750000
1150		1718.750000
1151		1718.750000
1152		1718.750000
1153		1718.750000
1154		1718.750000
1155		1718.750000
1156		1718.750000
1157		1718.750000
1158		1718.750000
1159		1718.750000
1160		1718.750000
1161		1757.812500
1162		1757.812500
1163		1718.750000
1164		1757.812500
1165		1757.812500
1166		1757.812500
1167		1757.812500
1168		1757.812500
1169		1757.812500
1170		1757.812500
1171		1757.812500
1172		1757.812500
1173		1757.812500
1174		1757.812500
1175		1757.812500
1176		1757.812500
1177		1757.812500
1178		1757.812500
1179		1757.812500
1180		1796.875000
1181		1757.812500
1182		1796.875000
1183		1757.812500
1184		1757.812500
1185		1796.875000
1186		1796.875000
1187		1796.875000
1188		1796.875000
1189		1796.875000
1190		1796.875000
1191		1796.875000
1192		1796.875000
1193		1796.875000
1194		1796.875000
1195		1796.875000
1196		1796.875000
1197		1796.875000
1198		1796.875000
1199		1796.875000
1200		1796.875000
1201		1796.875000
1202		1796.875000
1203		1796.875000
1204		1796.875000
1205		1796.875000
1206		1796.875000
1207		1796.875000
1208		1796.875000
1209		1796.875000
1210		1796.875000
1211		1796.875000
1212		1796.875000
1213		1796.875000
1214		1796.875000
1215		1796.875000
1216		1796.875000
1217		1796.875000
1218		1796.875000
1219		1796.875000
1220		1796.875000
1221		1796.875000
1222		1796.875000
1223		1796.875000
1224		1796.875000
1225		1796.875000
1226		1796.875000
1227		1796.875000
1228		1796.875000
1229		1796.875000
1230		1796.875000
1231		1796.875000
1232		1796.875000
1233		1796.875000
1234		1796.875000
1235		1796.875000
1236		1796.875000
1237		1796.875000
1238		1796.875000
1239		1796.875000
1240		1796.875000
1241		1796.875000
1242		1796.875000
1243		1796.875000
1244		1757.812500
1245		1796.875000
1246		1796.875000
1247		1796.875000
1248		1796.875000
1249		1796.875000
1250		1796.875000
1251		1796.875000
1252		1796.875000
1253		1796.875000
1254		1796.875000
1255		1796.875000
1256		1796.875000
1257		1796.875000
1258		1757.812500
1259		1757.812500
1260		1757.812500
1261		1757.812500
1262		1757.812500
1263		1757.812500
1264		1757.812500
1265		1757.812500
1266		1757.812500
1267		1757.812500
1268		1757.812500
1269		1757.812500
1270		1757.812500
1271		1757.812500
1272		1757.812500
1273		1757.812500
1274		1757.812500
1275		1757.812500
1276		1757.812500
1277		1757.812500
1278		1757.812500
1279		1718.750000
1280		1718.750000
1281		1718.750000
1282		1718.750000
1283		1718.750000
1284		1718.750000
1285		1718.750000
1286		1718.750000
1287		1718.750000
1288		1718.750000
1289		1718.750000
1290		1718.750000
1291		1718.750000
1292		1718.750000
1293		1718.750000
1294		1718.750000
1295		1718.750000
1296		1718.750000
1297		1679.687500
1298		1679.687500
1299		1679.687500
1300		1679.687500
1301		1679.687500
1302		1679.687500
1303		1679.687500
1304		1679.687500
1305		1640.625000
1306		1640.625000
1307		1640.625000
1308		1640.625000
1309		1640.625000
1310		1640.625000
1311		1640.625000
1312		1640.625000
1313		1640.625000
1314		1640.625000
1315		1640.625000
1316		1640.625000
1317		1601.562500
1318		1640.625000
1319		1601.562500
1320		1601.562500
1321		1601.562500
1322		1601.562500
1323		1601.562500
1324		1601.562500
1325		1601.562500
1326		1601.562500
1327		1601.562500
1328		1601.562500
1329		1562.500000
1330		1562.500000
1331		1562.500000
1332		1562.500000
1333		1562.500000
1334		1562.500000
1335		1562.500000
1336		1562.500000
1337		1562.500000
1338		1523.437500
1339		1523.437500
1340		1523.437500
1341		1523.437500
1342		1523.437500
1343		1523.437500
1344		1523.437500
1345		1523.437500
1346		1523.437500
1347		1523.437500
1348		1523.437500
1349		1484.375000
1350		1484.375000
1351		1484.375000
1352		1484.375000
1353		1484.375000
1354		1484.375000
1355		1484.375000
1356		1484.375000
1357		1484.375000
1358		1445.312500
1359		1445.312500
1360		1445.312500
1361		1445.312500
1362		1445.312500
1363		1445.312500
1364		1445.312500
1365		1406.250000
1366		1406.250000
1367		1406.250000
1368		1406.250000
1369		1406.250000
1370		1406.250000
1371		1406.250000
1372		1406.250000
1373		1367.187500
1374		1367.187500
1375		1367.187500
1376		1367.187500
1377		1367.187500
1378		1367.187500
1379		1367.187500
1380		1328.125000
1381		1328.125000
1382		1328.125000
1383		1328.125000
1384		1328.125000
1385		1328.125000
1386		1328.125000
1387		1328.125000
1388		1289.062500
1389		1289.062500
1390		1289.062500
1391		1289.062500
1392		1289.062500
1393		1289.062500
1394		1289.062500
1395		1250.000000
1396		1250.000000
1397		1250.000000
1398		1250.000000
1399		1250.000000
1400		1250.000000
1401		1210.937500
1402		1250.000000
1403		1210.937500
1404		1210.937500
1405		1210.937500
1406		1210.937500
1407		1210.937500
1408		1210.937500
1409		1171.875000
1410		1171.875000
1411		1171.875000
1412		1171.875000
1413		1171.875000
1414		1171.875000
1415		1171.875000
1416		1132.812500
1417		1132.812500
1418		1132.812500
1419		1132.812500
1420		1132.812500
1421		1132.812500
1422		1093.750000
1423		1093.750000
1424		1093.750000
1425		1093.750000
1426		1093.750000
1427		1093.750000
1428		1054.687500
1429		1054.687500
1430		1054.687500
1431		1054.687500
1432		1054.687500
1433		1054.687500
1434		1054.687500
1435		1054.687500
1436		1015.625000
1437		1015.625000
1438		1015.625000
1439		1015.625000
1440		1015.625000
1441		1015.625000
1442		1015.625000
1443		976.562500
1444		976.562500
1445		976.562500
1446		976.562500
1447		937.500000
1448		937.500000
1449		937.500000
1450		937.500000
1451		937.500000
1452		937.500000
1453		937.500000
1454		937.500000
1455		937.500000
1456		937.500000
1457		898.437500
1458		898.437500
1459		898.437500
1460		898.437500
1461		898.437500
1462		859.375000
1463		859.375000
1464		859.375000
1465		859.375000
1466		859.375000
1467		859.375000
1468		820.312500
1469		820.312500
1470		820.312500
1471		820.312500
1472		820.312500
1473		820.312500
1474		820.312500
1475		820.312500
1476		781.250000
1477		781.250000
1478		781.250000
1479		781.250000
1480		781.250000
1481		742.187500
1482		742.187500
1483		742.187500
1484		703.125000
1485		742.187500
1486		742.187500
1487		742.187500
1488		703.125000
1489		703.125000
1490		703.125000
1491		703.125000
1492		703.125000
1493		703.125000
1494		703.125000
1495		703.125000
1496		664.062500
1497		664.062500
1498		664.062500
1499		664.062500
1500		625.000000
1501		625.000000
1502		625.000000
1503		625.000000
1504		625.000000
1505		625.000000
1506		625.000000
1507		625.000000
1508		585.937500
1509		585.937500
1510		585.937500
1511		585.937500
1512		585.937500
1513		585.937500
1514		585.937500
1515		585.937500
1516		546.875000
1517		546.875000
1518		546.875000
1519		546.875000
1520		507.812500
1521		507.812500
1522		507.812500
1523		507.812500
1524		507.812500
1525		507.812500
1526		507.812500
1527		507.812500
1528		468.750000
1529		468.750000
1530		468.750000
1531		468.750000
1532		468.750000
1533		468.750000
1534		468.750000
1535		429.687500
1536		429.687500
1537		429.687500
1538		429.687500
1539		429.687500
1540		429.687500
1541		390.625000
1542		390.625000
1543		390.625000
1544		390.625000
1545		390.625000
1546		390.625000
1547		390.625000
1548		390.625000
1549		351.562500
1550		390.625000
1551		351.562500
1552		351.562500
1553		351.562500
1554		351.562500
1555		312.500000
1556		312.500000
1557		312.500000
1558		312.500000
1559		312.500000
1560		312.500000
1561		312.500000
1562		312.500000
1563		273.437500
1564		273.437500
1565		273.437500
1566		273.437500
1567		273.437500
1568		273.437500
1569		273.437500
1570		273.437500
1571		273.437500
1572		234.375000
1573		234.375000
1574		234.375000
1575		234.375000
1576		234.375000
1577		234.375000
1578		195.312500
1579		195.312500
1580		195.312500
1581		195.312500
1582		195.312500
1583		195.312500
1584		195.312500
1585		156.250000
1586		156.250000
1587		156.250000
1588		156.250000
1589		156.250000
1590		156.250000
1591		156.250000
1592		156.250000
1593		117.187500
1594		117.187500
1595		117.187500
1596		117.187500
1597		117.187500
1598		117.187500
1599		117.187500
1600		117.187500
1601		78.125000
1602		78.125000
1603		78.125000
1604		78.125000
1605		78.125000
1606		78.125000
1607		78.125000
1608		39.062500
1609		39.062500
1610		39.062500
1611		39.062500
1612		39.062500
1613		39.062500
1614		39.062500
1615		39.062500
1616		39.062500
1617		39.062500
1618		39.062500
1619		0.000000
1620		0.000000
1621		0.000000
1622		0.000000
1623		0.000000
1624		0.000000
1625		0.000000
1626		-39.062500
1627		-39.062500
1628		-39.062500
1629		-39.062500
1630		-39.062500
1631		-39.062500
1632		-39.062500
1633		-39.062500
1634		-39.062500
1635		-39.062500
1636		-78.125000
1637		-78.125000
1638		-78.125000
1639		-78.125000
1640		-78.125000
1641		-78.125000
1642		-78.125000
1643		-78.125000
1644		-117.187500
1645		-117.187500
1646		-117.187500
1647		-117.187500
1648		-117.187500
1649		-117.187500
1650		-117.187500
1651		-117.187500
1652		-117.187500
1653		-117.187500
1654		-117.187500
1655		-117.187500
1656		-156.250000
1657		-156.250000
1658		-156.250000
1659		-156.250000
1660		-195.312500
1661		-156.250000
1662		-195.312500
1663		-195.312500
1664		-195.312500
1665		-195.312500
1666		-195.312500
1667		-195.312500
1668		-195.312500
1669		-195.312500
1670		-195.312500
1671		-195.312500
1672		-195.312500
1673		-195.312500
1674		-195.312500
1675		-195.312500
1676		-234.375000
1677		-234.375000
1678		-234.375000
1679		-234.375000
1680		-234.375000
1681		-234.375000
1682		-234.375000
1683		-273.437500
1684		-273.437500
1685		-273.437500
1686		-273.437500
1687		-273.437500
1688		-273.437500
1689		-273.437500
1690		-273.437500
1691		-273.437500
1692		-273.437500
1693		-273.437500
1694		-273.437500
1695		-273.437500
1696		-312.500000
1697		-312.500000
1698		-312.500000
1699		-312.500000
1700		-312.500000
1701		-312.500000
1702		-312.500000
1703		-312.500000
1704		-351.562500
1705		-351.562500
1706		-351.562500
1707		-351.562500
1708		-351.562500
1709		-351.562500
1710		-351.562500
1711		-351.562500
1712		-351.562500
1713		-351.562500
1714		-351.562500
1715		-351.562500
1716		-351.562500
1717		-351.562500
1718		-390.625000
1719		-390.625000
1720		-390.625000
1721		-390.625000
1722		-390.625000
1723		-390.625000
1724		-390.625000
1725		-390.625000
1726		-390.625000
1727		-390.625000
1728		-390.625000
1729		-390.625000
1730		-390.625000
1731		-390.625000
1732		-429.687500
1733		-429.687500
1734		-429.687500
1735		-429.687500
1736		-429.687500
1737		-429.687500
1738		-429.687500
1739		-429.687500
1740		-429.687500
1741		-429.687500
1742		-429.687500
1743		-468.750000
1744		-468.750000
1745		-468.750000
1746		-468.750000
1747		-468.750000
1748		-468.750000
1749		-468.750000
1750		-468.750000
1751		-468.750000
1752		-468.750000
1753		-468.750000
1754		-468.750000
1755		-468.750000
1756		-468.750000
1757		-468.750000
1758		-468.750000
1759		-507.812500
1760		-507.812500
1761		-507.812500
1762		-507.812500
1763		-507.812500
1764		-507.812500
1765		-507.812500
1766		-507.812500
1767		-507.812500
1768		-507.812500
1769		-507.812500
1770		-507.812500
1771		-507.812500
1772		-507.812500
1773		-507.812500
1774		-546.875000
1775		-546.875000
1776		-546.875000
1777		-546.875000
1778		-546.875000
1779		-546.875000
1780		-546.875000
1781		-546.875000
1782		-546.875000
1783		-546.875000
1784		-546.875000
1785		-546.875000
1786		-546.875000
1787		-546.875000
1788		-546.875000
1789		-585.937500
1790		-585.937500
1791		-546.875000
1792		-585.937500
1793		-585.937500
1794		-585.937500
1795		-585.937500
1796		-585.937500
1797		-585.937500
1798		-585.937500
1799		-585.937500
1800		-585.937500
1801		-585.937500
1802		-585.937500
1803		-585.937500
1804		-585.937500
1805		-625.000000
1806		-625.000000
1807		-625.000000
1808		-625.000000
1809		-625.000000
1810		-625.000000
1811		-625.000000
1812		-625.000000
1813		-625.000000
1814		-625.000000
1815		-625.000000
1816		-625.000000
1817		-625.000000
1818		-625.000000
1819		-625.000000
1820		-625.000000
1821		-625.000000
1822		-625.000000
1823		-625.000000
1824		-625.000000
1825		-664.062500
1826		-664.062500
1827		-664.062500
1828		-664.062500
1829		-664.062500
1830		-664.062500
1831		-664.062500
1832		-664.062500
1833		-664.062500
1834		-664.062500
1835		-664.062500
1836		-664.062500
1837		-664.062500
1838		-664.062500
1839		-664.062500
1840		-664.062500
1841		-664.062500
1842		-664.062500
1843		-664.062500
1844		-664.062500
1845		-703.125000
1846		-703.125000
1847		-703.125000
1848		-703.125000
1849		-703.125000
1850		-703.125000
1851		-703.125000
1852		-703.125000
1853		-703.125000
1854		-703.125000
1855		-703.125000
1856		-703.125000
1857		-703.125000
1858		-703.125000
1859		-703.125000
1860		-703.125000
1861		-703.125000
1862		-703.125000
1863		-703.125000
1864		-742.187500
1865		-703.125000
1866		-703.125000
1867		-703.125000
1868		-703.125000
1869		-703.125000
1870		-703.125000
1871		-703.125000
1872		-703.125000
1873		-703.125000
1874		-703.125000
1875		-742.187500
1876		-742.187500
1877		-742.187500
1878		-742.187500
1879		-742.187500
1880		-742.187500
1881		-742.187500
1882		-742.187500
1883		-742.187500
1884		-742.187500
1885		-742.187500
1886		-742.187500
1887		-742.187500
1888		-742.187500
1889		-742.187500
1890		-742.187500
1891		-742.187500
1892		-742.187500
1893		-742.187500
1894		-742.187500
1895		-742.187500
1896		-742.187500
1897		-742.187500
1898		-742.187500
1899		-781.250000
1900		-781.250000
1901		-781.250000
1902		-781.250000
1903		-742.187500
1904		-781.250000
1905		-781.250000
1906		-781.250000
1907		-781.250000
1908		-781.250000
1909		-781.250000
1910		-781.250000
1911		-781.250000
1912		-781.250000
1913		-781.250000
1914		-781.250000
1915		-781.250000
1916		-781.250000
1917		-781.250000
1918		-781.250000
1919		-781.250000
1920		-781.250000
1921		-781.250000
1922		-781.250000
1923		-781.250000
1924		-781.250000
1925		-781.250000
1926		-781.250000
1927		-781.250000
1928		-781.250000
1929		-781.250000
1930		-781.250000
1931		-781.250000
1932		-781.250000
1933		-781.250000
1934		-781.250000
1935		-820.312500
1936		-820.312500
1937		-820.312500
1938		-820.312500
1939		-820.312500
1940		-820.312500
1941		-820.312500
1942		-820.312500
1943		-820.312500
1944		-820.312500
1945		-820.312500
1946		-820.312500
1947		-820.312500
1948		-820.312500
1949		-820.312500
1950		-820.312500
1951		-820.312500
1952		-820.312500
1953		-820.312500
1954		-820.312500
1955		-820.312500
1956		-820.312500
1957		-820.312500
1958		-820.312500
1959		-820.312500
1960		-820.312500
1961		-820.312500
1962		-820.312500
1963		-820.312500
1964		-820.312500
1965		-820.312500
1966		-820.312500
1967		-820.312500
1968		-820.312500
1969		-820.312500
1970		-820.312500
1971		-820.312500
1972		-820.312500
1973		-820.312500
1974		-820.312500
1975		-820.312500
1976		-820.312500
1977		-820.312500
1978		-820.312500
1979		-820.312500
1980		-820.312500
1981		-820.312500
1982		-859.375000
1983		-859.375000
1984		-820.312500
1985		-859.375000
1986		-859.375000
1987		-859.375000
1988		-859.375000
1989		-859.375000
1990		-820.312500
1991		-859.375000
1992		-859.375000
1993		-859.375000
1994		-859.375000
1995		-820.312500
1996		-820.312500
1997		-859.375000
1998		-859.375000
1999		-859.375000
2000		-859.375000
2001		-859.375000
2002		-859.375000
2003		-859.375000
2004		-859.375000
2005		-859.375000
2006		-859.375000
2007		-859.375000
2008		-859.375000
2009		-859.375000
2010		-859.375000
2011		-859.375000
2012		-859.375000
2013		-859.375000
2014		-859.375000
2015		-859.375000
2016		-859.375000
2017		-859.375000
2018		-859.375000
2019		-859.375000
2020		-859.375000
2021		-859.375000
2022		-859.375000
2023		-859.375000
2024		-859.375000
2025		-859.375000
2026		-859.375000
2027		-859.375000
2028		-859.375000
2029		-859.375000
2030		-859.375000
2031		-859.375000
2032		-859.375000
2033		-859.375000
2034		-859.375000
2035		-859.375000
2036		-859.375000
2037		-859.375000
2038		-859.375000
2039		-859.375000
2040		-859.375000
2041		-859.375000
2042		-859.375000
2043		-859.375000
2044		-859.375000
2045		-859.375000
2046		-859.375000
2047		-859.375000
2048		-859.375000
2049		-859.375000
2050		-859.375000
2051		-859.375000
2052		-859.375000
2053		-859.375000
2054		-859.375000
2055		-859.375000
2056		-859.375000
2057		-859.375000
2058		-859.375000
2059		-859.375000
2060		-859.375000
2061		-859.375000
2062		-859.375000
2063		-859.375000
2064		-859.375000
2065		-859.375000
2066		-859.375000
2067		-859.375000
2068		-859.375000
2069		-859.375000
2070		-859.375000
2071		-859.375000
2072		-859.375000
2073		-859.375000
2074		-859.375000
2075		-859.375000
2076		-859.375000
2077		-859.375000
2078		-859.375000
2079		-859.375000
2080		-859.375000
2081		-859.375000
2082		-859.375000
2083		-859.375000
2084		-859.375000
2085		-859.375000
2086		-859.375000
2087		-859.375000
2088		-859.375000
2089		-859.375000
2090		-820.312500
2091		-820.312500
2092		-859.375000
2093		-820.312500
2094		-859.375000
2095		-859.375000
2096		-820.312500
2097		-859.375000
2098		-859.375000
2099		-859.375000
2100		-859.375000
2101		-859.375000
2102		-859.375000
2103		-859.375000
2104		-859.375000
2105		-859.375000
2106		-820.312500
2107		-859.375000
2108		-820.312500
2109		-820.312500
2110		-820.312500
2111		-820.312500
2112		-820.312500
2113		-820.312500
2114		-859.375000
2115		-820.312500
2116		-820.312500
2117		-820.312500
2118		-820.312500
2119		-859.375000
2120		-820.312500
2121		-820.312500
2122		-820.312500
2123		-820.312500
2124		-820.312500
2125		-820.312500
2126		-820.312500
2127		-820.312500
2128		-820.312500
2129		-820.312500
2130		-820.312500
2131		-820.312500
2132		-820.312500
2133		-820.312500
2134		-820.312500
2135		-820.312500
2136		-820.312500
2137		-820.312500
2138		-820.312500
2139		-820.312500
2140		-820.312500
2141		-820.312500
2142		-820.312500
2143		-820.312500
2144		-820.312500
2145		-820.312500
2146		-820.312500
2147		-820.312500
2148		-820.312500
2149		-820.312500
2150		-820.312500
2151		-820.312500
2152		-820.312500
2153		-820.312500
2154		-820.312500
2155		-820.312500
2156		-820.312500
2157		-820.312500
2158		-781.250000
2159		-820.312500
2160		-820.312500
2161		-820.312500
2162		-781.250000
2163		-820.312500
2164		-781.250000
2165		-820.312500
2166		-820.312500
2167		-820.312500
2168		-781.250000
2169		-781.250000
2170		-781.250000
2171		-781.250000
2172		-781.250000
2173		-781.250000
2174		-781.250000
2175		-781.250000
2176		-781.250000
2177		-781.250000
2178		-781.250000
2179		-781.250000
2180		-781.250000
2181		-781.250000
2182		-781.250000
2183		-781.250000
2184		-781.250000
2185		-781.250000
2186		-781.250000
2187		-781.250000
2188		-820.312500
2189		-781.250000
2190		-781.250000
2191		-781.250000
2192		-781.250000
2193		-781.250000
2194		-781.250000
2195		-781.250000
2196		-742.187500
2197		-781.250000
2198		-742.187500
2199		-742.187500
2200		-742.187500
2201		-742.187500
2202		-742.187500
2203		-781.250000
2204		-781.250000
2205		-781.250000
2206		-781.250000
2207		-742.187500
2208		-742.187500
2209		-742.187500
2210		-742.187500
2211		-742.187500
2212		-742.187500
2213		-742.187500
2214		-742.187500
2215		-742.187500
2216		-742.187500
2217		-742.187500
2218		-742.187500
2219		-742.187500
2220		-742.187500
2221		-742.187500
2222		-742.187500
2223		-742.187500
2224		-742.187500
2225		-742.187500
2226		-742.187500
2227		-742.187500
2228		-742.187500
2229		-742.187500
2230		-703.125000
2231		-703.125000
2232		-742.187500
2233		-703.125000
2234		-703.125000
2235		-703.125000
2236		-703.125000
2237		-703.125000
2238		-703.125000
2239		-703.125000
2240		-703.125000
2241		-703.125000
2242		-703.125000
2243		-703.125000
2244		-703.125000
2245		-703.125000
2246		-703.125000
2247		-703.125000
2248		-703.125000
2249		-703.125000
2250		-703.125000
2251		-664.062500
2252		-664.062500
2253		-664.062500
2254		-664.062500
2255		-664.062500
2256		-664.062500
2257		-664.062500
2258		-664.062500
2259		-664.062500
2260		-664.062500
2261		-664.062500
2262		-664.062500
2263		-664.062500
2264		-664.062500
2265		-664.062500
2266		-664.062500
2267		-664.062500
2268		-664.062500
2269		-664.062500
2270		-664.062500
2271		-664.062500
2272		-625.000000
2273		-625.000000
2274		-625.000000
2275		-625.000000
2276		-625.000000
2277		-625.000000
2278		-625.000000
2279		-625.000000
2280		-625.000000
2281		-625.000000
2282		-625.000000
2283		-625.000000
2284		-625.000000
2285		-625.000000
2286		-625.000000
2287		-625.000000
2288		-625.000000
2289		-625.000000
2290		-585.937500
2291		-585.937500
2292		-585.937500
2293		-585.937500
2294		-585.937500
2295		-585.937500
2296		-585.937500
2297		-585.937500
2298		-585.937500
2299		-585.937500
2300		-585.937500
2301		-585.937500
2302		-585.937500
2303		-585.937500
2304		-585.937500
2305		-585.937500
2306		-585.937500
2307		-585.937500
2308		-585.937500
2309		-585.937500
2310		-546.875000
2311		-546.875000
2312		-546.875000
2313		-546.875000
2314		-546.875000
2315		-546.875000
2316		-546.875000
2317		-546.875000
2318		-546.875000
2319		-546.875000
2320		-546.875000
2321		-546.875000
2322		-546.875000
2323		-546.875000
2324		-546.875000
2325		-507.812500
2326		-546.875000
2327		-507.812500
2328		-507.812500
2329		-507.812500
2330		-507.812500
2331		-507.812500
2332		-507.812500
2333		-507.812500
2334		-507.812500
2335		-507.812500
2336		-507.812500
2337		-507.812500
2338		-507.812500
2339		-507.812500
2340		-468.750000
2341		-468.750000
2342		-468.750000
2343		-468.750000
2344		-468.750000
2345		-468.750000
2346		-468.750000
2347		-468.750000
2348		-468.750000
2349		-468.750000
2350		-468.750000
2351		-468.750000
2352		-468.750000
2353		-468.750000
2354		-468.750000
2355		-429.687500
2356		-429.687500
2357		-429.687500
2358		-429.687500
2359		-429.687500
2360		-429.687500
2361		-429.687500
2362		-429.687500
2363		-429.687500
2364		-429.687500
2365		-429.687500
2366		-429.687500
2367		-390.625000
2368		-390.625000
2369		-390.625000
2370		-390.625000
2371		-390.625000
2372		-390.625000
2373		-390.625000
2374		-390.625000
2375		-390.625000
2376		-390.625000
2377		-351.562500
2378		-351.562500
2379		-351.562500
2380		-351.562500
2381		-351.562500
2382		-351.562500
2383		-351.562500
2384		-351.562500
2385		-351.562500
2386		-351.562500
2387		-351.562500
2388		-351.562500
2389		-351.562500
2390		-312.500000
2391		-312.500000
2392		-312.500000
2393		-312.500000
2394		-312.500000
2395		-312.500000
2396		-312.500000
2397		-312.500000
2398		-312.500000
2399		-312.500000
2400		-273.437500
2401		-312.500000
2402		-312.500000
2403		-273.437500
2404		-273.437500
2405		-273.437500
2406		-273.437500
2407		-273.437500
2408		-273.437500
2409		-273.437500
2410		-273.437500
2411		-234.375000
2412		-234.375000
2413		-234.375000
2414		-234.375000
2415		-234.375000
2416		-234.375000
2417		-234.375000
2418		-234.375000
2419		-234.375000
2420		-234.375000
2421		-234.375000
2422		-195.312500
2423		-195.312500
2424		-195.312500
2425		-195.312500
2426		-195.312500
2427		-195.312500
2428		-195.312500
2429		-156.250000
2430		-156.250000
2431		-156.250000
2432		-156.250000
2433		-156.250000
2434		-156.250000
2435		-156.250000
2436		-156.250000
2437		-156.250000
2438		-117.187500
2439		-117.187500
2440		-117.187500
2441		-117.187500
2442		-117.187500
2443		-117.187500
2444		-117.187500
2445		-117.187500
2446		-117.187500
2447		-117.187500
2448		-78.125000
2449		-78.125000
2450		-78.125000
2451		-78.125000
2452		-78.125000
2453		-78.125000
2454		-78.125000
2455		-78.125000
2456		-39.062500
2457		-39.062500
2458		-39.062500
2459		-39.062500
2460		-39.062500
2461		-39.062500
2462		-39.062500
2463		-39.062500
2464		-39.062500
2465		-39.062500
2466		-39.062500
2467		0.000000
2468		0.000000
2469		0.000000
2470		0.000000
2471		39.062500
2472		39.062500
2473		39.062500
2474		39.062500
2475		39.062500
2476		39.062500
2477		39.062500
2478		39.062500
2479		39.062500
2480		39.062500
2481		39.062500
2482		78.125000
2483		78.125000
2484		78.125000
2485		78.125000
2486		78.125000
2487		78.125000
2488		117.187500
2489		117.187500
2490		117.187500
2491		117.187500
2492		117.187500
2493		117.187500
2494		156.250000
2495		156.250000
2496		156.250000
2497		156.250000
2498		156.250000
2499		156.250000
2500		156.250000
2501		156.250000
2502		156.250000
2503		195.312500
2504		195.312500
2505		195.312500
2506		195.312500
2507		195.312500
2508		195.312500
2509		234.375000
2510		234.375000
2511		234.375000
2512		234.375000
2513		234.375000
2514		234.375000
2515		234.375000
2516		273.437500
2517		273.437500
2518		273.437500
2519		273.437500
2520		273.437500
2521		273.437500
2522		273.437500
2523		273.437500
2524		312.500000
2525		312.500000
2526		312.500000
2527		312.500000
2528		312.500000
2529		312.500000
2530		351.562500
2531		351.562500
2532		351.562500
2533		351.562500
2534		351.562500
2535		351.562500
2536		390.625000
2537		390.625000
2538		390.625000
2539		390.625000
2540		390.625000
2541		390.625000
2542		429.687500
2543		429.687500
2544		429.687500
2545		429.687500
2546		429.687500
2547		429.687500
2548		429.687500
2549		468.750000
2550		468.750000
2551		468.750000
2552		468.750000
2553		468.750000
2554		468.750000
2555		468.750000
2556		507.812500
2557		507.812500
2558		507.812500
2559		507.812500
2560		507.812500
2561		546.875000
2562		546.875000
2563		546.875000
2564		546.875000
2565		546.875000
2566		546.875000
2567		546.875000
2568		546.875000
2569		585.937500
2570		585.937500
2571		585.937500
2572		585.937500
2573		625.000000
2574		625.000000
2575		625.000000
2576		625.000000
2577		625.000000
2578		625.000000
2579		664.062500
2580		664.062500
2581		664.062500
2582		664.062500
2583		664.062500
2584		664.062500
2585		664.062500
2586		664.062500
2587		703.125000
2588		703.125000
2589		703.125000
2590		703.125000
2591		703.125000
2592		742.187500
2593		742.187500
2594		742.187500
2595		742.187500
2596		742.187500
2597		742.187500
2598		781.250000
2599		781.250000
2600		781.250000
2601		781.250000
2602		781.250000
2603		781.250000
2604		781.250000
2605		820.312500
2606		820.312500
2607		820.312500
2608		820.312500
2609		820.312500
2610		859.375000
2611		859.375000
2612		859.375000
2613		859.375000
2614		859.375000
2615		859.375000
2616		898.437500
2617		898.437500
2618		898.437500
2619		898.437500
2620		898.437500
2621		898.437500
2622		898.437500
2623		937.500000
2624		937.500000
2625		937.500000
2626		937.500000
2627		937.500000
2628		976.562500
2629		976.562500
2630		976.562500
2631		976.562500
2632		976.562500
2633		1015.625000
2634		1015.625000
2635		1015.625000
2636		1015.625000
2637		1015.625000
2638		1015.625000
2639		1015.625000
2640		1015.625000
2641		1015.625000
2642		1054.687500
2643		1054.687500
2644		1054.687500
2645		1054.687500
2646		1054.687500
2647		1093.750000
2648		1093.750000
2649		1093.750000
2650		1093.750000
2651		1093.750000
2652		1132.812500
2653		1132.812500
2654		1132.812500
2655		1132.812500
2656		1132.812500
2657		1132.812500
2658		1132.812500
2659		1132.812500
2660		1171.875000
2661		1171.875000
2662		1171.875000
2663		1210.937500
2664		1171.875000
2665		1171.875000
2666		1210.937500
2667		1210.937500
2668		1210.937500
2669		1210.937500
2670		1210.937500
2671		1250.000000
2672		1250.000000
2673		1250.000000
2674		1250.000000
2675		1250.000000
2676		1250.000000
2677		1289.062500
2678		1289.062500
2679		1289.062500
2680		1289.062500
2681		1289.062500
2682		1289.062500
2683		1289.062500
2684		1328.125000
2685		1328.125000
2686		1328.125000
2687		1328.125000
2688		1328.125000
2689		1328.125000
2690		1367.187500
2691		1367.187500
2692		1367.187500
2693		1367.187500
2694		1367.187500
2695		1367.187500
2696		1367.187500
2697		1406.250000
2698		1367.187500
2699		1406.250000
2700		1406.250000
2701		1406.250000
2702		1406.250000
2703		1406.250000
2704		1445.312500
2705		1445.312500
2706		1445.312500
2707		1445.312500
2708		1445.312500
2709		1445.312500
2710		1484.375000
2711		1484.375000
2712		1484.375000
2713		1484.375000
2714		1484.375000
2715		1484.375000
2716		1484.375000
2717		1484.375000
2718		1484.375000
2719		1523.437500
2720		1523.437500
2721		1523.437500
2722		1523.437500
2723		1523.437500
2724		1523.437500
2725		1523.437500
2726		1562.500000
2727		1562.500000
2728		1562.500000
2729		1562.500000
2730		1562.500000
2731		1562.500000
2732		1562.500000
2733		1562.500000
2734		1562.500000
2735		1601.562500
2736		1601.562500
2737		1601.562500
2738		1601.562500
2739		1601.562500
2740		1601.562500
2741		1640.625000
2742		1640.625000
2743		1601.562500
2744		1640.625000
2745		1640.625000
2746		1640.625000
2747		1640.625000
2748		1640.625000
2749		1640.625000
2750		1640.625000
2751		1679.687500
2752		1679.687500
2753		1679.687500
2754		1679.687500
2755		1679.687500
2756		1679.687500
2757		1679.687500
2758		1679.687500
2759		1679.687500
2760		1718.750000
2761		1718.750000
2762		1718.750000
2763		1718.750000
2764		1718.750000
2765		1718.750000
2766		1718.750000
2767		1718.750000
2768		1718.750000
2769		1718.750000
2770		1757.812500
2771		1757.812500
2772		1757.812500
2773		1757.812500
2774		1757.812500
2775		1757.812500
2776		1757.812500
2777		1757.812500
2778		1757.812500
2779		1757.812500
2780		1757.812500
2781		1757.812500
2782		1757.812500
2783		1796.875000
2784		1796.875000
2785		1796.875000
2786		1796.875000
2787		1796.875000
2788		1796.875000
2789		1796.875000
2790		1796.875000
2791		1796.875000
2792		1835.937500
2793		1835.937500
2794		1835.937500
2795		1835.937500
2796		1835.937500
2797		1835.937500
2798		1835.937500
2799		1835.937500
2800		1796.875000
2801		1835.937500
2802		1835.937500
2803		1835.937500
2804		1835.937500
2805		1835.937500
2806		1835.937500
2807		1835.937500
2808		1835.937500
2809		1835.937500
2810		1875.000000
2811		1875.000000
2812		1875.000000
2813		1875.000000
2814		1875.000000
2815		1875.000000
2816		1875.000000
2817		1875.000000
2818		1875.000000
2819		1875.000000
2820		1875.000000
2821		1875.000000
2822		1875.000000
2823		1875.000000
2824		1875.000000
2825		1875.000000
2826		1875.000000
2827		1875.000000
2828		1875.000000
2829		1914.062500
2830		1914.062500
2831		1914.062500
2832		1914.062500
2833		1914.062500
2834		1914.062500
2835		1914.062500
2836		1914.062500
2837		1914.062500
2838		1914.062500
2839		1875.000000
2840		1914.062500
2841		1914.062500
2842		1914.062500
2843		1914.062500
2844		1914.062500
2845		1914.062500
2846		1875.000000
2847		1914.062500
2848		1914.062500
2849		1914.062500
2850		1914.062500
2851		1914.062500
2852		1914.062500
2853		1914.062500
2854		1914.062500
2855		1914.062500
2856		1914.062500
2857		1914.062500
2858		1914.062500
2859		1914.062500
2860		1914.062500
2861		1914.062500
2862		1914.062500
2863		1914.062500
2864		1914.062500
2865		1914.062500
2866		1914.062500
2867		1914.062500
2868		1914.062500
2869		1914.062500
2870		1914.062500
2871		1914.062500
2872		1914.062500
2873		1914.062500
2874		1914.062500
2875		1914.062500
2876		1914.062500
2877		1914.062500
2878		1914.062500
2879		1914.062500
2880		1914.062500
2881		1914.062500
2882		1914.062500
2883		1914.062500
2884		1914.062500
2885		1914.062500
2886		1914.062500
2887		1914.062500
2888		1914.062500
2889		1914.062500
2890		1914.062500
2891		1914.062500
2892		1914.062500
2893		1914.062500
2894		1914.062500
2895		1914.062500
2896		1914.062500
2897		1914.062500
2898		1914.062500
2899		1914.062500
2900		1875.000000
2901		1875.000000
2902		1914.062500
2903		1875.000000
2904		1914.062500
2905		1914.062500
2906		1875.000000
2907		1875.000000
2908		1875.000000
2909		1875.000000
2910		1875.000000
2911		1875.000000
2912		1875.000000
2913		1875.000000
2914		1875.000000
2915		1875.000000
2916		1875.000000
2917		1875.000000
2918		1875.000000
2919		1875.000000
2920		1875.000000
2921		1875.000000
2922		1875.000000
2923		1875.000000
2924		1835.937500
2925		1835.937500
2926		1835.937500
2927		1835.937500
2928		1835.937500
2929		1835.937500
2930		1835.937500
2931		1835.937500
2932		1835.937500
2933		1835.937500
2934		1835.937500
2935		1835.937500
2936		1835.937500
2937		1835.937500
2938		1835.937500
2939		1835.937500
2940		1835.937500
2941		1835.937500
2942		1796.875000
2943		1835.937500
2944		1796.875000
2945		1796.875000
2946		1796.875000
2947		1796.875000
2948		1796.875000
2949		1796.875000
2950		1796.875000
2951		1796.875000
2952		1796.875000
2953		1796.875000
2954		1796.875000
2955		1757.812500
2956		1757.812500
2957		1757.812500
2958		1757.812500
2959		1757.812500
2960		1757.812500
2961		1757.812500
2962		1757.812500
2963		1757.812500
2964		1757.812500
2965		1718.750000
2966		1718.750000
2967		1718.750000
2968		1718.750000
2969		1718.750000
2970		1718.750000
2971		1718.750000
2972		1718.750000
2973		1718.750000
2974		1718.750000
2975		1718.750000
2976		1718.750000
2977		1679.687500
2978		1679.687500
2979		1679.687500
2980		1679.687500
2981		1679.687500
2982		1679.687500
2983		1679.687500
2984		1640.625000
2985		1640.625000
2986		1640.625000
2987		1640.625000
2988		1640.625000
2989		1640.625000
2990		1640.625000
2991		1640.625000
2992		1640.625000
2993		1640.625000
2994		1640.625000
2995		1640.625000
2996		1601.562500
2997		1601.562500
2998		1601.562500
2999		1601.562500
3000		1601.562500
3001		1601.562500
3002		1562.500000
3003		1562.500000
3004		1562.500000
3005		1562.500000
3006		1562.500000
3007		1562.500000
3008		1562.500000
3009		1562.500000
3010		1562.500000
3011		1562.500000
3012		1523.437500
3013		1523.437500
3014		1523.437500
3015		1523.437500
3016		1523.437500
3017		1523.437500
3018		1523.437500
3019		1484.375000
3020		1484.375000
3021		1484.375000
3022		1484.375000
3023		1484.375000
3024		1484.375000
3025		1484.375000
3026		1484.375000
3027		1445.312500
3028		1445.312500
3029		1445.312500
3030		1445.312500
3031		1445.312500
3032		1445.312500
3033		1445.312500
3034		1445.312500
3035		1445.312500
3036		1406.250000
3037		1406.250000
3038		1406.250000
3039		1406.250000
3040		1406.250000
3041		1367.187500
3042		1367.187500
3043		1367.187500
3044		1367.187500
3045		1367.187500
3046		1367.187500
3047		1367.187500
3048		1367.187500
3049		1328.125000
3050		1328.125000
3051		1328.125000
3052		1328.125000
3053		1328.125000
3054		1289.062500
3055		1328.125000
3056		1289.062500
3057		1289.062500
3058		1289.062500
3059		1289.062500
3060		1289.062500
3061		1250.000000
3062		1250.000000
3063		1250.000000
3064		1250.000000
3065		1250.000000
3066		1250.000000
3067		1250.000000
3068		1250.000000
3069		1210.937500
3070		1210.937500
3071		1210.937500
3072		1210.937500
3073		1210.937500
3074		1210.937500
3075		1171.875000
3076		1171.875000
3077		1171.875000
3078		1171.875000
3079		1171.875000
3080		1171.875000
3081		1132.812500
3082		1132.812500
3083		1132.812500
3084		1132.812500
3085		1132.812500
3086		1132.812500
3087		1132.812500
3088		1132.812500
3089		1093.750000
3090		1093.750000
3091		1093.750000
3092		1093.750000
3093		1093.750000
3094		1093.750000
3095		1054.687500
3096		1054.687500
3097		1054.687500
3098		1054.687500
3099		1054.687500
3100		1054.687500
3101		1015.625000
3102		1015.625000
3103		1015.625000
3104		1015.625000
3105		1015.625000
3106		1015.625000
3107		1015.625000
3108		976.562500
3109		976.562500
3110		976.562500
3111		976.562500
3112		976.562500
3113		976.562500
3114		937.500000
3115		937.500000
3116		937.500000
3117		937.500000
3118		937.500000
3119		937.500000
3120		898.437500
3121		898.437500
3122		898.437500
3123		898.437500
3124		898.437500
3125		898.437500
3126		859.375000
3127		859.375000
3128		859.375000
3129		859.375000
3130		859.375000
3131		859.375000
3132		820.312500
3133		820.312500
3134		820.312500
3135		820.312500
3136		820.312500
3137		820.312500
3138		820.312500
3139		820.312500
3140		781.250000
3141		781.250000
3142		781.250000
3143		781.250000
3144		781.250000
3145		742.187500
3146		742.187500
3147		742.187500
3148		742.187500
3149		742.187500
3150		742.187500
3151		742.187500
3152		703.125000
3153		703.125000
3154		703.125000
3155		703.125000
3156		703.125000
3157		703.125000
3158		703.125000
3159		664.062500
3160		664.062500
3161		664.062500
3162		664.062500
3163		664.062500
3164		664.062500
3165		625.000000
3166		625.000000
3167		625.000000
3168		625.000000
3169		625.000000
3170		625.000000
3171		625.000000
3172		585.937500
3173		585.937500
3174		585.937500
3175		585.937500
3176		585.937500
3177		585.937500
3178		546.875000
3179		546.875000
3180		546.875000
3181		546.875000
3182		546.875000
3183		546.875000
3184		507.812500
3185		507.812500
3186		507.812500
3187		507.812500
3188		507.812500
3189		507.812500
3190		507.812500
3191		507.812500
3192		468.750000
3193		468.750000
3194		468.750000
3195		468.750000
3196		468.750000
3197		468.750000
3198		429.687500
3199		429.687500
3200		429.687500
3201		429.687500
3202		429.687500
3203		429.687500
3204		390.625000
3205		390.625000
3206		390.625000
3207		390.625000
3208		390.625000
3209		390.625000
3210		390.625000
3211		390.625000
3212		390.625000
3213		351.562500
3214		351.562500
3215		351.562500
3216		351.562500
3217		351.562500
3218		351.562500
3219		312.500000
3220		312.500000
3221		312.500000
3222		312.500000
3223		312.500000
3224		312.500000
3225		273.437500
3226		273.437500
3227		273.437500
3228		273.437500
3229		273.437500
3230		273.437500
3231		273.437500
3232		273.437500
3233		273.437500
3234		273.437500
3235		273.437500
3236		234.375000
3237		234.375000
3238		234.375000
3239		234.375000
3240		195.312500
3241		195.312500
3242		195.312500
3243		195.312500
3244		195.312500
3245		195.312500
3246		195.312500
3247		195.312500
3248		195.312500
3249		195.312500
3250		195.312500
3251		156.250000
3252		156.250000
3253		156.250000
3254		156.250000
3255		156.250000
3256		156.250000
3257		156.250000
3258		117.187500
3259		117.187500
3260		117.187500
3261		117.187500
3262		117.187500
3263		117.187500
3264		117.187500
3265		117.187500
3266		117.187500
3267		78.125000
3268		78.125000
3269		78.125000
3270		78.125000
3271		78.125000
3272		78.125000
3273		78.125000
3274		78.125000
3275		39.062500
3276		39.062500
3277		39.062500
3278		39.062500
3279		39.062500
3280		39.062500
3281		39.062500
3282		39.062500
3283		0.000000
3284		0.000000
3285		0.000000
3286		0.000000
3287		0.000000
3288		0.000000
3289		0.000000
3290		0.000000
3291		0.000000
3292		-39.062500
3293		-39.062500
3294		-39.062500
3295		-39.062500
3296		-39.062500
3297		-39.062500
3298		-39.062500
3299		-39.062500
3300		-39.062500
3301		-78.125000
3302		-78.125000
3303		-78.125000
3304		-78.125000
3305		-78.125000
3306		-78.125000
3307		-78.125000
3308		-78.125000
3309		-78.125000
3310		-78.125000
3311		-117.187500
3312		-117.187500
3313		-117.187500
3314		-117.187500
3315		-117.187500
3316		-117.187500
3317		-117.187500
3318		-117.187500
3319		-117.187500
3320		-117.187500
3321		-156.250000
3322		-156.250000
3323		-156.250000
3324		-156.250000
3325		-156.250000
3326		-156.250000
3327		-156.250000
3328		-156.250000
3329		-156.250000
3330		-195.312500
3331		-195.312500
3332		-195.312500
3333		-195.312500
3334		-195.312500
3335		-195.312500
3336		-195.312500
3337		-195.312500
3338		-195.312500
3339		-195.312500
3340		-195.312500
3341		-195.312500
3342		-234.375000
3343		-234.375000
3344		-234.375000
3345		-234.375000
3346		-234.375000
3347		-234.375000
3348		-234.375000
3349		-234.375000
3350		-234.375000
3351		-234.375000
3352		-234.375000
3353		-273.437500
3354		-273.437500
3355		-273.437500
3356		-273.437500
3357		-273.437500
3358		-273.437500
3359		-273.437500
3360		-273.437500
3361		-273.437500
3362		-273.437500
3363		-312.500000
3364		-312.500000
3365		-312.500000
3366		-312.500000
3367		-312.500000
3368		-312.500000
3369		-312.500000
3370		-312.500000
3371		-312.500000
3372		-312.500000
3373		-312.500000
3374		-312.500000
3375		-312.500000
3376		-312.500000
3377		-312.500000
3378		-351.562500
3379		-351.562500
3380		-351.562500
3381		-351.562500
3382		-351.562500
3383		-351.562500
3384		-351.562500
3385		-351.562500
3386		-351.562500
3387		-390.625000
3388		-390.625000
3389		-351.562500
3390		-390.625000
3391		-390.625000
3392		-390.625000
3393		-390.625000
3394		-390.625000
3395		-390.625000
3396		-390.625000
3397		-390.625000
3398		-390.625000
3399		-390.625000
3400		-390.625000
3401		-429.687500
3402		-429.687500
3403		-429.687500
3404		-429.687500
3405		-429.687500
3406		-429.687500
3407		-429.687500
3408		-429.687500
3409		-429.687500
3410		-429.687500
3411		-429.687500
3412		-429.687500
3413		-429.687500
3414		-429.687500
3415		-429.687500
3416		-468.750000
3417		-468.750000
3418		-468.750000
3419		-468.750000
3420		-468.750000
3421		-468.750000
3422		-468.750000
3423		-468.750000
3424		-468.750000
3425		-468.750000
3426		-468.750000
3427		-468.750000
3428		-468.750000
3429		-468.750000
3430		-468.750000
3431		-468.750000
3432		-468.750000
3433		-468.750000
3434		-507.812500
3435		-507.812500
3436		-507.812500
3437		-507.812500
3438		-507.812500
3439		-507.812500
3440		-507.812500
3441		-507.812500
3442		-507.812500
3443		-507.812500
3444		-507.812500
3445		-507.812500
3446		-546.875000
3447		-546.875000
3448		-507.812500
3449		-546.875000
3450		-507.812500
3451		-546.875000
3452		-546.875000
3453		-546.875000
3454		-546.875000
3455		-546.875000
3456		-546.875000
3457		-546.875000
3458		-546.875000
3459		-546.875000
3460		-546.875000
3461		-546.875000
3462		-546.875000
3463		-546.875000
3464		-585.937500
3465		-585.937500
3466		-585.937500
3467		-585.937500
3468		-585.937500
3469		-585.937500
3470		-585.937500
3471		-585.937500
3472		-585.937500
3473		-585.937500
3474		-585.937500
3475		-585.937500
3476		-585.937500
3477		-585.937500
3478		-585.937500
3479		-585.937500
3480		-585.937500
3481		-585.937500
3482		-585.937500
3483		-585.937500
3484		-625.000000
3485		-625.000000
3486		-585.937500
3487		-625.000000
3488		-625.000000
3489		-625.000000
3490		-625.000000
3491		-625.000000
3492		-625.000000
3493		-625.000000
3494		-625.000000
3495		-625.000000
3496		-625.000000
3497		-625.000000
3498		-625.000000
3499		-625.000000
3500		-625.000000
3501		-625.000000
3502		-625.000000
3503		-625.000000
3504		-625.000000
3505		-625.000000
3506		-664.062500
3507		-664.062500
3508		-625.000000
3509		-664.062500
3510		-664.062500
3511		-664.062500
3512		-664.062500
3513		-664.062500
3514		-664.062500
3515		-664.062500
3516		-664.062500
3517		-664.062500
3518		-664.062500
3519		-664.062500
3520		-664.062500
3521		-664.062500
3522		-664.062500
3523		-664.062500
3524		-664.062500
3525		-664.062500
3526		-664.062500
3527		-664.062500
3528		-664.062500
3529		-703.125000
3530		-703.125000
3531		-664.062500
3532		-664.062500
3533		-703.125000
3534		-703.125000
3535		-703.125000
3536		-703.125000
3537		-703.125000
3538		-703.125000
3539		-703.125000
3540		-703.125000
3541		-703.125000
3542		-703.125000
3543		-703.125000
3544		-703.125000
3545		-703.125000
3546		-703.125000
3547		-703.125000
3548		-703.125000
3549		-703.125000
3550		-703.125000
3551		-703.125000
3552		-703.125000
3553		-703.125000
3554		-703.125000
3555		-703.125000
3556		-703.125000
3557		-703.125000
3558		-703.125000
3559		-742.187500
3560		-742.187500
3561		-742.187500
3562		-742.187500
3563		-742.187500
3564		-742.187500
3565		-742.187500
3566		-742.187500
3567		-742.187500
3568		-742.187500
3569		-742.187500
3570		-742.187500
3571		-742.187500
3572		-742.187500
3573		-742.187500
3574		-742.187500
3575		-742.187500
3576		-742.187500
3577		-742.187500
3578		-742.187500
3579		-742.187500
3580		-742.187500
3581		-742.187500
3582		-742.187500
3583		-742.187500
3584		-742.187500
3585		-742.187500
3586		-742.187500
3587		-742.187500
3588		-742.187500
3589		-742.187500
3590		-742.187500
3591		-742.187500
3592		-742.187500
3593		-742.187500
3594		-742.187500
3595		-742.187500
3596		-742.187500
3597		-742.187500
3598		-781.250000
3599		-781.250000
3600		-781.250000
3601		-781.250000
3602		-781.250000
3603		-781.250000
3604		-781.250000
3605		-781.250000
3606		-781.250000
3607		-781.250000
3608		-781.250000
3609		-781.250000
3610		-781.250000
3611		-781.250000
3612		-781.250000
3613		-781.250000
3614		-781.250000
3615		-781.250000
3616		-781.250000
3617		-781.250000
3618		-781.250000
3619		-781.250000
3620		-781.250000
3621		-781.250000
3622		-781.250000
3623		-781.250000
3624		-781.250000
3625		-781.250000
3626		-781.250000
3627		-781.250000
3628		-781.250000
3629		-781.250000
3630		-781.250000
3631		-781.250000
3632		-781.250000
3633		-781.250000
3634		-781.250000
3635		-781.250000
3636		-781.250000
3637		-781.250000
3638		-781.250000
3639		-781.250000
3640		-781.250000
3641		-781.250000
3642		-781.250000
3643		-781.250000
3644		-781.250000
3645		-781.250000
3646		-781.250000
3647		-781.250000
3648		-781.250000
3649		-781.250000
3650		-781.250000
3651		-781.250000
3652		-781.250000
3653		-781.250000
3654		-781.250000
3655		-781.250000
3656		-781.250000
3657		-820.312500
3658		-820.312500
3659		-820.312500
3660		-820.312500
3661		-820.312500
3662		-820.312500
3663		-820.312500
3664		-781.250000
3665		-781.250000
3666		-820.312500
3667		-781.250000
3668		-820.312500
3669		-820.312500
3670		-820.312500
3671		-820.312500
3672		-820.312500
3673		-820.312500
3674		-820.312500
3675		-820.312500
3676		-820.312500
3677		-820.312500
3678		-820.312500
3679		-820.312500
3680		-820.312500
3681		-820.312500
3682		-820.312500
3683		-820.312500
3684		-820.312500
3685		-820.312500
3686		-820.312500
3687		-820.312500
3688		-820.312500
3689		-820.312500
3690		-820.312500
3691		-820.312500
3692		-820.312500
3693		-820.312500
3694		-820.312500
3695		-820.312500
3696		-820.312500
3697		-820.312500
3698		-820.312500
3699		-820.312500
3700		-820.312500
3701		-820.312500
3702		-820.312500
3703		-820.312500
3704		-820.312500
3705		-820.312500
3706		-820.312500
3707		-820.312500
3708		-820.312500
3709		-820.312500
3710		-820.312500
3711		-820.312500
3712		-820.312500
3713		-820.312500
3714		-820.312500
3715		-820.312500
3716		-820.312500
3717		-820.312500
3718		-820.312500
3719		-781.250000
3720		-820.312500
3721		-820.312500
3722		-820.312500
3723		-820.312500
3724		-820.312500
3725		-820.312500
3726		-820.312500
3727		-820.312500
3728		-820.312500
3729		-820.312500
3730		-820.312500
3731		-820.312500
3732		-820.312500
3733		-820.312500
3734		-781.250000
3735		-781.250000
3736		-781.250000
3737		-781.250000
3738		-820.312500
3739		-820.312500
3740		-820.312500
3741		-820.312500
3742		-820.312500
3743		-820.312500
3744		-820.312500
3745		-781.250000
3746		-820.312500
3747		-781.250000
3748		-781.250000
3749		-820.312500
3750		-781.250000
3751		-781.250000
3752		-781.250000
3753		-781.250000
3754		-781.250000
3755		-781.250000
3756		-781.250000
3757		-781.250000
3758		-781.250000
3759		-781.250000
3760		-781.250000
3761		-820.312500
3762		-820.312500
3763		-820.312500
3764		-820.312500
3765		-781.250000
3766		-781.250000
3767		-781.250000
3768		-781.250000
3769		-781.250000
3770		-781.250000
3771		-781.250000
3772		-781.250000
3773		-781.250000
3774		-781.250000
3775		-781.250000
3776		-781.250000
3777		-781.250000
3778		-781.250000
3779		-781.250000
3780		-781.250000
3781		-781.250000
3782		-781.250000
3783		-781.250000
3784		-781.250000
3785		-781.250000
3786		-781.250000
3787		-781.250000
3788		-781.250000
3789		-781.250000
3790		-781.250000
3791		-781.250000
3792		-781.250000
3793		-781.250000
3794		-781.250000
3795		-781.250000
3796		-781.250000
3797		-781.250000
3798		-781.250000
3799		-781.250000
3800		-781.250000
3801		-781.250000
3802		-781.250000
3803		-781.250000
3804		-781.250000
3805		-781.250000
3806		-781.250000
3807		-781.250000
3808		-781.250000
3809		-742.187500
3810		-742.187500
3811		-742.187500
3812		-742.187500
3813		-742.187500
3814		-742.187500
3815		-742.187500
3816		-742.187500
3817		-742.187500
3818		-742.187500
3819		-742.187500
3820		-742.187500
3821		-742.187500
3822		-742.187500
3823		-781.250000
3824		-742.187500
3825		-742.187500
3826		-742.187500
3827		-742.187500
3828		-742.187500
3829		-742.187500
3830		-742.187500
3831		-742.187500
3832		-742.187500
3833		-742.187500
3834		-742.187500
3835		-742.187500
3836		-742.187500
3837		-742.187500
3838		-742.187500
3839		-742.187500
3840		-742.187500
3841		-742.187500
3842		-742.187500
3843		-742.187500
3844		-742.187500
3845		-742.187500
3846		-703.125000
3847		-742.187500
3848		-703.125000
3849		-703.125000
3850		-703.125000
3851		-703.125000
3852		-703.125000
3853		-703.125000
3854		-703.125000
3855		-703.125000
3856		-703.125000
3857		-703.125000
3858		-703.125000
3859		-703.125000
3860		-703.125000
3861		-703.125000
3862		-703.125000
3863		-703.125000
3864		-703.125000
3865		-703.125000
3866		-703.125000
3867		-703.125000
3868		-703.125000
3869		-703.125000
3870		-703.125000
3871		-703.125000
3872		-703.125000
3873		-703.125000
3874		-703.125000
3875		-703.125000
3876		-703.125000
3877		-703.125000
3878		-703.125000
3879		-703.125000
3880		-703.125000
3881		-664.062500
3882		-664.062500
3883		-664.062500
3884		-664.062500
3885		-664.062500
3886		-664.062500
3887		-664.062500
3888		-664.062500
3889		-664.062500
3890		-664.062500
3891		-664.062500
3892		-664.062500
3893		-664.062500
3894		-664.062500
3895		-664.062500
3896		-664.062500
3897		-664.062500
3898		-664.062500
3899		-664.062500
3900		-664.062500
3901		-664.062500
3902		-625.000000
3903		-664.062500
3904		-664.062500
3905		-625.000000
3906		-664.062500
3907		-664.062500
3908		-625.000000
3909		-625.000000
3910		-625.000000
3911		-625.000000
3912		-625.000000
3913		-625.000000
3914		-625.000000
3915		-625.000000
3916		-625.000000
3917		-625.000000
3918		-625.000000
3919		-625.000000
3920		-625.000000
3921		-625.000000
3922		-625.000000
3923		-625.000000
3924		-664.062500
3925		-625.000000
3926		-625.000000
3927		-625.000000
3928		-585.937500
3929		-585.937500
3930		-585.937500
3931		-585.937500
3932		-585.937500
3933		-585.937500
3934		-585.937500
3935		-585.937500
3936		-585.937500
3937		-585.937500
3938		-585.937500
3939		-585.937500
3940		-585.937500
3941		-585.937500
3942		-585.937500
3943		-585.937500
3944		-585.937500
3945		-585.937500
3946		-585.937500
3947		-546.875000
3948		-546.875000
3949		-546.875000
3950		-546.875000
3951		-546.875000
3952		-546.875000
3953		-546.875000
3954		-546.875000
3955		-546.875000
3956		-546.875000
3957		-546.875000
3958		-546.875000
3959		-546.875000
3960		-546.875000
3961		-546.875000
3962		-546.875000
3963		-546.875000
3964		-507.812500
3965		-507.812500
3966		-507.812500
3967		-507.812500
3968		-507.812500
3969		-507.812500
3970		-507.812500
3971		-507.812500
3972		-507.812500
3973		-507.812500
3974		-507.812500
3975		-468.750000
3976		-507.812500
3977		-468.750000
3978		-468.750000
3979		-507.812500
3980		-468.750000
3981		-468.750000
3982		-468.750000
3983		-468.750000
3984		-468.750000
3985		-468.750000
3986		-468.750000
3987		-468.750000
3988		-468.750000
3989		-468.750000
3990		-468.750000
3991		-429.687500
3992		-429.687500
3993		-429.687500
3994		-429.687500
3995		-429.687500
3996		-429.687500
3997		-429.687500
3998		-429.687500
3999		-429.687500
4000		-429.687500
4001		-429.687500
4002		-429.687500
4003		-429.687500
4004		-429.687500
4005		-429.687500
4006		-390.625000
4007		-390.625000
4008		-390.625000
4009		-390.625000
4010		-390.625000
4011		-390.625000
4012		-390.625000
4013		-390.625000
4014		-390.625000
4015		-390.625000
4016		-390.625000
4017		-390.625000
4018		-390.625000
4019		-390.625000
4020		-351.562500
4021		-351.562500
4022		-351.562500
4023		-351.562500
4024		-351.562500
4025		-351.562500
4026		-351.562500
4027		-351.562500
4028		-351.562500
4029		-312.500000
4030		-312.500000
4031		-312.500000
4032		-312.500000
4033		-312.500000
4034		-312.500000
4035		-312.500000
4036		-312.500000
4037		-312.500000
4038		-312.500000
4039		-312.500000
4040		-312.500000
4041		-312.500000
4042		-273.437500
4043		-273.437500
4044		-273.437500
4045		-273.437500
4046		-273.437500
4047		-273.437500
4048		-273.437500
4049		-273.437500
4050		-273.437500
4051		-273.437500
4052		-234.375000
4053		-234.375000
4054		-234.375000
4055		-234.375000
4056		-234.375000
4057		-234.375000
4058		-234.375000
4059		-234.375000
4060		-234.375000
4061		-234.375000
4062		-195.312500
4063		-195.312500
4064		-195.312500
4065		-195.312500
4066		-195.312500
4067		-195.312500
4068		-195.312500
4069		-195.312500
4070		-195.312500
4071		-195.312500
4072		-195.312500
4073		-156.250000
4074		-156.250000
4075		-156.250000
4076		-156.250000
4077		-156.250000
4078		-156.250000
4079		-156.250000
4080		-156.250000
4081		-156.250000
4082		-117.187500
4083		-117.187500
4084		-117.187500
4085		-117.187500
4086		-117.187500
4087		-117.187500
4088		-117.187500
4089		-117.187500
4090		-117.187500
4091		-117.187500
4092		-78.125000
4093		-78.125000
4094		-78.125000
4095		-78.125000
4096		-78.125000
4097		-78.125000
4098		-39.062500
4099		-39.062500
4100		-39.062500
4101		-39.062500
4102		-39.062500
4103		-39.062500
4104		-39.062500
4105		-39.062500
4106		-39.062500
4107		-39.062500
4108		-39.062500
4109		0.000000
4110		0.000000
4111		0.000000
4112		0.000000
4113		0.000000
4114		0.000000
4115		39.062500
4116		39.062500
4117		39.062500
4118		39.062500
4119		39.062500
4120		39.062500
4121		39.062500
4122		39.062500
4123		39.062500
4124		78.125000
4125		78.125000
4126		78.125000
4127		78.125000
4128		78.125000
4129		78.125000
4130		78.125000
4131		117.187500
4132		117.187500
4133		117.187500
4134		117.187500
4135		117.187500
4136		117.187500
4137		117.187500
4138		117.187500
4139		156.250000
4140		156.250000
4141		156.250000
4142		156.250000
4143		156.250000
4144		156.250000
4145		156.250000
4146		156.250000
4147		156.250000
4148		195.312500
4149		195.312500
4150		195.312500
4151		195.312500
4152		234.375000
4153		234.375000
4154		234.375000
4155		234.375000
4156		234.375000
4157		234.375000
4158		234.375000
4159		234.375000
4160		234.375000
4161		234.375000
4162		234.375000
4163		273.437500
4164		273.437500
4165		273.437500
4166		273.437500
4167		273.437500
4168		312.500000
4169		312.500000
4170		312.500000
4171		312.500000
4172		312.500000
4173		351.562500
4174		351.562500
4175		351.562500
4176		351.562500
4177		351.562500
4178		351.562500
4179		351.562500
4180		351.562500
4181		351.562500
4182		390.625000
4183		390.625000
4184		390.625000
4185		390.625000
4186		390.625000
4187		429.687500
4188		429.687500
4189		429.687500
4190		429.687500
4191		429.687500
4192		429.687500
4193		468.750000
4194		468.750000
4195		468.750000
4196		468.750000
4197		468.750000
4198		468.750000
4199		468.750000
4200		468.750000
4201		507.812500
4202		507.812500
4203		507.812500
4204		507.812500
4205		507.812500
4206		546.875000
4207		546.875000
4208		546.875000
4209		546.875000
4210		546.875000
4211		546.875000
4212		546.875000
4213		585.937500
4214		585.937500
4215		585.937500
4216		585.937500
4217		585.937500
4218		585.937500
4219		625.000000
4220		625.000000
4221		625.000000
4222		625.000000
4223		625.000000
4224		625.000000
4225		664.062500
4226		664.062500
4227		664.062500
4228		664.062500
4229		664.062500
4230		664.062500
4231		703.125000
4232		703.125000
4233		703.125000
4234		703.125000
4235		703.125000
4236		703.125000
4237		742.187500
4238		742.187500
4239		742.187500
4240		742.187500
4241		742.187500
4242		742.187500
4243		781.250000
4244		781.250000
4245		781.250000
4246		781.250000
4247		781.250000
4248		781.250000
4249		820.312500
4250		820.312500
4251		820.312500
4252		820.312500
4253		820.312500
4254		820.312500
4255		859.375000
4256		859.375000
4257		859.375000
4258		859.375000
4259		898.437500
4260		859.375000
4261		898.437500
4262		898.437500
4263		898.437500
4264		898.437500
4265		898.437500
4266		898.437500
4267		937.500000
4268		937.500000
4269		937.500000
4270		937.500000
4271		937.500000
4272		976.562500
4273		976.562500
4274		976.562500
4275		976.562500
4276		976.562500
4277		976.562500
4278		976.562500
4279		1015.625000
4280		1015.625000
4281		1015.625000
4282		1015.625000
4283		1015.625000
4284		1015.625000
4285		1054.687500
4286		1054.687500
4287		1054.687500
4288		1054.687500
4289		1054.687500
4290		1054.687500
4291		1093.750000
4292		1093.750000
4293		1093.750000
4294		1093.750000
4295		1093.750000
4296		1132.812500
4297		1132.812500
4298		1132.812500
4299		1132.812500
4300		1132.812500
4301		1132.812500
4302		1132.812500
4303		1132.812500
4304		1171.875000
4305		1171.875000
4306		1171.875000
4307		1171.875000
4308		1171.875000
4309		1210.937500
4310		1210.937500
4311		1210.937500
4312		1210.937500
4313		1210.937500
4314		1210.937500
4315		1210.937500
4316		1250.000000
4317		1250.000000
4318		1250.000000
4319		1250.000000
4320		1250.000000
4321		1250.000000
4322		1250.000000
4323		1250.000000
4324		1289.062500
4325		1289.062500
4326		1289.062500
4327		1289.062500
4328		1328.125000
4329		1328.125000
4330		1328.125000
4331		1328.125000
4332		1328.125000
4333		1367.187500
4334		1367.187500
4335		1367.187500
4336		1367.187500
4337		1367.187500
4338		1367.187500
4339		1367.187500
4340		1367.187500
4341		1367.187500
4342		1367.187500
4343		1406.250000
4344		1406.250000
4345		1406.250000
4346		1406.250000
4347		1445.312500
4348		1445.312500
4349		1445.312500
4350		1445.312500
4351		1445.312500
4352		1445.312500
4353		1484.375000
4354		1484.375000
4355		1484.375000
4356		1484.375000
4357		1484.375000
4358		1484.375000
4359		1484.375000
4360		1484.375000
4361		1484.375000
4362		1523.437500
4363		1484.375000
4364		1523.437500
4365		1523.437500
4366		1523.437500
4367		1523.437500
4368		1562.500000
4369		1562.500000
4370		1562.500000
4371		1562.500000
4372		1562.500000
4373		1562.500000
4374		1562.500000
4375		1562.500000
4376		1562.500000
4377		1601.562500
4378		1562.500000
4379		1601.562500
4380		1601.562500
4381		1601.562500
4382		1601.562500
4383		1601.562500
4384		1601.562500
4385		1601.562500
4386		1640.625000
4387		1640.625000
4388		1640.625000
4389		1640.625000
4390		1640.625000
4391		1640.625000
4392		1679.687500
4393		1640.625000
4394		1679.687500
4395		1679.687500
4396		1679.687500
4397		1679.687500
4398		1679.687500
4399		1679.687500
4400		1679.687500
4401		1679.687500
4402		1679.687500
4403		1718.750000
4404		1718.750000
4405		1718.750000
4406		1718.750000
4407		1718.750000
4408		1718.750000
4409		1718.750000
4410		1757.812500
4411		1718.750000
4412		1757.812500
4413		1757.812500
4414		1757.812500
4415		1757.812500
4416		1757.812500
4417		1757.812500
4418		1757.812500
4419		1757.812500
4420		1757.812500
4421		1757.812500
4422		1757.812500
4423		1796.875000
4424		1796.875000
4425		1796.875000
4426		1796.875000
4427		1796.875000
4428		1796.875000
4429		1796.875000
4430		1796.875000
4431		1796.875000
4432		1796.875000
4433		1835.937500
4434		1835.937500
4435		1835.937500
4436		1835.937500
4437		1835.937500
4438		1835.937500
4439		1835.937500
4440		1835.937500
4441		1835.937500
4442		1835.937500
4443		1835.937500
4444		1835.937500
4445		1875.000000
4446		1875.000000
4447		1875.000000
4448		1875.000000
4449		1875.000000
4450		1875.000000
4451		1875.000000
4452		1875.000000
4453		1875.000000
4454		1875.000000
4455		1875.000000
4456		1875.000000
4457		1875.000000
4458		1875.000000
4459		1875.000000
4460		1875.000000
4461		1875.000000
4462		1875.000000
4463		1914.062500
4464		1875.000000
4465		1914.062500
4466		1914.062500
4467		1914.062500
4468		1914.062500
4469		1914.062500
4470		1914.062500
4471		1914.062500
4472		1914.062500
4473		1914.062500
4474		1914.062500
4475		1914.062500
4476		1914.062500
4477		1914.062500
4478		1914.062500
4479		1914.062500
4480		1914.062500
4481		1914.062500
4482		1914.062500
4483		1914.062500
4484		1914.062500
4485		1914.062500
4486		1953.125000
4487		1953.125000
4488		1953.125000
4489		1953.125000
4490		1953.125000
4491		1953.125000
4492		1953.125000
4493		1953.125000
4494		1953.125000
4495		1953.125000
4496		1953.125000
4497		1953.125000
4498		1914.062500
4499		1953.125000
4500		1953.125000
4501		1953.125000
4502		1953.125000
4503		1953.125000
4504		1953.125000
4505		1953.125000
4506		1953.125000
4507		1953.125000
4508		1953.125000
4509		1953.125000
4510		1953.125000
4511		1953.125000
4512		1953.125000
4513		1953.125000
4514		1953.125000
4515		1953.125000
4516		1953.125000
4517		1953.125000
4518		1953.125000
4519		1953.125000
4520		1953.125000
4521		1953.125000
4522		1953.125000
4523		1953.125000
4524		1953.125000
4525		1953.125000
4526		1953.125000
4527		1953.125000
4528		1953.125000
4529		1953.125000
4530		1953.125000
4531		1953.125000
4532		1953.125000
4533		1953.125000
4534		1953.125000
4535		1953.125000
4536		1953.125000
4537		1953.125000
4538		1953.125000
4539		1953.125000
4540		1953.125000
4541		1914.062500
4542		1953.125000
4543		1914.062500
4544		1914.062500
4545		1914.062500
4546		1914.062500
4547		1914.062500
4548		1953.125000
4549		1953.125000
4550		1953.125000
4551		1914.062500
4552		1914.062500
4553		1914.062500
4554		1914.062500
4555		1914.062500
4556		1914.062500
4557		1914.062500
4558		1914.062500
4559		1914.062500
4560		1914.062500
4561		1914.062500
4562		1914.062500
4563		1914.062500
4564		1914.062500
4565		1914.062500
4566		1914.062500
4567		1914.062500
4568		1914.062500
4569		1914.062500
4570		1914.062500
4571		1914.062500
4572		1953.125000
4573		1875.000000
4574		1875.000000
4575		1875.000000
4576		1875.000000
4577		1875.000000
4578		1875.000000
4579		1875.000000
4580		1875.000000
4581		1875.000000
4582		1875.000000
4583		1835.937500
4584		1875.000000
4585		1875.000000
4586		1835.937500
4587		1875.000000
4588		1875.000000
4589		1835.937500
4590		1835.937500
4591		1835.937500
4592		1835.937500
4593		1835.937500
4594		1835.937500
4595		1835.937500
4596		1835.937500
4597		1796.875000
4598		1796.875000
4599		1796.875000
4600		1796.875000
4601		1796.875000
4602		1796.875000
4603		1796.875000
4604		1757.812500
4605		1796.875000
4606		1796.875000
4607		1796.875000
4608		1796.875000
4609		1796.875000
4610		1796.875000
4611		1757.812500
4612		1757.812500
4613		1757.812500
4614		1757.812500
4615		1757.812500
4616		1757.812500
4617		1757.812500
4618		1796.875000
4619		1757.812500
4620		1757.812500
4621		1718.750000
4622		1718.750000
4623		1718.750000
4624		1718.750000
4625		1718.750000
4626		1718.750000
4627		1718.750000
4628		1718.750000
4629		1718.750000
4630		1718.750000
4631		1679.687500
4632		1718.750000
4633		1679.687500
4634		1679.687500
4635		1679.687500
4636		1679.687500
4637		1679.687500
4638		1679.687500
4639		1640.625000
4640		1640.625000
4641		1679.687500
4642		1640.625000
4643		1640.625000
4644		1640.625000
4645		1640.625000
4646		1640.625000
4647		1640.625000
4648		1601.562500
4649		1601.562500
4650		1601.562500
4651		1601.562500
4652		1601.562500
4653		1601.562500
4654		1601.562500
4655		1601.562500
4656		1601.562500
4657		1601.562500
4658		1562.500000
4659		1562.500000
4660		1562.500000
4661		1562.500000
4662		1562.500000
4663		1562.500000
4664		1562.500000
4665		1523.437500
4666		1523.437500
4667		1523.437500
4668		1523.437500
4669		1523.437500
4670		1523.437500
4671		1523.437500
4672		1523.437500
4673		1484.375000
4674		1484.375000
4675		1484.375000
4676		1484.375000
4677		1484.375000
4678		1484.375000
4679		1484.375000
4680		1484.375000
4681		1445.312500
4682		1445.312500
4683		1445.312500
4684		1445.312500
4685		1406.250000
4686		1445.312500
4687		1406.250000
4688		1406.250000
4689		1406.250000
4690		1406.250000
4691		1406.250000
4692		1406.250000
4693		1406.250000
4694		1406.250000
4695		1406.250000
4696		1367.187500
4697		1367.187500
4698		1367.187500
4699		1367.187500
4700		1367.187500
4701		1328.125000
4702		1328.125000
4703		1328.125000
4704		1328.125000
4705		1328.125000
4706		1328.125000
4707		1289.062500
4708		1289.062500
4709		1289.062500
4710		1289.062500
4711		1289.062500
4712		1289.062500
4713		1289.062500
4714		1289.062500
4715		1289.062500
4716		1250.000000
4717		1250.000000
4718		1250.000000
4719		1250.000000
4720		1210.937500
4721		1210.937500
4722		1210.937500
4723		1210.937500
4724		1210.937500
4725		1210.937500
4726		1171.875000
4727		1210.937500
4728		1171.875000
4729		1171.875000
4730		1171.875000
4731		1171.875000
4732		1171.875000
4733		1171.875000
4734		1171.875000
4735		1132.812500
4736		1132.812500
4737		1132.812500
4738		1132.812500
4739		1132.812500
4740		1093.750000
4741		1093.750000
4742		1093.750000
4743		1093.750000
4744		1093.750000
4745		1093.750000
4746		1054.687500
4747		1054.687500
4748		1054.687500
4749		1054.687500
4750		1054.687500
4751		1054.687500
4752		1054.687500
4753		1054.687500
4754		1015.625000
4755		1015.625000
4756		1015.625000
4757		1015.625000
4758		976.562500
4759		976.562500
4760		976.562500
4761		976.562500
4762		976.562500
4763		976.562500
4764		976.562500
4765		976.562500
4766		937.500000
4767		937.500000
4768		937.500000
4769		937.500000
4770		937.500000
4771		937.500000
4772		937.500000
4773		937.500000
4774		898.437500
4775		898.437500
4776		898.437500
4777		898.437500
4778		859.375000
4779		859.375000
4780		859.375000
4781		859.375000
4782		859.375000
4783		859.375000
4784		859.375000
4785		820.312500
4786		820.312500
4787		820.312500
4788		820.312500
4789		820.312500
4790		820.312500
4791		820.312500
4792		781.250000
4793		781.250000
4794		781.250000
4795		781.250000
4796		742.187500
4797		742.187500
4798		742.187500
4799		742.187500
4800		742.187500
4801		742.187500
4802		742.187500
4803		742.187500
4804		742.187500
4805		703.125000
4806		703.125000
4807		703.125000
4808		703.125000
4809		703.125000
4810		703.125000
4811		664.062500
4812		664.062500
4813		664.062500
4814		664.062500
4815		664.062500
4816		664.062500
4817		625.000000
4818		625.000000
4819		625.000000
4820		625.000000
4821		625.000000
4822		625.000000
4823		625.000000
4824		585.937500
4825		585.937500
4826		585.937500
4827		585.937500
4828		585.937500
4829		585.937500
4830		546.875000
4831		585.937500
4832		546.875000
4833		546.875000
4834		546.875000
4835		546.875000
4836		546.875000
4837		546.875000
4838		507.812500
4839		507.812500
4840		507.812500
4841		507.812500
4842		507.812500
4843		507.812500
4844		468.750000
4845		468.750000
4846		468.750000
4847		468.750000
4848		468.750000
4849		468.750000
4850		468.750000
4851		429.687500
4852		429.687500
4853		429.687500
4854		429.687500
4855		429.687500
4856		429.687500
4857		429.687500
4858		429.687500
4859		390.625000
4860		390.625000
4861		390.625000
4862		390.625000
4863		390.625000
4864		390.625000
4865		351.562500
4866		351.562500
4867		351.562500
4868		351.562500
4869		351.562500
4870		351.562500
4871		351.562500
4872		351.562500
4873		312.500000
4874		312.500000
4875		312.500000
4876		312.500000
4877		312.500000
4878		312.500000
4879		312.500000
4880		273.437500
4881		273.437500
4882		273.437500
4883		273.437500
4884		273.437500
4885		273.437500
4886		273.437500
4887		234.375000
4888		234.375000
4889		234.375000
4890		234.375000
4891		234.375000
4892		234.375000
4893		234.375000
4894		234.375000
4895		234.375000
4896		234.375000
4897		195.312500
4898		195.312500
4899		195.312500
4900		195.312500
4901		195.312500
4902		156.250000
4903		156.250000
4904		156.250000
4905		156.250000
4906		156.250000
4907		156.250000
4908		156.250000
4909		156.250000
4910		156.250000
4911		156.250000
4912		117.187500
4913		117.187500
4914		117.187500
4915		117.187500
4916		117.187500
4917		117.187500
4918		117.187500
4919		78.125000
4920		117.187500
4921		78.125000
4922		78.125000
4923		78.125000
4924		78.125000
4925		78.125000
4926		78.125000
4927		78.125000
4928		78.125000
4929		78.125000
4930		39.062500
4931		39.062500
4932		39.062500
4933		39.062500
4934		39.062500
4935		39.062500
4936		39.062500
4937		0.000000
4938		0.000000
4939		0.000000
4940		0.000000
4941		0.000000
4942		0.000000
4943		0.000000
4944		0.000000
4945		-39.062500
4946		0.000000
4947		-39.062500
4948		-39.062500
4949		-39.062500
4950		-39.062500
4951		-39.062500
4952		-39.062500
4953		-39.062500
4954		-39.062500
4955		-39.062500
4956		-78.125000
4957		-78.125000
4958		-78.125000
4959		-78.125000
4960		-78.125000
4961		-78.125000
4962		-78.125000
4963		-78.125000
4964		-78.125000
4965		-78.125000
4966		-117.187500
4967		-78.125000
4968		-117.187500
4969		-117.187500
4970		-117.187500
4971		-117.187500
4972		-117.187500
4973		-117.187500
4974		-117.187500
4975		-117.187500
4976		-156.250000
4977		-156.250000
4978		-156.250000
4979		-156.250000
4980		-156.250000
4981		-156.250000
4982		-156.250000
4983		-156.250000
4984		-156.250000
4985		-156.250000
4986		-156.250000
4987		-195.312500
4988		-156.250000
4989		-195.312500
4990		-195.312500
4991		-195.312500
4992		-195.312500
4993		-195.312500
4994		-195.312500
4995		-195.312500
4996		-234.375000
4997		-234.375000
4998		-234.375000
4999		-234.375000
5000		-234.375000
5001		-234.375000
5002		-234.375000
5003		-234.375000
5004		-234.375000
5005		-234.375000
5006		-234.375000
5007		-234.375000
5008		-234.375000
5009		-234.375000
5010		-273.437500
5011		-273.437500
5012		-273.437500
5013		-273.437500
5014		-273.437500
5015		-273.437500
5016		-273.437500
5017		-273.437500
5018		-273.437500
5019		-273.437500
5020		-312.500000
5021		-273.437500
5022		-312.500000
5023		-312.500000
5024		-312.500000
5025		-312.500000
5026		-312.500000
5027		-312.500000
5028		-312.500000
5029		-312.500000
5030		-312.500000
5031		-312.500000
5032		-312.500000
5033		-312.500000
5034		-351.562500
5035		-351.562500
5036		-351.562500
5037		-351.562500
5038		-351.562500
5039		-351.562500
5040		-351.562500
5041		-351.562500
5042		-351.562500
5043		-351.562500
5044		-351.562500
5045		-351.562500
5046		-390.625000
5047		-390.625000
5048		-390.625000
5049		-390.625000
5050		-390.625000
5051		-390.625000
5052		-390.625000
5053		-390.625000
5054		-390.625000
5055		-390.625000
5056		-390.625000
5057		-390.625000
5058		-390.625000
5059		-390.625000
5060		-390.625000
5061		-429.687500
5062		-429.687500
5063		-429.687500
5064		-429.687500
5065		-429.687500
5066		-429.687500
5067		-429.687500
5068		-429.687500
5069		-429.687500
5070		-429.687500
5071		-429.687500
5072		-429.687500
5073		-468.750000
5074		-429.687500
5075		-429.687500
5076		-429.687500
5077		-429.687500
5078		-468.750000
5079		-468.750000
5080		-468.750000
5081		-468.750000
5082		-468.750000
5083		-468.750000
5084		-468.750000
5085		-468.750000
5086		-468.750000
5087		-468.750000
5088		-468.750000
5089		-468.750000
5090		-468.750000
5091		-468.750000
5092		-468.750000
5093		-468.750000
5094		-507.812500
5095		-507.812500
5096		-507.812500
5097		-507.812500
5098		-507.812500
5099		-507.812500
5100		-507.812500
5101		-507.812500
5102		-507.812500
5103		-507.812500
5104		-507.812500
5105		-507.812500
5106		-507.812500
5107		-507.812500
5108		-507.812500
5109		-507.812500
5110		-507.812500
5111		-546.875000
5112		-546.875000
5113		-546.875000
5114		-546.875000
5115		-546.875000
5116		-546.875000
5117		-546.875000
5118		-546.875000
5119		-546.875000
5120		-546.875000
5121		-546.875000
5122		-546.875000
5123		-546.875000
5124		-546.875000
5125		-546.875000
5126		-546.875000
5127		-546.875000
5128		-546.875000
5129		-546.875000
5130		-546.875000
5131		-546.875000
5132		-546.875000
5133		-585.937500
5134		-585.937500
5135		-585.937500
5136		-585.937500
5137		-585.937500
5138		-585.937500
5139		-585.937500
5140		-585.937500
5141		-585.937500
5142		-585.937500
5143		-585.937500
5144		-585.937500
5145		-585.937500
5146		-585.937500
5147		-585.937500
5148		-585.937500
5149		-585.937500
5150		-585.937500
5151		-585.937500
5152		-625.000000
5153		-625.000000
5154		-625.000000
5155		-625.000000
5156		-625.000000
5157		-625.000000
5158		-625.000000
5159		-625.000000
5160		-625.000000
5161		-625.000000
5162		-625.000000
5163		-625.000000
5164		-625.000000
5165		-625.000000
5166		-625.000000
5167		-625.000000
5168		-625.000000
5169		-625.000000
5170		-625.000000
5171		-664.062500
5172		-625.000000
5173		-664.062500
5174		-664.062500
5175		-664.062500
5176		-664.062500
5177		-664.062500
5178		-664.062500
5179		-664.062500
5180		-664.062500
5181		-664.062500
5182		-664.062500
5183		-664.062500
5184		-664.062500
5185		-664.062500
5186		-664.062500
5187		-664.062500
5188		-664.062500
5189		-664.062500
5190		-664.062500
5191		-664.062500
5192		-664.062500
5193		-664.062500
5194		-703.125000
5195		-664.062500
5196		-703.125000
5197		-664.062500
5198		-703.125000
5199		-703.125000
5200		-703.125000
5201		-703.125000
5202		-703.125000
5203		-703.125000
5204		-703.125000
5205		-703.125000
5206		-703.125000
5207		-703.125000
5208		-703.125000
5209		-703.125000
5210		-703.125000
5211		-703.125000
5212		-703.125000
5213		-703.125000
5214		-703.125000
5215		-703.125000
5216		-703.125000
5217		-703.125000
5218		-703.125000
5219		-703.125000
5220		-703.125000
5221		-703.125000
5222		-703.125000
5223		-703.125000
5224		-703.125000
5225		-703.125000
5226		-703.125000
5227		-703.125000
5228		-703.125000
5229		-703.125000
5230		-703.125000
5231		-703.125000
5232		-742.187500
5233		-703.125000
5234		-703.125000
5235		-742.187500
5236		-742.187500
5237		-742.187500
5238		-742.187500
5239		-742.187500
5240		-742.187500
5241		-742.187500
5242		-742.187500
5243		-742.187500
5244		-742.187500
5245		-742.187500
5246		-742.187500
5247		-742.187500
5248		-742.187500
5249		-742.187500
5250		-742.187500
5251		-742.187500
5252		-742.187500
5253		-742.187500
5254		-742.187500
5255		-742.187500
5256		-742.187500
5257		-742.187500
5258		-742.187500
5259		-742.187500
5260		-742.187500
5261		-742.187500
5262		-742.187500
5263		-742.187500
5264		-742.187500
5265		-781.250000
5266		-742.187500
5267		-742.187500
5268		-742.187500
5269		-781.250000
5270		-742.187500
5271		-742.187500
5272		-781.250000
5273		-742.187500
5274		-742.187500
5275		-742.187500
5276		-742.187500
5277		-742.187500
5278		-742.187500
5279		-781.250000
5280		-781.250000
5281		-781.250000
5282		-781.250000
5283		-781.250000
5284		-781.250000
5285		-781.250000
5286		-781.250000
5287		-781.250000
5288		-781.250000
5289		-742.187500
5290		-742.187500
5291		-742.187500
5292		-742.187500
5293		-781.250000
5294		-742.187500
5295		-742.187500
5296		-781.250000
5297		-781.250000
5298		-781.250000
5299		-781.250000
5300		-781.250000
5301		-781.250000
5302		-781.250000
5303		-781.250000
5304		-781.250000
5305		-781.250000
5306		-781.250000
5307		-781.250000
5308		-781.250000
5309		-781.250000
5310		-781.250000
5311		-781.250000
5312		-781.250000
5313		-781.250000
5314		-781.250000
5315		-781.250000
5316		-781.250000
5317		-781.250000
5318		-781.250000
5319		-781.250000
5320		-781.250000
5321		-781.250000
5322		-781.250000
5323		-781.250000
5324		-781.250000
5325		-781.250000
5326		-781.250000
5327		-781.250000
5328		-781.250000
5329		-781.250000
5330		-781.250000
5331		-781.250000
5332		-781.250000
5333		-781.250000
5334		-781.250000
5335		-781.250000
5336		-781.250000
5337		-781.250000
5338		-781.250000
5339		-781.250000
5340		-781.250000
5341		-781.250000
5342		-781.250000
5343		-781.250000
5344		-781.250000
5345		-781.250000
5346		-781.250000
5347		-781.250000
5348		-781.250000
5349		-781.250000
5350		-781.250000
5351		-781.250000
5352		-781.250000
5353		-781.250000
5354		-781.250000
5355		-781.250000
5356		-781.250000
5357		-781.250000
5358		-781.250000
5359		-781.250000
5360		-781.250000
5361		-781.250000
5362		-781.250000
5363		-781.250000
5364		-781.250000
5365		-781.250000
5366		-781.250000
5367		-781.250000
5368		-781.250000
5369		-781.250000
5370		-781.250000
5371		-781.250000
5372		-781.250000
5373		-781.250000
5374		-781.250000
5375		-781.250000
5376		-781.250000
5377		-781.250000
5378		-781.250000
5379		-781.250000
5380		-781.250000
5381		-781.250000
5382		-781.250000
5383		-781.250000
5384		-781.250000
5385		-781.250000
5386		-781.250000
5387		-781.250000
5388		-781.250000
5389		-781.250000
5390		-781.250000
5391		-781.250000
5392		-781.250000
5393		-781.250000
5394		-781.250000
5395		-781.250000
5396		-781.250000
5397		-781.250000
5398		-781.250000
5399		-781.250000
5400		-781.250000
5401		-781.250000
5402		-781.250000
5403		-781.250000
5404		-781.250000
5405		-781.250000
5406		-781.250000
5407		-781.250000
5408		-781.250000
5409		-781.250000
5410		-781.250000
5411		-781.250000
5412		-781.250000
5413		-781.250000
5414		-781.250000
5415		-742.187500
5416		-781.250000
5417		-781.250000
5418		-781.250000
5419		-781.250000
5420		-781.250000
5421		-781.250000
5422		-781.250000
5423		-781.250000
5424		-742.187500
5425		-781.250000
5426		-781.250000
5427		-781.250000
5428		-781.250000
5429		-781.250000
5430		-781.250000
5431		-781.250000
5432		-781.250000
5433		-742.187500
5434		-742.187500
5435		-742.187500
5436		-742.187500
5437		-742.187500
5438		-742.187500
5439		-742.187500
5440		-742.187500
5441		-742.187500
5442		-742.187500
5443		-742.187500
5444		-742.187500
5445		-742.187500
5446		-742.187500
5447		-742.187500
5448		-742.187500
5449		-742.187500
5450		-742.187500
5451		-742.187500
5452		-742.187500
5453		-742.187500
5454		-742.187500
5455		-742.187500
5456		-742.187500
5457		-742.187500
5458		-742.187500
5459		-742.187500
5460		-742.187500
5461		-742.187500
5462		-742.187500
5463		-742.187500
5464		-742.187500
5465		-742.187500
5466		-742.187500
5467		-742.187500
5468		-742.187500
5469		-742.187500
5470		-742.187500
5471		-742.187500
5472		-742.187500
5473		-742.187500
5474		-703.125000
5475		-742.187500
5476		-742.187500
5477		-742.187500
5478		-742.187500
5479		-742.187500
5480		-742.187500
5481		-742.187500
5482		-742.187500
5483		-742.187500
5484		-742.187500
5485		-742.187500
5486		-703.125000
5487		-703.125000
5488		-742.187500
5489		-703.125000
5490		-703.125000
5491		-703.125000
5492		-703.125000
5493		-703.125000
5494		-703.125000
5495		-703.125000
5496		-703.125000
5497		-703.125000
5498		-703.125000
5499		-703.125000
5500		-703.125000
5501		-703.125000
5502		-742.187500
5503		-703.125000
5504		-703.125000
5505		-703.125000
5506		-703.125000
5507		-703.125000
5508		-703.125000
5509		-703.125000
5510		-664.062500
5511		-664.062500
5512		-664.062500
5513		-664.062500
5514		-664.062500
5515		-664.062500
5516		-664.062500
5517		-664.062500
5518		-703.125000
5519		-664.062500
5520		-664.062500
5521		-703.125000
5522		-664.062500
5523		-664.062500
5524		-664.062500
5525		-664.062500
5526		-703.125000
5527		-664.062500
5528		-664.062500
5529		-664.062500
5530		-664.062500
5531		-664.062500
5532		-664.062500
5533		-664.062500
5534		-664.062500
5535		-664.062500
5536		-664.062500
5537		-664.062500
5538		-664.062500
5539		-664.062500
5540		-664.062500
5541		-664.062500
5542		-664.062500
5543		-625.000000
5544		-625.000000
5545		-625.000000
5546		-625.000000
5547		-625.000000
5548		-625.000000
5549		-625.000000
5550		-625.000000
5551		-625.000000
5552		-625.000000
5553		-625.000000
5554		-625.000000
5555		-625.000000
5556		-625.000000
5557		-625.000000
5558		-625.000000
5559		-625.000000
5560		-625.000000
5561		-625.000000
5562		-625.000000
5563		-625.000000
5564		-625.000000
5565		-585.937500
5566		-585.937500
5567		-585.937500
5568		-585.937500
5569		-585.937500
5570		-585.937500
5571		-585.937500
5572		-585.937500
5573		-585.937500
5574		-585.937500
5575		-585.937500
5576		-585.937500
5577		-585.937500
5578		-585.937500
5579		-585.937500
5580		-585.937500
5581		-585.937500
5582		-546.875000
5583		-585.937500
5584		-546.875000
5585		-546.875000
5586		-546.875000
5587		-546.875000
5588		-546.875000
5589		-546.875000
5590		-546.875000
5591		-546.875000
5592		-546.875000
5593		-546.875000
5594		-546.875000
5595		-546.875000
5596		-546.875000
5597		-546.875000
5598		-546.875000
5599		-546.875000
5600		-546.875000
5601		-507.812500
5602		-507.812500
5603		-507.812500
5604		-507.812500
5605		-507.812500
5606		-507.812500
5607		-507.812500
5608		-507.812500
5609		-507.812500
5610		-507.812500
5611		-507.812500
5612		-507.812500
5613		-507.812500
5614		-507.812500
5615		-507.812500
5616		-507.812500
5617		-507.812500
5618		-468.750000
5619		-468.750000
5620		-468.750000
5621		-468.750000
5622		-468.750000
5623		-468.750000
5624		-468.750000
5625		-468.750000
5626		-468.750000
5627		-468.750000
5628		-468.750000
5629		-468.750000
5630		-468.750000
5631		-468.750000
5632		-468.750000
5633		-429.687500
5634		-429.687500
5635		-429.687500
5636		-429.687500
5637		-429.687500
5638		-429.687500
5639		-429.687500
5640		-429.687500
5641		-429.687500
5642		-429.687500
5643		-429.687500
5644		-429.687500
5645		-429.687500
5646		-429.687500
5647		-429.687500
5648		-390.625000
5649		-390.625000
5650		-390.625000
5651		-390.625000
5652		-390.625000
5653		-390.625000
5654		-390.625000
5655		-390.625000
5656		-390.625000
5657		-390.625000
5658		-390.625000
5659		-390.625000
5660		-390.625000
5661		-390.625000
5662		-351.562500
5663		-390.625000
5664		-351.562500
5665		-351.562500
5666		-351.562500
5667		-351.562500
5668		-351.562500
5669		-351.562500
5670		-351.562500
5671		-312.500000
5672		-312.500000
5673		-312.500000
5674		-312.500000
5675		-312.500000
5676		-312.500000
5677		-312.500000
5678		-312.500000
5679		-312.500000
5680		-312.500000
5681		-312.500000
5682		-312.500000
5683		-312.500000
5684		-312.500000
5685		-273.437500
5686		-273.437500
5687		-273.437500
5688		-273.437500
5689		-273.437500
5690		-273.437500
5691		-273.437500
5692		-273.437500
5693		-273.437500
5694		-273.437500
5695		-273.437500
5696		-273.437500
5697		-234.375000
5698		-273.437500
5699		-234.375000
5700		-234.375000
5701		-234.375000
5702		-234.375000
5703		-234.375000
5704		-234.375000
5705		-234.375000
5706		-234.375000
5707		-195.312500
5708		-195.312500
5709		-195.312500
5710		-195.312500
5711		-195.312500
5712		-156.250000
5713		-195.312500
5714		-195.312500
5715		-195.312500
5716		-195.312500
5717		-195.312500
5718		-156.250000
5719		-156.250000
5720		-156.250000
5721		-156.250000
5722		-156.250000
5723		-156.250000
5724		-156.250000
5725		-156.250000
5726		-156.250000
5727		-117.187500
5728		-117.187500
5729		-117.187500
5730		-117.187500
5731		-117.187500
5732		-117.187500
5733		-117.187500
5734		-117.187500
5735		-117.187500
5736		-117.187500
5737		-78.125000
5738		-78.125000
5739		-78.125000
5740		-78.125000
5741		-78.125000
5742		-78.125000
5743		-78.125000
5744		-78.125000
5745		-39.062500
5746		-39.062500
5747		-39.062500
5748		-39.062500
5749		-39.062500
5750		-39.062500
5751		-39.062500
5752		-39.062500
5753		-39.062500
5754		0.000000
5755		0.000000
5756		0.000000
5757		0.000000
5758		0.000000
5759		0.000000
5760		0.000000
5761		0.000000
5762		0.000000
5763		39.062500
5764		39.062500
5765		39.062500
5766		39.062500
5767		39.062500
5768		78.125000
5769		78.125000
5770		78.125000
5771		78.125000
5772		78.125000
5773		78.125000
5774		78.125000
5775		78.125000
5776		78.125000
5777		117.187500
5778		117.187500
5779		117.187500
5780		117.187500
5781		117.187500
5782		117.187500
5783		117.187500
5784		156.250000
5785		156.250000
5786		156.250000
5787		156.250000
5788		156.250000
5789		156.250000
5790		156.250000
5791		156.250000
5792		156.250000
5793		195.312500
5794		195.312500
5795		195.312500
5796		195.312500
5797		195.312500
5798		195.312500
5799		195.312500
5800		234.375000
5801		234.375000
5802		234.375000
5803		234.375000
5804		234.375000
5805		234.375000
5806		234.375000
5807		234.375000
5808		273.437500
5809		273.437500
5810		234.375000
5811		273.437500
5812		273.437500
5813		312.500000
5814		312.500000
5815		312.500000
5816		312.500000
5817		312.500000
5818		312.500000
5819		351.562500
5820		312.500000
5821		351.562500
5822		351.562500
5823		351.562500
5824		351.562500
5825		351.562500
5826		351.562500
5827		351.562500
5828		390.625000
5829		390.625000
5830		390.625000
5831		390.625000
5832		390.625000
5833		429.687500
5834		429.687500
5835		429.687500
5836		429.687500
5837		429.687500
5838		429.687500
5839		429.687500
5840		468.750000
5841		429.687500
5842		468.750000
5843		468.750000
5844		468.750000
5845		468.750000
5846		468.750000
5847		507.812500
5848		507.812500
5849		507.812500
5850		507.812500
5851		507.812500
5852		546.875000
5853		546.875000
5854		546.875000
5855		546.875000
5856		546.875000
5857		546.875000
5858		546.875000
5859		546.875000
5860		585.937500
5861		585.937500
5862		585.937500
5863		585.937500
5864		585.937500
5865		585.937500
5866		625.000000
5867		625.000000
5868		625.000000
5869		625.000000
5870		664.062500
5871		664.062500
5872		664.062500
5873		664.062500
5874		664.062500
5875		664.062500
5876		664.062500
5877		664.062500
5878		703.125000
5879		703.125000
5880		703.125000
5881		703.125000
5882		703.125000
5883		703.125000
5884		742.187500
5885		742.187500
5886		742.187500
5887		742.187500
5888		742.187500
5889		781.250000
5890		781.250000
5891		781.250000
5892		781.250000
5893		781.250000
5894		781.250000
5895		781.250000
5896		820.312500
5897		820.312500
5898		820.312500
5899		820.312500
5900		781.250000
5901		820.312500
5902		859.375000
5903		859.375000
5904		859.375000
5905		859.375000
5906		859.375000
5907		859.375000
5908		898.437500
5909		898.437500
5910		898.437500
5911		898.437500
5912		898.437500
5913		898.437500
5914		937.500000
5915		937.500000
5916		937.500000
5917		937.500000
5918		937.500000
5919		937.500000
5920		937.500000
5921		976.562500
5922		976.562500
5923		976.562500
5924		976.562500
5925		976.562500
5926		1015.625000
5927		1015.625000
5928		1015.625000
5929		1015.625000
5930		1015.625000
5931		1054.687500
5932		1054.687500
5933		1054.687500
5934		1054.687500
5935		1054.687500
5936		1054.687500
5937		1054.687500
5938		1093.750000
5939		1054.687500
5940		1093.750000
5941		1093.750000
5942		1093.750000
5943		1093.750000
5944		1132.812500
5945		1132.812500
5946		1132.812500
5947		1132.812500
5948		1132.812500
5949		1132.812500
5950		1171.875000
5951		1171.875000
5952		1171.875000
5953		1171.875000
5954		1171.875000
5955		1171.875000
5956		1171.875000
5957		1210.937500
5958		1210.937500
5959		1210.937500
5960		1210.937500
5961		1210.937500
5962		1210.937500
5963		1250.000000
5964		1250.000000
5965		1250.000000
5966		1250.000000
5967		1250.000000
5968		1289.062500
5969		1289.062500
5970		1289.062500
5971		1289.062500
5972		1289.062500
5973		1289.062500
5974		1289.062500
5975		1289.062500
5976		1289.062500
5977		1328.125000
5978		1328.125000
5979		1328.125000
5980		1328.125000
5981		1328.125000
5982		1367.187500
5983		1367.187500
5984		1367.187500
5985		1367.187500
5986		1367.187500
5987		1367.187500
5988		1406.250000
5989		1406.250000
5990		1406.250000
5991		1406.250000
5992		1406.250000
5993		1406.250000
5994		1406.250000
5995		1445.312500
5996		1445.312500
5997		1445.312500
5998		1445.312500
5999		1445.312500
6000		1445.312500
6001		1445.312500
6002		1445.312500
6003		1484.375000
6004		1484.375000
6005		1484.375000
6006		1484.375000
6007		1484.375000
6008		1484.375000
6009		1484.375000
6010		1523.437500
6011		1523.437500
6012		1523.437500
6013		1523.437500
6014		1523.437500
6015		1523.437500
6016		1523.437500
6017		1562.500000
6018		1562.500000
6019		1562.500000
6020		1562.500000
6021		1562.500000
6022		1562.500000
6023		1562.500000
6024		1523.437500
6025		1562.500000
6026		1601.562500
6027		1601.562500
6028		1601.562500
6029		1601.562500
6030		1601.562500
6031		1601.562500
6032		1601.562500
6033		1640.625000
6034		1640.625000
6035		1640.625000
6036		1640.625000
6037		1640.625000
6038		1640.625000
6039		1640.625000
6040		1640.625000
6041		1640.625000
6042		1640.625000
6043		1679.687500
6044		1679.687500
6045		1679.687500
6046		1679.687500
6047		1679.687500
6048		1679.687500
6049		1679.687500
6050		1718.750000
6051		1718.750000
6052		1718.750000
6053		1718.750000
6054		1718.750000
6055		1718.750000
6056		1718.750000
6057		1718.750000
6058		1718.750000
6059		1718.750000
6060		1718.750000
6061		1718.750000
6062		1757.812500
6063		1757.812500
6064		1757.812500
6065		1757.812500
6066		1757.812500
6067		1757.812500
6068		1757.812500
6069		1757.812500
6070		1796.875000
6071		1796.875000
6072		1796.875000
6073		1796.875000
6074		1796.875000
6075		1796.875000
6076		1796.875000
6077		1796.875000
6078		1796.875000
6079		1796.875000
6080		1796.875000
6081		1796.875000
6082		1796.875000
6083		1796.875000
6084		1796.875000
6085		1835.937500
6086		1835.937500
6087		1835.937500
6088		1835.937500
6089		1835.937500
6090		1835.937500
6091		1835.937500
6092		1875.000000
6093		1875.000000
6094		1835.937500
6095		1835.937500
6096		1875.000000
6097		1875.000000
6098		1875.000000
6099		1875.000000
6100		1875.000000
6101		1875.000000
6102		1875.000000
6103		1875.000000
6104		1875.000000
6105		1875.000000
6106		1875.000000
6107		1875.000000
6108		1914.062500
6109		1875.000000
6110		1914.062500
6111		1914.062500
6112		1875.000000
6113		1914.062500
6114		1914.062500
6115		1914.062500
6116		1914.062500
6117		1914.062500
6118		1914.062500
6119		1914.062500
6120		1914.062500
6121		1914.062500
6122		1914.062500
6123		1914.062500
6124		1914.062500
6125		1914.062500
6126		1914.062500
6127		1914.062500
6128		1953.125000
6129		1914.062500
6130		1914.062500
6131		1953.125000
6132		1914.062500
6133		1914.062500
6134		1953.125000
6135		1914.062500
6136		1914.062500
6137		1914.062500
6138		1914.062500
6139		1914.062500
6140		1914.062500
6141		1914.062500
6142		1953.125000
6143		1953.125000
6144		1953.125000
6145		1953.125000
6146		1953.125000
6147		1953.125000
6148		1953.125000
6149		1953.125000
6150		1953.125000
6151		1953.125000
6152		1953.125000
6153		1953.125000
6154		1953.125000
6155		1953.125000
6156		1953.125000
6157		1953.125000
6158		1953.125000
6159		1953.125000
6160		1953.125000
6161		1953.125000
6162		1953.125000
6163		1953.125000
6164		1953.125000
6165		1953.125000
6166		1953.125000
6167		1953.125000
6168		1953.125000
6169		1953.125000
6170		1953.125000
6171		1953.125000
6172		1953.125000
6173		1953.125000
6174		1953.125000
6175		1953.125000
6176		1953.125000
6177		1953.125000
6178		1953.125000
6179		1953.125000
6180		1953.125000
6181		1953.125000
6182		1953.125000
6183		1953.125000
6184		1953.125000
6185		1953.125000
6186		1953.125000
6187		1914.062500
6188		1953.125000
6189		1953.125000
6190		1953.125000
6191		1953.125000
6192		1953.125000
6193		1953.125000
6194		1953.125000
6195		1953.125000
6196		1914.062500
6197		1914.062500
6198		1914.062500
6199		1953.125000
6200		1914.062500
6201		1914.062500
6202		1914.062500
6203		1914.062500
6204		1914.062500
6205		1914.062500
6206		1914.062500
6207		1914.062500
6208		1914.062500
6209		1914.062500
6210		1914.062500
6211		1914.062500
6212		1914.062500
6213		1914.062500
6214		1914.062500
6215		1914.062500
6216		1914.062500
6217		1914.062500
6218		1914.062500
6219		1914.062500
6220		1875.000000
6221		1875.000000
6222		1875.000000
6223		1875.000000
6224		1875.000000
6225		1875.000000
6226		1875.000000
6227		1875.000000
6228		1875.000000
6229		1875.000000
6230		1875.000000
6231		1875.000000
6232		1875.000000
6233		1875.000000
6234		1875.000000
6235		1875.000000
6236		1875.000000
6237		1875.000000
6238		1835.937500
6239		1835.937500
6240		1835.937500
6241		1835.937500
6242		1835.937500
6243		1835.937500
6244		1835.937500
6245		1835.937500
6246		1835.937500
6247		1835.937500
6248		1835.937500
6249		1835.937500
6250		1835.937500
6251		1796.875000
6252		1835.937500
6253		1796.875000
6254		1796.875000
6255		1796.875000
6256		1796.875000
6257		1796.875000
6258		1796.875000
6259		1757.812500
6260		1757.812500
6261		1757.812500
6262		1757.812500
6263		1757.812500
6264		1757.812500
6265		1757.812500
6266		1757.812500
6267		1757.812500
6268		1757.812500
6269		1757.812500
6270		1757.812500
6271		1757.812500
6272		1757.812500
6273		1757.812500
6274		1718.750000
6275		1718.750000
6276		1718.750000
6277		1718.750000
6278		1718.750000
6279		1718.750000
6280		1679.687500
6281		1679.687500
6282		1679.687500
6283		1718.750000
6284		1679.687500
6285		1679.687500
6286		1679.687500
6287		1679.687500
6288		1679.687500
6289		1679.687500
6290		1679.687500
6291		1679.687500
6292		1679.687500
6293		1640.625000
6294		1640.625000
6295		1640.625000
6296		1640.625000
6297		1640.625000
6298		1640.625000
6299		1601.562500
6300		1640.625000
6301		1601.562500
6302		1601.562500
6303		1601.562500
6304		1601.562500
6305		1601.562500
6306		1601.562500
6307		1601.562500
6308		1601.562500
6309		1601.562500
6310		1562.500000
6311		1562.500000
6312		1562.500000
6313		1562.500000
6314		1562.500000
6315		1562.500000
6316		1523.437500
6317		1523.437500
6318		1523.437500
6319		1523.437500
6320		1523.437500
6321		1523.437500
6322		1523.437500
6323		1523.437500
6324		1523.437500
6325		1484.375000
6326		1484.375000
6327		1484.375000
6328		1484.375000
6329		1484.375000
6330		1484.375000
6331		1445.312500
6332		1445.312500
6333		1445.312500
6334		1445.312500
6335		1445.312500
6336		1445.312500
6337		1445.312500
6338		1406.250000
6339		1406.250000
6340		1406.250000
6341		1406.250000
6342		1406.250000
6343		1406.250000
6344		1406.250000
6345		1406.250000
6346		1406.250000
6347		1367.187500
6348		1367.187500
6349		1328.125000
6350		1367.187500
6351		1367.187500
6352		1328.125000
6353		1328.125000
6354		1328.125000
6355		1328.125000
6356		1328.125000
6357		1328.125000
6358		1289.062500
6359		1289.062500
6360		1289.062500
6361		1289.062500
6362		1289.062500
6363		1289.062500
6364		1289.062500
6365		1289.062500
6366		1289.062500
6367		1250.000000
6368		1250.000000
6369		1250.000000
6370		1250.000000
6371		1250.000000
6372		1250.000000
6373		1210.937500
6374		1210.937500
6375		1210.937500
6376		1210.937500
6377		1210.937500
6378		1210.937500
6379		1171.875000
6380		1171.875000
6381		1171.875000
6382		1171.875000
6383		1171.875000
6384		1171.875000
6385		1132.812500
6386		1132.812500
6387		1132.812500
6388		1132.812500
6389		1132.812500
6390		1132.812500
6391		1132.812500
6392		1132.812500
6393		1093.750000
6394		1093.750000
6395		1093.750000
6396		1093.750000
6397		1093.750000
6398		1093.750000
6399		1054.687500
6400		1054.687500
6401		1054.687500
6402		1054.687500
6403		1054.687500
6404		1015.625000
6405		1015.625000
6406		1015.625000
6407		1015.625000
6408		1015.625000
6409		1015.625000
6410		1015.625000
6411		1015.625000
6412		976.562500
6413		976.562500
6414		976.562500
6415		976.562500
6416		976.562500
6417		976.562500
6418		937.500000
6419		937.500000
6420		937.500000
6421		937.500000
6422		937.500000
6423		937.500000
6424		898.437500
6425		898.437500
6426		898.437500
6427		898.437500
6428		898.437500
6429		898.437500
6430		898.437500
6431		898.437500
6432		859.375000
6433		859.375000
6434		859.375000
6435		859.375000
6436		859.375000
6437		859.375000
6438		820.312500
6439		820.312500
6440		820.312500
6441		820.312500
6442		820.312500
6443		781.250000
6444		781.250000
6445		781.250000
6446		781.250000
6447		781.250000
6448		781.250000
6449		781.250000
6450		781.250000
6451		781.250000
6452		742.187500
6453		742.187500
6454		742.187500
6455		742.187500
6456		742.187500
6457		703.125000
6458		703.125000
6459		703.125000
6460		703.125000
6461		703.125000
6462		664.062500
6463		664.062500
6464		664.062500
6465		664.062500
6466		664.062500
6467		664.062500
6468		664.062500
6469		664.062500
6470		664.062500
6471		625.000000
6472		625.000000
6473		625.000000
6474		625.000000
6475		625.000000
6476		625.000000
6477		585.937500
6478		585.937500
6479		585.937500
6480		585.937500
6481		585.937500
6482		585.937500
6483		546.875000
6484		585.937500
6485		546.875000
6486		546.875000
6487		546.875000
6488		546.875000
6489		546.875000
6490		546.875000
6491		546.875000
6492		507.812500
6493		507.812500
6494		507.812500
6495		507.812500
6496		507.812500
6497		468.750000
6498		468.750000
6499		468.750000
6500		468.750000
6501		468.750000
6502		468.750000
6503		468.750000
6504		468.750000
6505		468.750000
6506		429.687500
6507		429.687500
6508		429.687500
6509		429.687500
6510		429.687500
6511		429.687500
6512		429.687500
6513		390.625000
6514		390.625000
6515		390.625000
6516		390.625000
6517		390.625000
6518		390.625000
6519		351.562500
6520		351.562500
6521		351.562500
6522		351.562500
6523		351.562500
6524		351.562500
6525		351.562500
6526		351.562500
6527		351.562500
6528		351.562500
6529		312.500000
6530		312.500000
6531		312.500000
6532		312.500000
6533		312.500000
6534		312.500000
6535		312.500000
6536		273.437500
6537		273.437500
6538		273.437500
6539		273.437500
6540		273.437500
6541		273.437500
6542		273.437500
6543		273.437500
6544		234.375000
6545		234.375000
6546		234.375000
6547		234.375000
6548		234.375000
6549		234.375000
6550		234.375000
6551		234.375000
6552		195.312500
6553		195.312500
6554		195.312500
6555		195.312500
6556		195.312500
6557		195.312500
6558		195.312500
6559		195.312500
6560		156.250000
6561		156.250000
6562		156.250000
6563		156.250000
6564		156.250000
6565		156.250000
6566		156.250000
6567		156.250000
6568		117.187500
6569		117.187500
6570		117.187500
6571		117.187500
6572		117.187500
6573		117.187500
6574		117.187500
6575		117.187500
6576		117.187500
6577		78.125000
6578		78.125000
6579		78.125000
6580		78.125000
6581		78.125000
6582		78.125000
6583		78.125000
6584		78.125000
6585		78.125000
6586		39.062500
6587		39.062500
6588		39.062500
6589		39.062500
6590		39.062500
6591		39.062500
6592		39.062500
6593		39.062500
6594		39.062500
6595		0.000000
6596		0.000000
6597		0.000000
6598		0.000000
6599		0.000000
6600		0.000000
6601		0.000000
6602		0.000000
6603		-39.062500
6604		-39.062500
6605		-39.062500
6606		-39.062500
6607		-39.062500
6608		-39.062500
6609		-39.062500
6610		-39.062500
6611		-39.062500
6612		-39.062500
6613		-39.062500
6614		-39.062500
6615		-78.125000
6616		-78.125000
6617		-78.125000
6618		-78.125000
6619		-78.125000
6620		-78.125000
6621		-78.125000
6622		-78.125000
6623		-117.187500
6624		-117.187500
6625		-117.187500
6626		-117.187500
6627		-117.187500
6628		-117.187500
6629		-117.187500
6630		-117.187500
6631		-117.187500
6632		-117.187500
6633		-117.187500
6634		-117.187500
6635		-117.187500
6636		-156.250000
6637		-156.250000
6638		-156.250000
6639		-156.250000
6640		-156.250000
6641		-156.250000
6642		-156.250000
6643		-156.250000
6644		-156.250000
6645		-195.312500
6646		-195.312500
6647		-195.312500
6648		-195.312500
6649		-195.312500
6650		-195.312500
6651		-195.312500
6652		-195.312500
6653		-195.312500
6654		-195.312500
6655		-195.312500
6656		-195.312500
6657		-234.375000
6658		-234.375000
6659		-234.375000
6660		-234.375000
6661		-234.375000
6662		-234.375000
6663		-234.375000
6664		-234.375000
6665		-234.375000
6666		-234.375000
6667		-234.375000
6668		-234.375000
6669		-234.375000
6670		-273.437500
6671		-273.437500
6672		-273.437500
6673		-273.437500
6674		-273.437500
6675		-273.437500
6676		-273.437500
6677		-273.437500
6678		-273.437500
6679		-312.500000
6680		-312.500000
6681		-312.500000
6682		-312.500000
6683		-312.500000
6684		-312.500000
6685		-312.500000
6686		-312.500000
6687		-312.500000
6688		-312.500000
6689		-312.500000
6690		-351.562500
6691		-312.500000
6692		-312.500000
6693		-312.500000
6694		-351.562500
6695		-351.562500
6696		-351.562500
6697		-351.562500
6698		-351.562500
6699		-351.562500
6700		-351.562500
6701		-351.562500
6702		-351.562500
6703		-351.562500
6704		-351.562500
6705		-351.562500
6706		-351.562500
6707		-351.562500
6708		-390.625000
6709		-390.625000
6710		-390.625000
6711		-390.625000
6712		-390.625000
6713		-390.625000
6714		-390.625000
6715		-390.625000
6716		-390.625000
6717		-390.625000
6718		-390.625000
6719		-390.625000
6720		-390.625000
6721		-429.687500
6722		-390.625000
6723		-429.687500
6724		-429.687500
6725		-390.625000
6726		-429.687500
6727		-429.687500
6728		-429.687500
6729		-429.687500
6730		-429.687500
6731		-429.687500
6732		-429.687500
6733		-429.687500
6734		-429.687500
6735		-429.687500
6736		-429.687500
6737		-429.687500
6738		-429.687500
6739		-468.750000
6740		-468.750000
6741		-468.750000
6742		-468.750000
6743		-468.750000
6744		-468.750000
6745		-468.750000
6746		-468.750000
6747		-468.750000
6748		-468.750000
6749		-468.750000
6750		-468.750000
6751		-468.750000
6752		-468.750000
6753		-468.750000
6754		-468.750000
6755		-507.812500
6756		-468.750000
6757		-507.812500
6758		-507.812500
6759		-507.812500
6760		-507.812500
6761		-507.812500
6762		-507.812500
6763		-507.812500
6764		-507.812500
6765		-507.812500
6766		-507.812500
6767		-507.812500
6768		-507.812500
6769		-507.812500
6770		-507.812500
6771		-507.812500
6772		-507.812500
6773		-507.812500
6774		-507.812500
6775		-507.812500
6776		-507.812500
6777		-546.875000
6778		-546.875000
6779		-546.875000
6780		-546.875000
6781		-546.875000
6782		-546.875000
6783		-546.875000
6784		-546.875000
6785		-546.875000
6786		-546.875000
6787		-546.875000
6788		-546.875000
6789		-546.875000
6790		-546.875000
6791		-546.875000
6792		-546.875000
6793		-546.875000
6794		-546.875000
6795		-546.875000
6796		-546.875000
6797		-585.937500
6798		-585.937500
6799		-585.937500
6800		-585.937500
6801		-585.937500
6802		-585.937500
6803		-585.937500
6804		-585.937500
6805		-585.937500
6806		-585.937500
6807		-585.937500
6808		-585.937500
6809		-585.937500
6810		-585.937500
6811		-585.937500
6812		-585.937500
6813		-585.937500
6814		-585.937500
6815		-585.937500
6816		-585.937500
6817		-625.000000
6818		-625.000000
6819		-625.000000
6820		-625.000000
6821		-625.000000
6822		-625.000000
6823		-625.000000
6824		-625.000000
6825		-625.000000
6826		-625.000000
6827		-625.000000
6828		-625.000000
6829		-625.000000
6830		-625.000000
6831		-625.000000
6832		-625.000000
6833		-625.000000
6834		-625.000000
6835		-625.000000
6836		-625.000000
6837		-625.000000
6838		-625.000000
6839		-625.000000
6840		-625.000000
6841		-625.000000
6842		-625.000000
6843		-625.000000
6844		-625.000000
6845		-625.000000
6846		-625.000000
6847		-625.000000
6848		-625.000000
6849		-625.000000
6850		-625.000000
6851		-625.000000
6852		-625.000000
6853		-664.062500
6854		-664.062500
6855		-664.062500
6856		-664.062500
6857		-664.062500
6858		-664.062500
6859		-664.062500
6860		-664.062500
6861		-664.062500
6862		-664.062500
6863		-664.062500
6864		-664.062500
6865		-664.062500
6866		-664.062500
6867		-664.062500
6868		-664.062500
6869		-664.062500
6870		-664.062500
6871		-664.062500
6872		-664.062500
6873		-664.062500
6874		-664.062500
6875		-664.062500
6876		-664.062500
6877		-664.062500
6878		-703.125000
6879		-664.062500
6880		-664.062500
6881		-703.125000
6882		-703.125000
6883		-703.125000
6884		-664.062500
6885		-664.062500
6886		-664.062500
6887		-664.062500
6888		-664.062500
6889		-664.062500
6890		-664.062500
6891		-703.125000
6892		-664.062500
6893		-703.125000
6894		-703.125000
6895		-703.125000
6896		-703.125000
6897		-703.125000
6898		-703.125000
6899		-703.125000
6900		-703.125000
6901		-703.125000
6902		-703.125000
6903		-703.125000
6904		-703.125000
6905		-703.125000
6906		-703.125000
6907		-703.125000
6908		-703.125000
6909		-703.125000
6910		-703.125000
6911		-703.125000
6912		-703.125000
6913		-703.125000
6914		-703.125000
6915		-703.125000
6916		-703.125000
6917		-703.125000
6918		-703.125000
6919		-703.125000
6920		-703.125000
6921		-703.125000
6922		-703.125000
6923		-703.125000
6924		-703.125000
6925		-703.125000
6926		-703.125000
6927		-703.125000
6928		-703.125000
6929		-703.125000
6930		-703.125000
6931		-703.125000
6932		-703.125000
6933		-742.187500
6934		-703.125000
6935		-742.187500
6936		-703.125000
6937		-742.187500
6938		-742.187500
6939		-742.187500
6940		-703.125000
6941		-703.125000
6942		-742.187500
6943		-742.187500
6944		-703.125000
6945		-742.187500
6946		-742.187500
6947		-742.187500
6948		-742.187500
6949		-742.187500
6950		-742.187500
6951		-742.187500
6952		-742.187500
6953		-742.187500
6954		-742.187500
6955		-742.187500
6956		-742.187500
6957		-742.187500
6958		-742.187500
6959		-742.187500
6960		-742.187500
6961		-703.125000
6962		-742.187500
6963		-742.187500
6964		-742.187500
6965		-742.187500
6966		-742.187500
6967		-742.187500
6968		-742.187500
6969		-742.187500
6970		-742.187500
6971		-742.187500
6972		-742.187500
6973		-742.187500
6974		-742.187500
6975		-742.187500
6976		-742.187500
6977		-742.187500
6978		-742.187500
6979		-742.187500
6980		-742.187500
6981		-742.187500
6982		-742.187500
6983		-742.187500
6984		-742.187500
6985		-742.187500
6986		-742.187500
6987		-742.187500
6988		-742.187500
6989		-742.187500
6990		-742.187500
6991		-742.187500
6992		-742.187500
6993		-742.187500
6994		-742.187500
6995		-742.187500
6996		-742.187500
6997		-742.187500
6998		-742.187500
6999		-742.187500
7000		-742.187500
7001		-742.187500
7002		-742.187500
7003		-742.187500
7004		-742.187500
7005		-742.187500
7006		-742.187500
7007		-742.187500
7008		-742.187500
7009		-742.187500
7010		-742.187500
7011		-742.187500
7012		-742.187500
7013		-742.187500
7014		-742.187500
7015		-703.125000
7016		-742.187500
7017		-742.187500
7018		-742.187500
7019		-742.187500
7020		-742.187500
7021		-742.187500
7022		-742.187500
7023		-742.187500
7024		-742.187500
7025		-742.187500
7026		-742.187500
7027		-742.187500
7028		-742.187500
7029		-742.187500
7030		-703.125000
7031		-742.187500
7032		-742.187500
7033		-703.125000
7034		-742.187500
7035		-742.187500
7036		-742.187500
7037		-742.187500
7038		-742.187500
7039		-742.187500
7040		-742.187500
7041		-742.187500
7042		-742.187500
7043		-742.187500
7044		-742.187500
7045		-742.187500
7046		-742.187500
7047		-742.187500
7048		-703.125000
7049		-703.125000
7050		-703.125000
7051		-703.125000
7052		-703.125000
7053		-703.125000
7054		-703.125000
7055		-742.187500
7056		-742.187500
7057		-742.187500
7058		-742.187500
7059		-742.187500
7060		-703.125000
7061		-703.125000
7062		-703.125000
7063		-703.125000
7064		-703.125000
7065		-703.125000
7066		-703.125000
7067		-703.125000
7068		-703.125000
7069		-703.125000
7070		-703.125000
7071		-703.125000
7072		-703.125000
7073		-703.125000
7074		-703.125000
7075		-703.125000
7076		-703.125000
7077		-703.125000
7078		-703.125000
7079		-703.125000
7080		-703.125000
7081		-703.125000
7082		-703.125000
7083		-703.125000
7084		-703.125000
7085		-703.125000
7086		-703.125000
7087		-703.125000
7088		-703.125000
7089		-703.125000
7090		-703.125000
7091		-703.125000
7092		-703.125000
7093		-703.125000
7094		-703.125000
7095		-703.125000
7096		-703.125000
7097		-703.125000
7098		-703.125000
7099		-703.125000
7100		-703.125000
7101		-703.125000
7102		-703.125000
7103		-703.125000
7104		-664.062500
7105		-664.062500
7106		-664.062500
7107		-664.062500
7108		-703.125000
7109		-703.125000
7110		-703.125000
7111		-664.062500
7112		-703.125000
7113		-664.062500
7114		-664.062500
7115		-664.062500
7116		-664.062500
7117		-664.062500
7118		-664.062500
7119		-664.062500
7120		-664.062500
7121		-664.062500
7122		-664.062500
7123		-664.062500
7124		-664.062500
7125		-664.062500
7126		-664.062500
7127		-664.062500
7128		-664.062500
7129		-664.062500
7130		-664.062500
7131		-664.062500
7132		-664.062500
7133		-664.062500
7134		-664.062500
7135		-664.062500
7136		-664.062500
7137		-664.062500
7138		-664.062500
7139		-664.062500
7140		-625.000000
7141		-664.062500
7142		-664.062500
7143		-664.062500
7144		-625.000000
7145		-664.062500
7146		-625.000000
7147		-625.000000
7148		-625.000000
7149		-625.000000
7150		-625.000000
7151		-625.000000
7152		-625.000000
7153		-625.000000
7154		-625.000000
7155		-625.000000
7156		-664.062500
7157		-625.000000
7158		-625.000000
7159		-625.000000
7160		-625.000000
7161		-625.000000
7162		-625.000000
7163		-625.000000
7164		-625.000000
7165		-625.000000
7166		-625.000000
7167		-625.000000
7168		-625.000000
7169		-625.000000
7170		-625.000000
7171		-625.000000
7172		-625.000000
7173		-585.937500
7174		-585.937500
7175		-585.937500
7176		-585.937500
7177		-585.937500
7178		-585.937500
7179		-585.937500
7180		-585.937500
7181		-585.937500
7182		-585.937500
7183		-585.937500
7184		-585.937500
7185		-585.937500
7186		-585.937500
7187		-585.937500
7188		-585.937500
7189		-585.937500
7190		-585.937500
7191		-585.937500
7192		-585.937500
7193		-585.937500
7194		-585.937500
7195		-585.937500
7196		-585.937500
7197		-585.937500
7198		-585.937500
7199		-585.937500
7200		-585.937500
7201		-585.937500
7202		-585.937500
7203		-546.875000
7204		-546.875000
7205		-546.875000
7206		-546.875000
7207		-546.875000
7208		-546.875000
7209		-546.875000
7210		-546.875000
7211		-546.875000
7212		-546.875000
7213		-546.875000
7214		-546.875000
7215		-546.875000
7216		-546.875000
7217		-546.875000
7218		-546.875000
7219		-546.875000
7220		-546.875000
7221		-546.875000
7222		-546.875000
7223		-507.812500
7224		-507.812500
7225		-507.812500
7226		-507.812500
7227		-507.812500
7228		-507.812500
7229		-507.812500
7230		-507.812500
7231		-507.812500
7232		-507.812500
7233		-507.812500
7234		-507.812500
7235		-507.812500
7236		-507.812500
7237		-507.812500
7238		-507.812500
7239		-507.812500
7240		-507.812500
7241		-507.812500
7242		-468.750000
7243		-468.750000
7244		-468.750000
7245		-468.750000
7246		-468.750000
7247		-468.750000
7248		-468.750000
7249		-468.750000
7250		-468.750000
7251		-468.750000
7252		-468.750000
7253		-468.750000
7254		-468.750000
7255		-468.750000
7256		-468.750000
7257		-468.750000
7258		-468.750000
7259		-468.750000
7260		-468.750000
7261		-468.750000
7262		-429.687500
7263		-429.687500
7264		-429.687500
7265		-429.687500
7266		-429.687500
7267		-429.687500
7268		-429.687500
7269		-429.687500
7270		-429.687500
7271		-429.687500
7272		-429.687500
7273		-429.687500
7274		-429.687500
7275		-429.687500
7276		-429.687500
7277		-429.687500
7278		-429.687500
7279		-390.625000
7280		-390.625000
7281		-390.625000
7282		-390.625000
7283		-390.625000
7284		-390.625000
7285		-390.625000
7286		-390.625000
7287		-390.625000
7288		-390.625000
7289		-351.562500
7290		-390.625000
7291		-351.562500
7292		-351.562500
7293		-351.562500
7294		-351.562500
7295		-351.562500
7296		-351.562500
7297		-351.562500
7298		-351.562500
7299		-351.562500
7300		-351.562500
7301		-351.562500
7302		-351.562500
7303		-312.500000
7304		-312.500000
7305		-312.500000
7306		-312.500000
7307		-312.500000
7308		-312.500000
7309		-312.500000
7310		-312.500000
7311		-312.500000
7312		-312.500000
7313		-312.500000
7314		-312.500000
7315		-312.500000
7316		-312.500000
7317		-312.500000
7318		-273.437500
7319		-273.437500
7320		-273.437500
7321		-273.437500
7322		-273.437500
7323		-273.437500
7324		-273.437500
7325		-273.437500
7326		-273.437500
7327		-273.437500
7328		-273.437500
7329		-273.437500
7330		-234.375000
7331		-234.375000
7332		-234.375000
7333		-234.375000
7334		-234.375000
7335		-234.375000
7336		-234.375000
7337		-234.375000
7338		-234.375000
7339		-234.375000
7340		-234.375000
7341		-234.375000
7342		-234.375000
7343		-195.312500
7344		-195.312500
7345		-195.312500
7346		-195.312500
7347		-195.312500
7348		-195.312500
7349		-195.312500
7350		-195.312500
7351		-156.250000
7352		-156.250000
7353		-156.250000
7354		-156.250000
7355		-156.250000
7356		-156.250000
7357		-156.250000
7358		-156.250000
7359		-156.250000
7360		-156.250000
7361		-156.250000
7362		-117.187500
7363		-117.187500
7364		-117.187500
7365		-117.187500
7366		-117.187500
7367		-117.187500
7368		-117.187500
7369		-117.187500
7370		-117.187500
7371		-78.125000
7372		-78.125000
7373		-78.125000
7374		-78.125000
7375		-78.125000
7376		-78.125000
7377		-78.125000
7378		-78.125000
7379		-78.125000
7380		-39.062500
7381		-39.062500
7382		-39.062500
7383		-39.062500
7384		-39.062500
7385		-39.062500
7386		-39.062500
7387		-39.062500
7388		0.000000
7389		0.000000
7390		0.000000
7391		0.000000
7392		0.000000
7393		0.000000
7394		0.000000
7395		0.000000
7396		0.000000
7397		0.000000
7398		0.000000
7399		0.000000
7400		39.062500
7401		39.062500
7402		39.062500
7403		39.062500
7404		39.062500
7405		39.062500
7406		39.062500
7407		78.125000
7408		78.125000
7409		78.125000
7410		78.125000
7411		78.125000
7412		78.125000
7413		78.125000
7414		78.125000
7415		78.125000
7416		117.187500
7417		117.187500
7418		117.187500
7419		117.187500
7420		117.187500
7421		117.187500
7422		117.187500
7423		117.187500
7424		156.250000
7425		156.250000
7426		156.250000
7427		156.250000
7428		156.250000
7429		156.250000
7430		195.312500
7431		195.312500
7432		195.312500
7433		195.312500
7434		195.312500
7435		195.312500
7436		195.312500
7437		195.312500
7438		195.312500
7439		195.312500
7440		234.375000
7441		234.375000
7442		234.375000
7443		234.375000
7444		234.375000
7445		273.437500
7446		273.437500
7447		273.437500
7448		273.437500
7449		273.437500
7450		273.437500
7451		273.437500
7452		273.437500
7453		312.500000
7454		312.500000
7455		312.500000
7456		312.500000
7457		312.500000
7458		312.500000
7459		312.500000
7460		312.500000
7461		351.562500
7462		351.562500
7463		351.562500
7464		351.562500
7465		351.562500
7466		351.562500
7467		390.625000
7468		390.625000
7469		390.625000
7470		390.625000
7471		390.625000
7472		390.625000
7473		429.687500
7474		429.687500
7475		429.687500
7476		429.687500
7477		429.687500
7478		429.687500
7479		429.687500
7480		468.750000
7481		468.750000
7482		468.750000
7483		468.750000
7484		468.750000
7485		468.750000
7486		507.812500
7487		507.812500
7488		507.812500
7489		507.812500
7490		507.812500
7491		507.812500
7492		507.812500
7493		546.875000
7494		546.875000
7495		546.875000
7496		546.875000
7497		546.875000
7498		546.875000
7499		546.875000
7500		585.937500
7501		585.937500
7502		585.937500
7503		585.937500
7504		585.937500
7505		585.937500
7506		625.000000
7507		625.000000
7508		625.000000
7509		625.000000
7510		625.000000
7511		625.000000
7512		664.062500
7513		664.062500
7514		664.062500
7515		664.062500
7516		664.062500
7517		664.062500
7518		664.062500
7519		703.125000
7520		703.125000
7521		703.125000
7522		703.125000
7523		703.125000
7524		703.125000
7525		742.187500
7526		742.187500
7527		742.187500
7528		742.187500
7529		742.187500
7530		781.250000
7531		781.250000
7532		781.250000
7533		781.250000
7534		781.250000
7535		781.250000
7536		781.250000
7537		820.312500
7538		820.312500
7539		820.312500
7540		820.312500
7541		820.312500
7542		820.312500
7543		859.375000
7544		859.375000
7545		859.375000
7546		859.375000
7547		859.375000
7548		859.375000
7549		898.437500
7550		898.437500
7551		898.437500
7552		898.437500
7553		898.437500
7554		937.500000
7555		937.500000
7556		937.500000
7557		937.500000
7558		937.500000
7559		937.500000
7560		937.500000
7561		976.562500
7562		976.562500
7563		976.562500
7564		976.562500
7565		976.562500
7566		976.562500
7567		1015.625000
7568		1015.625000
7569		1015.625000
7570		1015.625000
7571		1054.687500
7572		1054.687500
7573		1054.687500
7574		1054.687500
7575		1054.687500
7576		1054.687500
7577		1054.687500
7578		1093.750000
7579		1093.750000
7580		1093.750000
7581		1093.750000
7582		1093.750000
7583		1093.750000
7584		1093.750000
7585		1132.812500
7586		1132.812500
7587		1132.812500
7588		1132.812500
7589		1171.875000
7590		1171.875000
7591		1171.875000
7592		1171.875000
7593		1171.875000
7594		1171.875000
7595		1171.875000
7596		1171.875000
7597		1210.937500
7598		1210.937500
7599		1210.937500
7600		1210.937500
7601		1210.937500
7602		1210.937500
7603		1250.000000
7604		1250.000000
7605		1250.000000
7606		1250.000000
7607		1250.000000
7608		1289.062500
7609		1289.062500
7610		1289.062500
7611		1289.062500
7612		1289.062500
7613		1289.062500
7614		1289.062500
7615		1289.062500
7616		1328.125000
7617		1328.125000
7618		1328.125000
7619		1328.125000
7620		1328.125000
7621		1328.125000
7622		1328.125000
7623		1367.187500
7624		1367.187500
7625		1367.187500
7626		1367.187500
7627		1406.250000
7628		1406.250000
7629		1406.250000
7630		1406.250000
7631		1406.250000
7632		1406.250000
7633		1406.250000
7634		1406.250000
7635		1406.250000
7636		1445.312500
7637		1445.312500
7638		1445.312500
7639		1445.312500
7640		1445.312500
7641		1445.312500
7642		1484.375000
7643		1445.312500
7644		1484.375000
7645		1484.375000
7646		1484.375000
7647		1484.375000
7648		1523.437500
7649		1523.437500
7650		1523.437500
7651		1523.437500
7652		1523.437500
7653		1523.437500
7654		1523.437500
7655		1523.437500
7656		1523.437500
7657		1562.500000
7658		1562.500000
7659		1562.500000
7660		1562.500000
7661		1562.500000
7662		1562.500000
7663		1601.562500
7664		1601.562500
7665		1601.562500
7666		1601.562500
7667		1601.562500
7668		1601.562500
7669		1601.562500
7670		1601.562500
7671		1601.562500
7672		1640.625000
7673		1640.625000
7674		1640.625000
7675		1640.625000
7676		1640.625000
7677		1640.625000
7678		1640.625000
7679		1640.625000
7680		1679.687500
7681		1679.687500
7682		1679.687500
7683		1679.687500
7684		1679.687500
7685		1679.687500
7686		1679.687500
7687		1718.750000
7688		1718.750000
7689		1718.750000
7690		1718.750000
7691		1718.750000
7692		1718.750000
7693		1718.750000
7694		1718.750000
7695		1718.750000
7696		1718.750000
7697		1718.750000
7698		1757.812500
7699		1757.812500
7700		1757.812500
7701		1757.812500
7702		1757.812500
7703		1757.812500
7704		1757.812500
7705		1796.875000
7706		1796.875000
7707		1796.875000
7708		1796.875000
7709		1796.875000
7710		1796.875000
7711		1796.875000
7712		1796.875000
7713		1796.875000
7714		1796.875000
7715		1796.875000
7716		1835.937500
7717		1835.937500
7718		1835.937500
7719		1835.937500
7720		1835.937500
7721		1835.937500
7722		1835.937500
7723		1835.937500
7724		1835.937500
7725		1835.937500
7726		1875.000000
7727		1875.000000
7728		1875.000000
7729		1875.000000
7730		1875.000000
7731		1875.000000
7732		1875.000000
7733		1875.000000
7734		1875.000000
7735		1875.000000
7736		1875.000000
7737		1875.000000
7738		1914.062500
7739		1914.062500
7740		1914.062500
7741		1914.062500
7742		1914.062500
7743		1914.062500
7744		1914.062500
7745		1914.062500
7746		1914.062500
7747		1914.062500
7748		1914.062500
7749		1914.062500
7750		1914.062500
7751		1953.125000
7752		1953.125000
7753		1953.125000
7754		1953.125000
7755		1953.125000
7756		1953.125000
7757		1953.125000
7758		1953.125000
7759		1953.125000
7760		1953.125000
7761		1953.125000
7762		1953.125000
7763		1953.125000
7764		1953.125000
7765		1953.125000
7766		1953.125000
7767		1992.187500
7768		1953.125000
7769		1992.187500
7770		1992.187500
7771		1992.187500
7772		1992.187500
7773		1992.187500
7774		1992.187500
7775		1992.187500
7776		1992.187500
7777		1992.187500
7778		1992.187500
7779		1992.187500
7780		1992.187500
7781		1992.187500
7782		1992.187500
7783		1992.187500
7784		1992.187500
7785		1992.187500
7786		1992.187500
7787		1992.187500
7788		1992.187500
7789		1992.187500
7790		1992.187500
7791		2031.250000
7792		2031.250000
7793		2031.250000
7794		1992.187500
7795		1992.187500
7796		1992.187500
7797		1992.187500
7798		1992.187500
7799		1992.187500
7800		1992.187500
7801		1992.187500
7802		1992.187500
7803		1992.187500
7804		1992.187500
7805		2031.250000
7806		2031.250000
7807		2031.250000
7808		2031.250000
7809		2031.250000
7810		2031.250000
7811		2031.250000
7812		2031.250000
7813		1992.187500
7814		1992.187500
7815		2031.250000
7816		1992.187500
7817		1992.187500
7818		1992.187500
7819		1992.187500
7820		1992.187500
7821		1992.187500
7822		1992.187500
7823		1992.187500
7824		2031.250000
7825		2031.250000
7826		1992.187500
7827		2031.250000
7828		2031.250000
7829		2031.250000
7830		2031.250000
7831		2031.250000
7832		2031.250000
7833		1992.187500
7834		1992.187500
7835		1992.187500
7836		1992.187500
7837		1992.187500
7838		1992.187500
7839		1992.187500
7840		1992.187500
7841		1992.187500
7842		1992.187500
7843		1992.187500
7844		1992.187500
7845		1992.187500
7846		1992.187500
7847		1992.187500
7848		1992.187500
7849		1992.187500
7850		1992.187500
7851		1992.187500
7852		1992.187500
7853		1992.187500
7854		1992.187500
7855		1992.187500
7856		1992.187500
7857		1953.125000
7858		1953.125000
7859		1953.125000
7860		1953.125000
7861		1953.125000
7862		1953.125000
7863		1953.125000
7864		1953.125000
7865		1953.125000
7866		1992.187500
7867		1953.125000
7868		1953.125000
7869		1953.125000
7870		1953.125000
7871		1953.125000
7872		1953.125000
7873		1953.125000
7874		1953.125000
7875		1953.125000
7876		1953.125000
7877		1914.062500
7878		1953.125000
7879		1914.062500
7880		1914.062500
7881		1914.062500
7882		1914.062500
7883		1914.062500
7884		1914.062500
7885		1914.062500
7886		1914.062500
7887		1914.062500
7888		1914.062500
7889		1914.062500
7890		1914.062500
7891		1875.000000
7892		1875.000000
7893		1875.000000
7894		1875.000000
7895		1875.000000
7896		1875.000000
7897		1875.000000
7898		1875.000000
7899		1875.000000
7900		1875.000000
7901		1875.000000
7902		1875.000000
7903		1875.000000
7904		1875.000000
7905		1875.000000
7906		1835.937500
7907		1835.937500
7908		1835.937500
7909		1835.937500
7910		1835.937500
7911		1835.937500
7912		1835.937500
7913		1835.937500
7914		1835.937500
7915		1835.937500
7916		1796.875000
7917		1796.875000
7918		1796.875000
7919		1796.875000
7920		1796.875000
7921		1796.875000
7922		1796.875000
7923		1796.875000
7924		1796.875000
7925		1757.812500
7926		1757.812500
7927		1757.812500
7928		1757.812500
7929		1757.812500
7930		1757.812500
7931		1757.812500
7932		1757.812500
7933		1757.812500
7934		1757.812500
7935		1757.812500
7936		1718.750000
7937		1718.750000
7938		1718.750000
7939		1718.750000
7940		1718.750000
7941		1718.750000
7942		1718.750000
7943		1679.687500
7944		1679.687500
7945		1679.687500
7946		1679.687500
7947		1679.687500
7948		1679.687500
7949		1679.687500
7950		1679.687500
7951		1679.687500
7952		1679.687500
7953		1679.687500
7954		1640.625000
7955		1640.625000
7956		1640.625000
7957		1640.625000
7958		1640.625000
7959		1601.562500
7960		1601.562500
7961		1601.562500
7962		1601.562500
7963		1601.562500
7964		1601.562500
7965		1601.562500
7966		1601.562500
7967		1601.562500
7968		1601.562500
7969		1562.500000
7970		1562.500000
7971		1562.500000
7972		1562.500000
7973		1562.500000
7974		1562.500000
7975		1562.500000
7976		1523.437500
7977		1523.437500
7978		1523.437500
7979		1523.437500
7980		1523.437500
7981		1484.375000
7982		1484.375000
7983		1484.375000
7984		1484.375000
7985		1484.375000
7986		1484.375000
7987		1484.375000
7988		1484.375000
7989		1484.375000
7990		1445.312500
7991		1445.312500
7992		1445.312500
7993		1445.312500
7994		1445.312500
7995		1445.312500
7996		1445.312500
7997		1406.250000
7998		1406.250000
7999		1406.250000
8000		1406.250000
8001		1406.250000
8002		1406.250000
8003		1367.187500
8004		1367.187500
8005		1367.187500
8006		1367.187500
8007		1367.187500
8008		1367.187500
8009		1367.187500
8010		1367.187500
8011		1367.187500
8012		1328.125000
8013		1328.125000
8014		1328.125000
8015		1328.125000
8016		1328.125000
8017		1289.062500
8018		1289.062500
8019		1289.062500
8020		1289.062500
8021		1289.062500
8022		1289.062500
8023		1289.062500
8024		1289.062500
8025		1289.062500
8026		1250.000000
8027		1250.000000
8028		1250.000000
8029		1250.000000
8030		1250.000000
8031		1250.000000
8032		1210.937500
8033		1210.937500
8034		1210.937500
8035		1210.937500
8036		1210.937500
8037		1171.875000
8038		1171.875000
8039		1171.875000
8040		1171.875000
8041		1171.875000
8042		1171.875000
8043		1171.875000
8044		1132.812500
8045		1132.812500
8046		1132.812500
8047		1132.812500
8048		1132.812500
8049		1132.812500
8050		1093.750000
8051		1093.750000
8052		1093.750000
8053		1093.750000
8054		1093.750000
8055		1093.750000
8056		1093.750000
8057		1054.687500
8058		1054.687500
8059		1054.687500
8060		1054.687500
8061		1054.687500
8062		1054.687500
8063		1054.687500
8064		1054.687500
8065		1015.625000
8066		1015.625000
8067		1015.625000
8068		1015.625000
8069		1015.625000
8070		976.562500
8071		976.562500
8072		976.562500
8073		976.562500
8074		976.562500
8075		976.562500
8076		937.500000
8077		937.500000
8078		937.500000
8079		937.500000
8080		937.500000
8081		937.500000
8082		937.500000
8083		898.437500
8084		898.437500
8085		898.437500
8086		898.437500
8087		898.437500
8088		898.437500
8089		859.375000
8090		859.375000
8091		859.375000
8092		859.375000
8093		859.375000
8094		859.375000
8095		859.375000
8096		820.312500
8097		820.312500
8098		820.312500
8099		820.312500
8100		820.312500
8101		820.312500
8102		820.312500
8103		781.250000
8104		781.250000
8105		781.250000
8106		781.250000
8107		781.250000
8108		781.250000
8109		742.187500
8110		742.187500
8111		742.187500
8112		742.187500
8113		742.187500
8114		742.187500
8115		742.187500
8116		703.125000
8117		703.125000
8118		703.125000
8119		703.125000
8120		703.125000
8121		703.125000
8122		703.125000
8123		664.062500
8124		664.062500
8125		664.062500
8126		664.062500
8127		664.062500
8128		664.062500
8129		625.000000
8130		625.000000
8131		625.000000
8132		625.000000
8133		625.000000
8134		625.000000
8135		625.000000
8136		585.937500
8137		585.937500
8138		585.937500
8139		585.937500
8140		585.937500
8141		585.937500
8142		546.875000
8143		585.937500
8144		546.875000
8145		546.875000
8146		546.875000
8147		546.875000
8148		546.875000
8149		546.875000
8150		546.875000
8151		507.812500
8152		507.812500
8153		507.812500
8154		507.812500
8155		507.812500
8156		507.812500
8157		468.750000
8158		468.750000
8159		468.750000
8160		468.750000
8161		468.750000
8162		468.750000
8163		429.687500
8164		429.687500
8165		429.687500
8166		429.687500
8167		429.687500
8168		429.687500
8169		429.687500
8170		429.687500
8171		429.687500
8172		390.625000
8173		390.625000
8174		390.625000
8175		390.625000
8176		390.625000
8177		390.625000
8178		351.562500
8179		351.562500
8180		351.562500
8181		351.562500
8182		351.562500
8183		351.562500
8184		351.562500
8185		351.562500
8186		351.562500
8187		312.500000
8188		351.562500
8189		312.500000
8190		312.500000
8191		312.500000
8192		312.500000
8193		312.500000
8194		312.500000
8195		273.437500
8196		273.437500
8197		273.437500
8198		273.437500
8199		273.437500
8200		273.437500
8201		273.437500
8202		234.375000
8203		234.375000
8204		234.375000
8205		234.375000
8206		234.375000
8207		234.375000
8208		234.375000
8209		234.375000
8210		234.375000
8211		234.375000
8212		195.312500
8213		195.312500
8214		195.312500
8215		195.312500
8216		195.312500
8217		156.250000
8218		156.250000
8219		156.250000
8220		156.250000
8221		156.250000
8222		156.250000
8223		156.250000
8224		156.250000
8225		156.250000
8226		156.250000
8227		156.250000
8228		156.250000
8229		117.187500
8230		117.187500
8231		117.187500
8232		117.187500
8233		117.187500
8234		117.187500
8235		78.125000
8236		78.125000
8237		78.125000
8238		78.125000
8239		78.125000
8240		78.125000
8241		78.125000
8242		78.125000
8243		78.125000
8244		78.125000
8245		78.125000
8246		78.125000
8247		39.062500
8248		39.062500
8249		39.062500
8250		39.062500
8251		39.062500
8252		39.062500
8253		39.062500
8254		0.000000
8255		0.000000
8256		0.000000
8257		0.000000
8258		0.000000
8259		0.000000
8260		0.000000
8261		0.000000
8262		0.000000
8263		0.000000
8264		0.000000
8265		0.000000
8266		0.000000
8267		-39.062500
8268		-39.062500
8269		-39.062500
8270		-39.062500
8271		-39.062500
8272		-39.062500
8273		-39.062500
8274		-39.062500
8275		-78.125000
8276		-78.125000
8277		-78.125000
8278		-78.125000
8279		-78.125000
8280		-78.125000
8281		-78.125000
8282		-78.125000
8283		-78.125000
8284		-78.125000
8285		-78.125000
8286		-78.125000
8287		-117.187500
8288		-117.187500
8289		-117.187500
8290		-117.187500
8291		-117.187500
8292		-117.187500
8293		-117.187500
8294		-117.187500
8295		-117.187500
8296		-117.187500
8297		-156.250000
8298		-117.187500
8299		-156.250000
8300		-156.250000
8301		-156.250000
8302		-156.250000
8303		-156.250000
8304		-156.250000
8305		-156.250000
8306		-156.250000
8307		-156.250000
8308		-156.250000
8309		-195.312500
8310		-195.312500
8311		-195.312500
8312		-195.312500
8313		-195.312500
8314		-195.312500
8315		-195.312500
8316		-195.312500
8317		-195.312500
8318		-195.312500
8319		-195.312500
8320		-195.312500
8321		-195.312500
8322		-234.375000
8323		-234.375000
8324		-234.375000
8325		-234.375000
8326		-234.375000
8327		-234.375000
8328		-234.375000
8329		-234.375000
8330		-234.375000
8331		-234.375000
8332		-234.375000
8333		-234.375000
8334		-234.375000
8335		-273.437500
8336		-273.437500
8337		-273.437500
8338		-273.437500
8339		-273.437500
8340		-273.437500
8341		-273.437500
8342		-273.437500
8343		-273.437500
8344		-273.437500
8345		-273.437500
8346		-273.437500
8347		-273.437500
8348		-273.437500
8349		-273.437500
8350		-312.500000
8351		-273.437500
8352		-312.500000
8353		-312.500000
8354		-312.500000
8355		-312.500000
8356		-312.500000
8357		-312.500000
8358		-312.500000
8359		-312.500000
8360		-312.500000
8361		-351.562500
8362		-351.562500
8363		-351.562500
8364		-351.562500
8365		-351.562500
8366		-351.562500
8367		-351.562500
8368		-351.562500
8369		-351.562500
8370		-351.562500
8371		-351.562500
8372		-351.562500
8373		-351.562500
8374		-390.625000
8375		-351.562500
8376		-390.625000
8377		-390.625000
8378		-390.625000
8379		-390.625000
8380		-390.625000
8381		-390.625000
8382		-390.625000
8383		-390.625000
8384		-390.625000
8385		-390.625000
8386		-390.625000
8387		-390.625000
8388		-390.625000
8389		-390.625000
8390		-390.625000
8391		-390.625000
8392		-390.625000
8393		-429.687500
8394		-429.687500
8395		-429.687500
8396		-429.687500
8397		-429.687500
8398		-429.687500
8399		-429.687500
8400		-429.687500
8401		-429.687500
8402		-429.687500
8403		-429.687500
8404		-429.687500
8405		-429.687500
8406		-429.687500
8407		-429.687500
8408		-429.687500
8409		-429.687500
8410		-429.687500
8411		-429.687500
8412		-468.750000
8413		-468.750000
8414		-468.750000
8415		-468.750000
8416		-468.750000
8417		-468.750000
8418		-468.750000
8419		-468.750000
8420		-468.750000
8421		-468.750000
8422		-468.750000
8423		-468.750000
8424		-468.750000
8425		-468.750000
8426		-468.750000
8427		-468.750000
8428		-468.750000
8429		-468.750000
8430		-468.750000
8431		-507.812500
8432		-507.812500
8433		-507.812500
8434		-507.812500
8435		-507.812500
8436		-507.812500
8437		-507.812500
8438		-507.812500
8439		-507.812500
8440		-507.812500
8441		-507.812500
8442		-507.812500
8443		-507.812500
8444		-507.812500
8445		-507.812500
8446		-507.812500
8447		-507.812500
8448		-507.812500
8449		-507.812500
8450		-507.812500
8451		-507.812500
8452		-546.875000
8453		-546.875000
8454		-546.875000
8455		-546.875000
8456		-546.875000
8457		-546.875000
8458		-546.875000
8459		-546.875000
8460		-546.875000
8461		-546.875000
8462		-546.875000
8463		-546.875000
8464		-546.875000
8465		-546.875000
8466		-546.875000
8467		-546.875000
8468		-546.875000
8469		-546.875000
8470		-546.875000
8471		-546.875000
8472		-546.875000
8473		-546.875000
8474		-546.875000
8475		-546.875000
8476		-546.875000
8477		-585.937500
8478		-546.875000
8479		-546.875000
8480		-546.875000
8481		-585.937500
8482		-585.937500
8483		-585.937500
8484		-585.937500
8485		-585.937500
8486		-585.937500
8487		-585.937500
8488		-585.937500
8489		-585.937500
8490		-585.937500
8491		-585.937500
8492		-585.937500
8493		-585.937500
8494		-585.937500
8495		-585.937500
8496		-585.937500
8497		-585.937500
8498		-585.937500
8499		-585.937500
8500		-585.937500
8501		-585.937500
8502		-585.937500
8503		-585.937500
8504		-585.937500
8505		-585.937500
8506		-585.937500
8507		-585.937500
8508		-585.937500
8509		-585.937500
8510		-585.937500
8511		-585.937500
8512		-585.937500
8513		-625.000000
8514		-625.000000
8515		-625.000000
8516		-625.000000
8517		-625.000000
8518		-625.000000
8519		-625.000000
8520		-625.000000
8521		-625.000000
8522		-625.000000
8523		-625.000000
8524		-625.000000
8525		-625.000000
8526		-625.000000
8527		-625.000000
8528		-625.000000
8529		-625.000000
8530		-625.000000
8531		-625.000000
8532		-625.000000
8533		-625.000000
8534		-625.000000
8535		-625.000000
8536		-625.000000
8537		-625.000000
8538		-625.000000
8539		-625.000000
8540		-625.000000
8541		-625.000000
8542		-625.000000
8543		-625.000000
8544		-625.000000
8545		-625.000000
8546		-625.000000
8547		-625.000000
8548		-625.000000
8549		-625.000000
8550		-625.000000
8551		-625.000000
8552		-625.000000
8553		-625.000000
8554		-625.000000
8555		-664.062500
8556		-664.062500
8557		-664.062500
8558		-664.062500
8559		-664.062500
8560		-664.062500
8561		-664.062500
8562		-664.062500
8563		-664.062500
8564		-664.062500
8565		-664.062500
8566		-664.062500
8567		-664.062500
8568		-664.062500
8569		-664.062500
8570		-664.062500
8571		-664.062500
8572		-664.062500
8573		-664.062500
8574		-664.062500
8575		-664.062500
8576		-664.062500
8577		-664.062500
8578		-664.062500
8579		-664.062500
8580		-664.062500
8581		-664.062500
8582		-664.062500
8583		-664.062500
8584		-664.062500
8585		-664.062500
8586		-664.062500
8587		-664.062500
8588		-664.062500
8589		-664.062500
8590		-664.062500
8591		-664.062500
8592		-664.062500
8593		-664.062500
8594		-664.062500
8595		-664.062500
8596		-664.062500
8597		-703.125000
8598		-664.062500
8599		-664.062500
8600		-664.062500
8601		-664.062500
8602		-664.062500
8603		-664.062500
8604		-664.062500
8605		-664.062500
8606		-664.062500
8607		-664.062500
8608		-664.062500
8609		-664.062500
8610		-664.062500
8611		-664.062500
8612		-664.062500
8613		-664.062500
8614		-664.062500
8615		-664.062500
8616		-703.125000
8617		-703.125000
8618		-664.062500
8619		-664.062500
8620		-703.125000
8621		-664.062500
8622		-664.062500
8623		-664.062500
8624		-664.062500
8625		-664.062500
8626		-664.062500
8627		-664.062500
8628		-664.062500
8629		-664.062500
8630		-664.062500
8631		-664.062500
8632		-664.062500
8633		-664.062500
8634		-664.062500
8635		-703.125000
8636		-664.062500
8637		-703.125000
8638		-664.062500
8639		-664.062500
8640		-664.062500
8641		-664.062500
8642		-664.062500
8643		-664.062500
8644		-664.062500
8645		-664.062500
8646		-664.062500
8647		-664.062500
8648		-664.062500
8649		-664.062500
8650		-664.062500
8651		-664.062500
8652		-703.125000
8653		-703.125000
8654		-664.062500
8655		-703.125000
8656		-703.125000
8657		-703.125000
8658		-703.125000
8659		-703.125000
8660		-664.062500
8661		-664.062500
8662		-664.062500
8663		-664.062500
8664		-664.062500
8665		-664.062500
8666		-703.125000
8667		-664.062500
8668		-664.062500
8669		-664.062500
8670		-664.062500
8671		-664.062500
8672		-664.062500
8673		-664.062500
8674		-664.062500
8675		-664.062500
8676		-703.125000
8677		-664.062500
8678		-664.062500
8679		-664.062500
8680		-664.062500
8681		-664.062500
8682		-664.062500
8683		-664.062500
8684		-664.062500
8685		-664.062500
8686		-664.062500
8687		-664.062500
8688		-664.062500
8689		-664.062500
8690		-664.062500
8691		-664.062500
8692		-664.062500
8693		-664.062500
8694		-664.062500
8695		-664.062500
8696		-664.062500
8697		-664.062500
8698		-664.062500
8699		-664.062500
8700		-664.062500
8701		-664.062500
8702		-664.062500
8703		-664.062500
8704		-664.062500
8705		-664.062500
8706		-664.062500
8707		-664.062500
8708		-664.062500
8709		-664.062500
8710		-664.062500
8711		-664.062500
8712		-664.062500
8713		-664.062500
8714		-664.062500
8715		-664.062500
8716		-664.062500
8717		-664.062500
8718		-664.062500
8719		-664.062500
8720		-664.062500
8721		-664.062500
8722		-664.062500
8723		-664.062500
8724		-664.062500
8725		-664.062500
8726		-664.062500
8727		-664.062500
8728		-664.062500
8729		-664.062500
8730		-664.062500
8731		-664.062500
8732		-664.062500
8733		-664.062500
8734		-664.062500
8735		-664.062500
8736		-664.062500
8737		-664.062500
8738		-664.062500
8739		-664.062500
8740		-664.062500
8741		-664.062500
8742		-664.062500
8743		-664.062500
8744		-664.062500
8745		-664.062500
8746		-664.062500
8747		-664.062500
8748		-664.062500
8749		-625.000000
8750		-625.000000
8751		-625.000000
8752		-625.000000
8753		-625.000000
8754		-625.000000
8755		-625.000000
8756		-664.062500
8757		-664.062500
8758		-664.062500
8759		-664.062500
8760		-625.000000
8761		-625.000000
8762		-625.000000
8763		-625.000000
8764		-625.000000
8765		-625.000000
8766		-625.000000
8767		-625.000000
8768		-625.000000
8769		-625.000000
8770		-625.000000
8771		-625.000000
8772		-625.000000
8773		-625.000000
8774		-625.000000
8775		-625.000000
8776		-625.000000
8777		-625.000000
8778		-625.000000
8779		-625.000000
8780		-625.000000
8781		-625.000000
8782		-625.000000
8783		-625.000000
8784		-625.000000
8785		-585.937500
8786		-585.937500
8787		-625.000000
8788		-585.937500
8789		-585.937500
8790		-585.937500
8791		-585.937500
8792		-625.000000
8793		-625.000000
8794		-625.000000
8795		-585.937500
8796		-585.937500
8797		-585.937500
8798		-585.937500
8799		-625.000000
8800		-585.937500
8801		-585.937500
8802		-585.937500
8803		-585.937500
8804		-585.937500
8805		-585.937500
8806		-585.937500
8807		-585.937500
8808		-585.937500
8809		-585.937500
8810		-585.937500
8811		-585.937500
8812		-585.937500
8813		-585.937500
8814		-585.937500
8815		-585.937500
8816		-585.937500
8817		-585.937500
8818		-585.937500
8819		-585.937500
8820		-585.937500
8821		-585.937500
8822		-546.875000
8823		-546.875000
8824		-546.875000
8825		-546.875000
8826		-546.875000
8827		-546.875000
8828		-546.875000
8829		-546.875000
8830		-546.875000
8831		-546.875000
8832		-546.875000
8833		-546.875000
8834		-546.875000
8835		-546.875000
8836		-546.875000
8837		-546.875000
8838		-546.875000
8839		-546.875000
8840		-546.875000
8841		-546.875000
8842		-546.875000
8843		-546.875000
8844		-546.875000
8845		-546.875000
8846		-546.875000
8847		-507.812500
8848		-507.812500
8849		-546.875000
8850		-507.812500
8851		-507.812500
8852		-507.812500
8853		-507.812500
8854		-507.812500
8855		-507.812500
8856		-507.812500
8857		-507.812500
8858		-507.812500
8859		-507.812500
8860		-507.812500
8861		-507.812500
8862		-507.812500
8863		-507.812500
8864		-507.812500
8865		-507.812500
8866		-507.812500
8867		-507.812500
8868		-507.812500
8869		-507.812500
8870		-468.750000
8871		-468.750000
8872		-507.812500
8873		-468.750000
8874		-468.750000
8875		-468.750000
8876		-468.750000
8877		-468.750000
8878		-468.750000
8879		-468.750000
8880		-468.750000
8881		-468.750000
8882		-468.750000
8883		-468.750000
8884		-468.750000
8885		-468.750000
8886		-468.750000
8887		-468.750000
8888		-429.687500
8889		-429.687500
8890		-429.687500
8891		-429.687500
8892		-429.687500
8893		-429.687500
8894		-429.687500
8895		-429.687500
8896		-429.687500
8897		-429.687500
8898		-429.687500
8899		-429.687500
8900		-429.687500
8901		-429.687500
8902		-429.687500
8903		-429.687500
8904		-429.687500
8905		-429.687500
8906		-390.625000
8907		-429.687500
8908		-390.625000
8909		-390.625000
8910		-390.625000
8911		-390.625000
8912		-390.625000
8913		-390.625000
8914		-390.625000
8915		-390.625000
8916		-390.625000
8917		-390.625000
8918		-390.625000
8919		-390.625000
8920		-390.625000
8921		-390.625000
8922		-390.625000
8923		-390.625000
8924		-351.562500
8925		-351.562500
8926		-351.562500
8927		-351.562500
8928		-351.562500
8929		-351.562500
8930		-351.562500
8931		-351.562500
8932		-351.562500
8933		-351.562500
8934		-351.562500
8935		-351.562500
8936		-351.562500
8937		-351.562500
8938		-351.562500
8939		-351.562500
8940		-351.562500
8941		-351.562500
8942		-312.500000
8943		-312.500000
8944		-312.500000
8945		-312.500000
8946		-312.500000
8947		-312.500000
8948		-312.500000
8949		-312.500000
8950		-273.437500
8951		-312.500000
8952		-312.500000
8953		-312.500000
8954		-273.437500
8955		-312.500000
8956		-312.500000
8957		-273.437500
8958		-273.437500
8959		-273.437500
8960		-273.437500
8961		-273.437500
8962		-273.437500
8963		-273.437500
8964		-273.437500
8965		-234.375000
8966		-234.375000
8967		-234.375000
8968		-234.375000
8969		-234.375000
8970		-234.375000
8971		-234.375000
8972		-234.375000
8973		-234.375000
8974		-234.375000
8975		-234.375000
8976		-234.375000
8977		-234.375000
8978		-234.375000
8979		-234.375000
8980		-195.312500
8981		-195.312500
8982		-195.312500
8983		-195.312500
8984		-195.312500
8985		-195.312500
8986		-195.312500
8987		-195.312500
8988		-195.312500
8989		-195.312500
8990		-156.250000
8991		-156.250000
8992		-156.250000
8993		-156.250000
8994		-156.250000
8995		-156.250000
8996		-156.250000
8997		-156.250000
8998		-156.250000
8999		-156.250000
9000		-156.250000
9001		-117.187500
9002		-117.187500
9003		-117.187500
9004		-117.187500
9005		-117.187500
9006		-117.187500
9007		-117.187500
9008		-117.187500
9009		-117.187500
9010		-117.187500
9011		-117.187500
9012		-78.125000
9013		-78.125000
9014		-78.125000
9015		-78.125000
9016		-78.125000
9017		-78.125000
9018		-78.125000
9019		-78.125000
9020		-78.125000
9021		-39.062500
9022		-39.062500
9023		-39.062500
9024		-39.062500
9025		-39.062500
9026		-39.062500
9027		-39.062500
9028		-39.062500
9029		-39.062500
9030		-39.062500
9031		0.000000
9032		0.000000
9033		0.000000
9034		0.000000
9035		0.000000
9036		0.000000
9037		0.000000
9038		0.000000
9039		39.062500
9040		39.062500
9041		39.062500
9042		39.062500
9043		39.062500
9044		39.062500
9045		39.062500
9046		39.062500
9047		39.062500
9048		78.125000
9049		78.125000
9050		78.125000
9051		78.125000
9052		78.125000
9053		78.125000
9054		78.125000
9055		78.125000
9056		78.125000
9057		117.187500
9058		117.187500
9059		117.187500
9060		117.187500
9061		117.187500
9062		117.187500
9063		117.187500
9064		156.250000
9065		156.250000
9066		156.250000
9067		156.250000
9068		156.250000
9069		156.250000
9070		156.250000
9071		195.312500
9072		195.312500
9073		195.312500
9074		195.312500
9075		195.312500
9076		195.312500
9077		195.312500
9078		195.312500
9079		234.375000
9080		234.375000
9081		234.375000
9082		234.375000
9083		234.375000
9084		234.375000
9085		234.375000
9086		234.375000
9087		273.437500
9088		273.437500
9089		273.437500
9090		273.437500
9091		273.437500
9092		273.437500
9093		312.500000
9094		312.500000
9095		312.500000
9096		312.500000
9097		312.500000
9098		312.500000
9099		312.500000
9100		312.500000
9101		312.500000
9102		351.562500
9103		351.562500
9104		351.562500
9105		351.562500
9106		351.562500
9107		390.625000
9108		390.625000
9109		390.625000
9110		390.625000
9111		390.625000
9112		390.625000
9113		390.625000
9114		390.625000
9115		429.687500
9116		429.687500
9117		429.687500
9118		429.687500
9119		429.687500
9120		429.687500
9121		429.687500
9122		429.687500
9123		468.750000
9124		468.750000
9125		468.750000
9126		468.750000
9127		507.812500
9128		507.812500
9129		507.812500
9130		507.812500
9131		507.812500
9132		507.812500
9133		507.812500
9134		507.812500
9135		546.875000
9136		546.875000
9137		546.875000
9138		546.875000
9139		546.875000
9140		546.875000
9141		546.875000
9142		546.875000
9143		585.937500
9144		585.937500
9145		585.937500
9146		585.937500
9147		625.000000
9148		625.000000
9149		625.000000
9150		625.000000
9151		625.000000
9152		625.000000
9153		664.062500
9154		664.062500
9155		664.062500
9156		664.062500
9157		664.062500
9158		664.062500
9159		664.062500
9160		703.125000
9161		703.125000
9162		703.125000
9163		703.125000
9164		703.125000
9165		703.125000
9166		742.187500
9167		742.187500
9168		742.187500
9169		742.187500
9170		742.187500
9171		742.187500
9172		742.187500
9173		781.250000
9174		781.250000
9175		781.250000
9176		781.250000
9177		781.250000
9178		781.250000
9179		820.312500
9180		820.312500
9181		820.312500
9182		820.312500
9183		820.312500
9184		859.375000
9185		859.375000
9186		859.375000
9187		859.375000
9188		859.375000
9189		859.375000
9190		898.437500
9191		898.437500
9192		898.437500
9193		898.437500
9194		898.437500
9195		898.437500
9196		898.437500
9197		898.437500
9198		937.500000
9199		937.500000
9200		937.500000
9201		937.500000
9202		937.500000
9203		976.562500
9204		976.562500
9205		976.562500
9206		976.562500
9207		976.562500
9208		976.562500
9209		1015.625000
9210		1015.625000
9211		1015.625000
9212		1015.625000
9213		1015.625000
9214		1015.625000
9215		1054.687500
9216		1054.687500
9217		1054.687500
9218		1054.687500
9219		1054.687500
9220		1054.687500
9221		1093.750000
9222		1093.750000
9223		1093.750000
9224		1093.750000
9225		1093.750000
9226		1132.812500
9227		1132.812500
9228		1132.812500
9229		1132.812500
9230		1132.812500
9231		1132.812500
9232		1132.812500
9233		1132.812500
9234		1171.875000
9235		1171.875000
9236		1171.875000
9237		1171.875000
9238		1171.875000
9239		1210.937500
9240		1210.937500
9241		1210.937500
9242		1210.937500
9243		1210.937500
9244		1210.937500
9245		1210.937500
9246		1250.000000
9247		1250.000000
9248		1250.000000
9249		1250.000000
9250		1250.000000
9251		1289.062500
9252		1289.062500
9253		1289.062500
9254		1289.062500
9255		1289.062500
9256		1289.062500
9257		1328.125000
9258		1328.125000
9259		1328.125000
9260		1328.125000
9261		1328.125000
9262		1328.125000
9263		1328.125000
9264		1367.187500
9265		1367.187500
9266		1367.187500
9267		1367.187500
9268		1367.187500
9269		1367.187500
9270		1367.187500
9271		1406.250000
9272		1406.250000
9273		1406.250000
9274		1406.250000
9275		1406.250000
9276		1406.250000
9277		1406.250000
9278		1445.312500
9279		1445.312500
9280		1445.312500
9281		1445.312500
9282		1445.312500
9283		1484.375000
9284		1484.375000
9285		1484.375000
9286		1484.375000
9287		1484.375000
9288		1484.375000
9289		1484.375000
9290		1523.437500
9291		1523.437500
9292		1523.437500
9293		1523.437500
9294		1523.437500
9295		1523.437500
9296		1523.437500
9297		1523.437500
9298		1562.500000
9299		1562.500000
9300		1562.500000
9301		1562.500000
9302		1562.500000
9303		1562.500000
9304		1601.562500
9305		1601.562500
9306		1601.562500
9307		1601.562500
9308		1601.562500
9309		1601.562500
9310		1640.625000
9311		1640.625000
9312		1640.625000
9313		1640.625000
9314		1640.625000
9315		1640.625000
9316		1640.625000
9317		1640.625000
9318		1640.625000
9319		1679.687500
9320		1679.687500
9321		1679.687500
9322		1679.687500
9323		1679.687500
9324		1679.687500
9325		1679.687500
9326		1718.750000
9327		1718.750000
9328		1718.750000
9329		1718.750000
9330		1718.750000
9331		1718.750000
9332		1718.750000
9333		1718.750000
9334		1718.750000
9335		1718.750000
9336		1718.750000
9337		1757.812500
9338		1757.812500
9339		1757.812500
9340		1757.812500
9341		1757.812500
9342		1757.812500
9343		1796.875000
9344		1796.875000
9345		1796.875000
9346		1796.875000
9347		1796.875000
9348		1796.875000
9349		1796.875000
9350		1796.875000
9351		1796.875000
9352		1796.875000
9353		1835.937500
9354		1796.875000
9355		1835.937500
9356		1835.937500
9357		1835.937500
9358		1835.937500
9359		1835.937500
9360		1835.937500
9361		1835.937500
9362		1835.937500
9363		1875.000000
9364		1875.000000
9365		1875.000000
9366		1875.000000
9367		1875.000000
9368		1875.000000
9369		1875.000000
9370		1875.000000
9371		1875.000000
9372		1875.000000
9373		1875.000000
9374		1875.000000
9375		1875.000000
9376		1875.000000
9377		1914.062500
9378		1914.062500
9379		1914.062500
9380		1914.062500
9381		1914.062500
9382		1914.062500
9383		1914.062500
9384		1914.062500
9385		1953.125000
9386		1953.125000
9387		1953.125000
9388		1953.125000
9389		1953.125000
9390		1953.125000
9391		1953.125000
9392		1953.125000
9393		1953.125000
9394		1953.125000
9395		1953.125000
9396		1953.125000
9397		1953.125000
9398		1953.125000
9399		1953.125000
9400		1953.125000
9401		1992.187500
9402		1992.187500
9403		1992.187500
9404		1992.187500
9405		1992.187500
9406		1992.187500
9407		1992.187500
9408		1992.187500
9409		1992.187500
9410		1992.187500
9411		1992.187500
9412		1992.187500
9413		1992.187500
9414		1992.187500
9415		1992.187500
9416		1992.187500
9417		1992.187500
9418		1953.125000
9419		1992.187500
9420		2031.250000
9421		1992.187500
9422		1992.187500
9423		2031.250000
9424		2031.250000
9425		2031.250000
9426		2031.250000
9427		2031.250000
9428		2031.250000
9429		2031.250000
9430		2031.250000
9431		2031.250000
9432		2031.250000
9433		2031.250000
9434		2031.250000
9435		2031.250000
9436		2031.250000
9437		2031.250000
9438		2031.250000
9439		2031.250000
9440		2031.250000
9441		2031.250000
9442		2031.250000
9443		2031.250000
9444		2031.250000
9445		2031.250000
9446		2031.250000
9447		2031.250000
9448		2031.250000
9449		2031.250000
9450		2031.250000
9451		2031.250000
9452		2031.250000
9453		2031.250000
9454		2031.250000
9455		2031.250000
9456		2031.250000
9457		2031.250000
9458		2031.250000
9459		2031.250000
9460		2031.250000
9461		2031.250000
9462		2031.250000
9463		2031.250000
9464		2031.250000
9465		2031.250000
9466		2031.250000
9467		2031.250000
9468		2031.250000
9469		2031.250000
9470		2031.250000
9471		2031.250000
9472		2031.250000
9473		2031.250000
9474		2031.250000
9475		2031.250000
9476		2031.250000
9477		2031.250000
9478		2031.250000
9479		2031.250000
9480		2031.250000
9481		2031.250000
9482		2031.250000
9483		2031.250000
9484		2031.250000
9485		2031.250000
9486		2031.250000
9487		2031.250000
9488		2031.250000
9489		2031.250000
9490		2031.250000
9491		2031.250000
9492		2031.250000
9493		2031.250000
9494		2031.250000
9495		2031.250000
9496		2031.250000
9497		2031.250000
9498		2031.250000
9499		2031.250000
9500		2031.250000
9501		1992.187500
9502		2031.250000
9503		2031.250000
9504		2031.250000
9505		1992.187500
9506		2031.250000
9507		2031.250000
9508		1992.187500
9509		2031.250000
9510		1992.187500
9511		1992.187500
9512		1992.187500
9513		1992.187500
9514		1992.187500
9515		1992.187500
9516		1992.187500
9517		1992.187500
9518		1992.187500
9519		1992.187500
9520		1992.187500
9521		1992.187500
9522		1992.187500
9523		1953.125000
9524		1953.125000
9525		1992.187500
9526		1953.125000
9527		1992.187500
9528		1953.125000
9529		1953.125000
9530		1992.187500
9531		1953.125000
9532		1953.125000
9533		1953.125000
9534		1953.125000
9535		1914.062500
9536		1953.125000
9537		1914.062500
9538		1914.062500
9539		1914.062500
9540		1914.062500
9541		1914.062500
9542		1914.062500
9543		1914.062500
9544		1914.062500
9545		1914.062500
9546		1914.062500
9547		1914.062500
9548		1914.062500
9549		1914.062500
9550		1914.062500
9551		1914.062500
9552		1875.000000
9553		1875.000000
9554		1875.000000
9555		1875.000000
9556		1875.000000
9557		1875.000000
9558		1875.000000
9559		1875.000000
9560		1875.000000
9561		1875.000000
9562		1835.937500
9563		1875.000000
9564		1875.000000
9565		1875.000000
9566		1835.937500
9567		1835.937500
9568		1835.937500
9569		1835.937500
9570		1835.937500
9571		1835.937500
9572		1835.937500
9573		1796.875000
9574		1796.875000
9575		1796.875000
9576		1796.875000
9577		1796.875000
9578		1796.875000
9579		1796.875000
9580		1796.875000
9581		1796.875000
9582		1796.875000
9583		1796.875000
9584		1796.875000
9585		1757.812500
9586		1757.812500
9587		1757.812500
9588		1757.812500
9589		1757.812500
9590		1757.812500
9591		1757.812500
9592		1718.750000
9593		1718.750000
9594		1718.750000
9595		1718.750000
9596		1718.750000
9597		1718.750000
9598		1718.750000
9599		1718.750000
9600		1718.750000
9601		1718.750000
9602		1679.687500
9603		1679.687500
9604		1679.687500
9605		1679.687500
9606		1679.687500
9607		1679.687500
9608		1679.687500
9609		1640.625000
9610		1640.625000
9611		1640.625000
9612		1640.625000
9613		1640.625000
9614		1640.625000
9615		1640.625000
9616		1640.625000
9617		1601.562500
9618		1601.562500
9619		1601.562500
9620		1601.562500
9621		1601.562500
9622		1601.562500
9623		1601.562500
9624		1562.500000
9625		1562.500000
9626		1562.500000
9627		1562.500000
9628		1562.500000
9629		1562.500000
9630		1562.500000
9631		1523.437500
9632		1523.437500
9633		1523.437500
9634		1523.437500
9635		1523.437500
9636		1523.437500
9637		1523.437500
9638		1484.375000
9639		1484.375000
9640		1484.375000
9641		1484.375000
9642		1484.375000
9643		1484.375000
9644		1484.375000
9645		1484.375000
9646		1445.312500
9647		1445.312500
9648		1445.312500
9649		1445.312500
9650		1445.312500
9651		1445.312500
9652		1445.312500
9653		1406.250000
9654		1406.250000
9655		1406.250000
9656		1406.250000
9657		1406.250000
9658		1406.250000
9659		1367.187500
9660		1367.187500
9661		1367.187500
9662		1367.187500
9663		1367.187500
9664		1328.125000
9665		1367.187500
9666		1367.187500
9667		1328.125000
9668		1367.187500
9669		1328.125000
9670		1328.125000
9671		1328.125000
9672		1328.125000
9673		1289.062500
9674		1289.062500
9675		1289.062500
9676		1289.062500
9677		1289.062500
9678		1289.062500
9679		1250.000000
9680		1250.000000
9681		1250.000000
9682		1250.000000
9683		1250.000000
9684		1250.000000
9685		1250.000000
9686		1210.937500
9687		1210.937500
9688		1210.937500
9689		1210.937500
9690		1210.937500
9691		1210.937500
9692		1210.937500
9693		1171.875000
9694		1171.875000
9695		1171.875000
9696		1171.875000
9697		1171.875000
9698		1132.812500
9699		1132.812500
9700		1132.812500
9701		1132.812500
9702		1132.812500
9703		1132.812500
9704		1132.812500
9705		1132.812500
9706		1093.750000
9707		1093.750000
9708		1093.750000
9709		1093.750000
9710		1093.750000
9711		1093.750000
9712		1093.750000
9713		1054.687500
9714		1054.687500
9715		1054.687500
9716		1054.687500
9717		1054.687500
9718		1015.625000
9719		1015.625000
9720		1015.625000
9721		1015.625000
9722		1015.625000
9723		1015.625000
9724		1015.625000
9725		1015.625000
9726		1015.625000
9727		976.562500
9728		976.562500
9729		976.562500
9730		976.562500
9731		976.562500
9732		937.500000
9733		937.500000
9734		937.500000
9735		937.500000
9736		937.500000
9737		898.437500
9738		898.437500
9739		898.437500
9740		898.437500
9741		898.437500
9742		898.437500
9743		898.437500
9744		898.437500
9745		859.375000
9746		859.375000
9747		859.375000
9748		859.375000
9749		859.375000
9750		859.375000
9751		820.312500
9752		820.312500
9753		820.312500
9754		820.312500
9755		820.312500
9756		820.312500
9757		781.250000
9758		781.250000
9759		781.250000
9760		781.250000
9761		781.250000
9762		781.250000
9763		781.250000
9764		781.250000
9765		781.250000
9766		742.187500
9767		742.187500
9768		742.187500
9769		742.187500
9770		742.187500
9771		742.187500
9772		703.125000
9773		703.125000
9774		703.125000
9775		703.125000
9776		703.125000
9777		703.125000
9778		664.062500
9779		664.062500
9780		664.062500
9781		664.062500
9782		664.062500
9783		664.062500
9784		664.062500
9785		664.062500
9786		625.000000
9787		625.000000
9788		625.000000
9789		625.000000
9790		625.000000
9791		625.000000
9792		585.937500
9793		585.937500
9794		585.937500
9795		585.937500
9796		585.937500
9797		585.937500
9798		585.937500
9799		585.937500
9800		546.875000
9801		546.875000
9802		546.875000
9803		546.875000
9804		546.875000
9805		546.875000
9806		546.875000
9807		507.812500
9808		507.812500
9809		507.812500
9810		507.812500
9811		507.812500
9812		507.812500
9813		468.750000
9814		468.750000
9815		468.750000
9816		468.750000
9817		468.750000
9818		468.750000
9819		468.750000
9820		468.750000
9821		429.687500
9822		429.687500
9823		429.687500
9824		429.687500
9825		429.687500
9826		429.687500
9827		429.687500
9828		429.687500
9829		390.625000
9830		390.625000
9831		390.625000
9832		390.625000
9833		390.625000
9834		390.625000
9835		390.625000
9836		351.562500
9837		351.562500
9838		351.562500
9839		351.562500
9840		351.562500
9841		351.562500
9842		351.562500
9843		351.562500
9844		351.562500
9845		312.500000
9846		312.500000
9847		312.500000
9848		312.500000
9849		312.500000
9850		312.500000
9851		312.500000
9852		312.500000
9853		273.437500
9854		273.437500
9855		273.437500
9856		273.437500
9857		273.437500
9858		273.437500
9859		273.437500
9860		273.437500
9861		234.375000
9862		234.375000
9863		234.375000
9864		234.375000
9865		234.375000
9866		234.375000
9867		234.375000
9868		234.375000
9869		234.375000
9870		234.375000
9871		195.312500
9872		195.312500
9873		195.312500
9874		195.312500
9875		195.312500
9876		195.312500
9877		195.312500
9878		195.312500
9879		156.250000
9880		156.250000
9881		156.250000
9882		156.250000
9883		156.250000
9884		156.250000
9885		156.250000
9886		156.250000
9887		156.250000
9888		156.250000
9889		156.250000
9890		117.187500
9891		117.187500
9892		117.187500
9893		117.187500
9894		117.187500
9895		117.187500
9896		117.187500
9897		78.125000
9898		78.125000
9899		78.125000
9900		78.125000
9901		78.125000
9902		78.125000
9903		78.125000
9904		78.125000
9905		78.125000
9906		78.125000
9907		78.125000
9908		39.062500
9909		39.062500
9910		39.062500
9911		39.062500
9912		39.062500
9913		39.062500
9914		39.062500
9915		39.062500
9916		39.062500
9917		0.000000
9918		0.000000
9919		0.000000
9920		0.000000
9921		0.000000
9922		0.000000
9923		0.000000
9924		0.000000
9925		0.000000
9926		0.000000
9927		0.000000
9928		0.000000
9929		0.000000
9930		-39.062500
9931		-39.062500
9932		-39.062500
9933		-39.062500
9934		-39.062500
9935		-39.062500
9936		-39.062500
9937		-39.062500
9938		-78.125000
9939		-78.125000
9940		-78.125000
9941		-78.125000
9942		-78.125000
9943		-78.125000
9944		-78.125000
9945		-78.125000
9946		-78.125000
9947		-78.125000
9948		-78.125000
9949		-78.125000
9950		-78.125000
9951		-117.187500
9952		-117.187500
9953		-117.187500
9954		-117.187500
9955		-117.187500
9956		-117.187500
9957		-117.187500
9958		-117.187500
9959		-117.187500
9960		-117.187500
9961		-117.187500
9962		-156.250000
9963		-117.187500
9964		-117.187500
9965		-156.250000
9966		-156.250000
9967		-156.250000
9968		-156.250000
9969		-156.250000
9970		-156.250000
9971		-156.250000
9972		-195.312500
9973		-195.312500
9974		-195.312500
9975		-195.312500
9976		-195.312500
9977		-195.312500
9978		-195.312500
9979		-195.312500
9980		-195.312500
9981		-195.312500
9982		-195.312500
9983		-195.312500
9984		-195.312500
9985		-195.312500
9986		-195.312500
9987		-195.312500
9988		-234.375000
9989		-234.375000
9990		-234.375000
9991		-234.375000
9992		-234.375000
9993		-234.375000
9994		-234.375000
9995		-234.375000
9996		-234.375000
9997		-234.375000
9998		-234.375000
9999		-234.375000
10000		-234.375000
