Channel              :		CH1
Frequency            :		  ?
Period               :		  ?
PK-PK                :		2.148V
Probe attenuation    :		1X
Voltage per ADC value:		2.441406mV
Time interval        :		1000.00000us

index		CH1_Voltage(mV)
1		1757.812500
2		1757.812500
3		1718.750000
4		1718.750000
5		1718.750000
6		1757.812500
7		1757.812500
8		1757.812500
9		1718.750000
10		1718.750000
11		1757.812500
12		1757.812500
13		1718.750000
14		1757.812500
15		1718.750000
16		1757.812500
17		1757.812500
18		1757.812500
19		1718.750000
20		1718.750000
21		1718.750000
22		1757.812500
23		1757.812500
24		1718.750000
25		1757.812500
26		1718.750000
27		1718.750000
28		1757.812500
29		1757.812500
30		1757.812500
31		1718.750000
32		1718.750000
33		1757.812500
34		1757.812500
35		1757.812500
36		1718.750000
37		1757.812500
38		1718.750000
39		1757.812500
40		1718.750000
41		1757.812500
42		1718.750000
43		1757.812500
44		1757.812500
45		1757.812500
46		1757.812500
47		1718.750000
48		1718.750000
49		1718.750000
50		1757.812500
51		1757.812500
52		1757.812500
53		1718.750000
54		1718.750000
55		1757.812500
56		1757.812500
57		1757.812500
58		1718.750000
59		1718.750000
60		1718.750000
61		1757.812500
62		1757.812500
63		1757.812500
64		1757.812500
65		1718.750000
66		1718.750000
67		1757.812500
68		1757.812500
69		1718.750000
70		1718.750000
71		1757.812500
72		1757.812500
73		1757.812500
74		1757.812500
75		1718.750000
76		1718.750000
77		1757.812500
78		1757.812500
79		1757.812500
80		1757.812500
81		1718.750000
82		1718.750000
83		1757.812500
84		1718.750000
85		1757.812500
86		1757.812500
87		1718.750000
88		1718.750000
89		1757.812500
90		1757.812500
91		1757.812500
92		1718.750000
93		1718.750000
94		1757.812500
95		1757.812500
96		1757.812500
97		1718.750000
98		1718.750000
99		1757.812500
100		1757.812500
101		1757.812500
102		1757.812500
103		1718.750000
104		1718.750000
105		1757.812500
106		1757.812500
107		1757.812500
108		1757.812500
109		1757.812500
110		1718.750000
111		1757.812500
112		1757.812500
113		1718.750000
114		1718.750000
115		1718.750000
116		1757.812500
117		1757.812500
118		1757.812500
119		1718.750000
120		1718.750000
121		1718.750000
122		1757.812500
123		1757.812500
124		1757.812500
125		1718.750000
126		1718.750000
127		1757.812500
128		1757.812500
129		1757.812500
130		1718.750000
131		1718.750000
132		1718.750000
133		1757.812500
134		1757.812500
135		1757.812500
136		1757.812500
137		1718.750000
138		1718.750000
139		1757.812500
140		1757.812500
141		1718.750000
142		1718.750000
143		1718.750000
144		1757.812500
145		1757.812500
146		1718.750000
147		1718.750000
148		1718.750000
149		1718.750000
150		1757.812500
151		1757.812500
152		1757.812500
153		1718.750000
154		1718.750000
155		1757.812500
156		1757.812500
157		1757.812500
158		1718.750000
159		1718.750000
160		1718.750000
161		1757.812500
162		1757.812500
163		1757.812500
164		1718.750000
165		1718.750000
166		1757.812500
167		1757.812500
168		1757.812500
169		1718.750000
170		1718.750000
171		1718.750000
172		1757.812500
173		1757.812500
174		1757.812500
175		1718.750000
176		1718.750000
177		1718.750000
178		1757.812500
179		1757.812500
180		1757.812500
181		1718.750000
182		1718.750000
183		1757.812500
184		1757.812500
185		1757.812500
186		1718.750000
187		1718.750000
188		1757.812500
189		1757.812500
190		1757.812500
191		1718.750000
192		1718.750000
193		1718.750000
194		1757.812500
195		1757.812500
196		1757.812500
197		1718.750000
198		1757.812500
199		1718.750000
200		1757.812500
201		1757.812500
202		1757.812500
203		1718.750000
204		1718.750000
205		1757.812500
206		1757.812500
207		1757.812500
208		1757.812500
209		1718.750000
210		1757.812500
211		1757.812500
212		1757.812500
213		1718.750000
214		1718.750000
215		1757.812500
216		1757.812500
217		1757.812500
218		1757.812500
219		1757.812500
220		1718.750000
221		1718.750000
222		1757.812500
223		1757.812500
224		1757.812500
225		1718.750000
226		1718.750000
227		1757.812500
228		1757.812500
229		1757.812500
230		1718.750000
231		1718.750000
232		1718.750000
233		1757.812500
234		1757.812500
235		1757.812500
236		1718.750000
237		1718.750000
238		1718.750000
239		1757.812500
240		1718.750000
241		1757.812500
242		1757.812500
243		1757.812500
244		1757.812500
245		1757.812500
246		1757.812500
247		1718.750000
248		1718.750000
249		1718.750000
250		1757.812500
251		1757.812500
252		1757.812500
253		1718.750000
254		1718.750000
255		1757.812500
256		1757.812500
257		1718.750000
258		1718.750000
259		1718.750000
260		1718.750000
261		1757.812500
262		1757.812500
263		1757.812500
264		1718.750000
265		1718.750000
266		1757.812500
267		1757.812500
268		1757.812500
269		1718.750000
270		1718.750000
271		1718.750000
272		1757.812500
273		1757.812500
274		1757.812500
275		1718.750000
276		1718.750000
277		1757.812500
278		1757.812500
279		1757.812500
280		1718.750000
281		1757.812500
282		1718.750000
283		1757.812500
284		1718.750000
285		1757.812500
286		1718.750000
287		1718.750000
288		1757.812500
289		1757.812500
290		1757.812500
291		1757.812500
292		1718.750000
293		1718.750000
294		1757.812500
295		1757.812500
296		1718.750000
297		1757.812500
298		1718.750000
299		1757.812500
300		1757.812500
301		1757.812500
302		1718.750000
303		1718.750000
304		1718.750000
305		1757.812500
306		1757.812500
307		1757.812500
308		1718.750000
309		1757.812500
310		1718.750000
311		1757.812500
312		1757.812500
313		1718.750000
314		1718.750000
315		1718.750000
316		1757.812500
317		1757.812500
318		1757.812500
319		1718.750000
320		1718.750000
321		1718.750000
322		1757.812500
323		1757.812500
324		1757.812500
325		1757.812500
326		1718.750000
327		1757.812500
328		1757.812500
329		1757.812500
330		1718.750000
331		1718.750000
332		1718.750000
333		1757.812500
334		1757.812500
335		1757.812500
336		1757.812500
337		1718.750000
338		1757.812500
339		1757.812500
340		1718.750000
341		1718.750000
342		1718.750000
343		1757.812500
344		1757.812500
345		1757.812500
346		1757.812500
347		1718.750000
348		1718.750000
349		1757.812500
350		1757.812500
351		1757.812500
352		1718.750000
353		1718.750000
354		1718.750000
355		1718.750000
356		1757.812500
357		1757.812500
358		1718.750000
359		1718.750000
360		1718.750000
361		1757.812500
362		1757.812500
363		1718.750000
364		1718.750000
365		1718.750000
366		1757.812500
367		1757.812500
368		1757.812500
369		1718.750000
370		1757.812500
371		1757.812500
372		1757.812500
373		1757.812500
374		1757.812500
375		1718.750000
376		1718.750000
377		1757.812500
378		1757.812500
379		1757.812500
380		1718.750000
381		1718.750000
382		1718.750000
383		1757.812500
384		1757.812500
385		1718.750000
386		1718.750000
387		1718.750000
388		1757.812500
389		1757.812500
390		1757.812500
391		1718.750000
392		1718.750000
393		1718.750000
394		1757.812500
395		1757.812500
396		1757.812500
397		1718.750000
398		1718.750000
399		1757.812500
400		1718.750000
401		1757.812500
402		1757.812500
403		1718.750000
404		1718.750000
405		1757.812500
406		1757.812500
407		1757.812500
408		1796.875000
409		1718.750000
410		1718.750000
411		1757.812500
412		1757.812500
413		1718.750000
414		1718.750000
415		1757.812500
416		1757.812500
417		1757.812500
418		1757.812500
419		1718.750000
420		1718.750000
421		1718.750000
422		1757.812500
423		1757.812500
424		1757.812500
425		1718.750000
426		1718.750000
427		1757.812500
428		1757.812500
429		1757.812500
430		1718.750000
431		1718.750000
432		1757.812500
433		1757.812500
434		1757.812500
435		1757.812500
436		1718.750000
437		1718.750000
438		1757.812500
439		1757.812500
440		1757.812500
441		1757.812500
442		1757.812500
443		1718.750000
444		1757.812500
445		1757.812500
446		1757.812500
447		1718.750000
448		1718.750000
449		1757.812500
450		1757.812500
451		1757.812500
452		1757.812500
453		1718.750000
454		1757.812500
455		1757.812500
456		1757.812500
457		1757.812500
458		1718.750000
459		1757.812500
460		1757.812500
461		1757.812500
462		1757.812500
463		1757.812500
464		1718.750000
465		1718.750000
466		1757.812500
467		1757.812500
468		1757.812500
469		1718.750000
470		1718.750000
471		1718.750000
472		1757.812500
473		1757.812500
474		1718.750000
475		1718.750000
476		1718.750000
477		1757.812500
478		1757.812500
479		1757.812500
480		1718.750000
481		1718.750000
482		1757.812500
483		1757.812500
484		1757.812500
485		1757.812500
486		1718.750000
487		1718.750000
488		1757.812500
489		1757.812500
490		1757.812500
491		1718.750000
492		1718.750000
493		1718.750000
494		1757.812500
495		1757.812500
496		1757.812500
497		1718.750000
498		1757.812500
499		1757.812500
500		1757.812500
501		1718.750000
502		1718.750000
503		1718.750000
504		1718.750000
505		1757.812500
506		1757.812500
507		1757.812500
508		1718.750000
509		1718.750000
510		1757.812500
511		1757.812500
512		1757.812500
513		1757.812500
514		1757.812500
515		1718.750000
516		1757.812500
517		1757.812500
518		1718.750000
519		1718.750000
520		1718.750000
521		1757.812500
522		1757.812500
523		1757.812500
524		1718.750000
525		1718.750000
526		1757.812500
527		1757.812500
528		1757.812500
529		1757.812500
530		1718.750000
531		1718.750000
532		1757.812500
533		1757.812500
534		1757.812500
535		1757.812500
536		1718.750000
537		1718.750000
538		1757.812500
539		1757.812500
540		1757.812500
541		1718.750000
542		1757.812500
543		1757.812500
544		1757.812500
545		1757.812500
546		1718.750000
547		1718.750000
548		1718.750000
549		1757.812500
550		1757.812500
551		1757.812500
552		1757.812500
553		1718.750000
554		1718.750000
555		1757.812500
556		1757.812500
557		1757.812500
558		1718.750000
559		1718.750000
560		1757.812500
561		1757.812500
562		1757.812500
563		1718.750000
564		1757.812500
565		1757.812500
566		1757.812500
567		1757.812500
568		1718.750000
569		1757.812500
570		1718.750000
571		1757.812500
572		1757.812500
573		1757.812500
574		1718.750000
575		1718.750000
576		1718.750000
577		1757.812500
578		1757.812500
579		1757.812500
580		1718.750000
581		1718.750000
582		1757.812500
583		1757.812500
584		1757.812500
585		1718.750000
586		1718.750000
587		1757.812500
588		1757.812500
589		1757.812500
590		1757.812500
591		1718.750000
592		1718.750000
593		1757.812500
594		1757.812500
595		1757.812500
596		1757.812500
597		1718.750000
598		1718.750000
599		1757.812500
600		1757.812500
601		1757.812500
602		1718.750000
603		1718.750000
604		1757.812500
605		1757.812500
606		1757.812500
607		1718.750000
608		1718.750000
609		1718.750000
610		1757.812500
611		1757.812500
612		1718.750000
613		1718.750000
614		1718.750000
615		1757.812500
616		1757.812500
617		1757.812500
618		1757.812500
619		1718.750000
620		1718.750000
621		1757.812500
622		1757.812500
623		1757.812500
624		1718.750000
625		1718.750000
626		1718.750000
627		1757.812500
628		1757.812500
629		1718.750000
630		1718.750000
631		1718.750000
632		1757.812500
633		1757.812500
634		1757.812500
635		1718.750000
636		1718.750000
637		1718.750000
638		1718.750000
639		1718.750000
640		1757.812500
641		1718.750000
642		1718.750000
643		1757.812500
644		1757.812500
645		1757.812500
646		1757.812500
647		1718.750000
648		1718.750000
649		1757.812500
650		1757.812500
651		1757.812500
652		1718.750000
653		1718.750000
654		1757.812500
655		1757.812500
656		1718.750000
657		1718.750000
658		1757.812500
659		1718.750000
660		1757.812500
661		1757.812500
662		1757.812500
663		1718.750000
664		1718.750000
665		1718.750000
666		1718.750000
667		1757.812500
668		1718.750000
669		1718.750000
670		1718.750000
671		1757.812500
672		1757.812500
673		1718.750000
674		1718.750000
675		1718.750000
676		1718.750000
677		1757.812500
678		1757.812500
679		1718.750000
680		1718.750000
681		1718.750000
682		1757.812500
683		1757.812500
684		1718.750000
685		1757.812500
686		1757.812500
687		1718.750000
688		1757.812500
689		1757.812500
690		1757.812500
691		1718.750000
692		1718.750000
693		1757.812500
694		1757.812500
695		1757.812500
696		1718.750000
697		1718.750000
698		1757.812500
699		1757.812500
700		1757.812500
701		1718.750000
702		1718.750000
703		1718.750000
704		1757.812500
705		1757.812500
706		1757.812500
707		1718.750000
708		1718.750000
709		1718.750000
710		1718.750000
711		1757.812500
712		1757.812500
713		1757.812500
714		1718.750000
715		1757.812500
716		1757.812500
717		1757.812500
718		1718.750000
719		1718.750000
720		1718.750000
721		1757.812500
722		1757.812500
723		1718.750000
724		1718.750000
725		1718.750000
726		1718.750000
727		1757.812500
728		1757.812500
729		1718.750000
730		1718.750000
731		1718.750000
732		1757.812500
733		1757.812500
734		1757.812500
735		1718.750000
736		1718.750000
737		1718.750000
738		1757.812500
739		1757.812500
740		1757.812500
741		1718.750000
742		1718.750000
743		1757.812500
744		1757.812500
745		1757.812500
746		1718.750000
747		1757.812500
748		1757.812500
749		1757.812500
750		1757.812500
751		1757.812500
752		1757.812500
753		1718.750000
754		1757.812500
755		1718.750000
756		1757.812500
757		1757.812500
758		1718.750000
759		1718.750000
760		1757.812500
761		1757.812500
762		1757.812500
763		1718.750000
764		1718.750000
765		1757.812500
766		1757.812500
767		1757.812500
768		1718.750000
769		1757.812500
770		1718.750000
771		1757.812500
772		1757.812500
773		1718.750000
774		1757.812500
775		1757.812500
776		1718.750000
777		1757.812500
778		1757.812500
779		1757.812500
780		1718.750000
781		1718.750000
782		1757.812500
783		1757.812500
784		1757.812500
785		1718.750000
786		1757.812500
787		1757.812500
788		1718.750000
789		1718.750000
790		1718.750000
791		1718.750000
792		1718.750000
793		1679.687500
794		1679.687500
795		1679.687500
796		1679.687500
797		1679.687500
798		1640.625000
799		1640.625000
800		1640.625000
801		1601.562500
802		1601.562500
803		1601.562500
804		1562.500000
805		1523.437500
806		1523.437500
807		1523.437500
808		1484.375000
809		1484.375000
810		1445.312500
811		1445.312500
812		1445.312500
813		1406.250000
814		1406.250000
815		1406.250000
816		1367.187500
817		1367.187500
818		1367.187500
819		1328.125000
820		1328.125000
821		1289.062500
822		1289.062500
823		1289.062500
824		1250.000000
825		1250.000000
826		1210.937500
827		1210.937500
828		1171.875000
829		1171.875000
830		1171.875000
831		1132.812500
832		1132.812500
833		1132.812500
834		1093.750000
835		1093.750000
836		1093.750000
837		1054.687500
838		1054.687500
839		1054.687500
840		1015.625000
841		1015.625000
842		1015.625000
843		976.562500
844		976.562500
845		976.562500
846		937.500000
847		937.500000
848		937.500000
849		898.437500
850		898.437500
851		898.437500
852		859.375000
853		859.375000
854		859.375000
855		820.312500
856		820.312500
857		820.312500
858		820.312500
859		781.250000
860		781.250000
861		742.187500
862		742.187500
863		742.187500
864		742.187500
865		703.125000
866		703.125000
867		703.125000
868		703.125000
869		664.062500
870		664.062500
871		664.062500
872		625.000000
873		625.000000
874		625.000000
875		625.000000
876		585.937500
877		585.937500
878		585.937500
879		546.875000
880		546.875000
881		546.875000
882		507.812500
883		507.812500
884		507.812500
885		507.812500
886		507.812500
887		468.750000
888		468.750000
889		468.750000
890		429.687500
891		429.687500
892		429.687500
893		429.687500
894		390.625000
895		390.625000
896		390.625000
897		390.625000
898		390.625000
899		351.562500
900		351.562500
901		351.562500
902		351.562500
903		351.562500
904		312.500000
905		312.500000
906		312.500000
907		312.500000
908		273.437500
909		273.437500
910		273.437500
911		273.437500
912		234.375000
913		234.375000
914		234.375000
915		234.375000
916		234.375000
917		195.312500
918		195.312500
919		195.312500
920		195.312500
921		195.312500
922		195.312500
923		156.250000
924		156.250000
925		156.250000
926		156.250000
927		156.250000
928		117.187500
929		117.187500
930		117.187500
931		117.187500
932		78.125000
933		78.125000
934		78.125000
935		78.125000
936		78.125000
937		78.125000
938		78.125000
939		78.125000
940		39.062500
941		39.062500
942		39.062500
943		39.062500
944		39.062500
945		39.062500
946		0.000000
947		0.000000
948		0.000000
949		0.000000
950		0.000000
951		0.000000
952		-39.062500
953		-39.062500
954		-39.062500
955		-39.062500
956		-39.062500
957		-39.062500
958		-39.062500
959		-39.062500
960		-39.062500
961		-78.125000
962		-78.125000
963		-78.125000
964		-78.125000
965		-78.125000
966		-78.125000
967		-78.125000
968		-117.187500
969		-117.187500
970		-117.187500
971		-117.187500
972		-117.187500
973		-117.187500
974		-117.187500
975		-117.187500
976		-117.187500
977		-156.250000
978		-156.250000
979		-156.250000
980		-156.250000
981		-156.250000
982		-156.250000
983		-156.250000
984		-156.250000
985		-156.250000
986		-156.250000
987		-195.312500
988		-195.312500
989		-195.312500
990		-195.312500
991		-195.312500
992		-195.312500
993		-195.312500
994		-195.312500
995		-195.312500
996		-195.312500
997		-195.312500
998		-195.312500
999		-195.312500
1000		-234.375000
1001		-234.375000
1002		-234.375000
1003		-234.375000
1004		-234.375000
1005		-234.375000
1006		-234.375000
1007		-234.375000
1008		-234.375000
1009		-273.437500
1010		-273.437500
1011		-273.437500
1012		-273.437500
1013		-273.437500
1014		-273.437500
1015		-273.437500
1016		-234.375000
1017		-273.437500
1018		-273.437500
1019		-273.437500
1020		-273.437500
1021		-273.437500
1022		-273.437500
1023		-273.437500
1024		-273.437500
1025		-273.437500
1026		-273.437500
1027		-273.437500
1028		-273.437500
1029		-312.500000
1030		-273.437500
1031		-273.437500
1032		-273.437500
1033		-273.437500
1034		-273.437500
1035		-273.437500
1036		-273.437500
1037		-273.437500
1038		-273.437500
1039		-312.500000
1040		-312.500000
1041		-312.500000
1042		-312.500000
1043		-312.500000
1044		-312.500000
1045		-312.500000
1046		-312.500000
1047		-312.500000
1048		-312.500000
1049		-312.500000
1050		-312.500000
1051		-312.500000
1052		-312.500000
1053		-312.500000
1054		-312.500000
1055		-312.500000
1056		-312.500000
1057		-312.500000
1058		-312.500000
1059		-312.500000
1060		-312.500000
1061		-312.500000
1062		-312.500000
1063		-312.500000
1064		-312.500000
1065		-312.500000
1066		-312.500000
1067		-312.500000
1068		-312.500000
1069		-312.500000
1070		-312.500000
1071		-312.500000
1072		-312.500000
1073		-312.500000
1074		-312.500000
1075		-312.500000
1076		-273.437500
1077		-312.500000
1078		-312.500000
1079		-273.437500
1080		-273.437500
1081		-273.437500
1082		-273.437500
1083		-273.437500
1084		-273.437500
1085		-273.437500
1086		-273.437500
1087		-273.437500
1088		-273.437500
1089		-273.437500
1090		-273.437500
1091		-273.437500
1092		-273.437500
1093		-273.437500
1094		-273.437500
1095		-273.437500
1096		-273.437500
1097		-273.437500
1098		-273.437500
1099		-273.437500
1100		-234.375000
1101		-234.375000
1102		-234.375000
1103		-234.375000
1104		-234.375000
1105		-234.375000
1106		-234.375000
1107		-234.375000
1108		-234.375000
1109		-234.375000
1110		-234.375000
1111		-234.375000
1112		-234.375000
1113		-234.375000
1114		-234.375000
1115		-195.312500
1116		-234.375000
1117		-234.375000
1118		-195.312500
1119		-195.312500
1120		-195.312500
1121		-195.312500
1122		-195.312500
1123		-195.312500
1124		-195.312500
1125		-156.250000
1126		-195.312500
1127		-156.250000
1128		-156.250000
1129		-156.250000
1130		-156.250000
1131		-156.250000
1132		-156.250000
1133		-156.250000
1134		-156.250000
1135		-156.250000
1136		-117.187500
1137		-117.187500
1138		-117.187500
1139		-117.187500
1140		-117.187500
1141		-117.187500
1142		-117.187500
1143		-78.125000
1144		-78.125000
1145		-78.125000
1146		-78.125000
1147		-78.125000
1148		-78.125000
1149		-78.125000
1150		-78.125000
1151		-78.125000
1152		-78.125000
1153		-39.062500
1154		-39.062500
1155		-39.062500
1156		-39.062500
1157		-39.062500
1158		0.000000
1159		0.000000
1160		0.000000
1161		0.000000
1162		0.000000
1163		0.000000
1164		0.000000
1165		39.062500
1166		39.062500
1167		39.062500
1168		0.000000
1169		39.062500
1170		39.062500
1171		39.062500
1172		39.062500
1173		78.125000
1174		78.125000
1175		78.125000
1176		78.125000
1177		117.187500
1178		117.187500
1179		117.187500
1180		117.187500
1181		156.250000
1182		156.250000
1183		156.250000
1184		156.250000
1185		156.250000
1186		156.250000
1187		156.250000
1188		156.250000
1189		195.312500
1190		195.312500
1191		195.312500
1192		195.312500
1193		234.375000
1194		234.375000
1195		234.375000
1196		234.375000
1197		273.437500
1198		273.437500
1199		273.437500
1200		273.437500
1201		312.500000
1202		312.500000
1203		312.500000
1204		312.500000
1205		312.500000
1206		312.500000
1207		351.562500
1208		351.562500
1209		351.562500
1210		351.562500
1211		390.625000
1212		390.625000
1213		390.625000
1214		390.625000
1215		429.687500
1216		429.687500
1217		429.687500
1218		429.687500
1219		468.750000
1220		468.750000
1221		468.750000
1222		507.812500
1223		507.812500
1224		507.812500
1225		507.812500
1226		546.875000
1227		546.875000
1228		546.875000
1229		546.875000
1230		585.937500
1231		585.937500
1232		585.937500
1233		625.000000
1234		625.000000
1235		625.000000
1236		664.062500
1237		664.062500
1238		664.062500
1239		703.125000
1240		703.125000
1241		703.125000
1242		742.187500
1243		742.187500
1244		742.187500
1245		742.187500
1246		781.250000
1247		781.250000
1248		781.250000
1249		820.312500
1250		820.312500
1251		820.312500
1252		859.375000
1253		859.375000
1254		898.437500
1255		898.437500
1256		898.437500
1257		937.500000
1258		937.500000
1259		937.500000
1260		976.562500
1261		976.562500
1262		976.562500
1263		1015.625000
1264		1015.625000
1265		1015.625000
1266		1054.687500
1267		1054.687500
1268		1093.750000
1269		1093.750000
1270		1132.812500
1271		1132.812500
1272		1132.812500
1273		1171.875000
1274		1171.875000
1275		1210.937500
1276		1210.937500
1277		1210.937500
1278		1250.000000
1279		1250.000000
1280		1289.062500
1281		1289.062500
1282		1328.125000
1283		1328.125000
1284		1367.187500
1285		1367.187500
1286		1367.187500
1287		1406.250000
1288		1406.250000
1289		1445.312500
1290		1445.312500
1291		1484.375000
1292		1484.375000
1293		1523.437500
1294		1523.437500
1295		1562.500000
1296		1562.500000
1297		1601.562500
1298		1601.562500
1299		1640.625000
1300		1640.625000
1301		1679.687500
1302		1718.750000
1303		1718.750000
1304		1718.750000
1305		1718.750000
1306		1718.750000
1307		1718.750000
1308		1718.750000
1309		1718.750000
1310		1757.812500
1311		1757.812500
1312		1718.750000
1313		1718.750000
1314		1718.750000
1315		1718.750000
1316		1757.812500
1317		1718.750000
1318		1718.750000
1319		1718.750000
1320		1718.750000
1321		1718.750000
1322		1718.750000
1323		1718.750000
1324		1718.750000
1325		1718.750000
1326		1718.750000
1327		1718.750000
1328		1757.812500
1329		1757.812500
1330		1718.750000
1331		1718.750000
1332		1757.812500
1333		1718.750000
1334		1718.750000
1335		1718.750000
1336		1718.750000
1337		1718.750000
1338		1757.812500
1339		1757.812500
1340		1718.750000
1341		1718.750000
1342		1718.750000
1343		1718.750000
1344		1718.750000
1345		1757.812500
1346		1718.750000
1347		1718.750000
1348		1718.750000
1349		1718.750000
1350		1718.750000
1351		1757.812500
1352		1718.750000
1353		1718.750000
1354		1718.750000
1355		1757.812500
1356		1757.812500
1357		1718.750000
1358		1718.750000
1359		1718.750000
1360		1757.812500
1361		1718.750000
1362		1718.750000
1363		1718.750000
1364		1718.750000
1365		1718.750000
1366		1757.812500
1367		1718.750000
1368		1718.750000
1369		1718.750000
1370		1718.750000
1371		1718.750000
1372		1757.812500
1373		1757.812500
1374		1718.750000
1375		1718.750000
1376		1718.750000
1377		1757.812500
1378		1757.812500
1379		1718.750000
1380		1718.750000
1381		1718.750000
1382		1757.812500
1383		1757.812500
1384		1757.812500
1385		1718.750000
1386		1718.750000
1387		1718.750000
1388		1757.812500
1389		1757.812500
1390		1757.812500
1391		1757.812500
1392		1718.750000
1393		1757.812500
1394		1757.812500
1395		1757.812500
1396		1718.750000
1397		1718.750000
1398		1718.750000
1399		1757.812500
1400		1757.812500
1401		1757.812500
1402		1718.750000
1403		1718.750000
1404		1757.812500
1405		1757.812500
1406		1718.750000
1407		1718.750000
1408		1757.812500
1409		1718.750000
1410		1757.812500
1411		1757.812500
1412		1757.812500
1413		1718.750000
1414		1718.750000
1415		1718.750000
1416		1757.812500
1417		1757.812500
1418		1757.812500
1419		1718.750000
1420		1718.750000
1421		1757.812500
1422		1757.812500
1423		1757.812500
1424		1718.750000
1425		1718.750000
1426		1757.812500
1427		1757.812500
1428		1718.750000
1429		1757.812500
1430		1718.750000
1431		1718.750000
1432		1757.812500
1433		1718.750000
1434		1757.812500
1435		1718.750000
1436		1718.750000
1437		1718.750000
1438		1757.812500
1439		1757.812500
1440		1757.812500
1441		1718.750000
1442		1718.750000
1443		1757.812500
1444		1757.812500
1445		1757.812500
1446		1718.750000
1447		1718.750000
1448		1718.750000
1449		1757.812500
1450		1757.812500
1451		1757.812500
1452		1718.750000
1453		1718.750000
1454		1757.812500
1455		1757.812500
1456		1757.812500
1457		1718.750000
1458		1718.750000
1459		1718.750000
1460		1757.812500
1461		1757.812500
1462		1757.812500
1463		1718.750000
1464		1718.750000
1465		1718.750000
1466		1757.812500
1467		1757.812500
1468		1718.750000
1469		1718.750000
1470		1718.750000
1471		1757.812500
1472		1757.812500
1473		1718.750000
1474		1718.750000
1475		1718.750000
1476		1718.750000
1477		1718.750000
1478		1718.750000
1479		1757.812500
1480		1718.750000
1481		1718.750000
1482		1757.812500
1483		1757.812500
1484		1757.812500
1485		1718.750000
1486		1718.750000
1487		1718.750000
1488		1757.812500
1489		1757.812500
1490		1757.812500
1491		1718.750000
1492		1718.750000
1493		1757.812500
1494		1757.812500
1495		1757.812500
1496		1718.750000
1497		1718.750000
1498		1718.750000
1499		1757.812500
1500		1757.812500
1501		1757.812500
1502		1718.750000
1503		1718.750000
1504		1718.750000
1505		1757.812500
1506		1757.812500
1507		1718.750000
1508		1718.750000
1509		1718.750000
1510		1757.812500
1511		1757.812500
1512		1757.812500
1513		1718.750000
1514		1718.750000
1515		1718.750000
1516		1757.812500
1517		1757.812500
1518		1757.812500
1519		1718.750000
1520		1718.750000
1521		1757.812500
1522		1757.812500
1523		1757.812500
1524		1718.750000
1525		1718.750000
1526		1718.750000
1527		1757.812500
1528		1757.812500
1529		1757.812500
1530		1718.750000
1531		1718.750000
1532		1757.812500
1533		1757.812500
1534		1757.812500
1535		1718.750000
1536		1718.750000
1537		1718.750000
1538		1757.812500
1539		1757.812500
1540		1757.812500
1541		1718.750000
1542		1718.750000
1543		1757.812500
1544		1757.812500
1545		1757.812500
1546		1757.812500
1547		1718.750000
1548		1718.750000
1549		1757.812500
1550		1757.812500
1551		1757.812500
1552		1718.750000
1553		1718.750000
1554		1757.812500
1555		1757.812500
1556		1757.812500
1557		1718.750000
1558		1718.750000
1559		1718.750000
1560		1757.812500
1561		1757.812500
1562		1757.812500
1563		1718.750000
1564		1718.750000
1565		1718.750000
1566		1757.812500
1567		1757.812500
1568		1718.750000
1569		1718.750000
1570		1718.750000
1571		1757.812500
1572		1757.812500
1573		1757.812500
1574		1718.750000
1575		1718.750000
1576		1718.750000
1577		1757.812500
1578		1757.812500
1579		1718.750000
1580		1718.750000
1581		1757.812500
1582		1757.812500
1583		1757.812500
1584		1718.750000
1585		1718.750000
1586		1718.750000
1587		1718.750000
1588		1757.812500
1589		1757.812500
1590		1757.812500
1591		1718.750000
1592		1718.750000
1593		1757.812500
1594		1757.812500
1595		1757.812500
1596		1718.750000
1597		1718.750000
1598		1718.750000
1599		1757.812500
1600		1757.812500
1601		1718.750000
1602		1718.750000
1603		1718.750000
1604		1757.812500
1605		1757.812500
1606		1718.750000
1607		1757.812500
1608		1757.812500
1609		1718.750000
1610		1757.812500
1611		1757.812500
1612		1757.812500
1613		1718.750000
1614		1718.750000
1615		1718.750000
1616		1757.812500
1617		1757.812500
1618		1757.812500
1619		1718.750000
1620		1718.750000
1621		1757.812500
1622		1757.812500
1623		1718.750000
1624		1718.750000
1625		1718.750000
1626		1757.812500
1627		1757.812500
1628		1757.812500
1629		1757.812500
1630		1718.750000
1631		1718.750000
1632		1757.812500
1633		1718.750000
1634		1757.812500
1635		1757.812500
1636		1718.750000
1637		1718.750000
1638		1757.812500
1639		1757.812500
1640		1757.812500
1641		1718.750000
1642		1718.750000
1643		1757.812500
1644		1757.812500
1645		1757.812500
1646		1718.750000
1647		1718.750000
1648		1718.750000
1649		1757.812500
1650		1718.750000
1651		1718.750000
1652		1718.750000
1653		1718.750000
1654		1757.812500
1655		1757.812500
1656		1757.812500
1657		1757.812500
1658		1718.750000
1659		1718.750000
1660		1757.812500
1661		1757.812500
1662		1757.812500
1663		1718.750000
1664		1718.750000
1665		1718.750000
1666		1757.812500
1667		1757.812500
1668		1718.750000
1669		1718.750000
1670		1718.750000
1671		1757.812500
1672		1757.812500
1673		1757.812500
1674		1718.750000
1675		1718.750000
1676		1718.750000
1677		1757.812500
1678		1757.812500
1679		1757.812500
1680		1757.812500
1681		1718.750000
1682		1757.812500
1683		1757.812500
1684		1757.812500
1685		1718.750000
1686		1718.750000
1687		1718.750000
1688		1757.812500
1689		1757.812500
1690		1718.750000
1691		1718.750000
1692		1757.812500
1693		1757.812500
1694		1718.750000
1695		1757.812500
1696		1718.750000
1697		1718.750000
1698		1718.750000
1699		1757.812500
1700		1757.812500
1701		1757.812500
1702		1718.750000
1703		1718.750000
1704		1718.750000
1705		1757.812500
1706		1757.812500
1707		1718.750000
1708		1718.750000
1709		1718.750000
1710		1757.812500
1711		1757.812500
1712		1718.750000
1713		1718.750000
1714		1718.750000
1715		1718.750000
1716		1757.812500
1717		1757.812500
1718		1757.812500
1719		1718.750000
1720		1718.750000
1721		1718.750000
1722		1757.812500
1723		1718.750000
1724		1718.750000
1725		1718.750000
1726		1718.750000
1727		1757.812500
1728		1757.812500
1729		1718.750000
1730		1718.750000
1731		1718.750000
1732		1757.812500
1733		1757.812500
1734		1757.812500
1735		1757.812500
1736		1718.750000
1737		1718.750000
1738		1718.750000
1739		1718.750000
1740		1757.812500
1741		1718.750000
1742		1718.750000
1743		1757.812500
1744		1757.812500
1745		1757.812500
1746		1718.750000
1747		1718.750000
1748		1718.750000
1749		1757.812500
1750		1757.812500
1751		1757.812500
1752		1718.750000
1753		1718.750000
1754		1757.812500
1755		1757.812500
1756		1757.812500
1757		1718.750000
1758		1718.750000
1759		1718.750000
1760		1757.812500
1761		1757.812500
1762		1757.812500
1763		1718.750000
1764		1718.750000
1765		1718.750000
1766		1757.812500
1767		1757.812500
1768		1718.750000
1769		1718.750000
1770		1718.750000
1771		1757.812500
1772		1757.812500
1773		1757.812500
1774		1718.750000
1775		1718.750000
1776		1718.750000
1777		1757.812500
1778		1757.812500
1779		1757.812500
1780		1718.750000
1781		1757.812500
1782		1757.812500
1783		1757.812500
1784		1757.812500
1785		1718.750000
1786		1718.750000
1787		1718.750000
1788		1757.812500
1789		1757.812500
1790		1757.812500
1791		1718.750000
1792		1718.750000
1793		1757.812500
1794		1757.812500
1795		1757.812500
1796		1718.750000
1797		1718.750000
1798		1718.750000
1799		1757.812500
1800		1757.812500
1801		1718.750000
1802		1718.750000
1803		1718.750000
1804		1718.750000
1805		1757.812500
1806		1757.812500
1807		1718.750000
1808		1718.750000
1809		1718.750000
1810		1718.750000
1811		1757.812500
1812		1757.812500
1813		1757.812500
1814		1718.750000
1815		1718.750000
1816		1757.812500
1817		1757.812500
1818		1718.750000
1819		1718.750000
1820		1718.750000
1821		1757.812500
1822		1718.750000
1823		1718.750000
1824		1718.750000
1825		1718.750000
1826		1718.750000
1827		1757.812500
1828		1757.812500
1829		1757.812500
1830		1718.750000
1831		1718.750000
1832		1757.812500
1833		1757.812500
1834		1757.812500
1835		1757.812500
1836		1718.750000
1837		1718.750000
1838		1757.812500
1839		1757.812500
1840		1718.750000
1841		1718.750000
1842		1718.750000
1843		1757.812500
1844		1757.812500
1845		1718.750000
1846		1718.750000
1847		1718.750000
1848		1718.750000
1849		1718.750000
1850		1757.812500
1851		1757.812500
1852		1718.750000
1853		1757.812500
1854		1718.750000
1855		1757.812500
1856		1757.812500
1857		1757.812500
1858		1718.750000
1859		1718.750000
1860		1757.812500
1861		1757.812500
1862		1757.812500
1863		1718.750000
1864		1718.750000
1865		1718.750000
1866		1757.812500
1867		1757.812500
1868		1718.750000
1869		1718.750000
1870		1718.750000
1871		1757.812500
1872		1757.812500
1873		1757.812500
1874		1718.750000
1875		1718.750000
1876		1718.750000
1877		1757.812500
1878		1757.812500
1879		1757.812500
1880		1757.812500
1881		1718.750000
1882		1757.812500
1883		1757.812500
1884		1757.812500
1885		1718.750000
1886		1718.750000
1887		1718.750000
1888		1757.812500
1889		1757.812500
1890		1757.812500
1891		1718.750000
1892		1718.750000
1893		1757.812500
1894		1718.750000
1895		1718.750000
1896		1718.750000
1897		1757.812500
1898		1718.750000
1899		1757.812500
1900		1757.812500
1901		1757.812500
1902		1718.750000
1903		1718.750000
1904		1718.750000
1905		1757.812500
1906		1757.812500
1907		1757.812500
1908		1718.750000
1909		1718.750000
1910		1757.812500
1911		1718.750000
1912		1718.750000
1913		1718.750000
1914		1718.750000
1915		1757.812500
1916		1757.812500
1917		1757.812500
1918		1718.750000
1919		1718.750000
1920		1718.750000
1921		1757.812500
1922		1757.812500
1923		1757.812500
1924		1718.750000
1925		1718.750000
1926		1718.750000
1927		1757.812500
1928		1757.812500
1929		1757.812500
1930		1718.750000
1931		1718.750000
1932		1757.812500
1933		1757.812500
1934		1757.812500
1935		1718.750000
1936		1757.812500
1937		1718.750000
1938		1757.812500
1939		1757.812500
1940		1757.812500
1941		1718.750000
1942		1718.750000
1943		1718.750000
1944		1757.812500
1945		1757.812500
1946		1718.750000
1947		1718.750000
1948		1718.750000
1949		1757.812500
1950		1757.812500
1951		1757.812500
1952		1718.750000
1953		1718.750000
1954		1757.812500
1955		1757.812500
1956		1757.812500
1957		1718.750000
1958		1718.750000
1959		1757.812500
1960		1757.812500
1961		1757.812500
1962		1757.812500
1963		1757.812500
1964		1718.750000
1965		1718.750000
1966		1757.812500
1967		1757.812500
1968		1718.750000
1969		1718.750000
1970		1718.750000
1971		1718.750000
1972		1757.812500
1973		1757.812500
1974		1718.750000
1975		1718.750000
1976		1718.750000
1977		1757.812500
1978		1757.812500
1979		1757.812500
1980		1718.750000
1981		1757.812500
1982		1757.812500
1983		1718.750000
1984		1757.812500
1985		1718.750000
1986		1718.750000
1987		1718.750000
1988		1757.812500
1989		1757.812500
1990		1757.812500
1991		1718.750000
1992		1718.750000
1993		1757.812500
1994		1757.812500
1995		1757.812500
1996		1718.750000
1997		1718.750000
1998		1718.750000
1999		1757.812500
2000		1757.812500
2001		1757.812500
2002		1718.750000
2003		1718.750000
2004		1757.812500
2005		1757.812500
2006		1757.812500
2007		1757.812500
2008		1718.750000
2009		1718.750000
2010		1757.812500
2011		1757.812500
2012		1757.812500
2013		1718.750000
2014		1718.750000
2015		1718.750000
2016		1757.812500
2017		1757.812500
2018		1718.750000
2019		1718.750000
2020		1718.750000
2021		1757.812500
2022		1757.812500
2023		1757.812500
2024		1757.812500
2025		1718.750000
2026		1718.750000
2027		1757.812500
2028		1757.812500
2029		1757.812500
2030		1718.750000
2031		1718.750000
2032		1757.812500
2033		1757.812500
2034		1757.812500
2035		1718.750000
2036		1718.750000
2037		1718.750000
2038		1757.812500
2039		1757.812500
2040		1757.812500
2041		1718.750000
2042		1757.812500
2043		1757.812500
2044		1757.812500
2045		1757.812500
2046		1718.750000
2047		1718.750000
2048		1718.750000
2049		1757.812500
2050		1757.812500
2051		1757.812500
2052		1757.812500
2053		1718.750000
2054		1718.750000
2055		1757.812500
2056		1757.812500
2057		1757.812500
2058		1718.750000
2059		1757.812500
2060		1757.812500
2061		1757.812500
2062		1718.750000
2063		1718.750000
2064		1718.750000
2065		1718.750000
2066		1757.812500
2067		1757.812500
2068		1718.750000
2069		1718.750000
2070		1718.750000
2071		1757.812500
2072		1757.812500
2073		1718.750000
2074		1718.750000
2075		1718.750000
2076		1718.750000
2077		1757.812500
2078		1757.812500
2079		1757.812500
2080		1718.750000
2081		1718.750000
2082		1757.812500
2083		1757.812500
2084		1757.812500
2085		1718.750000
2086		1718.750000
2087		1757.812500
2088		1757.812500
2089		1757.812500
2090		1757.812500
2091		1718.750000
2092		1718.750000
2093		1757.812500
2094		1757.812500
2095		1757.812500
2096		1757.812500
2097		1718.750000
2098		1718.750000
2099		1757.812500
2100		1757.812500
2101		1757.812500
2102		1718.750000
2103		1718.750000
2104		1718.750000
2105		1757.812500
2106		1757.812500
2107		1718.750000
2108		1718.750000
2109		1718.750000
2110		1757.812500
2111		1757.812500
2112		1757.812500
2113		1718.750000
2114		1757.812500
2115		1718.750000
2116		1757.812500
2117		1757.812500
2118		1718.750000
2119		1718.750000
2120		1718.750000
2121		1757.812500
2122		1757.812500
2123		1757.812500
2124		1757.812500
2125		1718.750000
2126		1718.750000
2127		1757.812500
2128		1757.812500
2129		1718.750000
2130		1718.750000
2131		1757.812500
2132		1757.812500
2133		1757.812500
2134		1757.812500
2135		1718.750000
2136		1718.750000
2137		1718.750000
2138		1718.750000
2139		1757.812500
2140		1757.812500
2141		1757.812500
2142		1718.750000
2143		1718.750000
2144		1757.812500
2145		1757.812500
2146		1757.812500
2147		1718.750000
2148		1718.750000
2149		1757.812500
2150		1757.812500
2151		1718.750000
2152		1757.812500
2153		1718.750000
2154		1757.812500
2155		1757.812500
2156		1757.812500
2157		1718.750000
2158		1718.750000
2159		1718.750000
2160		1757.812500
2161		1757.812500
2162		1757.812500
2163		1718.750000
2164		1718.750000
2165		1718.750000
2166		1757.812500
2167		1757.812500
2168		1757.812500
2169		1718.750000
2170		1718.750000
2171		1757.812500
2172		1757.812500
2173		1757.812500
2174		1718.750000
2175		1757.812500
2176		1718.750000
2177		1757.812500
2178		1757.812500
2179		1757.812500
2180		1718.750000
2181		1718.750000
2182		1757.812500
2183		1757.812500
2184		1757.812500
2185		1718.750000
2186		1757.812500
2187		1718.750000
2188		1757.812500
2189		1757.812500
2190		1757.812500
2191		1718.750000
2192		1718.750000
2193		1757.812500
2194		1757.812500
2195		1757.812500
2196		1718.750000
2197		1718.750000
2198		1718.750000
2199		1757.812500
2200		1757.812500
2201		1757.812500
2202		1718.750000
2203		1718.750000
2204		1757.812500
2205		1757.812500
2206		1757.812500
2207		1718.750000
2208		1718.750000
2209		1718.750000
2210		1757.812500
2211		1757.812500
2212		1757.812500
2213		1718.750000
2214		1718.750000
2215		1757.812500
2216		1757.812500
2217		1757.812500
2218		1718.750000
2219		1718.750000
2220		1718.750000
2221		1757.812500
2222		1757.812500
2223		1757.812500
2224		1757.812500
2225		1718.750000
2226		1718.750000
2227		1757.812500
2228		1718.750000
2229		1718.750000
2230		1718.750000
2231		1718.750000
2232		1757.812500
2233		1757.812500
2234		1757.812500
2235		1718.750000
2236		1718.750000
2237		1718.750000
2238		1757.812500
2239		1757.812500
2240		1757.812500
2241		1757.812500
2242		1718.750000
2243		1757.812500
2244		1757.812500
2245		1757.812500
2246		1757.812500
2247		1718.750000
2248		1718.750000
2249		1757.812500
2250		1757.812500
2251		1757.812500
2252		1718.750000
2253		1718.750000
2254		1718.750000
2255		1757.812500
2256		1757.812500
2257		1718.750000
2258		1718.750000
2259		1718.750000
2260		1757.812500
2261		1757.812500
2262		1718.750000
2263		1718.750000
2264		1718.750000
2265		1718.750000
2266		1757.812500
2267		1757.812500
2268		1757.812500
2269		1718.750000
2270		1718.750000
2271		1718.750000
2272		1757.812500
2273		1757.812500
2274		1718.750000
2275		1718.750000
2276		1718.750000
2277		1757.812500
2278		1757.812500
2279		1718.750000
2280		1718.750000
2281		1718.750000
2282		1718.750000
2283		1757.812500
2284		1757.812500
2285		1718.750000
2286		1757.812500
2287		1718.750000
2288		1757.812500
2289		1718.750000
2290		1718.750000
2291		1718.750000
2292		1718.750000
2293		1718.750000
2294		1757.812500
2295		1757.812500
2296		1757.812500
2297		1718.750000
2298		1718.750000
2299		1757.812500
2300		1757.812500
2301		1718.750000
2302		1718.750000
2303		1718.750000
2304		1757.812500
2305		1757.812500
2306		1718.750000
2307		1718.750000
2308		1718.750000
2309		1718.750000
2310		1757.812500
2311		1757.812500
2312		1757.812500
2313		1757.812500
2314		1718.750000
2315		1718.750000
2316		1757.812500
2317		1757.812500
2318		1757.812500
2319		1718.750000
2320		1718.750000
2321		1757.812500
2322		1757.812500
2323		1757.812500
2324		1718.750000
2325		1718.750000
2326		1718.750000
2327		1757.812500
2328		1718.750000
2329		1718.750000
2330		1757.812500
2331		1718.750000
2332		1757.812500
2333		1757.812500
2334		1757.812500
2335		1718.750000
2336		1718.750000
2337		1718.750000
2338		1757.812500
2339		1757.812500
2340		1757.812500
2341		1757.812500
2342		1718.750000
2343		1757.812500
2344		1757.812500
2345		1718.750000
2346		1718.750000
2347		1718.750000
2348		1718.750000
2349		1757.812500
2350		1757.812500
2351		1718.750000
2352		1757.812500
2353		1718.750000
2354		1757.812500
2355		1718.750000
2356		1757.812500
2357		1757.812500
2358		1757.812500
2359		1718.750000
2360		1757.812500
2361		1757.812500
2362		1757.812500
2363		1718.750000
2364		1718.750000
2365		1718.750000
2366		1757.812500
2367		1757.812500
2368		1757.812500
2369		1757.812500
2370		1718.750000
2371		1757.812500
2372		1757.812500
2373		1757.812500
2374		1757.812500
2375		1718.750000
2376		1757.812500
2377		1757.812500
2378		1757.812500
2379		1757.812500
2380		1718.750000
2381		1718.750000
2382		1757.812500
2383		1757.812500
2384		1757.812500
2385		1757.812500
2386		1718.750000
2387		1718.750000
2388		1757.812500
2389		1757.812500
2390		1718.750000
2391		1718.750000
2392		1718.750000
2393		1757.812500
2394		1757.812500
2395		1757.812500
2396		1757.812500
2397		1718.750000
2398		1718.750000
2399		1757.812500
2400		1757.812500
2401		1757.812500
2402		1718.750000
2403		1718.750000
2404		1718.750000
2405		1757.812500
2406		1757.812500
2407		1757.812500
2408		1718.750000
2409		1718.750000
2410		1757.812500
2411		1757.812500
2412		1757.812500
2413		1718.750000
2414		1757.812500
2415		1718.750000
2416		1757.812500
2417		1757.812500
2418		1718.750000
2419		1718.750000
2420		1718.750000
2421		1757.812500
2422		1757.812500
2423		1757.812500
2424		1718.750000
2425		1718.750000
2426		1718.750000
2427		1757.812500
2428		1757.812500
2429		1757.812500
2430		1718.750000
2431		1718.750000
2432		1757.812500
2433		1757.812500
2434		1757.812500
2435		1718.750000
2436		1718.750000
2437		1718.750000
2438		1757.812500
2439		1757.812500
2440		1718.750000
2441		1757.812500
2442		1718.750000
2443		1718.750000
2444		1718.750000
2445		1718.750000
2446		1718.750000
2447		1718.750000
2448		1718.750000
2449		1679.687500
2450		1679.687500
2451		1679.687500
2452		1640.625000
2453		1640.625000
2454		1640.625000
2455		1601.562500
2456		1601.562500
2457		1601.562500
2458		1562.500000
2459		1562.500000
2460		1562.500000
2461		1523.437500
2462		1523.437500
2463		1523.437500
2464		1484.375000
2465		1484.375000
2466		1445.312500
2467		1445.312500
2468		1406.250000
2469		1406.250000
2470		1367.187500
2471		1367.187500
2472		1367.187500
2473		1328.125000
2474		1328.125000
2475		1328.125000
2476		1289.062500
2477		1289.062500
2478		1250.000000
2479		1250.000000
2480		1250.000000
2481		1210.937500
2482		1210.937500
2483		1210.937500
2484		1171.875000
2485		1171.875000
2486		1132.812500
2487		1132.812500
2488		1093.750000
2489		1093.750000
2490		1093.750000
2491		1054.687500
2492		1054.687500
2493		1054.687500
2494		1015.625000
2495		1015.625000
2496		1015.625000
2497		1015.625000
2498		976.562500
2499		976.562500
2500		976.562500
2501		937.500000
2502		937.500000
2503		937.500000
2504		898.437500
2505		898.437500
2506		859.375000
2507		859.375000
2508		859.375000
2509		820.312500
2510		820.312500
2511		820.312500
2512		781.250000
2513		781.250000
2514		781.250000
2515		781.250000
2516		742.187500
2517		742.187500
2518		742.187500
2519		742.187500
2520		703.125000
2521		703.125000
2522		703.125000
2523		664.062500
2524		664.062500
2525		664.062500
2526		625.000000
2527		625.000000
2528		625.000000
2529		625.000000
2530		585.937500
2531		585.937500
2532		585.937500
2533		585.937500
2534		546.875000
2535		546.875000
2536		546.875000
2537		546.875000
2538		507.812500
2539		507.812500
2540		507.812500
2541		507.812500
2542		468.750000
2543		468.750000
2544		468.750000
2545		429.687500
2546		429.687500
2547		429.687500
2548		429.687500
2549		390.625000
2550		390.625000
2551		390.625000
2552		390.625000
2553		390.625000
2554		351.562500
2555		351.562500
2556		351.562500
2557		351.562500
2558		351.562500
2559		312.500000
2560		312.500000
2561		312.500000
2562		312.500000
2563		273.437500
2564		273.437500
2565		273.437500
2566		273.437500
2567		234.375000
2568		234.375000
2569		234.375000
2570		234.375000
2571		234.375000
2572		195.312500
2573		195.312500
2574		195.312500
2575		195.312500
2576		195.312500
2577		195.312500
2578		156.250000
2579		156.250000
2580		156.250000
2581		156.250000
2582		156.250000
2583		117.187500
2584		117.187500
2585		117.187500
2586		117.187500
2587		117.187500
2588		78.125000
2589		78.125000
2590		78.125000
2591		78.125000
2592		78.125000
2593		78.125000
2594		39.062500
2595		39.062500
2596		39.062500
2597		39.062500
2598		39.062500
2599		39.062500
2600		0.000000
2601		0.000000
2602		0.000000
2603		0.000000
2604		0.000000
2605		0.000000
2606		0.000000
2607		-39.062500
2608		-39.062500
2609		-39.062500
2610		-39.062500
2611		-39.062500
2612		-39.062500
2613		-78.125000
2614		-78.125000
2615		-78.125000
2616		-78.125000
2617		-78.125000
2618		-78.125000
2619		-78.125000
2620		-78.125000
2621		-78.125000
2622		-78.125000
2623		-78.125000
2624		-117.187500
2625		-117.187500
2626		-117.187500
2627		-117.187500
2628		-117.187500
2629		-117.187500
2630		-156.250000
2631		-156.250000
2632		-156.250000
2633		-156.250000
2634		-156.250000
2635		-156.250000
2636		-156.250000
2637		-156.250000
2638		-156.250000
2639		-156.250000
2640		-156.250000
2641		-156.250000
2642		-195.312500
2643		-195.312500
2644		-195.312500
2645		-195.312500
2646		-195.312500
2647		-195.312500
2648		-195.312500
2649		-195.312500
2650		-234.375000
2651		-234.375000
2652		-234.375000
2653		-234.375000
2654		-234.375000
2655		-234.375000
2656		-234.375000
2657		-234.375000
2658		-234.375000
2659		-234.375000
2660		-234.375000
2661		-234.375000
2662		-234.375000
2663		-234.375000
2664		-234.375000
2665		-234.375000
2666		-273.437500
2667		-273.437500
2668		-273.437500
2669		-273.437500
2670		-273.437500
2671		-273.437500
2672		-273.437500
2673		-273.437500
2674		-273.437500
2675		-273.437500
2676		-273.437500
2677		-273.437500
2678		-273.437500
2679		-273.437500
2680		-273.437500
2681		-273.437500
2682		-273.437500
2683		-273.437500
2684		-312.500000
2685		-273.437500
2686		-312.500000
2687		-312.500000
2688		-312.500000
2689		-312.500000
2690		-312.500000
2691		-312.500000
2692		-312.500000
2693		-312.500000
2694		-312.500000
2695		-312.500000
2696		-312.500000
2697		-312.500000
2698		-312.500000
2699		-312.500000
2700		-312.500000
2701		-312.500000
2702		-312.500000
2703		-312.500000
2704		-312.500000
2705		-312.500000
2706		-312.500000
2707		-312.500000
2708		-312.500000
2709		-312.500000
2710		-312.500000
2711		-312.500000
2712		-312.500000
2713		-312.500000
2714		-312.500000
2715		-312.500000
2716		-312.500000
2717		-312.500000
2718		-273.437500
2719		-312.500000
2720		-312.500000
2721		-312.500000
2722		-312.500000
2723		-312.500000
2724		-312.500000
2725		-312.500000
2726		-312.500000
2727		-312.500000
2728		-312.500000
2729		-312.500000
2730		-312.500000
2731		-273.437500
2732		-312.500000
2733		-273.437500
2734		-273.437500
2735		-273.437500
2736		-273.437500
2737		-273.437500
2738		-273.437500
2739		-273.437500
2740		-273.437500
2741		-273.437500
2742		-273.437500
2743		-273.437500
2744		-273.437500
2745		-273.437500
2746		-273.437500
2747		-273.437500
2748		-273.437500
2749		-273.437500
2750		-273.437500
2751		-273.437500
2752		-273.437500
2753		-273.437500
2754		-234.375000
2755		-234.375000
2756		-234.375000
2757		-234.375000
2758		-234.375000
2759		-234.375000
2760		-234.375000
2761		-234.375000
2762		-234.375000
2763		-234.375000
2764		-234.375000
2765		-234.375000
2766		-234.375000
2767		-234.375000
2768		-234.375000
2769		-195.312500
2770		-195.312500
2771		-195.312500
2772		-195.312500
2773		-195.312500
2774		-195.312500
2775		-195.312500
2776		-195.312500
2777		-195.312500
2778		-195.312500
2779		-195.312500
2780		-156.250000
2781		-156.250000
2782		-156.250000
2783		-156.250000
2784		-156.250000
2785		-156.250000
2786		-156.250000
2787		-156.250000
2788		-156.250000
2789		-117.187500
2790		-117.187500
2791		-156.250000
2792		-117.187500
2793		-117.187500
2794		-117.187500
2795		-117.187500
2796		-117.187500
2797		-78.125000
2798		-78.125000
2799		-78.125000
2800		-78.125000
2801		-78.125000
2802		-78.125000
2803		-78.125000
2804		-78.125000
2805		-39.062500
2806		-39.062500
2807		-39.062500
2808		-39.062500
2809		-39.062500
2810		-39.062500
2811		-39.062500
2812		-39.062500
2813		-39.062500
2814		-39.062500
2815		0.000000
2816		0.000000
2817		0.000000
2818		39.062500
2819		39.062500
2820		39.062500
2821		39.062500
2822		39.062500
2823		39.062500
2824		39.062500
2825		78.125000
2826		78.125000
2827		78.125000
2828		78.125000
2829		78.125000
2830		78.125000
2831		78.125000
2832		117.187500
2833		117.187500
2834		117.187500
2835		117.187500
2836		117.187500
2837		195.312500
2838		156.250000
2839		156.250000
2840		156.250000
2841		156.250000
2842		195.312500
2843		195.312500
2844		195.312500
2845		195.312500
2846		234.375000
2847		195.312500
2848		234.375000
2849		234.375000
2850		234.375000
2851		234.375000
2852		234.375000
2853		273.437500
2854		273.437500
2855		273.437500
2856		273.437500
2857		312.500000
2858		312.500000
2859		312.500000
2860		351.562500
2861		351.562500
2862		351.562500
2863		351.562500
2864		351.562500
2865		390.625000
2866		390.625000
2867		390.625000
2868		390.625000
2869		390.625000
2870		429.687500
2871		429.687500
2872		429.687500
2873		468.750000
2874		468.750000
2875		468.750000
2876		507.812500
2877		507.812500
2878		507.812500
2879		507.812500
2880		507.812500
2881		546.875000
2882		546.875000
2883		546.875000
2884		585.937500
2885		585.937500
2886		585.937500
2887		585.937500
2888		625.000000
2889		625.000000
2890		625.000000
2891		664.062500
2892		664.062500
2893		664.062500
2894		703.125000
2895		703.125000
2896		703.125000
2897		742.187500
2898		742.187500
2899		742.187500
2900		781.250000
2901		781.250000
2902		781.250000
2903		781.250000
2904		820.312500
2905		820.312500
2906		820.312500
2907		859.375000
2908		859.375000
2909		859.375000
2910		898.437500
2911		898.437500
2912		937.500000
2913		937.500000
2914		937.500000
2915		976.562500
2916		976.562500
2917		1015.625000
2918		1015.625000
2919		1015.625000
2920		1054.687500
2921		1054.687500
2922		1054.687500
2923		1093.750000
2924		1093.750000
2925		1093.750000
2926		1132.812500
2927		1132.812500
2928		1132.812500
2929		1171.875000
2930		1210.937500
2931		1210.937500
2932		1210.937500
2933		1250.000000
2934		1250.000000
2935		1289.062500
2936		1289.062500
2937		1328.125000
2938		1328.125000
2939		1367.187500
2940		1367.187500
2941		1406.250000
2942		1406.250000
2943		1406.250000
2944		1445.312500
2945		1445.312500
2946		1484.375000
2947		1484.375000
2948		1523.437500
2949		1523.437500
2950		1562.500000
2951		1562.500000
2952		1601.562500
2953		1640.625000
2954		1640.625000
2955		1640.625000
2956		1679.687500
2957		1679.687500
2958		1718.750000
2959		1718.750000
2960		1718.750000
2961		1718.750000
2962		1718.750000
2963		1718.750000
2964		1718.750000
2965		1718.750000
2966		1718.750000
2967		1718.750000
2968		1718.750000
2969		1718.750000
2970		1718.750000
2971		1718.750000
2972		1718.750000
2973		1757.812500
2974		1718.750000
2975		1718.750000
2976		1718.750000
2977		1718.750000
2978		1757.812500
2979		1757.812500
2980		1718.750000
2981		1718.750000
2982		1718.750000
2983		1757.812500
2984		1757.812500
2985		1718.750000
2986		1718.750000
2987		1718.750000
2988		1718.750000
2989		1718.750000
2990		1718.750000
2991		1757.812500
2992		1718.750000
2993		1718.750000
2994		1718.750000
2995		1718.750000
2996		1718.750000
2997		1718.750000
2998		1718.750000
2999		1718.750000
3000		1757.812500
3001		1757.812500
3002		1718.750000
3003		1718.750000
3004		1718.750000
3005		1718.750000
3006		1757.812500
3007		1718.750000
3008		1718.750000
3009		1718.750000
3010		1718.750000
3011		1718.750000
3012		1757.812500
3013		1757.812500
3014		1718.750000
3015		1718.750000
3016		1718.750000
3017		1757.812500
3018		1757.812500
3019		1757.812500
3020		1718.750000
3021		1718.750000
3022		1757.812500
3023		1757.812500
3024		1757.812500
3025		1718.750000
3026		1718.750000
3027		1718.750000
3028		1757.812500
3029		1718.750000
3030		1718.750000
3031		1718.750000
3032		1718.750000
3033		1757.812500
3034		1757.812500
3035		1757.812500
3036		1757.812500
3037		1718.750000
3038		1718.750000
3039		1757.812500
3040		1757.812500
3041		1757.812500
3042		1718.750000
3043		1718.750000
3044		1757.812500
3045		1757.812500
3046		1757.812500
3047		1718.750000
3048		1718.750000
3049		1718.750000
3050		1757.812500
3051		1757.812500
3052		1718.750000
3053		1718.750000
3054		1718.750000
3055		1757.812500
3056		1757.812500
3057		1757.812500
3058		1757.812500
3059		1718.750000
3060		1718.750000
3061		1757.812500
3062		1757.812500
3063		1757.812500
3064		1718.750000
3065		1718.750000
3066		1718.750000
3067		1757.812500
3068		1757.812500
3069		1718.750000
3070		1718.750000
3071		1757.812500
3072		1757.812500
3073		1757.812500
3074		1757.812500
3075		1718.750000
3076		1718.750000
3077		1718.750000
3078		1718.750000
3079		1757.812500
3080		1757.812500
3081		1757.812500
3082		1718.750000
3083		1757.812500
3084		1757.812500
3085		1757.812500
3086		1718.750000
3087		1718.750000
3088		1718.750000
3089		1757.812500
3090		1757.812500
3091		1718.750000
3092		1718.750000
3093		1718.750000
3094		1757.812500
3095		1757.812500
3096		1718.750000
3097		1718.750000
3098		1718.750000
3099		1757.812500
3100		1757.812500
3101		1757.812500
3102		1757.812500
3103		1718.750000
3104		1718.750000
3105		1718.750000
3106		1757.812500
3107		1757.812500
3108		1757.812500
3109		1718.750000
3110		1718.750000
3111		1757.812500
3112		1757.812500
3113		1757.812500
3114		1718.750000
3115		1718.750000
3116		1757.812500
3117		1757.812500
3118		1757.812500
3119		1718.750000
3120		1718.750000
3121		1718.750000
3122		1757.812500
3123		1757.812500
3124		1757.812500
3125		1718.750000
3126		1718.750000
3127		1718.750000
3128		1757.812500
3129		1757.812500
3130		1757.812500
3131		1718.750000
3132		1718.750000
3133		1718.750000
3134		1757.812500
3135		1757.812500
3136		1718.750000
3137		1757.812500
3138		1718.750000
3139		1757.812500
3140		1757.812500
3141		1718.750000
3142		1718.750000
3143		1718.750000
3144		1757.812500
3145		1757.812500
3146		1757.812500
3147		1718.750000
3148		1718.750000
3149		1718.750000
3150		1757.812500
3151		1757.812500
3152		1757.812500
3153		1718.750000
3154		1718.750000
3155		1757.812500
3156		1757.812500
3157		1757.812500
3158		1718.750000
3159		1718.750000
3160		1718.750000
3161		1757.812500
3162		1757.812500
3163		1757.812500
3164		1718.750000
3165		1757.812500
3166		1718.750000
3167		1718.750000
3168		1757.812500
3169		1718.750000
3170		1718.750000
3171		1718.750000
3172		1757.812500
3173		1757.812500
3174		1757.812500
3175		1718.750000
3176		1718.750000
3177		1718.750000
3178		1757.812500
3179		1757.812500
3180		1757.812500
3181		1757.812500
3182		1718.750000
3183		1757.812500
3184		1757.812500
3185		1757.812500
3186		1718.750000
3187		1757.812500
3188		1718.750000
3189		1757.812500
3190		1757.812500
3191		1757.812500
3192		1718.750000
3193		1718.750000
3194		1757.812500
3195		1757.812500
3196		1757.812500
3197		1718.750000
3198		1718.750000
3199		1718.750000
3200		1757.812500
3201		1757.812500
3202		1718.750000
3203		1718.750000
3204		1718.750000
3205		1757.812500
3206		1757.812500
3207		1757.812500
3208		1757.812500
3209		1718.750000
3210		1718.750000
3211		1757.812500
3212		1757.812500
3213		1757.812500
3214		1718.750000
3215		1718.750000
3216		1757.812500
3217		1757.812500
3218		1757.812500
3219		1718.750000
3220		1718.750000
3221		1718.750000
3222		1757.812500
3223		1757.812500
3224		1757.812500
3225		1718.750000
3226		1718.750000
3227		1757.812500
3228		1757.812500
3229		1757.812500
3230		1718.750000
3231		1718.750000
3232		1718.750000
3233		1757.812500
3234		1757.812500
3235		1757.812500
3236		1718.750000
3237		1718.750000
3238		1718.750000
3239		1757.812500
3240		1757.812500
3241		1718.750000
3242		1718.750000
3243		1718.750000
3244		1757.812500
3245		1757.812500
3246		1757.812500
3247		1718.750000
3248		1718.750000
3249		1718.750000
3250		1757.812500
3251		1757.812500
3252		1757.812500
3253		1718.750000
3254		1718.750000
3255		1757.812500
3256		1718.750000
3257		1757.812500
3258		1718.750000
3259		1718.750000
3260		1718.750000
3261		1757.812500
3262		1757.812500
3263		1757.812500
3264		1718.750000
3265		1718.750000
3266		1757.812500
3267		1757.812500
3268		1718.750000
3269		1718.750000
3270		1718.750000
3271		1718.750000
3272		1757.812500
3273		1757.812500
3274		1757.812500
3275		1718.750000
3276		1718.750000
3277		1718.750000
3278		1757.812500
3279		1757.812500
3280		1757.812500
3281		1718.750000
3282		1718.750000
3283		1757.812500
3284		1757.812500
3285		1757.812500
3286		1718.750000
3287		1718.750000
3288		1718.750000
3289		1757.812500
3290		1757.812500
3291		1718.750000
3292		1757.812500
3293		1718.750000
3294		1757.812500
3295		1757.812500
3296		1757.812500
3297		1757.812500
3298		1757.812500
3299		1718.750000
3300		1757.812500
3301		1757.812500
3302		1757.812500
3303		1718.750000
3304		1718.750000
3305		1757.812500
3306		1757.812500
3307		1757.812500
3308		1757.812500
3309		1718.750000
3310		1757.812500
3311		1757.812500
3312		1757.812500
3313		1718.750000
3314		1718.750000
3315		1718.750000
3316		1757.812500
3317		1757.812500
3318		1757.812500
3319		1718.750000
3320		1718.750000
3321		1718.750000
3322		1757.812500
3323		1757.812500
3324		1757.812500
3325		1757.812500
3326		1718.750000
3327		1757.812500
3328		1757.812500
3329		1757.812500
3330		1718.750000
3331		1718.750000
3332		1718.750000
3333		1757.812500
3334		1757.812500
3335		1757.812500
3336		1718.750000
3337		1718.750000
3338		1718.750000
3339		1757.812500
3340		1757.812500
3341		1757.812500
3342		1718.750000
3343		1718.750000
3344		1757.812500
3345		1757.812500
3346		1757.812500
3347		1718.750000
3348		1718.750000
3349		1757.812500
3350		1757.812500
3351		1757.812500
3352		1757.812500
3353		1718.750000
3354		1718.750000
3355		1757.812500
3356		1757.812500
3357		1757.812500
3358		1718.750000
3359		1718.750000
3360		1757.812500
3361		1757.812500
3362		1757.812500
3363		1757.812500
3364		1718.750000
3365		1718.750000
3366		1718.750000
3367		1757.812500
3368		1757.812500
3369		1718.750000
3370		1757.812500
3371		1718.750000
3372		1757.812500
3373		1757.812500
3374		1757.812500
3375		1718.750000
3376		1718.750000
3377		1718.750000
3378		1757.812500
3379		1757.812500
3380		1718.750000
3381		1718.750000
3382		1757.812500
3383		1757.812500
3384		1718.750000
3385		1757.812500
3386		1718.750000
3387		1718.750000
3388		1718.750000
3389		1757.812500
3390		1757.812500
3391		1757.812500
3392		1718.750000
3393		1718.750000
3394		1757.812500
3395		1757.812500
3396		1757.812500
3397		1757.812500
3398		1718.750000
3399		1718.750000
3400		1757.812500
3401		1757.812500
3402		1718.750000
3403		1718.750000
3404		1718.750000
3405		1757.812500
3406		1757.812500
3407		1757.812500
3408		1757.812500
3409		1718.750000
3410		1718.750000
3411		1757.812500
3412		1757.812500
3413		1757.812500
3414		1718.750000
3415		1718.750000
3416		1757.812500
3417		1757.812500
3418		1757.812500
3419		1718.750000
3420		1718.750000
3421		1718.750000
3422		1757.812500
3423		1757.812500
3424		1757.812500
3425		1757.812500
3426		1757.812500
3427		1718.750000
3428		1718.750000
3429		1718.750000
3430		1757.812500
3431		1718.750000
3432		1718.750000
3433		1757.812500
3434		1757.812500
3435		1757.812500
3436		1757.812500
3437		1718.750000
3438		1718.750000
3439		1757.812500
3440		1757.812500
3441		1757.812500
3442		1718.750000
3443		1718.750000
3444		1757.812500
3445		1757.812500
3446		1757.812500
3447		1718.750000
3448		1718.750000
3449		1718.750000
3450		1757.812500
3451		1757.812500
3452		1757.812500
3453		1757.812500
3454		1718.750000
3455		1718.750000
3456		1757.812500
3457		1757.812500
3458		1718.750000
3459		1718.750000
3460		1718.750000
3461		1757.812500
3462		1757.812500
3463		1757.812500
3464		1718.750000
3465		1718.750000
3466		1718.750000
3467		1757.812500
3468		1718.750000
3469		1757.812500
3470		1757.812500
3471		1718.750000
3472		1757.812500
3473		1757.812500
3474		1757.812500
3475		1757.812500
3476		1718.750000
3477		1718.750000
3478		1757.812500
3479		1757.812500
3480		1757.812500
3481		1718.750000
3482		1718.750000
3483		1757.812500
3484		1757.812500
3485		1757.812500
3486		1718.750000
3487		1718.750000
3488		1757.812500
3489		1757.812500
3490		1757.812500
3491		1718.750000
3492		1718.750000
3493		1718.750000
3494		1757.812500
3495		1718.750000
3496		1757.812500
3497		1757.812500
3498		1718.750000
3499		1718.750000
3500		1718.750000
3501		1757.812500
3502		1757.812500
3503		1718.750000
3504		1718.750000
3505		1757.812500
3506		1757.812500
3507		1757.812500
3508		1718.750000
3509		1718.750000
3510		1718.750000
3511		1757.812500
3512		1757.812500
3513		1757.812500
3514		1757.812500
3515		1757.812500
3516		1718.750000
3517		1757.812500
3518		1757.812500
3519		1757.812500
3520		1718.750000
3521		1718.750000
3522		1757.812500
3523		1757.812500
3524		1757.812500
3525		1757.812500
3526		1718.750000
3527		1718.750000
3528		1757.812500
3529		1757.812500
3530		1757.812500
3531		1718.750000
3532		1718.750000
3533		1757.812500
3534		1757.812500
3535		1757.812500
3536		1718.750000
3537		1718.750000
3538		1718.750000
3539		1757.812500
3540		1757.812500
3541		1757.812500
3542		1757.812500
3543		1718.750000
3544		1757.812500
3545		1757.812500
3546		1757.812500
3547		1757.812500
3548		1718.750000
3549		1718.750000
3550		1757.812500
3551		1757.812500
3552		1757.812500
3553		1718.750000
3554		1718.750000
3555		1757.812500
3556		1757.812500
3557		1718.750000
3558		1718.750000
3559		1757.812500
3560		1718.750000
3561		1757.812500
3562		1757.812500
3563		1757.812500
3564		1757.812500
3565		1718.750000
3566		1718.750000
3567		1757.812500
3568		1757.812500
3569		1757.812500
3570		1718.750000
3571		1718.750000
3572		1757.812500
3573		1757.812500
3574		1757.812500
3575		1718.750000
3576		1718.750000
3577		1757.812500
3578		1757.812500
3579		1757.812500
3580		1757.812500
3581		1718.750000
3582		1718.750000
3583		1757.812500
3584		1757.812500
3585		1757.812500
3586		1718.750000
3587		1718.750000
3588		1718.750000
3589		1757.812500
3590		1757.812500
3591		1757.812500
3592		1718.750000
3593		1718.750000
3594		1718.750000
3595		1757.812500
3596		1757.812500
3597		1757.812500
3598		1718.750000
3599		1718.750000
3600		1757.812500
3601		1757.812500
3602		1757.812500
3603		1718.750000
3604		1718.750000
3605		1757.812500
3606		1757.812500
3607		1757.812500
3608		1757.812500
3609		1718.750000
3610		1718.750000
3611		1757.812500
3612		1757.812500
3613		1757.812500
3614		1757.812500
3615		1718.750000
3616		1718.750000
3617		1757.812500
3618		1757.812500
3619		1718.750000
3620		1718.750000
3621		1718.750000
3622		1757.812500
3623		1757.812500
3624		1757.812500
3625		1757.812500
3626		1757.812500
3627		1718.750000
3628		1757.812500
3629		1757.812500
3630		1718.750000
3631		1718.750000
3632		1718.750000
3633		1718.750000
3634		1757.812500
3635		1757.812500
3636		1757.812500
3637		1718.750000
3638		1718.750000
3639		1757.812500
3640		1757.812500
3641		1757.812500
3642		1718.750000
3643		1757.812500
3644		1757.812500
3645		1757.812500
3646		1757.812500
3647		1718.750000
3648		1718.750000
3649		1718.750000
3650		1757.812500
3651		1757.812500
3652		1757.812500
3653		1757.812500
3654		1718.750000
3655		1718.750000
3656		1757.812500
3657		1757.812500
3658		1757.812500
3659		1718.750000
3660		1718.750000
3661		1757.812500
3662		1757.812500
3663		1757.812500
3664		1718.750000
3665		1718.750000
3666		1718.750000
3667		1757.812500
3668		1757.812500
3669		1757.812500
3670		1718.750000
3671		1757.812500
3672		1718.750000
3673		1718.750000
3674		1757.812500
3675		1718.750000
3676		1718.750000
3677		1718.750000
3678		1757.812500
3679		1757.812500
3680		1757.812500
3681		1718.750000
3682		1718.750000
3683		1757.812500
3684		1757.812500
3685		1757.812500
3686		1757.812500
3687		1718.750000
3688		1718.750000
3689		1757.812500
3690		1757.812500
3691		1757.812500
3692		1757.812500
3693		1718.750000
3694		1718.750000
3695		1757.812500
3696		1757.812500
3697		1757.812500
3698		1718.750000
3699		1718.750000
3700		1757.812500
3701		1757.812500
3702		1757.812500
3703		1718.750000
3704		1718.750000
3705		1718.750000
3706		1757.812500
3707		1757.812500
3708		1718.750000
3709		1718.750000
3710		1718.750000
3711		1757.812500
3712		1757.812500
3713		1757.812500
3714		1757.812500
3715		1757.812500
3716		1718.750000
3717		1757.812500
3718		1757.812500
3719		1757.812500
3720		1718.750000
3721		1718.750000
3722		1757.812500
3723		1757.812500
3724		1757.812500
3725		1718.750000
3726		1718.750000
3727		1718.750000
3728		1757.812500
3729		1757.812500
3730		1757.812500
3731		1757.812500
3732		1757.812500
3733		1757.812500
3734		1757.812500
3735		1757.812500
3736		1757.812500
3737		1718.750000
3738		1718.750000
3739		1757.812500
3740		1757.812500
3741		1757.812500
3742		1718.750000
3743		1718.750000
3744		1718.750000
3745		1757.812500
3746		1757.812500
3747		1757.812500
3748		1718.750000
3749		1718.750000
3750		1757.812500
3751		1757.812500
3752		1757.812500
3753		1718.750000
3754		1718.750000
3755		1718.750000
3756		1757.812500
3757		1757.812500
3758		1757.812500
3759		1757.812500
3760		1718.750000
3761		1718.750000
3762		1757.812500
3763		1757.812500
3764		1718.750000
3765		1718.750000
3766		1718.750000
3767		1757.812500
3768		1757.812500
3769		1757.812500
3770		1757.812500
3771		1718.750000
3772		1757.812500
3773		1757.812500
3774		1757.812500
3775		1718.750000
3776		1718.750000
3777		1718.750000
3778		1757.812500
3779		1757.812500
3780		1757.812500
3781		1718.750000
3782		1718.750000
3783		1718.750000
3784		1757.812500
3785		1757.812500
3786		1757.812500
3787		1718.750000
3788		1718.750000
3789		1757.812500
3790		1757.812500
3791		1757.812500
3792		1718.750000
3793		1718.750000
3794		1757.812500
3795		1757.812500
3796		1757.812500
3797		1757.812500
3798		1718.750000
3799		1718.750000
3800		1757.812500
3801		1718.750000
3802		1757.812500
3803		1757.812500
3804		1718.750000
3805		1757.812500
3806		1757.812500
3807		1757.812500
3808		1757.812500
3809		1718.750000
3810		1718.750000
3811		1718.750000
3812		1757.812500
3813		1757.812500
3814		1718.750000
3815		1718.750000
3816		1718.750000
3817		1757.812500
3818		1757.812500
3819		1718.750000
3820		1718.750000
3821		1718.750000
3822		1757.812500
3823		1757.812500
3824		1757.812500
3825		1757.812500
3826		1718.750000
3827		1718.750000
3828		1718.750000
3829		1757.812500
3830		1757.812500
3831		1757.812500
3832		1718.750000
3833		1757.812500
3834		1757.812500
3835		1757.812500
3836		1757.812500
3837		1718.750000
3838		1718.750000
3839		1757.812500
3840		1757.812500
3841		1757.812500
3842		1757.812500
3843		1718.750000
3844		1718.750000
3845		1757.812500
3846		1757.812500
3847		1757.812500
3848		1757.812500
3849		1757.812500
3850		1718.750000
3851		1757.812500
3852		1757.812500
3853		1718.750000
3854		1718.750000
3855		1718.750000
3856		1757.812500
3857		1757.812500
3858		1757.812500
3859		1718.750000
3860		1718.750000
3861		1757.812500
3862		1757.812500
3863		1757.812500
3864		1757.812500
3865		1718.750000
3866		1718.750000
3867		1757.812500
3868		1757.812500
3869		1757.812500
3870		1718.750000
3871		1718.750000
3872		1718.750000
3873		1757.812500
3874		1757.812500
3875		1757.812500
3876		1718.750000
3877		1718.750000
3878		1757.812500
3879		1718.750000
3880		1757.812500
3881		1718.750000
3882		1718.750000
3883		1718.750000
3884		1757.812500
3885		1757.812500
3886		1757.812500
3887		1757.812500
3888		1757.812500
3889		1718.750000
3890		1757.812500
3891		1757.812500
3892		1718.750000
3893		1718.750000
3894		1718.750000
3895		1757.812500
3896		1757.812500
3897		1757.812500
3898		1718.750000
3899		1718.750000
3900		1718.750000
3901		1757.812500
3902		1757.812500
3903		1718.750000
3904		1757.812500
3905		1718.750000
3906		1757.812500
3907		1757.812500
3908		1757.812500
3909		1718.750000
3910		1757.812500
3911		1757.812500
3912		1757.812500
3913		1757.812500
3914		1757.812500
3915		1718.750000
3916		1718.750000
3917		1757.812500
3918		1757.812500
3919		1757.812500
3920		1757.812500
3921		1718.750000
3922		1718.750000
3923		1757.812500
3924		1757.812500
3925		1757.812500
3926		1718.750000
3927		1718.750000
3928		1718.750000
3929		1757.812500
3930		1757.812500
3931		1757.812500
3932		1718.750000
3933		1757.812500
3934		1757.812500
3935		1757.812500
3936		1757.812500
3937		1718.750000
3938		1718.750000
3939		1718.750000
3940		1757.812500
3941		1757.812500
3942		1718.750000
3943		1718.750000
3944		1718.750000
3945		1757.812500
3946		1757.812500
3947		1757.812500
3948		1718.750000
3949		1718.750000
3950		1718.750000
3951		1757.812500
3952		1757.812500
3953		1757.812500
3954		1718.750000
3955		1718.750000
3956		1757.812500
3957		1757.812500
3958		1757.812500
3959		1757.812500
3960		1718.750000
3961		1718.750000
3962		1757.812500
3963		1757.812500
3964		1757.812500
3965		1718.750000
3966		1718.750000
3967		1757.812500
3968		1757.812500
3969		1757.812500
3970		1718.750000
3971		1718.750000
3972		1718.750000
3973		1757.812500
3974		1757.812500
3975		1757.812500
3976		1718.750000
3977		1718.750000
3978		1718.750000
3979		1757.812500
3980		1757.812500
3981		1757.812500
3982		1718.750000
3983		1718.750000
3984		1757.812500
3985		1757.812500
3986		1757.812500
3987		1718.750000
3988		1718.750000
3989		1757.812500
3990		1757.812500
3991		1757.812500
3992		1718.750000
3993		1718.750000
3994		1718.750000
3995		1757.812500
3996		1757.812500
3997		1757.812500
3998		1718.750000
3999		1718.750000
4000		1718.750000
4001		1757.812500
4002		1757.812500
4003		1757.812500
4004		1757.812500
4005		1757.812500
4006		1757.812500
4007		1757.812500
4008		1757.812500
4009		1718.750000
4010		1718.750000
4011		1718.750000
4012		1757.812500
4013		1757.812500
4014		1757.812500
4015		1718.750000
4016		1718.750000
4017		1718.750000
4018		1757.812500
4019		1757.812500
4020		1757.812500
4021		1718.750000
4022		1718.750000
4023		1757.812500
4024		1757.812500
4025		1757.812500
4026		1718.750000
4027		1718.750000
4028		1718.750000
4029		1757.812500
4030		1757.812500
4031		1757.812500
4032		1718.750000
4033		1718.750000
4034		1757.812500
4035		1757.812500
4036		1718.750000
4037		1718.750000
4038		1757.812500
4039		1757.812500
4040		1757.812500
4041		1757.812500
4042		1757.812500
4043		1718.750000
4044		1718.750000
4045		1718.750000
4046		1757.812500
4047		1757.812500
4048		1757.812500
4049		1718.750000
4050		1718.750000
4051		1757.812500
4052		1757.812500
4053		1757.812500
4054		1718.750000
4055		1718.750000
4056		1757.812500
4057		1757.812500
4058		1757.812500
4059		1757.812500
4060		1718.750000
4061		1718.750000
4062		1757.812500
4063		1757.812500
4064		1757.812500
4065		1757.812500
4066		1718.750000
4067		1718.750000
4068		1757.812500
4069		1757.812500
4070		1757.812500
4071		1718.750000
4072		1718.750000
4073		1757.812500
4074		1757.812500
4075		1757.812500
4076		1757.812500
4077		1718.750000
4078		1718.750000
4079		1757.812500
4080		1757.812500
4081		1757.812500
4082		1718.750000
4083		1718.750000
4084		1757.812500
4085		1757.812500
4086		1757.812500
4087		1718.750000
4088		1718.750000
4089		1718.750000
4090		1757.812500
4091		1757.812500
4092		1757.812500
4093		1718.750000
4094		1718.750000
4095		1718.750000
4096		1718.750000
4097		1718.750000
4098		1718.750000
4099		1718.750000
4100		1718.750000
4101		1679.687500
4102		1679.687500
4103		1679.687500
4104		1679.687500
4105		1640.625000
4106		1640.625000
4107		1640.625000
4108		1601.562500
4109		1601.562500
4110		1562.500000
4111		1562.500000
4112		1562.500000
4113		1523.437500
4114		1523.437500
4115		1523.437500
4116		1484.375000
4117		1484.375000
4118		1445.312500
4119		1445.312500
4120		1445.312500
4121		1406.250000
4122		1406.250000
4123		1367.187500
4124		1367.187500
4125		1367.187500
4126		1328.125000
4127		1328.125000
4128		1328.125000
4129		1289.062500
4130		1289.062500
4131		1250.000000
4132		1250.000000
4133		1210.937500
4134		1210.937500
4135		1210.937500
4136		1171.875000
4137		1171.875000
4138		1171.875000
4139		1132.812500
4140		1132.812500
4141		1132.812500
4142		1093.750000
4143		1093.750000
4144		1093.750000
4145		1054.687500
4146		1054.687500
4147		1015.625000
4148		1015.625000
4149		1015.625000
4150		976.562500
4151		976.562500
4152		976.562500
4153		937.500000
4154		937.500000
4155		937.500000
4156		937.500000
4157		898.437500
4158		898.437500
4159		898.437500
4160		859.375000
4161		859.375000
4162		859.375000
4163		820.312500
4164		820.312500
4165		820.312500
4166		781.250000
4167		781.250000
4168		742.187500
4169		742.187500
4170		742.187500
4171		742.187500
4172		703.125000
4173		703.125000
4174		703.125000
4175		664.062500
4176		664.062500
4177		664.062500
4178		664.062500
4179		664.062500
4180		664.062500
4181		625.000000
4182		625.000000
4183		585.937500
4184		585.937500
4185		585.937500
4186		546.875000
4187		546.875000
4188		546.875000
4189		507.812500
4190		507.812500
4191		507.812500
4192		507.812500
4193		468.750000
4194		507.812500
4195		468.750000
4196		468.750000
4197		468.750000
4198		429.687500
4199		429.687500
4200		429.687500
4201		429.687500
4202		390.625000
4203		390.625000
4204		390.625000
4205		390.625000
4206		351.562500
4207		351.562500
4208		351.562500
4209		351.562500
4210		312.500000
4211		312.500000
4212		312.500000
4213		312.500000
4214		312.500000
4215		312.500000
4216		273.437500
4217		273.437500
4218		273.437500
4219		273.437500
4220		234.375000
4221		234.375000
4222		234.375000
4223		234.375000
4224		195.312500
4225		195.312500
4226		195.312500
4227		195.312500
4228		195.312500
4229		156.250000
4230		156.250000
4231		156.250000
4232		156.250000
4233		156.250000
4234		156.250000
4235		156.250000
4236		117.187500
4237		117.187500
4238		117.187500
4239		117.187500
4240		117.187500
4241		78.125000
4242		78.125000
4243		78.125000
4244		78.125000
4245		78.125000
4246		39.062500
4247		39.062500
4248		39.062500
4249		39.062500
4250		39.062500
4251		39.062500
4252		39.062500
4253		0.000000
4254		0.000000
4255		0.000000
4256		0.000000
4257		0.000000
4258		0.000000
4259		0.000000
4260		-39.062500
4261		-39.062500
4262		-39.062500
4263		-39.062500
4264		-39.062500
4265		-39.062500
4266		-39.062500
4267		-78.125000
4268		-78.125000
4269		-78.125000
4270		-78.125000
4271		-78.125000
4272		-78.125000
4273		-78.125000
4274		-78.125000
4275		-78.125000
4276		-117.187500
4277		-117.187500
4278		-117.187500
4279		-117.187500
4280		-117.187500
4281		-117.187500
4282		-117.187500
4283		-156.250000
4284		-117.187500
4285		-156.250000
4286		-156.250000
4287		-156.250000
4288		-156.250000
4289		-156.250000
4290		-156.250000
4291		-156.250000
4292		-156.250000
4293		-195.312500
4294		-195.312500
4295		-156.250000
4296		-195.312500
4297		-195.312500
4298		-195.312500
4299		-195.312500
4300		-195.312500
4301		-195.312500
4302		-195.312500
4303		-195.312500
4304		-195.312500
4305		-195.312500
4306		-234.375000
4307		-234.375000
4308		-234.375000
4309		-234.375000
4310		-234.375000
4311		-234.375000
4312		-234.375000
4313		-234.375000
4314		-234.375000
4315		-234.375000
4316		-234.375000
4317		-234.375000
4318		-234.375000
4319		-234.375000
4320		-273.437500
4321		-234.375000
4322		-234.375000
4323		-273.437500
4324		-273.437500
4325		-234.375000
4326		-273.437500
4327		-273.437500
4328		-273.437500
4329		-273.437500
4330		-273.437500
4331		-273.437500
4332		-273.437500
4333		-273.437500
4334		-273.437500
4335		-273.437500
4336		-273.437500
4337		-273.437500
4338		-273.437500
4339		-273.437500
4340		-273.437500
4341		-312.500000
4342		-273.437500
4343		-273.437500
4344		-312.500000
4345		-312.500000
4346		-312.500000
4347		-312.500000
4348		-312.500000
4349		-312.500000
4350		-312.500000
4351		-312.500000
4352		-312.500000
4353		-312.500000
4354		-312.500000
4355		-312.500000
4356		-312.500000
4357		-312.500000
4358		-312.500000
4359		-312.500000
4360		-312.500000
4361		-312.500000
4362		-312.500000
4363		-312.500000
4364		-312.500000
4365		-312.500000
4366		-312.500000
4367		-312.500000
4368		-312.500000
4369		-312.500000
4370		-312.500000
4371		-312.500000
4372		-312.500000
4373		-312.500000
4374		-312.500000
4375		-312.500000
4376		-312.500000
4377		-312.500000
4378		-273.437500
4379		-273.437500
4380		-273.437500
4381		-273.437500
4382		-273.437500
4383		-312.500000
4384		-312.500000
4385		-312.500000
4386		-312.500000
4387		-312.500000
4388		-312.500000
4389		-312.500000
4390		-312.500000
4391		-273.437500
4392		-312.500000
4393		-273.437500
4394		-273.437500
4395		-273.437500
4396		-273.437500
4397		-273.437500
4398		-273.437500
4399		-273.437500
4400		-273.437500
4401		-273.437500
4402		-273.437500
4403		-273.437500
4404		-273.437500
4405		-273.437500
4406		-273.437500
4407		-273.437500
4408		-273.437500
4409		-273.437500
4410		-273.437500
4411		-234.375000
4412		-234.375000
4413		-234.375000
4414		-234.375000
4415		-234.375000
4416		-156.250000
4417		-234.375000
4418		-234.375000
4419		-234.375000
4420		-234.375000
4421		-234.375000
4422		-234.375000
4423		-234.375000
4424		-234.375000
4425		-234.375000
4426		-195.312500
4427		-195.312500
4428		-195.312500
4429		-195.312500
4430		-195.312500
4431		-195.312500
4432		-195.312500
4433		-195.312500
4434		-195.312500
4435		-156.250000
4436		-156.250000
4437		-156.250000
4438		-156.250000
4439		-156.250000
4440		-156.250000
4441		-156.250000
4442		-156.250000
4443		-156.250000
4444		-156.250000
4445		-156.250000
4446		-156.250000
4447		-117.187500
4448		-117.187500
4449		-117.187500
4450		-117.187500
4451		-117.187500
4452		-117.187500
4453		-78.125000
4454		-78.125000
4455		-78.125000
4456		-78.125000
4457		-78.125000
4458		-78.125000
4459		-78.125000
4460		-78.125000
4461		-39.062500
4462		-39.062500
4463		-39.062500
4464		-39.062500
4465		-39.062500
4466		-39.062500
4467		-39.062500
4468		-78.125000
4469		0.000000
4470		0.000000
4471		0.000000
4472		0.000000
4473		0.000000
4474		0.000000
4475		0.000000
4476		39.062500
4477		39.062500
4478		39.062500
4479		39.062500
4480		39.062500
4481		78.125000
4482		78.125000
4483		78.125000
4484		78.125000
4485		78.125000
4486		78.125000
4487		78.125000
4488		117.187500
4489		117.187500
4490		117.187500
4491		117.187500
4492		117.187500
4493		156.250000
4494		156.250000
4495		156.250000
4496		156.250000
4497		156.250000
4498		195.312500
4499		195.312500
4500		195.312500
4501		195.312500
4502		234.375000
4503		234.375000
4504		234.375000
4505		234.375000
4506		234.375000
4507		234.375000
4508		273.437500
4509		273.437500
4510		273.437500
4511		273.437500
4512		273.437500
4513		312.500000
4514		312.500000
4515		312.500000
4516		351.562500
4517		351.562500
4518		351.562500
4519		351.562500
4520		390.625000
4521		390.625000
4522		390.625000
4523		390.625000
4524		390.625000
4525		429.687500
4526		429.687500
4527		429.687500
4528		429.687500
4529		468.750000
4530		468.750000
4531		468.750000
4532		507.812500
4533		507.812500
4534		507.812500
4535		507.812500
4536		546.875000
4537		546.875000
4538		546.875000
4539		585.937500
4540		585.937500
4541		585.937500
4542		625.000000
4543		625.000000
4544		625.000000
4545		625.000000
4546		625.000000
4547		664.062500
4548		664.062500
4549		664.062500
4550		703.125000
4551		703.125000
4552		703.125000
4553		742.187500
4554		742.187500
4555		781.250000
4556		781.250000
4557		781.250000
4558		781.250000
4559		820.312500
4560		820.312500
4561		820.312500
4562		859.375000
4563		859.375000
4564		859.375000
4565		898.437500
4566		898.437500
4567		898.437500
4568		937.500000
4569		937.500000
4570		937.500000
4571		976.562500
4572		976.562500
4573		1015.625000
4574		1015.625000
4575		1015.625000
4576		1054.687500
4577		1054.687500
4578		1093.750000
4579		1093.750000
4580		1093.750000
4581		1132.812500
4582		1132.812500
4583		1171.875000
4584		1171.875000
4585		1171.875000
4586		1210.937500
4587		1210.937500
4588		1210.937500
4589		1250.000000
4590		1250.000000
4591		1289.062500
4592		1289.062500
4593		1328.125000
4594		1328.125000
4595		1367.187500
4596		1367.187500
4597		1406.250000
4598		1406.250000
4599		1445.312500
4600		1445.312500
4601		1484.375000
4602		1484.375000
4603		1484.375000
4604		1523.437500
4605		1523.437500
4606		1562.500000
4607		1562.500000
4608		1601.562500
4609		1601.562500
4610		1640.625000
4611		1679.687500
4612		1679.687500
4613		1718.750000
4614		1718.750000
4615		1718.750000
4616		1718.750000
4617		1718.750000
4618		1757.812500
4619		1718.750000
4620		1757.812500
4621		1718.750000
4622		1718.750000
4623		1718.750000
4624		1718.750000
4625		1718.750000
4626		1718.750000
4627		1718.750000
4628		1718.750000
4629		1718.750000
4630		1718.750000
4631		1718.750000
4632		1718.750000
4633		1718.750000
4634		1718.750000
4635		1757.812500
4636		1757.812500
4637		1718.750000
4638		1718.750000
4639		1718.750000
4640		1718.750000
4641		1718.750000
4642		1757.812500
4643		1718.750000
4644		1718.750000
4645		1718.750000
4646		1757.812500
4647		1757.812500
4648		1718.750000
4649		1718.750000
4650		1718.750000
4651		1718.750000
4652		1757.812500
4653		1757.812500
4654		1718.750000
4655		1718.750000
4656		1718.750000
4657		1718.750000
4658		1757.812500
4659		1757.812500
4660		1718.750000
4661		1718.750000
4662		1718.750000
4663		1757.812500
4664		1757.812500
4665		1718.750000
4666		1718.750000
4667		1718.750000
4668		1757.812500
4669		1718.750000
4670		1757.812500
4671		1718.750000
4672		1718.750000
4673		1718.750000
4674		1757.812500
4675		1718.750000
4676		1757.812500
4677		1718.750000
4678		1718.750000
4679		1757.812500
4680		1757.812500
4681		1757.812500
4682		1718.750000
4683		1718.750000
4684		1718.750000
4685		1757.812500
4686		1757.812500
4687		1718.750000
4688		1718.750000
4689		1718.750000
4690		1757.812500
4691		1757.812500
4692		1757.812500
4693		1718.750000
4694		1718.750000
4695		1718.750000
4696		1757.812500
4697		1718.750000
4698		1757.812500
4699		1757.812500
4700		1718.750000
4701		1718.750000
4702		1757.812500
4703		1757.812500
4704		1718.750000
4705		1718.750000
4706		1718.750000
4707		1757.812500
4708		1757.812500
4709		1757.812500
4710		1718.750000
4711		1718.750000
4712		1718.750000
4713		1757.812500
4714		1757.812500
4715		1718.750000
4716		1718.750000
4717		1757.812500
4718		1757.812500
4719		1757.812500
4720		1757.812500
4721		1718.750000
4722		1718.750000
4723		1718.750000
4724		1757.812500
4725		1757.812500
4726		1757.812500
4727		1718.750000
4728		1718.750000
4729		1757.812500
4730		1757.812500
4731		1757.812500
4732		1718.750000
4733		1718.750000
4734		1757.812500
4735		1757.812500
4736		1757.812500
4737		1757.812500
4738		1718.750000
4739		1757.812500
4740		1757.812500
4741		1757.812500
4742		1757.812500
4743		1757.812500
4744		1718.750000
4745		1718.750000
4746		1757.812500
4747		1757.812500
4748		1757.812500
4749		1718.750000
4750		1718.750000
4751		1718.750000
4752		1757.812500
4753		1757.812500
4754		1718.750000
4755		1718.750000
4756		1718.750000
4757		1757.812500
4758		1757.812500
4759		1718.750000
4760		1718.750000
4761		1757.812500
4762		1757.812500
4763		1757.812500
4764		1757.812500
4765		1757.812500
4766		1718.750000
4767		1718.750000
4768		1757.812500
4769		1757.812500
4770		1757.812500
4771		1718.750000
4772		1718.750000
4773		1718.750000
4774		1757.812500
4775		1757.812500
4776		1718.750000
4777		1718.750000
4778		1718.750000
4779		1757.812500
4780		1757.812500
4781		1757.812500
4782		1757.812500
4783		1757.812500
4784		1718.750000
4785		1718.750000
4786		1757.812500
4787		1757.812500
4788		1718.750000
4789		1718.750000
4790		1757.812500
4791		1757.812500
4792		1757.812500
4793		1757.812500
4794		1718.750000
4795		1718.750000
4796		1757.812500
4797		1757.812500
4798		1757.812500
4799		1718.750000
4800		1757.812500
4801		1757.812500
4802		1757.812500
4803		1757.812500
4804		1718.750000
4805		1718.750000
4806		1718.750000
4807		1757.812500
4808		1757.812500
4809		1757.812500
4810		1718.750000
4811		1718.750000
4812		1718.750000
4813		1757.812500
4814		1757.812500
4815		1757.812500
4816		1718.750000
4817		1718.750000
4818		1757.812500
4819		1757.812500
4820		1757.812500
4821		1718.750000
4822		1718.750000
4823		1718.750000
4824		1757.812500
4825		1757.812500
4826		1757.812500
4827		1718.750000
4828		1718.750000
4829		1757.812500
4830		1757.812500
4831		1757.812500
4832		1718.750000
4833		1757.812500
4834		1757.812500
4835		1757.812500
4836		1757.812500
4837		1757.812500
4838		1718.750000
4839		1718.750000
4840		1757.812500
4841		1757.812500
4842		1757.812500
4843		1718.750000
4844		1718.750000
4845		1757.812500
4846		1757.812500
4847		1757.812500
4848		1757.812500
4849		1718.750000
4850		1718.750000
4851		1757.812500
4852		1757.812500
4853		1757.812500
4854		1757.812500
4855		1718.750000
4856		1718.750000
4857		1757.812500
4858		1757.812500
4859		1718.750000
4860		1718.750000
4861		1718.750000
4862		1757.812500
4863		1757.812500
4864		1757.812500
4865		1718.750000
4866		1718.750000
4867		1757.812500
4868		1757.812500
4869		1757.812500
4870		1718.750000
4871		1718.750000
4872		1718.750000
4873		1718.750000
4874		1757.812500
4875		1757.812500
4876		1718.750000
4877		1718.750000
4878		1718.750000
4879		1757.812500
4880		1757.812500
4881		1757.812500
4882		1718.750000
4883		1718.750000
4884		1718.750000
4885		1757.812500
4886		1757.812500
4887		1718.750000
4888		1718.750000
4889		1718.750000
4890		1757.812500
4891		1757.812500
4892		1757.812500
4893		1757.812500
4894		1718.750000
4895		1718.750000
4896		1757.812500
4897		1757.812500
4898		1757.812500
4899		1757.812500
4900		1718.750000
4901		1757.812500
4902		1757.812500
4903		1757.812500
4904		1757.812500
4905		1718.750000
4906		1718.750000
4907		1757.812500
4908		1757.812500
4909		1718.750000
4910		1718.750000
4911		1718.750000
4912		1757.812500
4913		1757.812500
4914		1757.812500
4915		1718.750000
4916		1718.750000
4917		1718.750000
4918		1757.812500
4919		1757.812500
4920		1718.750000
4921		1718.750000
4922		1718.750000
4923		1718.750000
4924		1757.812500
4925		1757.812500
4926		1757.812500
4927		1718.750000
4928		1718.750000
4929		1757.812500
4930		1757.812500
4931		1757.812500
4932		1718.750000
4933		1718.750000
4934		1757.812500
4935		1757.812500
4936		1757.812500
4937		1718.750000
4938		1718.750000
4939		1718.750000
4940		1757.812500
4941		1718.750000
4942		1757.812500
4943		1757.812500
4944		1718.750000
4945		1718.750000
4946		1757.812500
4947		1718.750000
4948		1757.812500
4949		1718.750000
4950		1718.750000
4951		1757.812500
4952		1757.812500
4953		1757.812500
4954		1718.750000
4955		1718.750000
4956		1718.750000
4957		1757.812500
4958		1757.812500
4959		1757.812500
4960		1718.750000
4961		1718.750000
4962		1757.812500
4963		1757.812500
4964		1757.812500
4965		1718.750000
4966		1718.750000
4967		1718.750000
4968		1757.812500
4969		1757.812500
4970		1757.812500
4971		1718.750000
4972		1718.750000
4973		1757.812500
4974		1757.812500
4975		1757.812500
4976		1718.750000
4977		1718.750000
4978		1757.812500
4979		1757.812500
4980		1757.812500
4981		1757.812500
4982		1718.750000
4983		1718.750000
4984		1718.750000
4985		1718.750000
4986		1757.812500
4987		1757.812500
4988		1757.812500
4989		1718.750000
4990		1757.812500
4991		1757.812500
4992		1757.812500
4993		1718.750000
4994		1718.750000
4995		1718.750000
4996		1757.812500
4997		1757.812500
4998		1757.812500
4999		1757.812500
5000		1718.750000
5001		1757.812500
5002		1757.812500
5003		1757.812500
5004		1718.750000
5005		1718.750000
5006		1757.812500
5007		1757.812500
5008		1757.812500
5009		1757.812500
5010		1718.750000
5011		1718.750000
5012		1757.812500
5013		1757.812500
5014		1757.812500
5015		1757.812500
5016		1718.750000
5017		1718.750000
5018		1757.812500
5019		1757.812500
5020		1757.812500
5021		1718.750000
5022		1718.750000
5023		1757.812500
5024		1718.750000
5025		1757.812500
5026		1757.812500
5027		1718.750000
5028		1718.750000
5029		1757.812500
5030		1757.812500
5031		1757.812500
5032		1718.750000
5033		1718.750000
5034		1757.812500
5035		1757.812500
5036		1757.812500
5037		1718.750000
5038		1718.750000
5039		1718.750000
5040		1757.812500
5041		1757.812500
5042		1757.812500
5043		1718.750000
5044		1718.750000
5045		1757.812500
5046		1757.812500
5047		1757.812500
5048		1718.750000
5049		1718.750000
5050		1718.750000
5051		1757.812500
5052		1757.812500
5053		1757.812500
5054		1718.750000
5055		1718.750000
5056		1718.750000
5057		1757.812500
5058		1757.812500
5059		1757.812500
5060		1757.812500
5061		1718.750000
5062		1757.812500
5063		1757.812500
5064		1757.812500
5065		1718.750000
5066		1718.750000
5067		1757.812500
5068		1757.812500
5069		1757.812500
5070		1718.750000
5071		1718.750000
5072		1718.750000
5073		1757.812500
5074		1757.812500
5075		1757.812500
5076		1718.750000
5077		1718.750000
5078		1718.750000
5079		1757.812500
5080		1757.812500
5081		1757.812500
5082		1718.750000
5083		1718.750000
5084		1757.812500
5085		1757.812500
5086		1757.812500
5087		1718.750000
5088		1718.750000
5089		1757.812500
5090		1757.812500
5091		1757.812500
5092		1718.750000
5093		1757.812500
5094		1718.750000
5095		1718.750000
5096		1757.812500
5097		1757.812500
5098		1718.750000
5099		1757.812500
5100		1718.750000
5101		1757.812500
5102		1757.812500
5103		1757.812500
5104		1718.750000
5105		1718.750000
5106		1757.812500
5107		1757.812500
5108		1757.812500
5109		1718.750000
5110		1718.750000
5111		1718.750000
5112		1757.812500
5113		1757.812500
5114		1757.812500
5115		1757.812500
5116		1718.750000
5117		1757.812500
5118		1757.812500
5119		1757.812500
5120		1718.750000
5121		1718.750000
5122		1718.750000
5123		1757.812500
5124		1757.812500
5125		1757.812500
5126		1718.750000
5127		1718.750000
5128		1718.750000
5129		1757.812500
5130		1757.812500
5131		1757.812500
5132		1718.750000
5133		1757.812500
5134		1757.812500
5135		1718.750000
5136		1718.750000
5137		1718.750000
5138		1718.750000
5139		1718.750000
5140		1757.812500
5141		1757.812500
5142		1757.812500
5143		1718.750000
5144		1718.750000
5145		1757.812500
5146		1757.812500
5147		1757.812500
5148		1718.750000
5149		1718.750000
5150		1718.750000
5151		1757.812500
5152		1757.812500
5153		1718.750000
5154		1718.750000
5155		1718.750000
5156		1757.812500
5157		1757.812500
5158		1718.750000
5159		1718.750000
5160		1718.750000
5161		1757.812500
5162		1757.812500
5163		1757.812500
5164		1757.812500
5165		1718.750000
5166		1718.750000
5167		1718.750000
5168		1757.812500
5169		1757.812500
5170		1718.750000
5171		1718.750000
5172		1718.750000
5173		1757.812500
5174		1757.812500
5175		1757.812500
5176		1718.750000
5177		1718.750000
5178		1757.812500
5179		1757.812500
5180		1757.812500
5181		1757.812500
5182		1718.750000
5183		1718.750000
5184		1757.812500
5185		1757.812500
5186		1757.812500
5187		1757.812500
5188		1718.750000
5189		1718.750000
5190		1757.812500
5191		1757.812500
5192		1757.812500
5193		1718.750000
5194		1718.750000
5195		1757.812500
5196		1757.812500
5197		1757.812500
5198		1718.750000
5199		1718.750000
5200		1718.750000
5201		1757.812500
5202		1757.812500
5203		1757.812500
5204		1718.750000
5205		1757.812500
5206		1757.812500
5207		1757.812500
5208		1757.812500
5209		1718.750000
5210		1718.750000
5211		1718.750000
5212		1757.812500
5213		1757.812500
5214		1757.812500
5215		1718.750000
5216		1718.750000
5217		1757.812500
5218		1757.812500
5219		1757.812500
5220		1718.750000
5221		1718.750000
5222		1757.812500
5223		1757.812500
5224		1757.812500
5225		1757.812500
5226		1718.750000
5227		1718.750000
5228		1757.812500
5229		1757.812500
5230		1757.812500
5231		1757.812500
5232		1757.812500
5233		1718.750000
5234		1757.812500
5235		1757.812500
5236		1757.812500
5237		1718.750000
5238		1718.750000
5239		1718.750000
5240		1757.812500
5241		1757.812500
5242		1757.812500
5243		1757.812500
5244		1718.750000
5245		1757.812500
5246		1757.812500
5247		1757.812500
5248		1718.750000
5249		1718.750000
5250		1718.750000
5251		1757.812500
5252		1757.812500
5253		1757.812500
5254		1718.750000
5255		1718.750000
5256		1757.812500
5257		1757.812500
5258		1757.812500
5259		1757.812500
5260		1718.750000
5261		1757.812500
5262		1757.812500
5263		1757.812500
5264		1718.750000
5265		1718.750000
5266		1718.750000
5267		1757.812500
5268		1757.812500
5269		1757.812500
5270		1757.812500
5271		1718.750000
5272		1718.750000
5273		1718.750000
5274		1757.812500
5275		1718.750000
5276		1757.812500
5277		1718.750000
5278		1757.812500
5279		1757.812500
5280		1757.812500
5281		1718.750000
5282		1718.750000
5283		1718.750000
5284		1757.812500
5285		1757.812500
5286		1757.812500
5287		1718.750000
5288		1718.750000
5289		1757.812500
5290		1757.812500
5291		1757.812500
5292		1718.750000
5293		1718.750000
5294		1718.750000
5295		1757.812500
5296		1757.812500
5297		1757.812500
5298		1757.812500
5299		1718.750000
5300		1718.750000
5301		1757.812500
5302		1757.812500
5303		1718.750000
5304		1718.750000
5305		1718.750000
5306		1757.812500
5307		1757.812500
5308		1718.750000
5309		1718.750000
5310		1718.750000
5311		1718.750000
5312		1757.812500
5313		1757.812500
5314		1757.812500
5315		1718.750000
5316		1718.750000
5317		1757.812500
5318		1718.750000
5319		1757.812500
5320		1718.750000
5321		1718.750000
5322		1718.750000
5323		1757.812500
5324		1757.812500
5325		1757.812500
5326		1718.750000
5327		1718.750000
5328		1757.812500
5329		1757.812500
5330		1757.812500
5331		1718.750000
5332		1718.750000
5333		1718.750000
5334		1757.812500
5335		1757.812500
5336		1718.750000
5337		1718.750000
5338		1718.750000
5339		1757.812500
5340		1757.812500
5341		1757.812500
5342		1757.812500
5343		1718.750000
5344		1718.750000
5345		1757.812500
5346		1757.812500
5347		1757.812500
5348		1718.750000
5349		1718.750000
5350		1757.812500
5351		1757.812500
5352		1757.812500
5353		1718.750000
5354		1718.750000
5355		1757.812500
5356		1757.812500
5357		1757.812500
5358		1757.812500
5359		1757.812500
5360		1718.750000
5361		1718.750000
5362		1757.812500
5363		1757.812500
5364		1757.812500
5365		1718.750000
5366		1718.750000
5367		1718.750000
5368		1757.812500
5369		1757.812500
5370		1718.750000
5371		1718.750000
5372		1718.750000
5373		1757.812500
5374		1757.812500
5375		1718.750000
5376		1718.750000
5377		1718.750000
5378		1757.812500
5379		1757.812500
5380		1757.812500
5381		1718.750000
5382		1718.750000
5383		1718.750000
5384		1757.812500
5385		1757.812500
5386		1757.812500
5387		1718.750000
5388		1718.750000
5389		1718.750000
5390		1757.812500
5391		1757.812500
5392		1718.750000
5393		1718.750000
5394		1718.750000
5395		1757.812500
5396		1757.812500
5397		1757.812500
5398		1718.750000
5399		1718.750000
5400		1757.812500
5401		1757.812500
5402		1718.750000
5403		1718.750000
5404		1757.812500
5405		1757.812500
5406		1757.812500
5407		1757.812500
5408		1757.812500
5409		1718.750000
5410		1718.750000
5411		1718.750000
5412		1757.812500
5413		1757.812500
5414		1757.812500
5415		1718.750000
5416		1718.750000
5417		1757.812500
5418		1757.812500
5419		1757.812500
5420		1718.750000
5421		1718.750000
5422		1757.812500
5423		1757.812500
5424		1757.812500
5425		1757.812500
5426		1718.750000
5427		1718.750000
5428		1757.812500
5429		1757.812500
5430		1757.812500
5431		1757.812500
5432		1718.750000
5433		1718.750000
5434		1757.812500
5435		1757.812500
5436		1757.812500
5437		1718.750000
5438		1718.750000
5439		1757.812500
5440		1757.812500
5441		1757.812500
5442		1718.750000
5443		1718.750000
5444		1718.750000
5445		1757.812500
5446		1718.750000
5447		1757.812500
5448		1757.812500
5449		1718.750000
5450		1757.812500
5451		1757.812500
5452		1757.812500
5453		1718.750000
5454		1718.750000
5455		1718.750000
5456		1757.812500
5457		1757.812500
5458		1757.812500
5459		1718.750000
5460		1718.750000
5461		1718.750000
5462		1757.812500
5463		1757.812500
5464		1718.750000
5465		1718.750000
5466		1757.812500
5467		1757.812500
5468		1757.812500
5469		1757.812500
5470		1718.750000
5471		1718.750000
5472		1718.750000
5473		1757.812500
5474		1757.812500
5475		1757.812500
5476		1757.812500
5477		1718.750000
5478		1757.812500
5479		1757.812500
5480		1757.812500
5481		1718.750000
5482		1718.750000
5483		1718.750000
5484		1757.812500
5485		1757.812500
5486		1718.750000
5487		1718.750000
5488		1757.812500
5489		1757.812500
5490		1718.750000
5491		1757.812500
5492		1757.812500
5493		1718.750000
5494		1757.812500
5495		1757.812500
5496		1757.812500
5497		1757.812500
5498		1718.750000
5499		1718.750000
5500		1718.750000
5501		1757.812500
5502		1757.812500
5503		1718.750000
5504		1757.812500
5505		1757.812500
5506		1757.812500
5507		1757.812500
5508		1757.812500
5509		1718.750000
5510		1718.750000
5511		1757.812500
5512		1757.812500
5513		1757.812500
5514		1757.812500
5515		1718.750000
5516		1718.750000
5517		1757.812500
5518		1757.812500
5519		1757.812500
5520		1757.812500
5521		1757.812500
5522		1718.750000
5523		1757.812500
5524		1757.812500
5525		1718.750000
5526		1718.750000
5527		1718.750000
5528		1757.812500
5529		1757.812500
5530		1757.812500
5531		1718.750000
5532		1718.750000
5533		1757.812500
5534		1757.812500
5535		1757.812500
5536		1757.812500
5537		1757.812500
5538		1718.750000
5539		1757.812500
5540		1757.812500
5541		1757.812500
5542		1718.750000
5543		1718.750000
5544		1718.750000
5545		1757.812500
5546		1757.812500
5547		1718.750000
5548		1718.750000
5549		1757.812500
5550		1757.812500
5551		1757.812500
5552		1757.812500
5553		1718.750000
5554		1718.750000
5555		1718.750000
5556		1757.812500
5557		1757.812500
5558		1757.812500
5559		1718.750000
5560		1718.750000
5561		1757.812500
5562		1757.812500
5563		1757.812500
5564		1718.750000
5565		1718.750000
5566		1718.750000
5567		1757.812500
5568		1757.812500
5569		1757.812500
5570		1718.750000
5571		1718.750000
5572		1757.812500
5573		1757.812500
5574		1757.812500
5575		1718.750000
5576		1757.812500
5577		1718.750000
5578		1757.812500
5579		1757.812500
5580		1718.750000
5581		1718.750000
5582		1718.750000
5583		1718.750000
5584		1757.812500
5585		1757.812500
5586		1757.812500
5587		1718.750000
5588		1718.750000
5589		1757.812500
5590		1757.812500
5591		1757.812500
5592		1718.750000
5593		1718.750000
5594		1757.812500
5595		1757.812500
5596		1757.812500
5597		1718.750000
5598		1718.750000
5599		1718.750000
5600		1757.812500
5601		1757.812500
5602		1757.812500
5603		1757.812500
5604		1718.750000
5605		1718.750000
5606		1718.750000
5607		1757.812500
5608		1718.750000
5609		1718.750000
5610		1718.750000
5611		1757.812500
5612		1757.812500
5613		1757.812500
5614		1718.750000
5615		1718.750000
5616		1718.750000
5617		1757.812500
5618		1757.812500
5619		1718.750000
5620		1718.750000
5621		1718.750000
5622		1757.812500
5623		1757.812500
5624		1757.812500
5625		1718.750000
5626		1718.750000
5627		1718.750000
5628		1757.812500
5629		1757.812500
5630		1757.812500
5631		1718.750000
5632		1718.750000
5633		1718.750000
5634		1757.812500
5635		1757.812500
5636		1718.750000
5637		1718.750000
5638		1757.812500
5639		1757.812500
5640		1757.812500
5641		1757.812500
5642		1718.750000
5643		1718.750000
5644		1718.750000
5645		1757.812500
5646		1757.812500
5647		1718.750000
5648		1718.750000
5649		1718.750000
5650		1757.812500
5651		1757.812500
5652		1757.812500
5653		1718.750000
5654		1718.750000
5655		1718.750000
5656		1757.812500
5657		1757.812500
5658		1718.750000
5659		1718.750000
5660		1718.750000
5661		1757.812500
5662		1757.812500
5663		1757.812500
5664		1718.750000
5665		1718.750000
5666		1757.812500
5667		1757.812500
5668		1757.812500
5669		1718.750000
5670		1757.812500
5671		1718.750000
5672		1757.812500
5673		1757.812500
5674		1757.812500
5675		1757.812500
5676		1718.750000
5677		1718.750000
5678		1757.812500
5679		1757.812500
5680		1757.812500
5681		1718.750000
5682		1718.750000
5683		1757.812500
5684		1757.812500
5685		1757.812500
5686		1718.750000
5687		1718.750000
5688		1718.750000
5689		1757.812500
5690		1757.812500
5691		1718.750000
5692		1757.812500
5693		1718.750000
5694		1757.812500
5695		1757.812500
5696		1757.812500
5697		1718.750000
5698		1718.750000
5699		1718.750000
5700		1757.812500
5701		1757.812500
5702		1757.812500
5703		1718.750000
5704		1718.750000
5705		1757.812500
5706		1757.812500
5707		1757.812500
5708		1718.750000
5709		1718.750000
5710		1757.812500
5711		1757.812500
5712		1757.812500
5713		1757.812500
5714		1718.750000
5715		1718.750000
5716		1718.750000
5717		1718.750000
5718		1757.812500
5719		1757.812500
5720		1757.812500
5721		1718.750000
5722		1757.812500
5723		1757.812500
5724		1757.812500
5725		1718.750000
5726		1718.750000
5727		1718.750000
5728		1757.812500
5729		1757.812500
5730		1757.812500
5731		1757.812500
5732		1718.750000
5733		1757.812500
5734		1718.750000
5735		1718.750000
5736		1718.750000
5737		1718.750000
5738		1757.812500
5739		1757.812500
5740		1757.812500
5741		1757.812500
5742		1718.750000
5743		1718.750000
5744		1757.812500
5745		1757.812500
5746		1757.812500
5747		1757.812500
5748		1718.750000
5749		1757.812500
5750		1718.750000
5751		1718.750000
5752		1718.750000
5753		1718.750000
5754		1718.750000
5755		1718.750000
5756		1718.750000
5757		1679.687500
5758		1679.687500
5759		1679.687500
5760		1640.625000
5761		1640.625000
5762		1640.625000
5763		1601.562500
5764		1601.562500
5765		1601.562500
5766		1562.500000
5767		1562.500000
5768		1523.437500
5769		1523.437500
5770		1523.437500
5771		1484.375000
5772		1484.375000
5773		1484.375000
5774		1445.312500
5775		1445.312500
5776		1445.312500
5777		1406.250000
5778		1406.250000
5779		1367.187500
5780		1328.125000
5781		1328.125000
5782		1328.125000
5783		1328.125000
5784		1289.062500
5785		1289.062500
5786		1289.062500
5787		1250.000000
5788		1250.000000
5789		1210.937500
5790		1210.937500
5791		1210.937500
5792		1171.875000
5793		1171.875000
5794		1171.875000
5795		1132.812500
5796		1132.812500
5797		1132.812500
5798		1093.750000
5799		1093.750000
5800		1054.687500
5801		1054.687500
5802		1054.687500
5803		1015.625000
5804		1015.625000
5805		1015.625000
5806		976.562500
5807		976.562500
5808		976.562500
5809		937.500000
5810		937.500000
5811		937.500000
5812		898.437500
5813		898.437500
5814		898.437500
5815		898.437500
5816		859.375000
5817		859.375000
5818		859.375000
5819		820.312500
5820		820.312500
5821		820.312500
5822		781.250000
5823		781.250000
5824		781.250000
5825		742.187500
5826		742.187500
5827		742.187500
5828		703.125000
5829		703.125000
5830		703.125000
5831		664.062500
5832		664.062500
5833		664.062500
5834		625.000000
5835		625.000000
5836		625.000000
5837		625.000000
5838		625.000000
5839		585.937500
5840		585.937500
5841		546.875000
5842		585.937500
5843		546.875000
5844		546.875000
5845		546.875000
5846		507.812500
5847		507.812500
5848		507.812500
5849		507.812500
5850		468.750000
5851		468.750000
5852		468.750000
5853		429.687500
5854		429.687500
5855		429.687500
5856		429.687500
5857		429.687500
5858		429.687500
5859		390.625000
5860		390.625000
5861		390.625000
5862		351.562500
5863		351.562500
5864		351.562500
5865		351.562500
5866		312.500000
5867		312.500000
5868		312.500000
5869		312.500000
5870		273.437500
5871		273.437500
5872		273.437500
5873		273.437500
5874		273.437500
5875		273.437500
5876		234.375000
5877		234.375000
5878		234.375000
5879		234.375000
5880		234.375000
5881		195.312500
5882		195.312500
5883		195.312500
5884		195.312500
5885		156.250000
5886		156.250000
5887		156.250000
5888		156.250000
5889		156.250000
5890		117.187500
5891		117.187500
5892		117.187500
5893		117.187500
5894		117.187500
5895		117.187500
5896		117.187500
5897		78.125000
5898		78.125000
5899		78.125000
5900		78.125000
5901		78.125000
5902		39.062500
5903		39.062500
5904		39.062500
5905		39.062500
5906		0.000000
5907		0.000000
5908		0.000000
5909		0.000000
5910		0.000000
5911		0.000000
5912		0.000000
5913		0.000000
5914		0.000000
5915		0.000000
5916		-39.062500
5917		-39.062500
5918		-39.062500
5919		-39.062500
5920		-39.062500
5921		-78.125000
5922		-78.125000
5923		-78.125000
5924		-78.125000
5925		-78.125000
5926		-78.125000
5927		-78.125000
5928		-117.187500
5929		-117.187500
5930		-117.187500
5931		-117.187500
5932		-117.187500
5933		-117.187500
5934		-117.187500
5935		-117.187500
5936		-117.187500
5937		-117.187500
5938		-117.187500
5939		-156.250000
5940		-156.250000
5941		-156.250000
5942		-156.250000
5943		-156.250000
5944		-156.250000
5945		-156.250000
5946		-195.312500
5947		-195.312500
5948		-195.312500
5949		-195.312500
5950		-195.312500
5951		-195.312500
5952		-195.312500
5953		-195.312500
5954		-195.312500
5955		-195.312500
5956		-195.312500
5957		-195.312500
5958		-195.312500
5959		-234.375000
5960		-234.375000
5961		-234.375000
5962		-234.375000
5963		-234.375000
5964		-234.375000
5965		-234.375000
5966		-234.375000
5967		-234.375000
5968		-234.375000
5969		-234.375000
5970		-234.375000
5971		-234.375000
5972		-234.375000
5973		-234.375000
5974		-273.437500
5975		-273.437500
5976		-273.437500
5977		-273.437500
5978		-273.437500
5979		-273.437500
5980		-273.437500
5981		-273.437500
5982		-273.437500
5983		-273.437500
5984		-273.437500
5985		-273.437500
5986		-273.437500
5987		-273.437500
5988		-273.437500
5989		-273.437500
5990		-273.437500
5991		-273.437500
5992		-273.437500
5993		-312.500000
5994		-273.437500
5995		-312.500000
5996		-312.500000
5997		-312.500000
5998		-312.500000
5999		-312.500000
6000		-312.500000
6001		-312.500000
6002		-312.500000
6003		-312.500000
6004		-312.500000
6005		-312.500000
6006		-312.500000
6007		-312.500000
6008		-312.500000
6009		-312.500000
6010		-312.500000
6011		-312.500000
6012		-312.500000
6013		-312.500000
6014		-312.500000
6015		-312.500000
6016		-312.500000
6017		-312.500000
6018		-312.500000
6019		-312.500000
6020		-312.500000
6021		-312.500000
6022		-312.500000
6023		-312.500000
6024		-312.500000
6025		-312.500000
6026		-312.500000
6027		-312.500000
6028		-312.500000
6029		-312.500000
6030		-312.500000
6031		-351.562500
6032		-312.500000
6033		-312.500000
6034		-312.500000
6035		-312.500000
6036		-312.500000
6037		-312.500000
6038		-273.437500
6039		-312.500000
6040		-312.500000
6041		-273.437500
6042		-273.437500
6043		-273.437500
6044		-273.437500
6045		-273.437500
6046		-312.500000
6047		-273.437500
6048		-312.500000
6049		-312.500000
6050		-273.437500
6051		-273.437500
6052		-273.437500
6053		-273.437500
6054		-273.437500
6055		-273.437500
6056		-273.437500
6057		-273.437500
6058		-273.437500
6059		-273.437500
6060		-273.437500
6061		-273.437500
6062		-234.375000
6063		-234.375000
6064		-273.437500
6065		-234.375000
6066		-234.375000
6067		-273.437500
6068		-234.375000
6069		-234.375000
6070		-234.375000
6071		-234.375000
6072		-234.375000
6073		-234.375000
6074		-234.375000
6075		-234.375000
6076		-195.312500
6077		-195.312500
6078		-195.312500
6079		-195.312500
6080		-195.312500
6081		-195.312500
6082		-195.312500
6083		-195.312500
6084		-195.312500
6085		-195.312500
6086		-195.312500
6087		-195.312500
6088		-195.312500
6089		-195.312500
6090		-195.312500
6091		-156.250000
6092		-156.250000
6093		-156.250000
6094		-156.250000
6095		-156.250000
6096		-156.250000
6097		-156.250000
6098		-117.187500
6099		-117.187500
6100		-117.187500
6101		-117.187500
6102		-117.187500
6103		-117.187500
6104		-117.187500
6105		-117.187500
6106		-117.187500
6107		-117.187500
6108		-78.125000
6109		-117.187500
6110		-78.125000
6111		-78.125000
6112		-78.125000
6113		-78.125000
6114		-78.125000
6115		-39.062500
6116		-39.062500
6117		-39.062500
6118		-39.062500
6119		-39.062500
6120		-39.062500
6121		-39.062500
6122		-39.062500
6123		-39.062500
6124		-39.062500
6125		0.000000
6126		0.000000
6127		0.000000
6128		0.000000
6129		0.000000
6130		0.000000
6131		39.062500
6132		39.062500
6133		39.062500
6134		39.062500
6135		78.125000
6136		78.125000
6137		78.125000
6138		78.125000
6139		78.125000
6140		78.125000
6141		117.187500
6142		156.250000
6143		117.187500
6144		117.187500
6145		117.187500
6146		117.187500
6147		156.250000
6148		156.250000
6149		156.250000
6150		156.250000
6151		156.250000
6152		195.312500
6153		195.312500
6154		195.312500
6155		195.312500
6156		195.312500
6157		234.375000
6158		234.375000
6159		234.375000
6160		234.375000
6161		273.437500
6162		273.437500
6163		273.437500
6164		273.437500
6165		273.437500
6166		312.500000
6167		312.500000
6168		312.500000
6169		312.500000
6170		312.500000
6171		351.562500
6172		351.562500
6173		351.562500
6174		351.562500
6175		390.625000
6176		390.625000
6177		390.625000
6178		390.625000
6179		429.687500
6180		429.687500
6181		429.687500
6182		429.687500
6183		468.750000
6184		468.750000
6185		468.750000
6186		468.750000
6187		507.812500
6188		507.812500
6189		507.812500
6190		507.812500
6191		546.875000
6192		546.875000
6193		546.875000
6194		585.937500
6195		585.937500
6196		585.937500
6197		585.937500
6198		625.000000
6199		625.000000
6200		625.000000
6201		664.062500
6202		664.062500
6203		664.062500
6204		703.125000
6205		703.125000
6206		703.125000
6207		703.125000
6208		742.187500
6209		742.187500
6210		742.187500
6211		742.187500
6212		781.250000
6213		781.250000
6214		820.312500
6215		820.312500
6216		859.375000
6217		859.375000
6218		859.375000
6219		898.437500
6220		898.437500
6221		898.437500
6222		937.500000
6223		937.500000
6224		937.500000
6225		937.500000
6226		976.562500
6227		976.562500
6228		976.562500
6229		1015.625000
6230		1015.625000
6231		1054.687500
6232		1054.687500
6233		1054.687500
6234		1093.750000
6235		1093.750000
6236		1132.812500
6237		1132.812500
6238		1171.875000
6239		1171.875000
6240		1210.937500
6241		1210.937500
6242		1210.937500
6243		1250.000000
6244		1250.000000
6245		1250.000000
6246		1289.062500
6247		1289.062500
6248		1328.125000
6249		1328.125000
6250		1367.187500
6251		1367.187500
6252		1406.250000
6253		1406.250000
6254		1445.312500
6255		1445.312500
6256		1484.375000
6257		1484.375000
6258		1523.437500
6259		1523.437500
6260		1562.500000
6261		1562.500000
6262		1601.562500
6263		1601.562500
6264		1640.625000
6265		1640.625000
6266		1640.625000
6267		1679.687500
6268		1718.750000
6269		1718.750000
6270		1718.750000
6271		1718.750000
6272		1718.750000
6273		1718.750000
6274		1718.750000
6275		1718.750000
6276		1718.750000
6277		1718.750000
6278		1718.750000
6279		1718.750000
6280		1718.750000
6281		1718.750000
6282		1718.750000
6283		1718.750000
6284		1718.750000
6285		1718.750000
6286		1718.750000
6287		1718.750000
6288		1718.750000
6289		1718.750000
6290		1757.812500
6291		1718.750000
6292		1718.750000
6293		1718.750000
6294		1757.812500
6295		1718.750000
6296		1718.750000
6297		1718.750000
6298		1718.750000
6299		1757.812500
6300		1757.812500
6301		1718.750000
6302		1718.750000
6303		1718.750000
6304		1718.750000
6305		1757.812500
6306		1718.750000
6307		1718.750000
6308		1718.750000
6309		1718.750000
6310		1718.750000
6311		1718.750000
6312		1718.750000
6313		1718.750000
6314		1718.750000
6315		1718.750000
6316		1757.812500
6317		1757.812500
6318		1757.812500
6319		1718.750000
6320		1718.750000
6321		1757.812500
6322		1757.812500
6323		1718.750000
6324		1718.750000
6325		1718.750000
6326		1757.812500
6327		1757.812500
6328		1757.812500
6329		1718.750000
6330		1718.750000
6331		1718.750000
6332		1757.812500
6333		1757.812500
6334		1757.812500
6335		1718.750000
6336		1718.750000
6337		1718.750000
6338		1757.812500
6339		1757.812500
6340		1718.750000
6341		1718.750000
6342		1718.750000
6343		1757.812500
6344		1757.812500
6345		1757.812500
6346		1718.750000
6347		1718.750000
6348		1718.750000
6349		1757.812500
6350		1757.812500
6351		1718.750000
6352		1757.812500
6353		1718.750000
6354		1757.812500
6355		1757.812500
6356		1757.812500
6357		1718.750000
6358		1718.750000
6359		1718.750000
6360		1757.812500
6361		1757.812500
6362		1757.812500
6363		1718.750000
6364		1718.750000
6365		1718.750000
6366		1757.812500
6367		1757.812500
6368		1718.750000
6369		1718.750000
6370		1718.750000
6371		1757.812500
6372		1757.812500
6373		1757.812500
6374		1718.750000
6375		1718.750000
6376		1718.750000
6377		1718.750000
6378		1718.750000
6379		1757.812500
6380		1718.750000
6381		1718.750000
6382		1757.812500
6383		1757.812500
6384		1757.812500
6385		1718.750000
6386		1718.750000
6387		1718.750000
6388		1757.812500
6389		1757.812500
6390		1718.750000
6391		1718.750000
6392		1718.750000
6393		1757.812500
6394		1757.812500
6395		1718.750000
6396		1718.750000
6397		1718.750000
6398		1757.812500
6399		1757.812500
6400		1757.812500
6401		1757.812500
6402		1718.750000
6403		1718.750000
6404		1757.812500
6405		1757.812500
6406		1757.812500
6407		1718.750000
6408		1718.750000
6409		1718.750000
6410		1757.812500
6411		1757.812500
6412		1757.812500
6413		1718.750000
6414		1718.750000
6415		1718.750000
6416		1757.812500
6417		1757.812500
6418		1718.750000
6419		1718.750000
6420		1718.750000
6421		1757.812500
6422		1718.750000
6423		1757.812500
6424		1757.812500
6425		1718.750000
6426		1718.750000
6427		1757.812500
6428		1757.812500
6429		1718.750000
6430		1718.750000
6431		1718.750000
6432		1757.812500
6433		1757.812500
6434		1757.812500
6435		1718.750000
6436		1757.812500
6437		1718.750000
6438		1757.812500
6439		1757.812500
6440		1718.750000
6441		1718.750000
6442		1718.750000
6443		1757.812500
6444		1757.812500
6445		1757.812500
6446		1718.750000
6447		1718.750000
6448		1718.750000
6449		1757.812500
6450		1718.750000
6451		1718.750000
6452		1718.750000
6453		1718.750000
6454		1757.812500
6455		1757.812500
6456		1757.812500
6457		1718.750000
6458		1718.750000
6459		1718.750000
6460		1757.812500
6461		1757.812500
6462		1718.750000
6463		1757.812500
6464		1718.750000
6465		1718.750000
6466		1757.812500
6467		1757.812500
6468		1757.812500
6469		1718.750000
6470		1757.812500
6471		1757.812500
6472		1757.812500
6473		1757.812500
6474		1718.750000
6475		1718.750000
6476		1757.812500
6477		1757.812500
6478		1757.812500
6479		1718.750000
6480		1718.750000
6481		1718.750000
6482		1757.812500
6483		1757.812500
6484		1757.812500
6485		1718.750000
6486		1718.750000
6487		1757.812500
6488		1757.812500
6489		1757.812500
6490		1757.812500
6491		1718.750000
6492		1718.750000
6493		1757.812500
6494		1757.812500
6495		1757.812500
6496		1718.750000
6497		1718.750000
6498		1757.812500
6499		1757.812500
6500		1757.812500
6501		1718.750000
6502		1718.750000
6503		1718.750000
6504		1757.812500
6505		1757.812500
6506		1757.812500
6507		1718.750000
6508		1718.750000
6509		1757.812500
6510		1757.812500
6511		1757.812500
6512		1718.750000
6513		1718.750000
6514		1718.750000
6515		1757.812500
6516		1757.812500
6517		1757.812500
6518		1718.750000
6519		1718.750000
6520		1718.750000
6521		1757.812500
6522		1757.812500
6523		1757.812500
6524		1718.750000
6525		1718.750000
6526		1757.812500
6527		1757.812500
6528		1718.750000
6529		1718.750000
6530		1718.750000
6531		1718.750000
6532		1757.812500
6533		1757.812500
6534		1757.812500
6535		1757.812500
6536		1718.750000
6537		1718.750000
6538		1757.812500
6539		1757.812500
6540		1718.750000
6541		1718.750000
6542		1718.750000
6543		1757.812500
6544		1757.812500
6545		1718.750000
6546		1718.750000
6547		1718.750000
6548		1757.812500
6549		1757.812500
6550		1757.812500
6551		1718.750000
6552		1718.750000
6553		1718.750000
6554		1718.750000
6555		1757.812500
6556		1757.812500
6557		1718.750000
6558		1718.750000
6559		1718.750000
6560		1757.812500
6561		1757.812500
6562		1757.812500
6563		1718.750000
6564		1718.750000
6565		1757.812500
6566		1757.812500
6567		1757.812500
6568		1718.750000
6569		1757.812500
6570		1757.812500
6571		1757.812500
6572		1757.812500
6573		1718.750000
6574		1718.750000
6575		1718.750000
6576		1757.812500
6577		1757.812500
6578		1757.812500
6579		1757.812500
6580		1718.750000
6581		1718.750000
6582		1718.750000
6583		1757.812500
6584		1757.812500
6585		1718.750000
6586		1718.750000
6587		1757.812500
6588		1757.812500
6589		1757.812500
6590		1718.750000
6591		1718.750000
6592		1718.750000
6593		1757.812500
6594		1757.812500
6595		1718.750000
6596		1718.750000
6597		1757.812500
6598		1757.812500
6599		1757.812500
6600		1757.812500
6601		1718.750000
6602		1718.750000
6603		1718.750000
6604		1757.812500
6605		1757.812500
6606		1757.812500
6607		1718.750000
6608		1718.750000
6609		1718.750000
6610		1757.812500
6611		1757.812500
6612		1718.750000
6613		1718.750000
6614		1757.812500
6615		1757.812500
6616		1757.812500
6617		1757.812500
6618		1718.750000
6619		1718.750000
6620		1718.750000
6621		1757.812500
6622		1757.812500
6623		1757.812500
6624		1718.750000
6625		1718.750000
6626		1757.812500
6627		1757.812500
6628		1757.812500
6629		1718.750000
6630		1718.750000
6631		1718.750000
6632		1757.812500
6633		1757.812500
6634		1757.812500
6635		1718.750000
6636		1718.750000
6637		1757.812500
6638		1757.812500
6639		1718.750000
6640		1718.750000
6641		1718.750000
6642		1757.812500
6643		1757.812500
6644		1757.812500
6645		1757.812500
6646		1718.750000
6647		1718.750000
6648		1718.750000
6649		1757.812500
6650		1757.812500
6651		1757.812500
6652		1718.750000
6653		1718.750000
6654		1757.812500
6655		1757.812500
6656		1718.750000
6657		1718.750000
6658		1718.750000
6659		1757.812500
6660		1757.812500
6661		1757.812500
6662		1718.750000
6663		1718.750000
6664		1718.750000
6665		1757.812500
6666		1757.812500
6667		1757.812500
6668		1718.750000
6669		1757.812500
6670		1718.750000
6671		1757.812500
6672		1757.812500
6673		1718.750000
6674		1718.750000
6675		1718.750000
6676		1757.812500
6677		1757.812500
6678		1757.812500
6679		1718.750000
6680		1718.750000
6681		1757.812500
6682		1757.812500
6683		1757.812500
6684		1718.750000
6685		1718.750000
6686		1718.750000
6687		1757.812500
6688		1718.750000
6689		1757.812500
6690		1757.812500
6691		1718.750000
6692		1718.750000
6693		1757.812500
6694		1757.812500
6695		1757.812500
6696		1718.750000
6697		1718.750000
6698		1757.812500
6699		1757.812500
6700		1757.812500
6701		1718.750000
6702		1718.750000
6703		1718.750000
6704		1757.812500
6705		1757.812500
6706		1718.750000
6707		1757.812500
6708		1718.750000
6709		1757.812500
6710		1757.812500
6711		1757.812500
6712		1718.750000
6713		1718.750000
6714		1718.750000
6715		1757.812500
6716		1757.812500
6717		1757.812500
6718		1718.750000
6719		1718.750000
6720		1757.812500
6721		1757.812500
6722		1757.812500
6723		1718.750000
6724		1718.750000
6725		1757.812500
6726		1757.812500
6727		1757.812500
6728		1757.812500
6729		1718.750000
6730		1718.750000
6731		1757.812500
6732		1757.812500
6733		1757.812500
6734		1718.750000
6735		1718.750000
6736		1718.750000
6737		1757.812500
6738		1757.812500
6739		1757.812500
6740		1718.750000
6741		1718.750000
6742		1757.812500
6743		1757.812500
6744		1757.812500
6745		1718.750000
6746		1718.750000
6747		1718.750000
6748		1757.812500
6749		1757.812500
6750		1757.812500
6751		1718.750000
6752		1718.750000
6753		1718.750000
6754		1718.750000
6755		1757.812500
6756		1718.750000
6757		1718.750000
6758		1718.750000
6759		1757.812500
6760		1757.812500
6761		1757.812500
6762		1718.750000
6763		1718.750000
6764		1718.750000
6765		1757.812500
6766		1757.812500
6767		1757.812500
6768		1718.750000
6769		1718.750000
6770		1757.812500
6771		1757.812500
6772		1757.812500
6773		1718.750000
6774		1718.750000
6775		1718.750000
6776		1757.812500
6777		1757.812500
6778		1757.812500
6779		1718.750000
6780		1718.750000
6781		1757.812500
6782		1757.812500
6783		1757.812500
6784		1718.750000
6785		1718.750000
6786		1718.750000
6787		1757.812500
6788		1757.812500
6789		1718.750000
6790		1718.750000
6791		1718.750000
6792		1757.812500
6793		1757.812500
6794		1757.812500
6795		1718.750000
6796		1718.750000
6797		1757.812500
6798		1757.812500
6799		1757.812500
6800		1757.812500
6801		1718.750000
6802		1718.750000
6803		1718.750000
6804		1757.812500
6805		1757.812500
6806		1718.750000
6807		1718.750000
6808		1718.750000
6809		1757.812500
6810		1757.812500
6811		1757.812500
6812		1718.750000
6813		1718.750000
6814		1757.812500
6815		1757.812500
6816		1757.812500
6817		1718.750000
6818		1718.750000
6819		1718.750000
6820		1757.812500
6821		1757.812500
6822		1757.812500
6823		1757.812500
6824		1718.750000
6825		1718.750000
6826		1757.812500
6827		1757.812500
6828		1757.812500
6829		1718.750000
6830		1718.750000
6831		1757.812500
6832		1757.812500
6833		1757.812500
6834		1718.750000
6835		1718.750000
6836		1718.750000
6837		1757.812500
6838		1757.812500
6839		1718.750000
6840		1718.750000
6841		1718.750000
6842		1757.812500
6843		1757.812500
6844		1757.812500
6845		1718.750000
6846		1718.750000
6847		1718.750000
6848		1757.812500
6849		1757.812500
6850		1757.812500
6851		1718.750000
6852		1718.750000
6853		1757.812500
6854		1757.812500
6855		1757.812500
6856		1718.750000
6857		1718.750000
6858		1757.812500
6859		1757.812500
6860		1757.812500
6861		1757.812500
6862		1718.750000
6863		1718.750000
6864		1757.812500
6865		1718.750000
6866		1757.812500
6867		1718.750000
6868		1718.750000
6869		1718.750000
6870		1757.812500
6871		1757.812500
6872		1757.812500
6873		1718.750000
6874		1718.750000
6875		1757.812500
6876		1757.812500
6877		1757.812500
6878		1718.750000
6879		1718.750000
6880		1757.812500
6881		1757.812500
6882		1757.812500
6883		1718.750000
6884		1718.750000
6885		1718.750000
6886		1757.812500
6887		1757.812500
6888		1757.812500
6889		1757.812500
6890		1718.750000
6891		1718.750000
6892		1757.812500
6893		1757.812500
6894		1757.812500
6895		1757.812500
6896		1718.750000
6897		1757.812500
6898		1757.812500
6899		1757.812500
6900		1718.750000
6901		1718.750000
6902		1718.750000
6903		1757.812500
6904		1757.812500
6905		1718.750000
6906		1718.750000
6907		1718.750000
6908		1718.750000
6909		1757.812500
6910		1757.812500
6911		1757.812500
6912		1718.750000
6913		1718.750000
6914		1757.812500
6915		1757.812500
6916		1757.812500
6917		1718.750000
6918		1718.750000
6919		1718.750000
6920		1757.812500
6921		1757.812500
6922		1757.812500
6923		1718.750000
6924		1718.750000
6925		1757.812500
6926		1757.812500
6927		1718.750000
6928		1718.750000
6929		1718.750000
6930		1718.750000
6931		1757.812500
6932		1757.812500
6933		1757.812500
6934		1718.750000
6935		1718.750000
6936		1718.750000
6937		1757.812500
6938		1757.812500
6939		1757.812500
6940		1718.750000
6941		1718.750000
6942		1757.812500
6943		1757.812500
6944		1757.812500
6945		1718.750000
6946		1718.750000
6947		1718.750000
6948		1757.812500
6949		1757.812500
6950		1718.750000
6951		1718.750000
6952		1718.750000
6953		1757.812500
6954		1718.750000
6955		1757.812500
6956		1718.750000
6957		1718.750000
6958		1718.750000
6959		1757.812500
6960		1757.812500
6961		1757.812500
6962		1718.750000
6963		1718.750000
6964		1757.812500
6965		1757.812500
6966		1757.812500
6967		1718.750000
6968		1757.812500
6969		1718.750000
6970		1757.812500
6971		1757.812500
6972		1718.750000
6973		1718.750000
6974		1718.750000
6975		1757.812500
6976		1757.812500
6977		1757.812500
6978		1757.812500
6979		1718.750000
6980		1718.750000
6981		1757.812500
6982		1757.812500
6983		1757.812500
6984		1718.750000
6985		1718.750000
6986		1757.812500
6987		1757.812500
6988		1757.812500
6989		1718.750000
6990		1718.750000
6991		1718.750000
6992		1757.812500
6993		1757.812500
6994		1718.750000
6995		1718.750000
6996		1718.750000
6997		1757.812500
6998		1718.750000
6999		1757.812500
7000		1718.750000
7001		1718.750000
7002		1718.750000
7003		1757.812500
7004		1757.812500
7005		1757.812500
7006		1718.750000
7007		1718.750000
7008		1757.812500
7009		1757.812500
7010		1757.812500
7011		1718.750000
7012		1757.812500
7013		1757.812500
7014		1757.812500
7015		1757.812500
7016		1757.812500
7017		1718.750000
7018		1718.750000
7019		1757.812500
7020		1757.812500
7021		1757.812500
7022		1757.812500
7023		1718.750000
7024		1718.750000
7025		1718.750000
7026		1757.812500
7027		1757.812500
7028		1718.750000
7029		1718.750000
7030		1757.812500
7031		1757.812500
7032		1757.812500
7033		1757.812500
7034		1718.750000
7035		1718.750000
7036		1757.812500
7037		1757.812500
7038		1718.750000
7039		1718.750000
7040		1718.750000
7041		1718.750000
7042		1757.812500
7043		1757.812500
7044		1757.812500
7045		1718.750000
7046		1718.750000
7047		1757.812500
7048		1757.812500
7049		1757.812500
7050		1718.750000
7051		1718.750000
7052		1718.750000
7053		1757.812500
7054		1757.812500
7055		1757.812500
7056		1718.750000
7057		1718.750000
7058		1757.812500
7059		1757.812500
7060		1757.812500
7061		1718.750000
7062		1718.750000
7063		1718.750000
7064		1757.812500
7065		1757.812500
7066		1757.812500
7067		1757.812500
7068		1718.750000
7069		1757.812500
7070		1757.812500
7071		1757.812500
7072		1718.750000
7073		1718.750000
7074		1718.750000
7075		1757.812500
7076		1757.812500
7077		1757.812500
7078		1718.750000
7079		1718.750000
7080		1718.750000
7081		1757.812500
7082		1757.812500
7083		1718.750000
7084		1757.812500
7085		1757.812500
7086		1757.812500
7087		1757.812500
7088		1757.812500
7089		1718.750000
7090		1718.750000
7091		1718.750000
7092		1757.812500
7093		1757.812500
7094		1718.750000
7095		1718.750000
7096		1757.812500
7097		1757.812500
7098		1757.812500
7099		1757.812500
7100		1718.750000
7101		1718.750000
7102		1718.750000
7103		1757.812500
7104		1757.812500
7105		1718.750000
7106		1757.812500
7107		1718.750000
7108		1757.812500
7109		1757.812500
7110		1757.812500
7111		1718.750000
7112		1718.750000
7113		1718.750000
7114		1757.812500
7115		1757.812500
7116		1757.812500
7117		1718.750000
7118		1718.750000
7119		1757.812500
7120		1757.812500
7121		1757.812500
7122		1718.750000
7123		1718.750000
7124		1718.750000
7125		1757.812500
7126		1757.812500
7127		1718.750000
7128		1718.750000
7129		1718.750000
7130		1757.812500
7131		1757.812500
7132		1757.812500
7133		1757.812500
7134		1718.750000
7135		1718.750000
7136		1757.812500
7137		1757.812500
7138		1757.812500
7139		1757.812500
7140		1718.750000
7141		1757.812500
7142		1757.812500
7143		1757.812500
7144		1718.750000
7145		1718.750000
7146		1718.750000
7147		1757.812500
7148		1757.812500
7149		1757.812500
7150		1757.812500
7151		1718.750000
7152		1718.750000
7153		1757.812500
7154		1757.812500
7155		1718.750000
7156		1718.750000
7157		1718.750000
7158		1757.812500
7159		1757.812500
7160		1757.812500
7161		1718.750000
7162		1718.750000
7163		1718.750000
7164		1757.812500
7165		1757.812500
7166		1718.750000
7167		1718.750000
7168		1718.750000
7169		1757.812500
7170		1757.812500
7171		1718.750000
7172		1718.750000
7173		1718.750000
7174		1757.812500
7175		1757.812500
7176		1757.812500
7177		1757.812500
7178		1718.750000
7179		1718.750000
7180		1757.812500
7181		1757.812500
7182		1757.812500
7183		1718.750000
7184		1718.750000
7185		1757.812500
7186		1757.812500
7187		1757.812500
7188		1718.750000
7189		1718.750000
7190		1718.750000
7191		1757.812500
7192		1757.812500
7193		1757.812500
7194		1718.750000
7195		1718.750000
7196		1718.750000
7197		1757.812500
7198		1757.812500
7199		1718.750000
7200		1718.750000
7201		1718.750000
7202		1757.812500
7203		1757.812500
7204		1757.812500
7205		1757.812500
7206		1718.750000
7207		1718.750000
7208		1757.812500
7209		1757.812500
7210		1757.812500
7211		1718.750000
7212		1718.750000
7213		1757.812500
7214		1757.812500
7215		1757.812500
7216		1757.812500
7217		1718.750000
7218		1718.750000
7219		1757.812500
7220		1757.812500
7221		1757.812500
7222		1757.812500
7223		1718.750000
7224		1718.750000
7225		1757.812500
7226		1757.812500
7227		1718.750000
7228		1718.750000
7229		1757.812500
7230		1757.812500
7231		1757.812500
7232		1757.812500
7233		1718.750000
7234		1718.750000
7235		1718.750000
7236		1757.812500
7237		1757.812500
7238		1718.750000
7239		1718.750000
7240		1718.750000
7241		1757.812500
7242		1757.812500
7243		1718.750000
7244		1718.750000
7245		1718.750000
7246		1718.750000
7247		1757.812500
7248		1757.812500
7249		1757.812500
7250		1718.750000
7251		1718.750000
7252		1757.812500
7253		1757.812500
7254		1757.812500
7255		1718.750000
7256		1718.750000
7257		1718.750000
7258		1757.812500
7259		1757.812500
7260		1718.750000
7261		1718.750000
7262		1718.750000
7263		1757.812500
7264		1757.812500
7265		1757.812500
7266		1757.812500
7267		1718.750000
7268		1718.750000
7269		1757.812500
7270		1757.812500
7271		1757.812500
7272		1718.750000
7273		1718.750000
7274		1757.812500
7275		1757.812500
7276		1757.812500
7277		1718.750000
7278		1718.750000
7279		1718.750000
7280		1757.812500
7281		1757.812500
7282		1757.812500
7283		1757.812500
7284		1757.812500
7285		1757.812500
7286		1757.812500
7287		1757.812500
7288		1757.812500
7289		1718.750000
7290		1718.750000
7291		1718.750000
7292		1757.812500
7293		1757.812500
7294		1718.750000
7295		1718.750000
7296		1718.750000
7297		1757.812500
7298		1757.812500
7299		1757.812500
7300		1718.750000
7301		1718.750000
7302		1757.812500
7303		1757.812500
7304		1757.812500
7305		1718.750000
7306		1718.750000
7307		1718.750000
7308		1757.812500
7309		1757.812500
7310		1757.812500
7311		1718.750000
7312		1718.750000
7313		1757.812500
7314		1757.812500
7315		1757.812500
7316		1718.750000
7317		1718.750000
7318		1718.750000
7319		1757.812500
7320		1757.812500
7321		1757.812500
7322		1718.750000
7323		1718.750000
7324		1757.812500
7325		1757.812500
7326		1718.750000
7327		1718.750000
7328		1757.812500
7329		1757.812500
7330		1757.812500
7331		1757.812500
7332		1757.812500
7333		1757.812500
7334		1718.750000
7335		1718.750000
7336		1757.812500
7337		1757.812500
7338		1757.812500
7339		1757.812500
7340		1718.750000
7341		1757.812500
7342		1757.812500
7343		1757.812500
7344		1718.750000
7345		1718.750000
7346		1757.812500
7347		1757.812500
7348		1757.812500
7349		1757.812500
7350		1718.750000
7351		1718.750000
7352		1757.812500
7353		1718.750000
7354		1757.812500
7355		1757.812500
7356		1718.750000
7357		1718.750000
7358		1757.812500
7359		1757.812500
7360		1757.812500
7361		1718.750000
7362		1718.750000
7363		1757.812500
7364		1757.812500
7365		1757.812500
7366		1718.750000
7367		1718.750000
7368		1718.750000
7369		1757.812500
7370		1757.812500
7371		1757.812500
7372		1718.750000
7373		1757.812500
7374		1757.812500
7375		1757.812500
7376		1757.812500
7377		1757.812500
7378		1718.750000
7379		1718.750000
7380		1757.812500
7381		1757.812500
7382		1757.812500
7383		1718.750000
7384		1718.750000
7385		1757.812500
7386		1757.812500
7387		1757.812500
7388		1718.750000
7389		1718.750000
7390		1718.750000
7391		1757.812500
7392		1757.812500
7393		1757.812500
7394		1718.750000
7395		1718.750000
7396		1718.750000
7397		1757.812500
7398		1718.750000
7399		1718.750000
7400		1757.812500
7401		1718.750000
7402		1757.812500
7403		1757.812500
7404		1757.812500
7405		1718.750000
7406		1718.750000
7407		1718.750000
7408		1718.750000
7409		1718.750000
7410		1718.750000
7411		1718.750000
7412		1718.750000
7413		1718.750000
7414		1679.687500
7415		1679.687500
7416		1679.687500
7417		1640.625000
7418		1640.625000
7419		1640.625000
7420		1601.562500
7421		1601.562500
7422		1562.500000
7423		1562.500000
7424		1562.500000
7425		1523.437500
7426		1523.437500
7427		1523.437500
7428		1484.375000
7429		1484.375000
7430		1445.312500
7431		1445.312500
7432		1445.312500
7433		1406.250000
7434		1406.250000
7435		1406.250000
7436		1367.187500
7437		1367.187500
7438		1328.125000
7439		1328.125000
7440		1328.125000
7441		1289.062500
7442		1289.062500
7443		1250.000000
7444		1250.000000
7445		1250.000000
7446		1210.937500
7447		1210.937500
7448		1210.937500
7449		1171.875000
7450		1171.875000
7451		1171.875000
7452		1132.812500
7453		1132.812500
7454		1132.812500
7455		1093.750000
7456		1093.750000
7457		1093.750000
7458		1054.687500
7459		1054.687500
7460		1054.687500
7461		1015.625000
7462		1015.625000
7463		1015.625000
7464		976.562500
7465		976.562500
7466		937.500000
7467		937.500000
7468		937.500000
7469		937.500000
7470		898.437500
7471		898.437500
7472		898.437500
7473		859.375000
7474		859.375000
7475		859.375000
7476		820.312500
7477		820.312500
7478		820.312500
7479		781.250000
7480		781.250000
7481		781.250000
7482		742.187500
7483		742.187500
7484		742.187500
7485		742.187500
7486		703.125000
7487		703.125000
7488		703.125000
7489		703.125000
7490		664.062500
7491		664.062500
7492		664.062500
7493		625.000000
7494		625.000000
7495		625.000000
7496		625.000000
7497		585.937500
7498		585.937500
7499		585.937500
7500		585.937500
7501		546.875000
7502		546.875000
7503		546.875000
7504		546.875000
7505		507.812500
7506		507.812500
7507		507.812500
7508		507.812500
7509		468.750000
7510		468.750000
7511		468.750000
7512		468.750000
7513		429.687500
7514		429.687500
7515		429.687500
7516		429.687500
7517		429.687500
7518		390.625000
7519		390.625000
7520		390.625000
7521		390.625000
7522		351.562500
7523		351.562500
7524		351.562500
7525		351.562500
7526		312.500000
7527		312.500000
7528		312.500000
7529		312.500000
7530		312.500000
7531		273.437500
7532		273.437500
7533		273.437500
7534		273.437500
7535		273.437500
7536		273.437500
7537		234.375000
7538		234.375000
7539		234.375000
7540		234.375000
7541		234.375000
7542		195.312500
7543		195.312500
7544		195.312500
7545		195.312500
7546		156.250000
7547		156.250000
7548		156.250000
7549		156.250000
7550		156.250000
7551		156.250000
7552		117.187500
7553		117.187500
7554		117.187500
7555		117.187500
7556		117.187500
7557		117.187500
7558		117.187500
7559		117.187500
7560		78.125000
7561		78.125000
7562		78.125000
7563		78.125000
7564		78.125000
7565		39.062500
7566		39.062500
7567		39.062500
7568		39.062500
7569		39.062500
7570		39.062500
7571		39.062500
7572		0.000000
7573		0.000000
7574		0.000000
7575		0.000000
7576		0.000000
7577		0.000000
7578		0.000000
7579		0.000000
7580		0.000000
7581		-39.062500
7582		-39.062500
7583		-39.062500
7584		-39.062500
7585		-39.062500
7586		-78.125000
7587		-78.125000
7588		-78.125000
7589		-78.125000
7590		-78.125000
7591		-78.125000
7592		-78.125000
7593		-78.125000
7594		-78.125000
7595		-78.125000
7596		-78.125000
7597		-78.125000
7598		-78.125000
7599		-117.187500
7600		-117.187500
7601		-117.187500
7602		-117.187500
7603		-117.187500
7604		-117.187500
7605		-117.187500
7606		-156.250000
7607		-156.250000
7608		-156.250000
7609		-156.250000
7610		-156.250000
7611		-156.250000
7612		-156.250000
7613		-156.250000
7614		-156.250000
7615		-156.250000
7616		-156.250000
7617		-156.250000
7618		-156.250000
7619		-156.250000
7620		-195.312500
7621		-195.312500
7622		-195.312500
7623		-195.312500
7624		-195.312500
7625		-195.312500
7626		-195.312500
7627		-195.312500
7628		-195.312500
7629		-195.312500
7630		-195.312500
7631		-195.312500
7632		-195.312500
7633		-195.312500
7634		-195.312500
7635		-195.312500
7636		-195.312500
7637		-234.375000
7638		-234.375000
7639		-234.375000
7640		-234.375000
7641		-234.375000
7642		-234.375000
7643		-234.375000
7644		-234.375000
7645		-234.375000
7646		-234.375000
7647		-234.375000
7648		-234.375000
7649		-234.375000
7650		-234.375000
7651		-234.375000
7652		-234.375000
7653		-234.375000
7654		-234.375000
7655		-234.375000
7656		-234.375000
7657		-234.375000
7658		-273.437500
7659		-234.375000
7660		-234.375000
7661		-273.437500
7662		-234.375000
7663		-273.437500
7664		-273.437500
7665		-273.437500
7666		-273.437500
7667		-273.437500
7668		-234.375000
7669		-273.437500
7670		-273.437500
7671		-234.375000
7672		-234.375000
7673		-273.437500
7674		-273.437500
7675		-273.437500
7676		-273.437500
7677		-234.375000
7678		-234.375000
7679		-273.437500
7680		-234.375000
7681		-273.437500
7682		-273.437500
7683		-273.437500
7684		-273.437500
7685		-273.437500
7686		-234.375000
7687		-234.375000
7688		-273.437500
7689		-234.375000
7690		-234.375000
7691		-234.375000
7692		-312.500000
7693		-234.375000
7694		-234.375000
7695		-234.375000
7696		-234.375000
7697		-234.375000
7698		-234.375000
7699		-234.375000
7700		-234.375000
7701		-234.375000
7702		-234.375000
7703		-234.375000
7704		-234.375000
7705		-234.375000
7706		-234.375000
7707		-234.375000
7708		-234.375000
7709		-234.375000
7710		-234.375000
7711		-234.375000
7712		-234.375000
7713		-234.375000
7714		-234.375000
7715		-234.375000
7716		-195.312500
7717		-195.312500
7718		-195.312500
7719		-195.312500
7720		-195.312500
7721		-195.312500
7722		-195.312500
7723		-195.312500
7724		-195.312500
7725		-195.312500
7726		-195.312500
7727		-195.312500
7728		-195.312500
7729		-195.312500
7730		-195.312500
7731		-195.312500
7732		-156.250000
7733		-156.250000
7734		-156.250000
7735		-156.250000
7736		-156.250000
7737		-156.250000
7738		-156.250000
7739		-156.250000
7740		-117.187500
7741		-117.187500
7742		-117.187500
7743		-117.187500
7744		-117.187500
7745		-117.187500
7746		-117.187500
7747		-117.187500
7748		-117.187500
7749		-117.187500
7750		-117.187500
7751		-117.187500
7752		-117.187500
7753		-78.125000
7754		-78.125000
7755		-78.125000
7756		-78.125000
7757		-78.125000
7758		-78.125000
7759		-78.125000
7760		-39.062500
7761		-39.062500
7762		-39.062500
7763		-39.062500
7764		-39.062500
7765		-39.062500
7766		-39.062500
7767		-39.062500
7768		-39.062500
7769		-39.062500
7770		0.000000
7771		0.000000
7772		0.000000
7773		0.000000
7774		0.000000
7775		39.062500
7776		39.062500
7777		39.062500
7778		39.062500
7779		39.062500
7780		39.062500
7781		39.062500
7782		39.062500
7783		78.125000
7784		78.125000
7785		78.125000
7786		78.125000
7787		78.125000
7788		78.125000
7789		78.125000
7790		117.187500
7791		117.187500
7792		117.187500
7793		117.187500
7794		156.250000
7795		156.250000
7796		156.250000
7797		156.250000
7798		156.250000
7799		156.250000
7800		195.312500
7801		195.312500
7802		195.312500
7803		195.312500
7804		195.312500
7805		195.312500
7806		195.312500
7807		234.375000
7808		234.375000
7809		234.375000
7810		234.375000
7811		273.437500
7812		273.437500
7813		273.437500
7814		273.437500
7815		312.500000
7816		312.500000
7817		312.500000
7818		312.500000
7819		312.500000
7820		312.500000
7821		351.562500
7822		351.562500
7823		351.562500
7824		351.562500
7825		390.625000
7826		390.625000
7827		390.625000
7828		390.625000
7829		429.687500
7830		429.687500
7831		429.687500
7832		468.750000
7833		468.750000
7834		468.750000
7835		468.750000
7836		468.750000
7837		507.812500
7838		507.812500
7839		507.812500
7840		507.812500
7841		546.875000
7842		546.875000
7843		546.875000
7844		546.875000
7845		585.937500
7846		585.937500
7847		585.937500
7848		625.000000
7849		625.000000
7850		625.000000
7851		625.000000
7852		664.062500
7853		664.062500
7854		664.062500
7855		703.125000
7856		703.125000
7857		703.125000
7858		742.187500
7859		742.187500
7860		742.187500
7861		781.250000
7862		781.250000
7863		781.250000
7864		781.250000
7865		820.312500
7866		820.312500
7867		859.375000
7868		859.375000
7869		859.375000
7870		898.437500
7871		898.437500
7872		898.437500
7873		937.500000
7874		937.500000
7875		937.500000
7876		976.562500
7877		976.562500
7878		976.562500
7879		1015.625000
7880		1015.625000
7881		1015.625000
7882		1054.687500
7883		1054.687500
7884		1093.750000
7885		1093.750000
7886		1093.750000
7887		1132.812500
7888		1132.812500
7889		1171.875000
7890		1171.875000
7891		1171.875000
7892		1210.937500
7893		1210.937500
7894		1250.000000
7895		1250.000000
7896		1250.000000
7897		1289.062500
7898		1289.062500
7899		1328.125000
7900		1328.125000
7901		1367.187500
7902		1367.187500
7903		1406.250000
7904		1406.250000
7905		1406.250000
7906		1445.312500
7907		1445.312500
7908		1484.375000
7909		1484.375000
7910		1523.437500
7911		1523.437500
7912		1562.500000
7913		1562.500000
7914		1601.562500
7915		1601.562500
7916		1640.625000
7917		1640.625000
7918		1679.687500
7919		1679.687500
7920		1718.750000
7921		1718.750000
7922		1718.750000
7923		1718.750000
7924		1718.750000
7925		1718.750000
7926		1718.750000
7927		1718.750000
7928		1718.750000
7929		1718.750000
7930		1718.750000
7931		1718.750000
7932		1718.750000
7933		1718.750000
7934		1718.750000
7935		1757.812500
7936		1757.812500
7937		1718.750000
7938		1718.750000
7939		1718.750000
7940		1757.812500
7941		1757.812500
7942		1718.750000
7943		1718.750000
7944		1718.750000
7945		1757.812500
7946		1757.812500
7947		1718.750000
7948		1718.750000
7949		1718.750000
7950		1718.750000
7951		1718.750000
7952		1757.812500
7953		1757.812500
7954		1718.750000
7955		1718.750000
7956		1757.812500
7957		1757.812500
7958		1757.812500
7959		1718.750000
7960		1718.750000
7961		1718.750000
7962		1757.812500
7963		1757.812500
7964		1757.812500
7965		1718.750000
7966		1718.750000
7967		1718.750000
7968		1757.812500
7969		1757.812500
7970		1757.812500
7971		1757.812500
7972		1757.812500
7973		1718.750000
7974		1757.812500
7975		1757.812500
7976		1718.750000
7977		1718.750000
7978		1718.750000
7979		1757.812500
7980		1757.812500
7981		1718.750000
7982		1718.750000
7983		1718.750000
7984		1757.812500
7985		1757.812500
7986		1757.812500
7987		1718.750000
7988		1718.750000
7989		1757.812500
7990		1757.812500
7991		1757.812500
7992		1718.750000
7993		1718.750000
7994		1718.750000
7995		1757.812500
7996		1757.812500
7997		1757.812500
7998		1757.812500
7999		1718.750000
8000		1718.750000
8001		1757.812500
8002		1757.812500
8003		1757.812500
8004		1718.750000
8005		1718.750000
8006		1757.812500
8007		1757.812500
8008		1757.812500
8009		1718.750000
8010		1718.750000
8011		1718.750000
8012		1757.812500
8013		1757.812500
8014		1718.750000
8015		1757.812500
8016		1757.812500
8017		1757.812500
8018		1757.812500
8019		1757.812500
8020		1718.750000
8021		1718.750000
8022		1718.750000
8023		1757.812500
8024		1757.812500
8025		1757.812500
8026		1718.750000
8027		1718.750000
8028		1757.812500
8029		1757.812500
8030		1757.812500
8031		1718.750000
8032		1718.750000
8033		1718.750000
8034		1757.812500
8035		1757.812500
8036		1757.812500
8037		1718.750000
8038		1718.750000
8039		1718.750000
8040		1796.875000
8041		1757.812500
8042		1757.812500
8043		1757.812500
8044		1718.750000
8045		1757.812500
8046		1757.812500
8047		1757.812500
8048		1718.750000
8049		1718.750000
8050		1718.750000
8051		1757.812500
8052		1757.812500
8053		1757.812500
8054		1718.750000
8055		1718.750000
8056		1757.812500
8057		1757.812500
8058		1757.812500
8059		1718.750000
8060		1718.750000
8061		1757.812500
8062		1718.750000
8063		1757.812500
8064		1757.812500
8065		1757.812500
8066		1718.750000
8067		1718.750000
8068		1757.812500
8069		1757.812500
8070		1757.812500
8071		1718.750000
8072		1757.812500
8073		1757.812500
8074		1757.812500
8075		1718.750000
8076		1718.750000
8077		1718.750000
8078		1757.812500
8079		1757.812500
8080		1757.812500
8081		1757.812500
8082		1757.812500
8083		1718.750000
8084		1718.750000
8085		1757.812500
8086		1718.750000
8087		1718.750000
8088		1718.750000
8089		1757.812500
8090		1757.812500
8091		1757.812500
8092		1718.750000
8093		1718.750000
8094		1718.750000
8095		1757.812500
8096		1757.812500
8097		1757.812500
8098		1718.750000
8099		1718.750000
8100		1757.812500
8101		1757.812500
8102		1757.812500
8103		1718.750000
8104		1718.750000
8105		1757.812500
8106		1757.812500
8107		1757.812500
8108		1757.812500
8109		1718.750000
8110		1718.750000
8111		1718.750000
8112		1757.812500
8113		1757.812500
8114		1718.750000
8115		1757.812500
8116		1718.750000
8117		1757.812500
8118		1757.812500
8119		1757.812500
8120		1718.750000
8121		1718.750000
8122		1757.812500
8123		1757.812500
8124		1757.812500
8125		1757.812500
8126		1718.750000
8127		1718.750000
8128		1757.812500
8129		1757.812500
8130		1757.812500
8131		1718.750000
8132		1718.750000
8133		1718.750000
8134		1757.812500
8135		1757.812500
8136		1757.812500
8137		1718.750000
8138		1718.750000
8139		1757.812500
8140		1757.812500
8141		1757.812500
8142		1718.750000
8143		1757.812500
8144		1757.812500
8145		1757.812500
8146		1757.812500
8147		1718.750000
8148		1718.750000
8149		1718.750000
8150		1757.812500
8151		1757.812500
8152		1757.812500
8153		1718.750000
8154		1718.750000
8155		1718.750000
8156		1757.812500
8157		1757.812500
8158		1718.750000
8159		1718.750000
8160		1718.750000
8161		1757.812500
8162		1757.812500
8163		1757.812500
8164		1718.750000
8165		1718.750000
8166		1718.750000
8167		1757.812500
8168		1757.812500
8169		1757.812500
8170		1718.750000
8171		1718.750000
8172		1718.750000
8173		1757.812500
8174		1757.812500
8175		1718.750000
8176		1718.750000
8177		1718.750000
8178		1757.812500
8179		1757.812500
8180		1757.812500
8181		1718.750000
8182		1718.750000
8183		1718.750000
8184		1757.812500
8185		1757.812500
8186		1718.750000
8187		1718.750000
8188		1757.812500
8189		1757.812500
8190		1757.812500
8191		1718.750000
8192		1718.750000
8193		1718.750000
8194		1718.750000
8195		1757.812500
8196		1757.812500
8197		1757.812500
8198		1757.812500
8199		1718.750000
8200		1718.750000
8201		1757.812500
8202		1757.812500
8203		1757.812500
8204		1718.750000
8205		1757.812500
8206		1757.812500
8207		1757.812500
8208		1757.812500
8209		1718.750000
8210		1718.750000
8211		1757.812500
8212		1757.812500
8213		1718.750000
8214		1757.812500
8215		1757.812500
8216		1718.750000
8217		1757.812500
8218		1718.750000
8219		1757.812500
8220		1718.750000
8221		1718.750000
8222		1718.750000
8223		1757.812500
8224		1757.812500
8225		1757.812500
8226		1718.750000
8227		1718.750000
8228		1757.812500
8229		1757.812500
8230		1757.812500
8231		1718.750000
8232		1757.812500
8233		1757.812500
8234		1757.812500
8235		1757.812500
8236		1718.750000
8237		1757.812500
8238		1718.750000
8239		1757.812500
8240		1757.812500
8241		1757.812500
8242		1757.812500
8243		1718.750000
8244		1757.812500
8245		1757.812500
8246		1757.812500
8247		1718.750000
8248		1718.750000
8249		1718.750000
8250		1757.812500
8251		1757.812500
8252		1757.812500
8253		1757.812500
8254		1718.750000
8255		1718.750000
8256		1757.812500
8257		1757.812500
8258		1757.812500
8259		1757.812500
8260		1718.750000
8261		1757.812500
8262		1757.812500
8263		1757.812500
8264		1718.750000
8265		1718.750000
8266		1718.750000
8267		1757.812500
8268		1757.812500
8269		1757.812500
8270		1718.750000
8271		1718.750000
8272		1757.812500
8273		1757.812500
8274		1757.812500
8275		1718.750000
8276		1718.750000
8277		1718.750000
8278		1757.812500
8279		1757.812500
8280		1757.812500
8281		1718.750000
8282		1718.750000
8283		1757.812500
8284		1718.750000
8285		1757.812500
8286		1757.812500
8287		1757.812500
8288		1718.750000
8289		1757.812500
8290		1757.812500
8291		1757.812500
8292		1718.750000
8293		1718.750000
8294		1757.812500
8295		1757.812500
8296		1757.812500
8297		1718.750000
8298		1718.750000
8299		1718.750000
8300		1757.812500
8301		1757.812500
8302		1757.812500
8303		1718.750000
8304		1718.750000
8305		1757.812500
8306		1757.812500
8307		1757.812500
8308		1757.812500
8309		1718.750000
8310		1718.750000
8311		1757.812500
8312		1757.812500
8313		1757.812500
8314		1757.812500
8315		1718.750000
8316		1757.812500
8317		1757.812500
8318		1757.812500
8319		1718.750000
8320		1718.750000
8321		1718.750000
8322		1757.812500
8323		1757.812500
8324		1757.812500
8325		1718.750000
8326		1757.812500
8327		1718.750000
8328		1757.812500
8329		1757.812500
8330		1757.812500
8331		1718.750000
8332		1757.812500
8333		1757.812500
8334		1757.812500
8335		1757.812500
8336		1718.750000
8337		1718.750000
8338		1718.750000
8339		1757.812500
8340		1757.812500
8341		1757.812500
8342		1718.750000
8343		1718.750000
8344		1757.812500
8345		1757.812500
8346		1757.812500
8347		1718.750000
8348		1718.750000
8349		1718.750000
8350		1757.812500
8351		1757.812500
8352		1757.812500
8353		1718.750000
8354		1718.750000
8355		1718.750000
8356		1757.812500
8357		1757.812500
8358		1757.812500
8359		1718.750000
8360		1718.750000
8361		1757.812500
8362		1757.812500
8363		1757.812500
8364		1718.750000
8365		1718.750000
8366		1718.750000
8367		1757.812500
8368		1757.812500
8369		1718.750000
8370		1718.750000
8371		1757.812500
8372		1757.812500
8373		1757.812500
8374		1757.812500
8375		1718.750000
8376		1718.750000
8377		1718.750000
8378		1757.812500
8379		1757.812500
8380		1757.812500
8381		1718.750000
8382		1718.750000
8383		1757.812500
8384		1757.812500
8385		1757.812500
8386		1718.750000
8387		1718.750000
8388		1718.750000
8389		1757.812500
8390		1757.812500
8391		1757.812500
8392		1718.750000
8393		1718.750000
8394		1757.812500
8395		1757.812500
8396		1757.812500
8397		1757.812500
8398		1718.750000
8399		1718.750000
8400		1757.812500
8401		1757.812500
8402		1757.812500
8403		1718.750000
8404		1757.812500
8405		1757.812500
8406		1757.812500
8407		1757.812500
8408		1718.750000
8409		1718.750000
8410		1718.750000
8411		1757.812500
8412		1757.812500
8413		1757.812500
8414		1757.812500
8415		1718.750000
8416		1718.750000
8417		1757.812500
8418		1757.812500
8419		1757.812500
8420		1718.750000
8421		1718.750000
8422		1757.812500
8423		1757.812500
8424		1757.812500
8425		1718.750000
8426		1718.750000
8427		1718.750000
8428		1757.812500
8429		1757.812500
8430		1718.750000
8431		1718.750000
8432		1757.812500
8433		1757.812500
8434		1757.812500
8435		1718.750000
8436		1757.812500
8437		1718.750000
8438		1718.750000
8439		1757.812500
8440		1757.812500
8441		1757.812500
8442		1718.750000
8443		1718.750000
8444		1757.812500
8445		1757.812500
8446		1757.812500
8447		1757.812500
8448		1718.750000
8449		1718.750000
8450		1757.812500
8451		1757.812500
8452		1718.750000
8453		1718.750000
8454		1718.750000
8455		1757.812500
8456		1757.812500
8457		1757.812500
8458		1757.812500
8459		1757.812500
8460		1718.750000
8461		1757.812500
8462		1757.812500
8463		1757.812500
8464		1757.812500
8465		1718.750000
8466		1757.812500
8467		1757.812500
8468		1757.812500
8469		1718.750000
8470		1718.750000
8471		1718.750000
8472		1757.812500
8473		1757.812500
8474		1757.812500
8475		1718.750000
8476		1757.812500
8477		1757.812500
8478		1757.812500
8479		1757.812500
8480		1718.750000
8481		1718.750000
8482		1718.750000
8483		1757.812500
8484		1757.812500
8485		1757.812500
8486		1757.812500
8487		1718.750000
8488		1757.812500
8489		1757.812500
8490		1718.750000
8491		1757.812500
8492		1718.750000
8493		1718.750000
8494		1757.812500
8495		1757.812500
8496		1757.812500
8497		1718.750000
8498		1718.750000
8499		1718.750000
8500		1757.812500
8501		1718.750000
8502		1757.812500
8503		1718.750000
8504		1718.750000
8505		1757.812500
8506		1757.812500
8507		1757.812500
8508		1718.750000
8509		1718.750000
8510		1718.750000
8511		1757.812500
8512		1757.812500
8513		1757.812500
8514		1718.750000
8515		1718.750000
8516		1757.812500
8517		1757.812500
8518		1757.812500
8519		1718.750000
8520		1718.750000
8521		1718.750000
8522		1757.812500
8523		1757.812500
8524		1757.812500
8525		1718.750000
8526		1718.750000
8527		1757.812500
8528		1757.812500
8529		1757.812500
8530		1718.750000
8531		1757.812500
8532		1718.750000
8533		1757.812500
8534		1757.812500
8535		1757.812500
8536		1718.750000
8537		1718.750000
8538		1718.750000
8539		1757.812500
8540		1757.812500
8541		1718.750000
8542		1718.750000
8543		1718.750000
8544		1757.812500
8545		1757.812500
8546		1757.812500
8547		1718.750000
8548		1718.750000
8549		1757.812500
8550		1757.812500
8551		1757.812500
8552		1718.750000
8553		1718.750000
8554		1718.750000
8555		1757.812500
8556		1757.812500
8557		1757.812500
8558		1757.812500
8559		1718.750000
8560		1757.812500
8561		1757.812500
8562		1757.812500
8563		1718.750000
8564		1718.750000
8565		1718.750000
8566		1757.812500
8567		1757.812500
8568		1757.812500
8569		1757.812500
8570		1718.750000
8571		1718.750000
8572		1718.750000
8573		1757.812500
8574		1757.812500
8575		1718.750000
8576		1718.750000
8577		1757.812500
8578		1757.812500
8579		1757.812500
8580		1718.750000
8581		1718.750000
8582		1718.750000
8583		1757.812500
8584		1757.812500
8585		1757.812500
8586		1757.812500
8587		1718.750000
8588		1757.812500
8589		1757.812500
8590		1757.812500
8591		1718.750000
8592		1718.750000
8593		1718.750000
8594		1757.812500
8595		1757.812500
8596		1757.812500
8597		1718.750000
8598		1718.750000
8599		1718.750000
8600		1757.812500
8601		1757.812500
8602		1757.812500
8603		1718.750000
8604		1718.750000
8605		1757.812500
8606		1757.812500
8607		1757.812500
8608		1718.750000
8609		1718.750000
8610		1718.750000
8611		1757.812500
8612		1757.812500
8613		1757.812500
8614		1757.812500
8615		1718.750000
8616		1757.812500
8617		1757.812500
8618		1757.812500
8619		1718.750000
8620		1718.750000
8621		1718.750000
8622		1757.812500
8623		1757.812500
8624		1757.812500
8625		1718.750000
8626		1718.750000
8627		1757.812500
8628		1757.812500
8629		1757.812500
8630		1757.812500
8631		1718.750000
8632		1718.750000
8633		1757.812500
8634		1757.812500
8635		1718.750000
8636		1718.750000
8637		1718.750000
8638		1757.812500
8639		1757.812500
8640		1757.812500
8641		1718.750000
8642		1718.750000
8643		1718.750000
8644		1757.812500
8645		1757.812500
8646		1757.812500
8647		1718.750000
8648		1718.750000
8649		1757.812500
8650		1757.812500
8651		1757.812500
8652		1718.750000
8653		1718.750000
8654		1757.812500
8655		1757.812500
8656		1757.812500
8657		1757.812500
8658		1757.812500
8659		1718.750000
8660		1718.750000
8661		1757.812500
8662		1757.812500
8663		1718.750000
8664		1718.750000
8665		1718.750000
8666		1757.812500
8667		1757.812500
8668		1757.812500
8669		1718.750000
8670		1718.750000
8671		1757.812500
8672		1757.812500
8673		1757.812500
8674		1718.750000
8675		1718.750000
8676		1718.750000
8677		1757.812500
8678		1757.812500
8679		1718.750000
8680		1718.750000
8681		1718.750000
8682		1718.750000
8683		1757.812500
8684		1757.812500
8685		1757.812500
8686		1718.750000
8687		1718.750000
8688		1757.812500
8689		1757.812500
8690		1757.812500
8691		1718.750000
8692		1718.750000
8693		1718.750000
8694		1757.812500
8695		1757.812500
8696		1757.812500
8697		1718.750000
8698		1718.750000
8699		1757.812500
8700		1757.812500
8701		1757.812500
8702		1757.812500
8703		1718.750000
8704		1757.812500
8705		1757.812500
8706		1757.812500
8707		1757.812500
8708		1718.750000
8709		1718.750000
8710		1757.812500
8711		1757.812500
8712		1757.812500
8713		1718.750000
8714		1718.750000
8715		1718.750000
8716		1757.812500
8717		1757.812500
8718		1718.750000
8719		1718.750000
8720		1718.750000
8721		1757.812500
8722		1757.812500
8723		1757.812500
8724		1718.750000
8725		1718.750000
8726		1718.750000
8727		1757.812500
8728		1757.812500
8729		1757.812500
8730		1757.812500
8731		1718.750000
8732		1718.750000
8733		1757.812500
8734		1757.812500
8735		1757.812500
8736		1718.750000
8737		1718.750000
8738		1757.812500
8739		1757.812500
8740		1757.812500
8741		1718.750000
8742		1718.750000
8743		1757.812500
8744		1757.812500
8745		1757.812500
8746		1757.812500
8747		1718.750000
8748		1757.812500
8749		1757.812500
8750		1757.812500
8751		1757.812500
8752		1757.812500
8753		1718.750000
8754		1718.750000
8755		1757.812500
8756		1757.812500
8757		1757.812500
8758		1718.750000
8759		1718.750000
8760		1757.812500
8761		1757.812500
8762		1757.812500
8763		1718.750000
8764		1718.750000
8765		1757.812500
8766		1757.812500
8767		1757.812500
8768		1757.812500
8769		1718.750000
8770		1718.750000
8771		1757.812500
8772		1757.812500
8773		1757.812500
8774		1757.812500
8775		1757.812500
8776		1718.750000
8777		1757.812500
8778		1757.812500
8779		1718.750000
8780		1718.750000
8781		1718.750000
8782		1718.750000
8783		1757.812500
8784		1757.812500
8785		1718.750000
8786		1757.812500
8787		1718.750000
8788		1757.812500
8789		1757.812500
8790		1718.750000
8791		1718.750000
8792		1718.750000
8793		1757.812500
8794		1757.812500
8795		1757.812500
8796		1757.812500
8797		1718.750000
8798		1718.750000
8799		1757.812500
8800		1757.812500
8801		1757.812500
8802		1718.750000
8803		1718.750000
8804		1757.812500
8805		1757.812500
8806		1757.812500
8807		1718.750000
8808		1718.750000
8809		1718.750000
8810		1757.812500
8811		1757.812500
8812		1757.812500
8813		1757.812500
8814		1718.750000
8815		1718.750000
8816		1718.750000
8817		1757.812500
8818		1757.812500
8819		1718.750000
8820		1718.750000
8821		1757.812500
8822		1757.812500
8823		1757.812500
8824		1757.812500
8825		1718.750000
8826		1718.750000
8827		1757.812500
8828		1757.812500
8829		1757.812500
8830		1757.812500
8831		1757.812500
8832		1757.812500
8833		1757.812500
8834		1757.812500
8835		1718.750000
8836		1718.750000
8837		1718.750000
8838		1757.812500
8839		1757.812500
8840		1757.812500
8841		1718.750000
8842		1718.750000
8843		1718.750000
8844		1757.812500
8845		1757.812500
8846		1757.812500
8847		1718.750000
8848		1757.812500
8849		1757.812500
8850		1757.812500
8851		1757.812500
8852		1718.750000
8853		1718.750000
8854		1718.750000
8855		1757.812500
8856		1757.812500
8857		1757.812500
8858		1718.750000
8859		1757.812500
8860		1757.812500
8861		1757.812500
8862		1757.812500
8863		1718.750000
8864		1757.812500
8865		1718.750000
8866		1757.812500
8867		1757.812500
8868		1757.812500
8869		1718.750000
8870		1718.750000
8871		1757.812500
8872		1757.812500
8873		1757.812500
8874		1718.750000
8875		1718.750000
8876		1757.812500
8877		1757.812500
8878		1757.812500
8879		1757.812500
8880		1718.750000
8881		1718.750000
8882		1718.750000
8883		1757.812500
8884		1757.812500
8885		1757.812500
8886		1718.750000
8887		1718.750000
8888		1757.812500
8889		1757.812500
8890		1757.812500
8891		1718.750000
8892		1718.750000
8893		1757.812500
8894		1757.812500
8895		1757.812500
8896		1718.750000
8897		1718.750000
8898		1718.750000
8899		1757.812500
8900		1757.812500
8901		1757.812500
8902		1718.750000
8903		1718.750000
8904		1718.750000
8905		1757.812500
8906		1757.812500
8907		1757.812500
8908		1718.750000
8909		1718.750000
8910		1757.812500
8911		1757.812500
8912		1757.812500
8913		1718.750000
8914		1718.750000
8915		1718.750000
8916		1757.812500
8917		1757.812500
8918		1718.750000
8919		1718.750000
8920		1757.812500
8921		1757.812500
8922		1757.812500
8923		1757.812500
8924		1718.750000
8925		1718.750000
8926		1718.750000
8927		1757.812500
8928		1757.812500
8929		1757.812500
8930		1718.750000
8931		1718.750000
8932		1757.812500
8933		1757.812500
8934		1757.812500
8935		1718.750000
8936		1718.750000
8937		1718.750000
8938		1757.812500
8939		1757.812500
8940		1757.812500
8941		1718.750000
8942		1718.750000
8943		1757.812500
8944		1757.812500
8945		1757.812500
8946		1757.812500
8947		1757.812500
8948		1718.750000
8949		1757.812500
8950		1757.812500
8951		1757.812500
8952		1718.750000
8953		1718.750000
8954		1757.812500
8955		1757.812500
8956		1757.812500
8957		1757.812500
8958		1718.750000
8959		1718.750000
8960		1757.812500
8961		1757.812500
8962		1757.812500
8963		1718.750000
8964		1718.750000
8965		1757.812500
8966		1757.812500
8967		1757.812500
8968		1718.750000
8969		1718.750000
8970		1718.750000
8971		1718.750000
8972		1757.812500
8973		1757.812500
8974		1757.812500
8975		1718.750000
8976		1757.812500
8977		1757.812500
8978		1757.812500
8979		1757.812500
8980		1718.750000
8981		1718.750000
8982		1757.812500
8983		1757.812500
8984		1757.812500
8985		1757.812500
8986		1757.812500
8987		1718.750000
8988		1757.812500
8989		1757.812500
8990		1796.875000
8991		1757.812500
8992		1718.750000
8993		1757.812500
8994		1757.812500
8995		1757.812500
8996		1718.750000
8997		1718.750000
8998		1718.750000
8999		1757.812500
9000		1757.812500
9001		1757.812500
9002		1718.750000
9003		1718.750000
9004		1757.812500
9005		1757.812500
9006		1757.812500
9007		1718.750000
9008		1718.750000
9009		1757.812500
9010		1757.812500
9011		1757.812500
9012		1757.812500
9013		1718.750000
9014		1718.750000
9015		1757.812500
9016		1757.812500
9017		1757.812500
9018		1757.812500
9019		1757.812500
9020		1718.750000
9021		1757.812500
9022		1757.812500
9023		1757.812500
9024		1718.750000
9025		1718.750000
9026		1757.812500
9027		1757.812500
9028		1757.812500
9029		1718.750000
9030		1757.812500
9031		1718.750000
9032		1757.812500
9033		1718.750000
9034		1757.812500
9035		1757.812500
9036		1718.750000
9037		1718.750000
9038		1757.812500
9039		1757.812500
9040		1757.812500
9041		1718.750000
9042		1718.750000
9043		1757.812500
9044		1757.812500
9045		1757.812500
9046		1757.812500
9047		1718.750000
9048		1757.812500
9049		1757.812500
9050		1718.750000
9051		1718.750000
9052		1757.812500
9053		1718.750000
9054		1757.812500
9055		1757.812500
9056		1757.812500
9057		1757.812500
9058		1718.750000
9059		1718.750000
9060		1757.812500
9061		1757.812500
9062		1757.812500
9063		1718.750000
9064		1718.750000
9065		1718.750000
9066		1718.750000
9067		1718.750000
9068		1718.750000
9069		1718.750000
9070		1679.687500
9071		1679.687500
9072		1679.687500
9073		1679.687500
9074		1640.625000
9075		1640.625000
9076		1640.625000
9077		1640.625000
9078		1601.562500
9079		1562.500000
9080		1562.500000
9081		1562.500000
9082		1562.500000
9083		1523.437500
9084		1523.437500
9085		1484.375000
9086		1484.375000
9087		1484.375000
9088		1445.312500
9089		1445.312500
9090		1445.312500
9091		1406.250000
9092		1406.250000
9093		1406.250000
9094		1367.187500
9095		1367.187500
9096		1367.187500
9097		1328.125000
9098		1328.125000
9099		1289.062500
9100		1289.062500
9101		1250.000000
9102		1250.000000
9103		1250.000000
9104		1210.937500
9105		1210.937500
9106		1210.937500
9107		1171.875000
9108		1171.875000
9109		1171.875000
9110		1132.812500
9111		1132.812500
9112		1132.812500
9113		1093.750000
9114		1093.750000
9115		1093.750000
9116		1093.750000
9117		1054.687500
9118		1054.687500
9119		1015.625000
9120		1015.625000
9121		1015.625000
9122		976.562500
9123		976.562500
9124		976.562500
9125		937.500000
9126		937.500000
9127		937.500000
9128		898.437500
9129		898.437500
9130		898.437500
9131		898.437500
9132		859.375000
9133		859.375000
9134		859.375000
9135		859.375000
9136		820.312500
9137		820.312500
9138		820.312500
9139		781.250000
9140		781.250000
9141		781.250000
9142		742.187500
9143		742.187500
9144		742.187500
9145		703.125000
9146		703.125000
9147		703.125000
9148		703.125000
9149		664.062500
9150		664.062500
9151		664.062500
9152		664.062500
9153		664.062500
9154		625.000000
9155		625.000000
9156		625.000000
9157		585.937500
9158		585.937500
9159		585.937500
9160		585.937500
9161		546.875000
9162		546.875000
9163		546.875000
9164		546.875000
9165		507.812500
9166		507.812500
9167		507.812500
9168		507.812500
9169		507.812500
9170		468.750000
9171		468.750000
9172		468.750000
9173		468.750000
9174		429.687500
9175		429.687500
9176		429.687500
9177		429.687500
9178		390.625000
9179		390.625000
9180		390.625000
9181		390.625000
9182		390.625000
9183		351.562500
9184		351.562500
9185		351.562500
9186		351.562500
9187		351.562500
9188		312.500000
9189		312.500000
9190		312.500000
9191		312.500000
9192		312.500000
9193		273.437500
9194		273.437500
9195		273.437500
9196		273.437500
9197		273.437500
9198		273.437500
9199		234.375000
9200		234.375000
9201		234.375000
9202		234.375000
9203		234.375000
9204		234.375000
9205		195.312500
9206		195.312500
9207		195.312500
9208		195.312500
9209		195.312500
9210		195.312500
9211		156.250000
9212		156.250000
9213		156.250000
9214		156.250000
9215		156.250000
9216		156.250000
9217		117.187500
9218		117.187500
9219		117.187500
9220		117.187500
9221		117.187500
9222		117.187500
9223		78.125000
9224		78.125000
9225		78.125000
9226		78.125000
9227		78.125000
9228		78.125000
9229		78.125000
9230		39.062500
9231		39.062500
9232		39.062500
9233		39.062500
9234		39.062500
9235		39.062500
9236		39.062500
9237		39.062500
9238		39.062500
9239		0.000000
9240		0.000000
9241		0.000000
9242		0.000000
9243		0.000000
9244		0.000000
9245		0.000000
9246		-39.062500
9247		-39.062500
9248		-39.062500
9249		-39.062500
9250		-39.062500
9251		-39.062500
9252		-39.062500
9253		-39.062500
9254		-39.062500
9255		-39.062500
9256		-39.062500
9257		-39.062500
9258		-78.125000
9259		-78.125000
9260		-78.125000
9261		-78.125000
9262		-78.125000
9263		-78.125000
9264		-78.125000
9265		-78.125000
9266		-117.187500
9267		-117.187500
9268		-117.187500
9269		-117.187500
9270		-117.187500
9271		-117.187500
9272		-117.187500
9273		-117.187500
9274		-117.187500
9275		-117.187500
9276		-117.187500
9277		-117.187500
9278		-117.187500
9279		-117.187500
9280		-117.187500
9281		-117.187500
9282		-117.187500
9283		-156.250000
9284		-156.250000
9285		-156.250000
9286		-156.250000
9287		-156.250000
9288		-156.250000
9289		-156.250000
9290		-156.250000
9291		-156.250000
9292		-156.250000
9293		-156.250000
9294		-156.250000
9295		-156.250000
9296		-156.250000
9297		-156.250000
9298		-156.250000
9299		-156.250000
9300		-156.250000
9301		-195.312500
9302		-156.250000
9303		-195.312500
9304		-156.250000
9305		-195.312500
9306		-195.312500
9307		-195.312500
9308		-156.250000
9309		-195.312500
9310		-195.312500
9311		-195.312500
9312		-195.312500
9313		-195.312500
9314		-156.250000
9315		-195.312500
9316		-195.312500
9317		-195.312500
9318		-195.312500
9319		-195.312500
9320		-195.312500
9321		-195.312500
9322		-195.312500
9323		-195.312500
9324		-195.312500
9325		-195.312500
9326		-195.312500
9327		-195.312500
9328		-195.312500
9329		-195.312500
9330		-195.312500
9331		-195.312500
9332		-195.312500
9333		-195.312500
9334		-195.312500
9335		-195.312500
9336		-195.312500
9337		-195.312500
9338		-195.312500
9339		-195.312500
9340		-195.312500
9341		-195.312500
9342		-195.312500
9343		-195.312500
9344		-195.312500
9345		-195.312500
9346		-195.312500
9347		-195.312500
9348		-195.312500
9349		-195.312500
9350		-195.312500
9351		-195.312500
9352		-156.250000
9353		-156.250000
9354		-195.312500
9355		-195.312500
9356		-156.250000
9357		-195.312500
9358		-156.250000
9359		-195.312500
9360		-156.250000
9361		-156.250000
9362		-156.250000
9363		-156.250000
9364		-156.250000
9365		-156.250000
9366		-156.250000
9367		-156.250000
9368		-156.250000
9369		-156.250000
9370		-156.250000
9371		-156.250000
9372		-156.250000
9373		-156.250000
9374		-117.187500
9375		-156.250000
9376		-117.187500
9377		-117.187500
9378		-117.187500
9379		-117.187500
9380		-117.187500
9381		-117.187500
9382		-117.187500
9383		-117.187500
9384		-117.187500
9385		-117.187500
9386		-117.187500
9387		-117.187500
9388		-117.187500
9389		-78.125000
9390		-78.125000
9391		-78.125000
9392		-78.125000
9393		-78.125000
9394		-78.125000
9395		-78.125000
9396		-78.125000
9397		-78.125000
9398		-78.125000
9399		-39.062500
9400		-39.062500
9401		-39.062500
9402		-39.062500
9403		-39.062500
9404		-39.062500
9405		-39.062500
9406		-39.062500
9407		-39.062500
9408		-39.062500
9409		0.000000
9410		-39.062500
9411		-39.062500
9412		0.000000
9413		0.000000
9414		0.000000
9415		0.000000
9416		0.000000
9417		0.000000
9418		39.062500
9419		39.062500
9420		39.062500
9421		39.062500
9422		39.062500
9423		39.062500
9424		39.062500
9425		39.062500
9426		78.125000
9427		78.125000
9428		78.125000
9429		78.125000
9430		78.125000
9431		78.125000
9432		78.125000
9433		78.125000
9434		117.187500
9435		117.187500
9436		117.187500
9437		117.187500
9438		117.187500
9439		156.250000
9440		156.250000
9441		156.250000
9442		156.250000
9443		156.250000
9444		156.250000
9445		156.250000
9446		156.250000
9447		195.312500
9448		195.312500
9449		195.312500
9450		195.312500
9451		195.312500
9452		234.375000
9453		234.375000
9454		234.375000
9455		234.375000
9456		273.437500
9457		273.437500
9458		273.437500
9459		273.437500
9460		273.437500
9461		273.437500
9462		312.500000
9463		312.500000
9464		312.500000
9465		312.500000
9466		312.500000
9467		312.500000
9468		351.562500
9469		351.562500
9470		351.562500
9471		351.562500
9472		390.625000
9473		390.625000
9474		390.625000
9475		390.625000
9476		429.687500
9477		429.687500
9478		429.687500
9479		429.687500
9480		429.687500
9481		468.750000
9482		468.750000
9483		468.750000
9484		468.750000
9485		468.750000
9486		507.812500
9487		507.812500
9488		507.812500
9489		507.812500
9490		546.875000
9491		546.875000
9492		546.875000
9493		585.937500
9494		585.937500
9495		585.937500
9496		625.000000
9497		625.000000
9498		625.000000
9499		625.000000
9500		625.000000
9501		664.062500
9502		664.062500
9503		664.062500
9504		664.062500
9505		664.062500
9506		703.125000
9507		703.125000
9508		742.187500
9509		742.187500
9510		742.187500
9511		742.187500
9512		781.250000
9513		820.312500
9514		820.312500
9515		820.312500
9516		820.312500
9517		820.312500
9518		859.375000
9519		859.375000
9520		859.375000
9521		898.437500
9522		898.437500
9523		898.437500
9524		937.500000
9525		937.500000
9526		937.500000
9527		976.562500
9528		976.562500
9529		976.562500
9530		1015.625000
9531		1015.625000
9532		1054.687500
9533		1054.687500
9534		1054.687500
9535		1093.750000
9536		1093.750000
9537		1093.750000
9538		1132.812500
9539		1132.812500
9540		1132.812500
9541		1171.875000
9542		1171.875000
9543		1171.875000
9544		1171.875000
9545		1210.937500
9546		1250.000000
9547		1250.000000
9548		1289.062500
9549		1289.062500
9550		1289.062500
9551		1328.125000
9552		1328.125000
9553		1367.187500
9554		1367.187500
9555		1406.250000
9556		1406.250000
9557		1445.312500
9558		1445.312500
9559		1445.312500
9560		1484.375000
9561		1484.375000
9562		1523.437500
9563		1523.437500
9564		1562.500000
9565		1562.500000
9566		1601.562500
9567		1601.562500
9568		1640.625000
9569		1640.625000
9570		1679.687500
9571		1679.687500
9572		1718.750000
9573		1718.750000
9574		1718.750000
9575		1718.750000
9576		1718.750000
9577		1718.750000
9578		1718.750000
9579		1718.750000
9580		1718.750000
9581		1718.750000
9582		1718.750000
9583		1718.750000
9584		1718.750000
9585		1718.750000
9586		1718.750000
9587		1718.750000
9588		1757.812500
9589		1757.812500
9590		1718.750000
9591		1718.750000
9592		1718.750000
9593		1757.812500
9594		1718.750000
9595		1718.750000
9596		1718.750000
9597		1718.750000
9598		1757.812500
9599		1757.812500
9600		1718.750000
9601		1718.750000
9602		1718.750000
9603		1718.750000
9604		1757.812500
9605		1757.812500
9606		1757.812500
9607		1718.750000
9608		1718.750000
9609		1718.750000
9610		1757.812500
9611		1757.812500
9612		1718.750000
9613		1718.750000
9614		1718.750000
9615		1757.812500
9616		1757.812500
9617		1757.812500
9618		1718.750000
9619		1718.750000
9620		1757.812500
9621		1757.812500
9622		1757.812500
9623		1718.750000
9624		1718.750000
9625		1757.812500
9626		1757.812500
9627		1757.812500
9628		1757.812500
9629		1718.750000
9630		1718.750000
9631		1718.750000
9632		1757.812500
9633		1757.812500
9634		1757.812500
9635		1718.750000
9636		1718.750000
9637		1757.812500
9638		1757.812500
9639		1757.812500
9640		1718.750000
9641		1718.750000
9642		1718.750000
9643		1757.812500
9644		1757.812500
9645		1718.750000
9646		1718.750000
9647		1718.750000
9648		1757.812500
9649		1757.812500
9650		1757.812500
9651		1757.812500
9652		1757.812500
9653		1718.750000
9654		1757.812500
9655		1757.812500
9656		1757.812500
9657		1718.750000
9658		1718.750000
9659		1718.750000
9660		1757.812500
9661		1757.812500
9662		1718.750000
9663		1757.812500
9664		1757.812500
9665		1757.812500
9666		1757.812500
9667		1757.812500
9668		1718.750000
9669		1718.750000
9670		1757.812500
9671		1757.812500
9672		1757.812500
9673		1757.812500
9674		1718.750000
9675		1718.750000
9676		1757.812500
9677		1757.812500
9678		1757.812500
9679		1757.812500
9680		1757.812500
9681		1757.812500
9682		1757.812500
9683		1757.812500
9684		1757.812500
9685		1718.750000
9686		1718.750000
9687		1757.812500
9688		1757.812500
9689		1757.812500
9690		1757.812500
9691		1718.750000
9692		1718.750000
9693		1757.812500
9694		1757.812500
9695		1718.750000
9696		1718.750000
9697		1757.812500
9698		1757.812500
9699		1757.812500
9700		1757.812500
9701		1757.812500
9702		1718.750000
9703		1718.750000
9704		1757.812500
9705		1757.812500
9706		1757.812500
9707		1718.750000
9708		1718.750000
9709		1757.812500
9710		1757.812500
9711		1757.812500
9712		1718.750000
9713		1718.750000
9714		1757.812500
9715		1757.812500
9716		1757.812500
9717		1757.812500
9718		1757.812500
9719		1718.750000
9720		1718.750000
9721		1757.812500
9722		1757.812500
9723		1757.812500
9724		1757.812500
9725		1718.750000
9726		1757.812500
9727		1757.812500
9728		1757.812500
9729		1718.750000
9730		1718.750000
9731		1757.812500
9732		1757.812500
9733		1757.812500
9734		1718.750000
9735		1757.812500
9736		1718.750000
9737		1757.812500
9738		1757.812500
9739		1757.812500
9740		1718.750000
9741		1718.750000
9742		1718.750000
9743		1757.812500
9744		1757.812500
9745		1757.812500
9746		1718.750000
9747		1718.750000
9748		1757.812500
9749		1757.812500
9750		1757.812500
9751		1757.812500
9752		1718.750000
9753		1757.812500
9754		1757.812500
9755		1757.812500
9756		1757.812500
9757		1718.750000
9758		1718.750000
9759		1757.812500
9760		1757.812500
9761		1757.812500
9762		1757.812500
9763		1757.812500
9764		1757.812500
9765		1757.812500
9766		1757.812500
9767		1757.812500
9768		1718.750000
9769		1718.750000
9770		1757.812500
9771		1757.812500
9772		1757.812500
9773		1718.750000
9774		1757.812500
9775		1718.750000
9776		1757.812500
9777		1757.812500
9778		1757.812500
9779		1718.750000
9780		1757.812500
9781		1757.812500
9782		1757.812500
9783		1757.812500
9784		1718.750000
9785		1718.750000
9786		1718.750000
9787		1757.812500
9788		1757.812500
9789		1757.812500
9790		1718.750000
9791		1718.750000
9792		1757.812500
9793		1757.812500
9794		1757.812500
9795		1718.750000
9796		1718.750000
9797		1718.750000
9798		1757.812500
9799		1757.812500
9800		1757.812500
9801		1718.750000
9802		1718.750000
9803		1718.750000
9804		1757.812500
9805		1757.812500
9806		1757.812500
9807		1757.812500
9808		1718.750000
9809		1757.812500
9810		1757.812500
9811		1757.812500
9812		1718.750000
9813		1757.812500
9814		1757.812500
9815		1757.812500
9816		1757.812500
9817		1718.750000
9818		1718.750000
9819		1718.750000
9820		1757.812500
9821		1757.812500
9822		1757.812500
9823		1757.812500
9824		1718.750000
9825		1757.812500
9826		1757.812500
9827		1757.812500
9828		1757.812500
9829		1718.750000
9830		1718.750000
9831		1757.812500
9832		1757.812500
9833		1757.812500
9834		1718.750000
9835		1718.750000
9836		1718.750000
9837		1757.812500
9838		1757.812500
9839		1757.812500
9840		1718.750000
9841		1718.750000
9842		1757.812500
9843		1757.812500
9844		1757.812500
9845		1718.750000
9846		1718.750000
9847		1718.750000
9848		1757.812500
9849		1757.812500
9850		1757.812500
9851		1757.812500
9852		1757.812500
9853		1718.750000
9854		1757.812500
9855		1757.812500
9856		1718.750000
9857		1718.750000
9858		1718.750000
9859		1757.812500
9860		1757.812500
9861		1757.812500
9862		1718.750000
9863		1718.750000
9864		1757.812500
9865		1757.812500
9866		1757.812500
9867		1718.750000
9868		1718.750000
9869		1757.812500
9870		1757.812500
9871		1757.812500
9872		1757.812500
9873		1718.750000
9874		1718.750000
9875		1718.750000
9876		1757.812500
9877		1757.812500
9878		1757.812500
9879		1718.750000
9880		1718.750000
9881		1757.812500
9882		1757.812500
9883		1757.812500
9884		1718.750000
9885		1718.750000
9886		1757.812500
9887		1757.812500
9888		1757.812500
9889		1757.812500
9890		1757.812500
9891		1718.750000
9892		1757.812500
9893		1757.812500
9894		1757.812500
9895		1718.750000
9896		1718.750000
9897		1718.750000
9898		1757.812500
9899		1757.812500
9900		1757.812500
9901		1718.750000
9902		1718.750000
9903		1757.812500
9904		1757.812500
9905		1757.812500
9906		1718.750000
9907		1718.750000
9908		1757.812500
9909		1757.812500
9910		1757.812500
9911		1718.750000
9912		1718.750000
9913		1718.750000
9914		1757.812500
9915		1757.812500
9916		1757.812500
9917		1757.812500
9918		1718.750000
9919		1718.750000
9920		1757.812500
9921		1757.812500
9922		1757.812500
9923		1718.750000
9924		1718.750000
9925		1757.812500
9926		1757.812500
9927		1757.812500
9928		1718.750000
9929		1718.750000
9930		1718.750000
9931		1757.812500
9932		1757.812500
9933		1757.812500
9934		1718.750000
9935		1718.750000
9936		1757.812500
9937		1757.812500
9938		1757.812500
9939		1718.750000
9940		1757.812500
9941		1757.812500
9942		1757.812500
9943		1757.812500
9944		1757.812500
9945		1718.750000
9946		1718.750000
9947		1718.750000
9948		1757.812500
9949		1757.812500
9950		1757.812500
9951		1718.750000
9952		1757.812500
9953		1757.812500
9954		1757.812500
9955		1757.812500
9956		1718.750000
9957		1718.750000
9958		1757.812500
9959		1757.812500
9960		1757.812500
9961		1757.812500
9962		1718.750000
9963		1718.750000
9964		1757.812500
9965		1757.812500
9966		1757.812500
9967		1757.812500
9968		1718.750000
9969		1718.750000
9970		1757.812500
9971		1757.812500
9972		1757.812500
9973		1718.750000
9974		1718.750000
9975		1757.812500
9976		1757.812500
9977		1757.812500
9978		1718.750000
9979		1718.750000
9980		1757.812500
9981		1757.812500
9982		1757.812500
9983		1757.812500
9984		1718.750000
9985		1718.750000
9986		1757.812500
9987		1757.812500
9988		1757.812500
9989		1757.812500
9990		1718.750000
9991		1718.750000
9992		1757.812500
9993		1757.812500
9994		1757.812500
9995		1718.750000
9996		1718.750000
9997		1757.812500
9998		1757.812500
9999		1757.812500
10000		1718.750000
