Channel              :		CH1
Frequency            :		  ?
Period               :		  ?
PK-PK                :		2.656V
Probe attenuation    :		1X
Voltage per ADC value:		2.441406mV
Time interval        :		1000.00000us

index		CH1_Voltage(mV)
1		2890.625000
2		2890.625000
3		2890.625000
4		2890.625000
5		2890.625000
6		2890.625000
7		2890.625000
8		2890.625000
9		2890.625000
10		2890.625000
11		2890.625000
12		2890.625000
13		2890.625000
14		2890.625000
15		2890.625000
16		2890.625000
17		2890.625000
18		2890.625000
19		2890.625000
20		2890.625000
21		2890.625000
22		2890.625000
23		2890.625000
24		2890.625000
25		2890.625000
26		2890.625000
27		2890.625000
28		2890.625000
29		2890.625000
30		2890.625000
31		2890.625000
32		2890.625000
33		2890.625000
34		2929.687500
35		2890.625000
36		2890.625000
37		2890.625000
38		2890.625000
39		2890.625000
40		2929.687500
41		2890.625000
42		2890.625000
43		2890.625000
44		2890.625000
45		2890.625000
46		2890.625000
47		2890.625000
48		2890.625000
49		2929.687500
50		2890.625000
51		2929.687500
52		2929.687500
53		2929.687500
54		2929.687500
55		2929.687500
56		2929.687500
57		2929.687500
58		2929.687500
59		2890.625000
60		2890.625000
61		2890.625000
62		2890.625000
63		2890.625000
64		2890.625000
65		2890.625000
66		2890.625000
67		2929.687500
68		2890.625000
69		2890.625000
70		2929.687500
71		2929.687500
72		2890.625000
73		2929.687500
74		2890.625000
75		2890.625000
76		2890.625000
77		2890.625000
78		2890.625000
79		2890.625000
80		2890.625000
81		2890.625000
82		2890.625000
83		2890.625000
84		2890.625000
85		2890.625000
86		2890.625000
87		2890.625000
88		2890.625000
89		2890.625000
90		2890.625000
91		2890.625000
92		2890.625000
93		2890.625000
94		2890.625000
95		2890.625000
96		2890.625000
97		2890.625000
98		2890.625000
99		2890.625000
100		2851.562500
101		2851.562500
102		2851.562500
103		2890.625000
104		2851.562500
105		2890.625000
106		2851.562500
107		2890.625000
108		2851.562500
109		2851.562500
110		2851.562500
111		2851.562500
112		2851.562500
113		2851.562500
114		2851.562500
115		2851.562500
116		2851.562500
117		2851.562500
118		2851.562500
119		2851.562500
120		2851.562500
121		2851.562500
122		2851.562500
123		2851.562500
124		2851.562500
125		2851.562500
126		2851.562500
127		2851.562500
128		2851.562500
129		2851.562500
130		2851.562500
131		2851.562500
132		2812.500000
133		2812.500000
134		2812.500000
135		2812.500000
136		2812.500000
137		2812.500000
138		2812.500000
139		2812.500000
140		2773.437500
141		2812.500000
142		2812.500000
143		2773.437500
144		2812.500000
145		2773.437500
146		2812.500000
147		2773.437500
148		2773.437500
149		2773.437500
150		2773.437500
151		2773.437500
152		2773.437500
153		2773.437500
154		2773.437500
155		2773.437500
156		2773.437500
157		2734.375000
158		2734.375000
159		2734.375000
160		2734.375000
161		2734.375000
162		2734.375000
163		2734.375000
164		2734.375000
165		2734.375000
166		2734.375000
167		2734.375000
168		2734.375000
169		2734.375000
170		2734.375000
171		2734.375000
172		2695.312500
173		2695.312500
174		2695.312500
175		2695.312500
176		2695.312500
177		2695.312500
178		2695.312500
179		2695.312500
180		2695.312500
181		2695.312500
182		2695.312500
183		2656.250000
184		2656.250000
185		2656.250000
186		2656.250000
187		2656.250000
188		2656.250000
189		2656.250000
190		2656.250000
191		2656.250000
192		2656.250000
193		2656.250000
194		2656.250000
195		2617.187500
196		2617.187500
197		2617.187500
198		2617.187500
199		2617.187500
200		2617.187500
201		2617.187500
202		2617.187500
203		2617.187500
204		2617.187500
205		2617.187500
206		2617.187500
207		2578.125000
208		2578.125000
209		2578.125000
210		2578.125000
211		2578.125000
212		2578.125000
213		2578.125000
214		2578.125000
215		2539.062500
216		2578.125000
217		2539.062500
218		2539.062500
219		2539.062500
220		2539.062500
221		2539.062500
222		2539.062500
223		2539.062500
224		2539.062500
225		2539.062500
226		2500.000000
227		2539.062500
228		2500.000000
229		2500.000000
230		2500.000000
231		2500.000000
232		2500.000000
233		2500.000000
234		2500.000000
235		2460.937500
236		2460.937500
237		2460.937500
238		2460.937500
239		2460.937500
240		2460.937500
241		2460.937500
242		2460.937500
243		2421.875000
244		2421.875000
245		2421.875000
246		2421.875000
247		2421.875000
248		2421.875000
249		2421.875000
250		2421.875000
251		2421.875000
252		2421.875000
253		2382.812500
254		2421.875000
255		2382.812500
256		2382.812500
257		2382.812500
258		2382.812500
259		2343.750000
260		2382.812500
261		2343.750000
262		2343.750000
263		2343.750000
264		2343.750000
265		2343.750000
266		2343.750000
267		2343.750000
268		2343.750000
269		2343.750000
270		2343.750000
271		2304.687500
272		2304.687500
273		2304.687500
274		2304.687500
275		2304.687500
276		2304.687500
277		2265.625000
278		2265.625000
279		2265.625000
280		2265.625000
281		2265.625000
282		2265.625000
283		2226.562500
284		2265.625000
285		2265.625000
286		2226.562500
287		2226.562500
288		2226.562500
289		2226.562500
290		2226.562500
291		2226.562500
292		2226.562500
293		2226.562500
294		2187.500000
295		2187.500000
296		2187.500000
297		2187.500000
298		2187.500000
299		2148.437500
300		2148.437500
301		2148.437500
302		2148.437500
303		2148.437500
304		2148.437500
305		2148.437500
306		2148.437500
307		2148.437500
308		2148.437500
309		2109.375000
310		2109.375000
311		2109.375000
312		2109.375000
313		2109.375000
314		2109.375000
315		2109.375000
316		2070.312500
317		2070.312500
318		2070.312500
319		2070.312500
320		2070.312500
321		2070.312500
322		2031.250000
323		2070.312500
324		2031.250000
325		2031.250000
326		2031.250000
327		2031.250000
328		2031.250000
329		2031.250000
330		2031.250000
331		2031.250000
332		2031.250000
333		1992.187500
334		1992.187500
335		1992.187500
336		1992.187500
337		1992.187500
338		1953.125000
339		1953.125000
340		1953.125000
341		1953.125000
342		1953.125000
343		1953.125000
344		1953.125000
345		1953.125000
346		1953.125000
347		1953.125000
348		1914.062500
349		1914.062500
350		1914.062500
351		1914.062500
352		1914.062500
353		1875.000000
354		1914.062500
355		1875.000000
356		1875.000000
357		1875.000000
358		1875.000000
359		1875.000000
360		1875.000000
361		1835.937500
362		1835.937500
363		1835.937500
364		1835.937500
365		1835.937500
366		1835.937500
367		1835.937500
368		1835.937500
369		1796.875000
370		1796.875000
371		1796.875000
372		1796.875000
373		1796.875000
374		1796.875000
375		1757.812500
376		1796.875000
377		1757.812500
378		1757.812500
379		1757.812500
380		1757.812500
381		1757.812500
382		1757.812500
383		1757.812500
384		1757.812500
385		1718.750000
386		1718.750000
387		1718.750000
388		1718.750000
389		1718.750000
390		1718.750000
391		1718.750000
392		1679.687500
393		1679.687500
394		1679.687500
395		1679.687500
396		1679.687500
397		1679.687500
398		1679.687500
399		1679.687500
400		1640.625000
401		1640.625000
402		1640.625000
403		1640.625000
404		1640.625000
405		1640.625000
406		1640.625000
407		1601.562500
408		1601.562500
409		1601.562500
410		1601.562500
411		1601.562500
412		1601.562500
413		1601.562500
414		1601.562500
415		1601.562500
416		1601.562500
417		1562.500000
418		1562.500000
419		1562.500000
420		1562.500000
421		1562.500000
422		1523.437500
423		1523.437500
424		1523.437500
425		1523.437500
426		1523.437500
427		1523.437500
428		1523.437500
429		1523.437500
430		1523.437500
431		1484.375000
432		1523.437500
433		1484.375000
434		1484.375000
435		1484.375000
436		1484.375000
437		1484.375000
438		1484.375000
439		1445.312500
440		1445.312500
441		1445.312500
442		1445.312500
443		1445.312500
444		1445.312500
445		1445.312500
446		1406.250000
447		1445.312500
448		1406.250000
449		1406.250000
450		1406.250000
451		1406.250000
452		1406.250000
453		1406.250000
454		1406.250000
455		1367.187500
456		1367.187500
457		1367.187500
458		1367.187500
459		1367.187500
460		1367.187500
461		1328.125000
462		1328.125000
463		1328.125000
464		1328.125000
465		1328.125000
466		1328.125000
467		1328.125000
468		1328.125000
469		1328.125000
470		1328.125000
471		1328.125000
472		1289.062500
473		1289.062500
474		1289.062500
475		1289.062500
476		1289.062500
477		1289.062500
478		1289.062500
479		1250.000000
480		1250.000000
481		1250.000000
482		1250.000000
483		1250.000000
484		1250.000000
485		1250.000000
486		1250.000000
487		1250.000000
488		1250.000000
489		1250.000000
490		1210.937500
491		1210.937500
492		1210.937500
493		1210.937500
494		1210.937500
495		1210.937500
496		1171.875000
497		1171.875000
498		1171.875000
499		1171.875000
500		1171.875000
501		1171.875000
502		1171.875000
503		1171.875000
504		1171.875000
505		1171.875000
506		1132.812500
507		1171.875000
508		1132.812500
509		1132.812500
510		1132.812500
511		1132.812500
512		1132.812500
513		1132.812500
514		1132.812500
515		1093.750000
516		1093.750000
517		1093.750000
518		1093.750000
519		1093.750000
520		1093.750000
521		1093.750000
522		1093.750000
523		1015.625000
524		1054.687500
525		1054.687500
526		1054.687500
527		1054.687500
528		1054.687500
529		1054.687500
530		1054.687500
531		1054.687500
532		1054.687500
533		1015.625000
534		1015.625000
535		1015.625000
536		1015.625000
537		1015.625000
538		1015.625000
539		1015.625000
540		1015.625000
541		1015.625000
542		1015.625000
543		1015.625000
544		976.562500
545		976.562500
546		976.562500
547		976.562500
548		976.562500
549		976.562500
550		976.562500
551		976.562500
552		976.562500
553		937.500000
554		937.500000
555		937.500000
556		937.500000
557		937.500000
558		937.500000
559		937.500000
560		937.500000
561		937.500000
562		937.500000
563		898.437500
564		898.437500
565		898.437500
566		898.437500
567		898.437500
568		898.437500
569		898.437500
570		898.437500
571		898.437500
572		898.437500
573		859.375000
574		859.375000
575		859.375000
576		859.375000
577		859.375000
578		859.375000
579		820.312500
580		898.437500
581		859.375000
582		859.375000
583		820.312500
584		859.375000
585		820.312500
586		820.312500
587		820.312500
588		820.312500
589		820.312500
590		820.312500
591		820.312500
592		820.312500
593		820.312500
594		742.187500
595		781.250000
596		781.250000
597		781.250000
598		781.250000
599		781.250000
600		781.250000
601		781.250000
602		781.250000
603		781.250000
604		781.250000
605		742.187500
606		742.187500
607		742.187500
608		742.187500
609		742.187500
610		742.187500
611		742.187500
612		742.187500
613		742.187500
614		742.187500
615		742.187500
616		742.187500
617		703.125000
618		703.125000
619		703.125000
620		703.125000
621		703.125000
622		703.125000
623		703.125000
624		703.125000
625		703.125000
626		703.125000
627		703.125000
628		703.125000
629		703.125000
630		664.062500
631		664.062500
632		664.062500
633		664.062500
634		664.062500
635		664.062500
636		664.062500
637		664.062500
638		664.062500
639		664.062500
640		664.062500
641		664.062500
642		625.000000
643		625.000000
644		625.000000
645		625.000000
646		625.000000
647		625.000000
648		625.000000
649		625.000000
650		625.000000
651		625.000000
652		625.000000
653		625.000000
654		625.000000
655		625.000000
656		625.000000
657		585.937500
658		585.937500
659		585.937500
660		585.937500
661		585.937500
662		585.937500
663		585.937500
664		585.937500
665		585.937500
666		585.937500
667		585.937500
668		585.937500
669		585.937500
670		585.937500
671		585.937500
672		546.875000
673		585.937500
674		585.937500
675		546.875000
676		546.875000
677		546.875000
678		546.875000
679		546.875000
680		546.875000
681		546.875000
682		546.875000
683		546.875000
684		546.875000
685		546.875000
686		507.812500
687		546.875000
688		546.875000
689		507.812500
690		507.812500
691		507.812500
692		507.812500
693		507.812500
694		507.812500
695		507.812500
696		507.812500
697		507.812500
698		507.812500
699		507.812500
700		507.812500
701		468.750000
702		507.812500
703		507.812500
704		507.812500
705		468.750000
706		507.812500
707		468.750000
708		468.750000
709		468.750000
710		468.750000
711		468.750000
712		468.750000
713		468.750000
714		468.750000
715		468.750000
716		468.750000
717		468.750000
718		468.750000
719		468.750000
720		429.687500
721		429.687500
722		429.687500
723		429.687500
724		429.687500
725		468.750000
726		429.687500
727		429.687500
728		429.687500
729		429.687500
730		429.687500
731		429.687500
732		429.687500
733		429.687500
734		429.687500
735		429.687500
736		429.687500
737		429.687500
738		390.625000
739		390.625000
740		390.625000
741		390.625000
742		429.687500
743		390.625000
744		390.625000
745		390.625000
746		390.625000
747		390.625000
748		390.625000
749		390.625000
750		390.625000
751		390.625000
752		390.625000
753		390.625000
754		390.625000
755		390.625000
756		390.625000
757		390.625000
758		390.625000
759		390.625000
760		390.625000
761		390.625000
762		390.625000
763		390.625000
764		390.625000
765		351.562500
766		351.562500
767		351.562500
768		390.625000
769		351.562500
770		351.562500
771		390.625000
772		351.562500
773		351.562500
774		351.562500
775		351.562500
776		351.562500
777		351.562500
778		351.562500
779		351.562500
780		351.562500
781		351.562500
782		351.562500
783		351.562500
784		351.562500
785		351.562500
786		351.562500
787		351.562500
788		351.562500
789		351.562500
790		351.562500
791		351.562500
792		312.500000
793		351.562500
794		351.562500
795		351.562500
796		312.500000
797		312.500000
798		312.500000
799		312.500000
800		312.500000
801		312.500000
802		312.500000
803		312.500000
804		312.500000
805		312.500000
806		312.500000
807		312.500000
808		312.500000
809		312.500000
810		312.500000
811		312.500000
812		312.500000
813		312.500000
814		312.500000
815		312.500000
816		312.500000
817		312.500000
818		312.500000
819		312.500000
820		312.500000
821		312.500000
822		312.500000
823		312.500000
824		312.500000
825		312.500000
826		312.500000
827		312.500000
828		312.500000
829		312.500000
830		312.500000
831		312.500000
832		312.500000
833		312.500000
834		312.500000
835		312.500000
836		312.500000
837		312.500000
838		312.500000
839		273.437500
840		273.437500
841		273.437500
842		273.437500
843		273.437500
844		273.437500
845		312.500000
846		312.500000
847		312.500000
848		312.500000
849		312.500000
850		312.500000
851		312.500000
852		312.500000
853		312.500000
854		312.500000
855		312.500000
856		273.437500
857		273.437500
858		273.437500
859		273.437500
860		273.437500
861		273.437500
862		273.437500
863		273.437500
864		273.437500
865		273.437500
866		273.437500
867		273.437500
868		312.500000
869		312.500000
870		312.500000
871		312.500000
872		273.437500
873		273.437500
874		273.437500
875		273.437500
876		273.437500
877		273.437500
878		273.437500
879		273.437500
880		273.437500
881		273.437500
882		273.437500
883		273.437500
884		273.437500
885		273.437500
886		273.437500
887		273.437500
888		273.437500
889		273.437500
890		312.500000
891		312.500000
892		273.437500
893		273.437500
894		273.437500
895		273.437500
896		273.437500
897		273.437500
898		273.437500
899		273.437500
900		273.437500
901		273.437500
902		273.437500
903		273.437500
904		273.437500
905		273.437500
906		312.500000
907		273.437500
908		312.500000
909		273.437500
910		273.437500
911		312.500000
912		273.437500
913		273.437500
914		273.437500
915		273.437500
916		273.437500
917		273.437500
918		273.437500
919		273.437500
920		273.437500
921		273.437500
922		273.437500
923		312.500000
924		312.500000
925		273.437500
926		312.500000
927		312.500000
928		312.500000
929		312.500000
930		273.437500
931		312.500000
932		273.437500
933		312.500000
934		273.437500
935		312.500000
936		312.500000
937		312.500000
938		312.500000
939		312.500000
940		312.500000
941		312.500000
942		312.500000
943		312.500000
944		312.500000
945		312.500000
946		312.500000
947		312.500000
948		312.500000
949		312.500000
950		312.500000
951		312.500000
952		312.500000
953		312.500000
954		312.500000
955		312.500000
956		312.500000
957		312.500000
958		312.500000
959		312.500000
960		312.500000
961		312.500000
962		312.500000
963		312.500000
964		312.500000
965		312.500000
966		312.500000
967		312.500000
968		312.500000
969		312.500000
970		312.500000
971		351.562500
972		351.562500
973		351.562500
974		351.562500
975		351.562500
976		351.562500
977		351.562500
978		351.562500
979		351.562500
980		351.562500
981		351.562500
982		351.562500
983		351.562500
984		351.562500
985		351.562500
986		351.562500
987		351.562500
988		351.562500
989		351.562500
990		351.562500
991		351.562500
992		351.562500
993		351.562500
994		351.562500
995		351.562500
996		351.562500
997		351.562500
998		351.562500
999		351.562500
1000		351.562500
1001		351.562500
1002		351.562500
1003		351.562500
1004		390.625000
1005		351.562500
1006		390.625000
1007		351.562500
1008		390.625000
1009		390.625000
1010		390.625000
1011		390.625000
1012		390.625000
1013		390.625000
1014		390.625000
1015		390.625000
1016		390.625000
1017		390.625000
1018		390.625000
1019		390.625000
1020		390.625000
1021		390.625000
1022		390.625000
1023		390.625000
1024		390.625000
1025		390.625000
1026		390.625000
1027		390.625000
1028		429.687500
1029		429.687500
1030		429.687500
1031		429.687500
1032		429.687500
1033		429.687500
1034		429.687500
1035		429.687500
1036		429.687500
1037		429.687500
1038		429.687500
1039		429.687500
1040		429.687500
1041		429.687500
1042		429.687500
1043		429.687500
1044		429.687500
1045		429.687500
1046		429.687500
1047		429.687500
1048		468.750000
1049		468.750000
1050		468.750000
1051		468.750000
1052		468.750000
1053		468.750000
1054		468.750000
1055		468.750000
1056		468.750000
1057		468.750000
1058		468.750000
1059		468.750000
1060		468.750000
1061		468.750000
1062		468.750000
1063		468.750000
1064		468.750000
1065		468.750000
1066		468.750000
1067		507.812500
1068		507.812500
1069		507.812500
1070		507.812500
1071		507.812500
1072		507.812500
1073		507.812500
1074		507.812500
1075		507.812500
1076		507.812500
1077		507.812500
1078		507.812500
1079		507.812500
1080		507.812500
1081		507.812500
1082		507.812500
1083		507.812500
1084		546.875000
1085		507.812500
1086		546.875000
1087		546.875000
1088		546.875000
1089		546.875000
1090		546.875000
1091		546.875000
1092		546.875000
1093		546.875000
1094		546.875000
1095		546.875000
1096		546.875000
1097		546.875000
1098		546.875000
1099		546.875000
1100		546.875000
1101		546.875000
1102		585.937500
1103		585.937500
1104		585.937500
1105		585.937500
1106		585.937500
1107		585.937500
1108		585.937500
1109		585.937500
1110		585.937500
1111		585.937500
1112		585.937500
1113		585.937500
1114		585.937500
1115		585.937500
1116		585.937500
1117		625.000000
1118		585.937500
1119		625.000000
1120		625.000000
1121		625.000000
1122		625.000000
1123		625.000000
1124		625.000000
1125		625.000000
1126		625.000000
1127		625.000000
1128		664.062500
1129		664.062500
1130		664.062500
1131		664.062500
1132		664.062500
1133		664.062500
1134		664.062500
1135		664.062500
1136		664.062500
1137		664.062500
1138		664.062500
1139		664.062500
1140		664.062500
1141		703.125000
1142		703.125000
1143		703.125000
1144		703.125000
1145		703.125000
1146		703.125000
1147		703.125000
1148		703.125000
1149		703.125000
1150		703.125000
1151		703.125000
1152		703.125000
1153		742.187500
1154		742.187500
1155		742.187500
1156		742.187500
1157		742.187500
1158		742.187500
1159		742.187500
1160		742.187500
1161		742.187500
1162		742.187500
1163		742.187500
1164		742.187500
1165		742.187500
1166		781.250000
1167		781.250000
1168		781.250000
1169		781.250000
1170		781.250000
1171		781.250000
1172		781.250000
1173		781.250000
1174		781.250000
1175		781.250000
1176		820.312500
1177		820.312500
1178		820.312500
1179		820.312500
1180		820.312500
1181		820.312500
1182		820.312500
1183		820.312500
1184		820.312500
1185		820.312500
1186		859.375000
1187		820.312500
1188		859.375000
1189		820.312500
1190		859.375000
1191		859.375000
1192		859.375000
1193		898.437500
1194		859.375000
1195		859.375000
1196		859.375000
1197		859.375000
1198		898.437500
1199		859.375000
1200		898.437500
1201		898.437500
1202		898.437500
1203		898.437500
1204		898.437500
1205		898.437500
1206		898.437500
1207		898.437500
1208		937.500000
1209		937.500000
1210		937.500000
1211		937.500000
1212		937.500000
1213		937.500000
1214		937.500000
1215		937.500000
1216		937.500000
1217		937.500000
1218		937.500000
1219		937.500000
1220		937.500000
1221		937.500000
1222		976.562500
1223		976.562500
1224		976.562500
1225		976.562500
1226		976.562500
1227		976.562500
1228		1015.625000
1229		1015.625000
1230		1015.625000
1231		1015.625000
1232		1015.625000
1233		1015.625000
1234		1015.625000
1235		1015.625000
1236		1015.625000
1237		1015.625000
1238		1054.687500
1239		1054.687500
1240		1054.687500
1241		1054.687500
1242		1054.687500
1243		1054.687500
1244		1054.687500
1245		1093.750000
1246		1054.687500
1247		1093.750000
1248		1093.750000
1249		1093.750000
1250		1093.750000
1251		1093.750000
1252		1093.750000
1253		1093.750000
1254		1093.750000
1255		1093.750000
1256		1132.812500
1257		1132.812500
1258		1132.812500
1259		1132.812500
1260		1132.812500
1261		1132.812500
1262		1132.812500
1263		1132.812500
1264		1171.875000
1265		1171.875000
1266		1171.875000
1267		1171.875000
1268		1171.875000
1269		1171.875000
1270		1171.875000
1271		1171.875000
1272		1171.875000
1273		1171.875000
1274		1210.937500
1275		1210.937500
1276		1210.937500
1277		1210.937500
1278		1210.937500
1279		1210.937500
1280		1210.937500
1281		1210.937500
1282		1250.000000
1283		1250.000000
1284		1250.000000
1285		1250.000000
1286		1250.000000
1287		1250.000000
1288		1289.062500
1289		1289.062500
1290		1289.062500
1291		1289.062500
1292		1289.062500
1293		1289.062500
1294		1289.062500
1295		1289.062500
1296		1289.062500
1297		1289.062500
1298		1328.125000
1299		1328.125000
1300		1328.125000
1301		1328.125000
1302		1328.125000
1303		1328.125000
1304		1328.125000
1305		1367.187500
1306		1367.187500
1307		1367.187500
1308		1367.187500
1309		1367.187500
1310		1367.187500
1311		1367.187500
1312		1367.187500
1313		1406.250000
1314		1367.187500
1315		1406.250000
1316		1406.250000
1317		1406.250000
1318		1406.250000
1319		1406.250000
1320		1406.250000
1321		1445.312500
1322		1445.312500
1323		1445.312500
1324		1445.312500
1325		1445.312500
1326		1445.312500
1327		1484.375000
1328		1445.312500
1329		1484.375000
1330		1484.375000
1331		1484.375000
1332		1484.375000
1333		1484.375000
1334		1484.375000
1335		1484.375000
1336		1484.375000
1337		1523.437500
1338		1523.437500
1339		1523.437500
1340		1523.437500
1341		1523.437500
1342		1523.437500
1343		1523.437500
1344		1523.437500
1345		1562.500000
1346		1562.500000
1347		1562.500000
1348		1562.500000
1349		1562.500000
1350		1562.500000
1351		1601.562500
1352		1601.562500
1353		1601.562500
1354		1601.562500
1355		1601.562500
1356		1601.562500
1357		1601.562500
1358		1601.562500
1359		1601.562500
1360		1640.625000
1361		1640.625000
1362		1640.625000
1363		1640.625000
1364		1640.625000
1365		1640.625000
1366		1640.625000
1367		1679.687500
1368		1679.687500
1369		1679.687500
1370		1679.687500
1371		1679.687500
1372		1679.687500
1373		1679.687500
1374		1679.687500
1375		1718.750000
1376		1718.750000
1377		1718.750000
1378		1718.750000
1379		1718.750000
1380		1718.750000
1381		1718.750000
1382		1718.750000
1383		1757.812500
1384		1757.812500
1385		1757.812500
1386		1757.812500
1387		1757.812500
1388		1757.812500
1389		1796.875000
1390		1796.875000
1391		1796.875000
1392		1796.875000
1393		1796.875000
1394		1796.875000
1395		1796.875000
1396		1835.937500
1397		1835.937500
1398		1835.937500
1399		1835.937500
1400		1835.937500
1401		1835.937500
1402		1835.937500
1403		1835.937500
1404		1835.937500
1405		1875.000000
1406		1875.000000
1407		1875.000000
1408		1875.000000
1409		1875.000000
1410		1875.000000
1411		1914.062500
1412		1914.062500
1413		1914.062500
1414		1914.062500
1415		1914.062500
1416		1914.062500
1417		1914.062500
1418		1914.062500
1419		1914.062500
1420		1953.125000
1421		1953.125000
1422		1953.125000
1423		1953.125000
1424		1953.125000
1425		1953.125000
1426		1992.187500
1427		1992.187500
1428		1992.187500
1429		1992.187500
1430		1992.187500
1431		1992.187500
1432		2031.250000
1433		2031.250000
1434		2031.250000
1435		2031.250000
1436		2031.250000
1437		2031.250000
1438		2031.250000
1439		2031.250000
1440		2031.250000
1441		2031.250000
1442		2070.312500
1443		2070.312500
1444		2070.312500
1445		2070.312500
1446		2070.312500
1447		2109.375000
1448		2109.375000
1449		2109.375000
1450		2109.375000
1451		2109.375000
1452		2109.375000
1453		2109.375000
1454		2109.375000
1455		2109.375000
1456		2109.375000
1457		2148.437500
1458		2148.437500
1459		2148.437500
1460		2148.437500
1461		2148.437500
1462		2148.437500
1463		2148.437500
1464		2187.500000
1465		2187.500000
1466		2187.500000
1467		2187.500000
1468		2187.500000
1469		2187.500000
1470		2187.500000
1471		2187.500000
1472		2226.562500
1473		2226.562500
1474		2226.562500
1475		2226.562500
1476		2226.562500
1477		2226.562500
1478		2226.562500
1479		2226.562500
1480		2226.562500
1481		2226.562500
1482		2265.625000
1483		2265.625000
1484		2265.625000
1485		2265.625000
1486		2265.625000
1487		2265.625000
1488		2304.687500
1489		2304.687500
1490		2304.687500
1491		2304.687500
1492		2304.687500
1493		2304.687500
1494		2304.687500
1495		2304.687500
1496		2304.687500
1497		2343.750000
1498		2343.750000
1499		2343.750000
1500		2343.750000
1501		2343.750000
1502		2382.812500
1503		2382.812500
1504		2382.812500
1505		2382.812500
1506		2382.812500
1507		2382.812500
1508		2382.812500
1509		2382.812500
1510		2382.812500
1511		2382.812500
1512		2421.875000
1513		2382.812500
1514		2421.875000
1515		2421.875000
1516		2421.875000
1517		2421.875000
1518		2421.875000
1519		2421.875000
1520		2421.875000
1521		2460.937500
1522		2460.937500
1523		2460.937500
1524		2460.937500
1525		2460.937500
1526		2460.937500
1527		2460.937500
1528		2460.937500
1529		2460.937500
1530		2460.937500
1531		2500.000000
1532		2500.000000
1533		2500.000000
1534		2500.000000
1535		2500.000000
1536		2500.000000
1537		2500.000000
1538		2500.000000
1539		2539.062500
1540		2500.000000
1541		2539.062500
1542		2539.062500
1543		2539.062500
1544		2539.062500
1545		2539.062500
1546		2539.062500
1547		2539.062500
1548		2539.062500
1549		2539.062500
1550		2578.125000
1551		2578.125000
1552		2578.125000
1553		2578.125000
1554		2578.125000
1555		2578.125000
1556		2578.125000
1557		2578.125000
1558		2578.125000
1559		2617.187500
1560		2617.187500
1561		2578.125000
1562		2617.187500
1563		2617.187500
1564		2617.187500
1565		2617.187500
1566		2617.187500
1567		2617.187500
1568		2617.187500
1569		2656.250000
1570		2656.250000
1571		2656.250000
1572		2656.250000
1573		2656.250000
1574		2656.250000
1575		2656.250000
1576		2656.250000
1577		2656.250000
1578		2656.250000
1579		2656.250000
1580		2656.250000
1581		2656.250000
1582		2656.250000
1583		2656.250000
1584		2695.312500
1585		2695.312500
1586		2695.312500
1587		2695.312500
1588		2695.312500
1589		2695.312500
1590		2695.312500
1591		2695.312500
1592		2734.375000
1593		2695.312500
1594		2695.312500
1595		2734.375000
1596		2734.375000
1597		2734.375000
1598		2734.375000
1599		2734.375000
1600		2734.375000
1601		2695.312500
1602		2734.375000
1603		2734.375000
1604		2734.375000
1605		2734.375000
1606		2734.375000
1607		2734.375000
1608		2773.437500
1609		2773.437500
1610		2773.437500
1611		2773.437500
1612		2773.437500
1613		2773.437500
1614		2773.437500
1615		2773.437500
1616		2773.437500
1617		2773.437500
1618		2773.437500
1619		2773.437500
1620		2773.437500
1621		2773.437500
1622		2773.437500
1623		2773.437500
1624		2773.437500
1625		2773.437500
1626		2773.437500
1627		2812.500000
1628		2812.500000
1629		2812.500000
1630		2812.500000
1631		2812.500000
1632		2812.500000
1633		2773.437500
1634		2812.500000
1635		2812.500000
1636		2812.500000
1637		2812.500000
1638		2812.500000
1639		2812.500000
1640		2812.500000
1641		2812.500000
1642		2812.500000
1643		2812.500000
1644		2812.500000
1645		2812.500000
1646		2851.562500
1647		2851.562500
1648		2851.562500
1649		2851.562500
1650		2851.562500
1651		2851.562500
1652		2851.562500
1653		2851.562500
1654		2812.500000
1655		2851.562500
1656		2851.562500
1657		2851.562500
1658		2851.562500
1659		2812.500000
1660		2851.562500
1661		2851.562500
1662		2851.562500
1663		2851.562500
1664		2851.562500
1665		2851.562500
1666		2851.562500
1667		2851.562500
1668		2851.562500
1669		2851.562500
1670		2851.562500
1671		2851.562500
1672		2851.562500
1673		2851.562500
1674		2851.562500
1675		2851.562500
1676		2851.562500
1677		2851.562500
1678		2851.562500
1679		2851.562500
1680		2851.562500
1681		2851.562500
1682		2851.562500
1683		2851.562500
1684		2851.562500
1685		2851.562500
1686		2851.562500
1687		2890.625000
1688		2890.625000
1689		2851.562500
1690		2851.562500
1691		2851.562500
1692		2890.625000
1693		2851.562500
1694		2851.562500
1695		2851.562500
1696		2890.625000
1697		2851.562500
1698		2851.562500
1699		2890.625000
1700		2851.562500
1701		2890.625000
1702		2851.562500
1703		2890.625000
1704		2851.562500
1705		2890.625000
1706		2890.625000
1707		2851.562500
1708		2890.625000
1709		2851.562500
1710		2890.625000
1711		2851.562500
1712		2851.562500
1713		2890.625000
1714		2890.625000
1715		2851.562500
1716		2851.562500
1717		2851.562500
1718		2851.562500
1719		2851.562500
1720		2851.562500
1721		2851.562500
1722		2851.562500
1723		2851.562500
1724		2851.562500
1725		2851.562500
1726		2851.562500
1727		2851.562500
1728		2851.562500
1729		2851.562500
1730		2851.562500
1731		2851.562500
1732		2851.562500
1733		2851.562500
1734		2851.562500
1735		2851.562500
1736		2851.562500
1737		2851.562500
1738		2851.562500
1739		2851.562500
1740		2851.562500
1741		2851.562500
1742		2851.562500
1743		2851.562500
1744		2851.562500
1745		2851.562500
1746		2851.562500
1747		2851.562500
1748		2851.562500
1749		2851.562500
1750		2851.562500
1751		2851.562500
1752		2812.500000
1753		2851.562500
1754		2812.500000
1755		2812.500000
1756		2812.500000
1757		2812.500000
1758		2812.500000
1759		2812.500000
1760		2812.500000
1761		2812.500000
1762		2812.500000
1763		2812.500000
1764		2812.500000
1765		2812.500000
1766		2812.500000
1767		2812.500000
1768		2812.500000
1769		2812.500000
1770		2812.500000
1771		2812.500000
1772		2812.500000
1773		2812.500000
1774		2812.500000
1775		2773.437500
1776		2773.437500
1777		2773.437500
1778		2773.437500
1779		2773.437500
1780		2773.437500
1781		2773.437500
1782		2773.437500
1783		2773.437500
1784		2773.437500
1785		2773.437500
1786		2773.437500
1787		2773.437500
1788		2773.437500
1789		2773.437500
1790		2773.437500
1791		2773.437500
1792		2773.437500
1793		2734.375000
1794		2734.375000
1795		2734.375000
1796		2734.375000
1797		2734.375000
1798		2734.375000
1799		2734.375000
1800		2734.375000
1801		2734.375000
1802		2695.312500
1803		2734.375000
1804		2734.375000
1805		2734.375000
1806		2734.375000
1807		2734.375000
1808		2734.375000
1809		2734.375000
1810		2695.312500
1811		2695.312500
1812		2695.312500
1813		2695.312500
1814		2695.312500
1815		2695.312500
1816		2695.312500
1817		2656.250000
1818		2656.250000
1819		2656.250000
1820		2656.250000
1821		2656.250000
1822		2656.250000
1823		2656.250000
1824		2656.250000
1825		2656.250000
1826		2656.250000
1827		2656.250000
1828		2656.250000
1829		2656.250000
1830		2656.250000
1831		2656.250000
1832		2656.250000
1833		2656.250000
1834		2617.187500
1835		2617.187500
1836		2617.187500
1837		2617.187500
1838		2617.187500
1839		2617.187500
1840		2617.187500
1841		2617.187500
1842		2617.187500
1843		2617.187500
1844		2578.125000
1845		2578.125000
1846		2578.125000
1847		2578.125000
1848		2578.125000
1849		2578.125000
1850		2578.125000
1851		2578.125000
1852		2578.125000
1853		2539.062500
1854		2539.062500
1855		2539.062500
1856		2539.062500
1857		2539.062500
1858		2539.062500
1859		2539.062500
1860		2539.062500
1861		2539.062500
1862		2500.000000
1863		2500.000000
1864		2500.000000
1865		2500.000000
1866		2500.000000
1867		2500.000000
1868		2500.000000
1869		2500.000000
1870		2500.000000
1871		2500.000000
1872		2500.000000
1873		2460.937500
1874		2460.937500
1875		2460.937500
1876		2460.937500
1877		2460.937500
1878		2460.937500
1879		2460.937500
1880		2460.937500
1881		2460.937500
1882		2460.937500
1883		2421.875000
1884		2421.875000
1885		2421.875000
1886		2421.875000
1887		2421.875000
1888		2421.875000
1889		2421.875000
1890		2421.875000
1891		2382.812500
1892		2382.812500
1893		2382.812500
1894		2382.812500
1895		2382.812500
1896		2382.812500
1897		2382.812500
1898		2382.812500
1899		2382.812500
1900		2343.750000
1901		2343.750000
1902		2343.750000
1903		2343.750000
1904		2343.750000
1905		2343.750000
1906		2343.750000
1907		2343.750000
1908		2343.750000
1909		2304.687500
1910		2304.687500
1911		2304.687500
1912		2304.687500
1913		2304.687500
1914		2304.687500
1915		2304.687500
1916		2304.687500
1917		2265.625000
1918		2265.625000
1919		2265.625000
1920		2265.625000
1921		2265.625000
1922		2265.625000
1923		2265.625000
1924		2226.562500
1925		2226.562500
1926		2226.562500
1927		2226.562500
1928		2226.562500
1929		2226.562500
1930		2226.562500
1931		2226.562500
1932		2226.562500
1933		2187.500000
1934		2187.500000
1935		2187.500000
1936		2187.500000
1937		2187.500000
1938		2187.500000
1939		2187.500000
1940		2187.500000
1941		2148.437500
1942		2148.437500
1943		2148.437500
1944		2148.437500
1945		2148.437500
1946		2148.437500
1947		2148.437500
1948		2148.437500
1949		2148.437500
1950		2109.375000
1951		2109.375000
1952		2109.375000
1953		2109.375000
1954		2109.375000
1955		2109.375000
1956		2109.375000
1957		2070.312500
1958		2070.312500
1959		2070.312500
1960		2070.312500
1961		2070.312500
1962		2070.312500
1963		2070.312500
1964		2070.312500
1965		2031.250000
1966		2031.250000
1967		2031.250000
1968		2031.250000
1969		2031.250000
1970		2031.250000
1971		2031.250000
1972		2031.250000
1973		1992.187500
1974		1992.187500
1975		1992.187500
1976		1992.187500
1977		1992.187500
1978		1992.187500
1979		1953.125000
1980		1953.125000
1981		1953.125000
1982		1953.125000
1983		1953.125000
1984		1953.125000
1985		1953.125000
1986		1953.125000
1987		1953.125000
1988		1953.125000
1989		1914.062500
1990		1914.062500
1991		1914.062500
1992		1914.062500
1993		1914.062500
1994		1914.062500
1995		1875.000000
1996		1875.000000
1997		1875.000000
1998		1875.000000
1999		1875.000000
2000		1875.000000
2001		1835.937500
2002		1835.937500
2003		1835.937500
2004		1835.937500
2005		1835.937500
2006		1835.937500
2007		1835.937500
2008		1835.937500
2009		1835.937500
2010		1835.937500
2011		1835.937500
2012		1796.875000
2013		1796.875000
2014		1796.875000
2015		1796.875000
2016		1796.875000
2017		1757.812500
2018		1757.812500
2019		1757.812500
2020		1757.812500
2021		1757.812500
2022		1757.812500
2023		1757.812500
2024		1757.812500
2025		1757.812500
2026		1757.812500
2027		1718.750000
2028		1718.750000
2029		1718.750000
2030		1718.750000
2031		1718.750000
2032		1718.750000
2033		1718.750000
2034		1679.687500
2035		1679.687500
2036		1679.687500
2037		1679.687500
2038		1679.687500
2039		1679.687500
2040		1640.625000
2041		1640.625000
2042		1640.625000
2043		1640.625000
2044		1640.625000
2045		1640.625000
2046		1640.625000
2047		1640.625000
2048		1640.625000
2049		1601.562500
2050		1601.562500
2051		1601.562500
2052		1601.562500
2053		1601.562500
2054		1601.562500
2055		1562.500000
2056		1601.562500
2057		1562.500000
2058		1562.500000
2059		1562.500000
2060		1562.500000
2061		1562.500000
2062		1562.500000
2063		1562.500000
2064		1523.437500
2065		1562.500000
2066		1523.437500
2067		1523.437500
2068		1523.437500
2069		1523.437500
2070		1523.437500
2071		1523.437500
2072		1484.375000
2073		1484.375000
2074		1484.375000
2075		1484.375000
2076		1484.375000
2077		1484.375000
2078		1484.375000
2079		1445.312500
2080		1484.375000
2081		1445.312500
2082		1445.312500
2083		1445.312500
2084		1445.312500
2085		1445.312500
2086		1445.312500
2087		1445.312500
2088		1406.250000
2089		1406.250000
2090		1406.250000
2091		1406.250000
2092		1406.250000
2093		1406.250000
2094		1406.250000
2095		1406.250000
2096		1367.187500
2097		1367.187500
2098		1367.187500
2099		1367.187500
2100		1367.187500
2101		1367.187500
2102		1367.187500
2103		1367.187500
2104		1328.125000
2105		1328.125000
2106		1328.125000
2107		1328.125000
2108		1328.125000
2109		1328.125000
2110		1328.125000
2111		1328.125000
2112		1289.062500
2113		1289.062500
2114		1289.062500
2115		1289.062500
2116		1289.062500
2117		1289.062500
2118		1289.062500
2119		1289.062500
2120		1250.000000
2121		1250.000000
2122		1250.000000
2123		1250.000000
2124		1250.000000
2125		1250.000000
2126		1250.000000
2127		1250.000000
2128		1250.000000
2129		1250.000000
2130		1210.937500
2131		1210.937500
2132		1210.937500
2133		1210.937500
2134		1210.937500
2135		1210.937500
2136		1171.875000
2137		1210.937500
2138		1210.937500
2139		1171.875000
2140		1171.875000
2141		1171.875000
2142		1171.875000
2143		1171.875000
2144		1171.875000
2145		1171.875000
2146		1132.812500
2147		1132.812500
2148		1132.812500
2149		1132.812500
2150		1132.812500
2151		1132.812500
2152		1132.812500
2153		1132.812500
2154		1132.812500
2155		1093.750000
2156		1093.750000
2157		1093.750000
2158		1093.750000
2159		1093.750000
2160		1093.750000
2161		1093.750000
2162		1093.750000
2163		1093.750000
2164		1054.687500
2165		1054.687500
2166		1054.687500
2167		1054.687500
2168		1054.687500
2169		1054.687500
2170		1054.687500
2171		1054.687500
2172		1054.687500
2173		1054.687500
2174		1054.687500
2175		1015.625000
2176		1015.625000
2177		1015.625000
2178		1015.625000
2179		1015.625000
2180		1015.625000
2181		1015.625000
2182		1015.625000
2183		976.562500
2184		1015.625000
2185		976.562500
2186		976.562500
2187		976.562500
2188		976.562500
2189		976.562500
2190		976.562500
2191		976.562500
2192		976.562500
2193		976.562500
2194		937.500000
2195		937.500000
2196		937.500000
2197		937.500000
2198		937.500000
2199		937.500000
2200		937.500000
2201		937.500000
2202		937.500000
2203		898.437500
2204		937.500000
2205		898.437500
2206		898.437500
2207		898.437500
2208		898.437500
2209		898.437500
2210		898.437500
2211		898.437500
2212		898.437500
2213		898.437500
2214		859.375000
2215		859.375000
2216		859.375000
2217		859.375000
2218		859.375000
2219		859.375000
2220		859.375000
2221		859.375000
2222		859.375000
2223		859.375000
2224		859.375000
2225		859.375000
2226		859.375000
2227		820.312500
2228		820.312500
2229		820.312500
2230		820.312500
2231		820.312500
2232		820.312500
2233		820.312500
2234		820.312500
2235		781.250000
2236		781.250000
2237		781.250000
2238		781.250000
2239		781.250000
2240		781.250000
2241		781.250000
2242		781.250000
2243		781.250000
2244		781.250000
2245		781.250000
2246		781.250000
2247		742.187500
2248		742.187500
2249		742.187500
2250		742.187500
2251		742.187500
2252		742.187500
2253		742.187500
2254		742.187500
2255		742.187500
2256		742.187500
2257		703.125000
2258		742.187500
2259		703.125000
2260		703.125000
2261		703.125000
2262		703.125000
2263		703.125000
2264		703.125000
2265		703.125000
2266		703.125000
2267		703.125000
2268		703.125000
2269		703.125000
2270		703.125000
2271		703.125000
2272		664.062500
2273		664.062500
2274		664.062500
2275		664.062500
2276		664.062500
2277		664.062500
2278		664.062500
2279		664.062500
2280		664.062500
2281		664.062500
2282		664.062500
2283		664.062500
2284		625.000000
2285		625.000000
2286		625.000000
2287		625.000000
2288		625.000000
2289		625.000000
2290		625.000000
2291		625.000000
2292		625.000000
2293		625.000000
2294		625.000000
2295		625.000000
2296		585.937500
2297		585.937500
2298		585.937500
2299		585.937500
2300		585.937500
2301		585.937500
2302		585.937500
2303		585.937500
2304		585.937500
2305		585.937500
2306		585.937500
2307		585.937500
2308		585.937500
2309		585.937500
2310		585.937500
2311		546.875000
2312		546.875000
2313		546.875000
2314		546.875000
2315		546.875000
2316		546.875000
2317		546.875000
2318		546.875000
2319		546.875000
2320		546.875000
2321		546.875000
2322		546.875000
2323		546.875000
2324		546.875000
2325		507.812500
2326		507.812500
2327		507.812500
2328		507.812500
2329		507.812500
2330		507.812500
2331		507.812500
2332		507.812500
2333		507.812500
2334		507.812500
2335		507.812500
2336		507.812500
2337		507.812500
2338		507.812500
2339		507.812500
2340		468.750000
2341		507.812500
2342		468.750000
2343		468.750000
2344		468.750000
2345		468.750000
2346		468.750000
2347		468.750000
2348		468.750000
2349		468.750000
2350		468.750000
2351		468.750000
2352		468.750000
2353		468.750000
2354		468.750000
2355		468.750000
2356		468.750000
2357		468.750000
2358		429.687500
2359		429.687500
2360		429.687500
2361		429.687500
2362		429.687500
2363		429.687500
2364		507.812500
2365		429.687500
2366		429.687500
2367		429.687500
2368		429.687500
2369		429.687500
2370		429.687500
2371		429.687500
2372		429.687500
2373		429.687500
2374		429.687500
2375		429.687500
2376		429.687500
2377		390.625000
2378		390.625000
2379		390.625000
2380		390.625000
2381		390.625000
2382		390.625000
2383		390.625000
2384		390.625000
2385		390.625000
2386		390.625000
2387		390.625000
2388		390.625000
2389		390.625000
2390		390.625000
2391		390.625000
2392		390.625000
2393		390.625000
2394		390.625000
2395		390.625000
2396		390.625000
2397		390.625000
2398		351.562500
2399		351.562500
2400		390.625000
2401		390.625000
2402		390.625000
2403		351.562500
2404		390.625000
2405		390.625000
2406		390.625000
2407		390.625000
2408		351.562500
2409		351.562500
2410		351.562500
2411		351.562500
2412		351.562500
2413		351.562500
2414		351.562500
2415		351.562500
2416		351.562500
2417		351.562500
2418		351.562500
2419		351.562500
2420		351.562500
2421		351.562500
2422		351.562500
2423		351.562500
2424		351.562500
2425		351.562500
2426		351.562500
2427		351.562500
2428		351.562500
2429		351.562500
2430		351.562500
2431		351.562500
2432		312.500000
2433		312.500000
2434		312.500000
2435		312.500000
2436		312.500000
2437		312.500000
2438		312.500000
2439		312.500000
2440		312.500000
2441		312.500000
2442		312.500000
2443		312.500000
2444		312.500000
2445		312.500000
2446		312.500000
2447		312.500000
2448		312.500000
2449		312.500000
2450		312.500000
2451		312.500000
2452		312.500000
2453		312.500000
2454		312.500000
2455		312.500000
2456		312.500000
2457		312.500000
2458		312.500000
2459		312.500000
2460		312.500000
2461		312.500000
2462		312.500000
2463		312.500000
2464		312.500000
2465		312.500000
2466		312.500000
2467		312.500000
2468		273.437500
2469		273.437500
2470		273.437500
2471		273.437500
2472		273.437500
2473		273.437500
2474		273.437500
2475		273.437500
2476		273.437500
2477		273.437500
2478		273.437500
2479		273.437500
2480		273.437500
2481		273.437500
2482		273.437500
2483		273.437500
2484		273.437500
2485		273.437500
2486		273.437500
2487		273.437500
2488		273.437500
2489		273.437500
2490		273.437500
2491		273.437500
2492		273.437500
2493		273.437500
2494		273.437500
2495		273.437500
2496		273.437500
2497		273.437500
2498		273.437500
2499		273.437500
2500		234.375000
2501		273.437500
2502		273.437500
2503		273.437500
2504		273.437500
2505		273.437500
2506		273.437500
2507		273.437500
2508		273.437500
2509		273.437500
2510		273.437500
2511		273.437500
2512		273.437500
2513		273.437500
2514		273.437500
2515		273.437500
2516		273.437500
2517		273.437500
2518		273.437500
2519		273.437500
2520		273.437500
2521		234.375000
2522		273.437500
2523		273.437500
2524		273.437500
2525		273.437500
2526		273.437500
2527		273.437500
2528		273.437500
2529		273.437500
2530		273.437500
2531		273.437500
2532		273.437500
2533		273.437500
2534		273.437500
2535		273.437500
2536		273.437500
2537		273.437500
2538		273.437500
2539		273.437500
2540		273.437500
2541		273.437500
2542		273.437500
2543		273.437500
2544		273.437500
2545		273.437500
2546		273.437500
2547		273.437500
2548		273.437500
2549		273.437500
2550		273.437500
2551		273.437500
2552		273.437500
2553		273.437500
2554		273.437500
2555		273.437500
2556		273.437500
2557		273.437500
2558		273.437500
2559		273.437500
2560		273.437500
2561		273.437500
2562		273.437500
2563		273.437500
2564		273.437500
2565		273.437500
2566		273.437500
2567		273.437500
2568		273.437500
2569		273.437500
2570		273.437500
2571		273.437500
2572		273.437500
2573		273.437500
2574		273.437500
2575		273.437500
2576		273.437500
2577		273.437500
2578		273.437500
2579		273.437500
2580		273.437500
2581		273.437500
2582		273.437500
2583		312.500000
2584		273.437500
2585		273.437500
2586		273.437500
2587		273.437500
2588		312.500000
2589		312.500000
2590		273.437500
2591		273.437500
2592		273.437500
2593		273.437500
2594		273.437500
2595		273.437500
2596		273.437500
2597		273.437500
2598		273.437500
2599		273.437500
2600		273.437500
2601		273.437500
2602		312.500000
2603		312.500000
2604		312.500000
2605		312.500000
2606		312.500000
2607		312.500000
2608		312.500000
2609		312.500000
2610		312.500000
2611		312.500000
2612		312.500000
2613		312.500000
2614		312.500000
2615		312.500000
2616		312.500000
2617		312.500000
2618		312.500000
2619		312.500000
2620		312.500000
2621		312.500000
2622		312.500000
2623		312.500000
2624		312.500000
2625		312.500000
2626		351.562500
2627		312.500000
2628		312.500000
2629		312.500000
2630		312.500000
2631		312.500000
2632		312.500000
2633		312.500000
2634		312.500000
2635		351.562500
2636		312.500000
2637		312.500000
2638		351.562500
2639		351.562500
2640		351.562500
2641		351.562500
2642		351.562500
2643		351.562500
2644		351.562500
2645		351.562500
2646		351.562500
2647		351.562500
2648		351.562500
2649		351.562500
2650		351.562500
2651		351.562500
2652		351.562500
2653		351.562500
2654		351.562500
2655		351.562500
2656		351.562500
2657		351.562500
2658		351.562500
2659		351.562500
2660		351.562500
2661		351.562500
2662		390.625000
2663		390.625000
2664		351.562500
2665		390.625000
2666		390.625000
2667		390.625000
2668		390.625000
2669		390.625000
2670		390.625000
2671		390.625000
2672		390.625000
2673		390.625000
2674		390.625000
2675		390.625000
2676		390.625000
2677		390.625000
2678		390.625000
2679		390.625000
2680		390.625000
2681		390.625000
2682		390.625000
2683		390.625000
2684		390.625000
2685		390.625000
2686		429.687500
2687		390.625000
2688		390.625000
2689		429.687500
2690		429.687500
2691		429.687500
2692		429.687500
2693		429.687500
2694		429.687500
2695		429.687500
2696		429.687500
2697		429.687500
2698		429.687500
2699		429.687500
2700		429.687500
2701		429.687500
2702		429.687500
2703		429.687500
2704		429.687500
2705		429.687500
2706		429.687500
2707		468.750000
2708		468.750000
2709		468.750000
2710		468.750000
2711		468.750000
2712		468.750000
2713		468.750000
2714		468.750000
2715		468.750000
2716		468.750000
2717		468.750000
2718		468.750000
2719		468.750000
2720		468.750000
2721		468.750000
2722		468.750000
2723		468.750000
2724		468.750000
2725		507.812500
2726		507.812500
2727		507.812500
2728		507.812500
2729		507.812500
2730		507.812500
2731		507.812500
2732		507.812500
2733		507.812500
2734		507.812500
2735		507.812500
2736		507.812500
2737		507.812500
2738		507.812500
2739		507.812500
2740		546.875000
2741		546.875000
2742		546.875000
2743		546.875000
2744		546.875000
2745		546.875000
2746		546.875000
2747		546.875000
2748		546.875000
2749		546.875000
2750		546.875000
2751		546.875000
2752		585.937500
2753		585.937500
2754		585.937500
2755		585.937500
2756		546.875000
2757		585.937500
2758		585.937500
2759		585.937500
2760		585.937500
2761		585.937500
2762		585.937500
2763		585.937500
2764		585.937500
2765		585.937500
2766		625.000000
2767		625.000000
2768		625.000000
2769		625.000000
2770		625.000000
2771		625.000000
2772		625.000000
2773		625.000000
2774		625.000000
2775		625.000000
2776		625.000000
2777		625.000000
2778		625.000000
2779		625.000000
2780		625.000000
2781		625.000000
2782		625.000000
2783		664.062500
2784		664.062500
2785		664.062500
2786		664.062500
2787		664.062500
2788		664.062500
2789		664.062500
2790		664.062500
2791		664.062500
2792		664.062500
2793		664.062500
2794		664.062500
2795		664.062500
2796		703.125000
2797		703.125000
2798		703.125000
2799		703.125000
2800		703.125000
2801		703.125000
2802		703.125000
2803		703.125000
2804		703.125000
2805		742.187500
2806		742.187500
2807		742.187500
2808		742.187500
2809		742.187500
2810		742.187500
2811		742.187500
2812		742.187500
2813		742.187500
2814		742.187500
2815		742.187500
2816		781.250000
2817		742.187500
2818		781.250000
2819		781.250000
2820		781.250000
2821		781.250000
2822		781.250000
2823		781.250000
2824		781.250000
2825		781.250000
2826		820.312500
2827		820.312500
2828		820.312500
2829		820.312500
2830		820.312500
2831		820.312500
2832		820.312500
2833		820.312500
2834		820.312500
2835		820.312500
2836		820.312500
2837		820.312500
2838		820.312500
2839		859.375000
2840		859.375000
2841		859.375000
2842		859.375000
2843		859.375000
2844		859.375000
2845		859.375000
2846		859.375000
2847		859.375000
2848		859.375000
2849		898.437500
2850		898.437500
2851		898.437500
2852		898.437500
2853		898.437500
2854		898.437500
2855		898.437500
2856		898.437500
2857		898.437500
2858		898.437500
2859		937.500000
2860		937.500000
2861		937.500000
2862		937.500000
2863		937.500000
2864		937.500000
2865		937.500000
2866		937.500000
2867		976.562500
2868		976.562500
2869		937.500000
2870		976.562500
2871		976.562500
2872		976.562500
2873		976.562500
2874		976.562500
2875		976.562500
2876		976.562500
2877		976.562500
2878		1015.625000
2879		1015.625000
2880		1015.625000
2881		1015.625000
2882		1015.625000
2883		1015.625000
2884		1015.625000
2885		1015.625000
2886		1015.625000
2887		1054.687500
2888		1054.687500
2889		1054.687500
2890		1054.687500
2891		1054.687500
2892		1054.687500
2893		1054.687500
2894		1054.687500
2895		1054.687500
2896		1054.687500
2897		1093.750000
2898		1093.750000
2899		1093.750000
2900		1093.750000
2901		1093.750000
2902		1093.750000
2903		1093.750000
2904		1093.750000
2905		1093.750000
2906		1132.812500
2907		1132.812500
2908		1132.812500
2909		1132.812500
2910		1132.812500
2911		1132.812500
2912		1132.812500
2913		1132.812500
2914		1171.875000
2915		1171.875000
2916		1171.875000
2917		1171.875000
2918		1171.875000
2919		1171.875000
2920		1171.875000
2921		1171.875000
2922		1171.875000
2923		1171.875000
2924		1210.937500
2925		1210.937500
2926		1210.937500
2927		1210.937500
2928		1210.937500
2929		1210.937500
2930		1250.000000
2931		1250.000000
2932		1250.000000
2933		1250.000000
2934		1250.000000
2935		1250.000000
2936		1250.000000
2937		1250.000000
2938		1250.000000
2939		1250.000000
2940		1289.062500
2941		1289.062500
2942		1289.062500
2943		1289.062500
2944		1289.062500
2945		1289.062500
2946		1328.125000
2947		1328.125000
2948		1328.125000
2949		1328.125000
2950		1328.125000
2951		1328.125000
2952		1328.125000
2953		1328.125000
2954		1328.125000
2955		1328.125000
2956		1328.125000
2957		1367.187500
2958		1367.187500
2959		1367.187500
2960		1367.187500
2961		1367.187500
2962		1367.187500
2963		1406.250000
2964		1406.250000
2965		1406.250000
2966		1406.250000
2967		1406.250000
2968		1406.250000
2969		1406.250000
2970		1445.312500
2971		1406.250000
2972		1445.312500
2973		1445.312500
2974		1445.312500
2975		1445.312500
2976		1445.312500
2977		1445.312500
2978		1445.312500
2979		1445.312500
2980		1484.375000
2981		1484.375000
2982		1484.375000
2983		1484.375000
2984		1484.375000
2985		1484.375000
2986		1523.437500
2987		1523.437500
2988		1523.437500
2989		1523.437500
2990		1523.437500
2991		1523.437500
2992		1523.437500
2993		1523.437500
2994		1523.437500
2995		1562.500000
2996		1562.500000
2997		1562.500000
2998		1562.500000
2999		1562.500000
3000		1562.500000
3001		1562.500000
3002		1601.562500
3003		1601.562500
3004		1601.562500
3005		1601.562500
3006		1601.562500
3007		1601.562500
3008		1601.562500
3009		1601.562500
3010		1640.625000
3011		1640.625000
3012		1640.625000
3013		1640.625000
3014		1640.625000
3015		1640.625000
3016		1640.625000
3017		1640.625000
3018		1679.687500
3019		1679.687500
3020		1679.687500
3021		1679.687500
3022		1679.687500
3023		1679.687500
3024		1718.750000
3025		1718.750000
3026		1718.750000
3027		1718.750000
3028		1718.750000
3029		1718.750000
3030		1718.750000
3031		1757.812500
3032		1757.812500
3033		1757.812500
3034		1757.812500
3035		1757.812500
3036		1757.812500
3037		1757.812500
3038		1757.812500
3039		1796.875000
3040		1796.875000
3041		1796.875000
3042		1796.875000
3043		1796.875000
3044		1796.875000
3045		1796.875000
3046		1835.937500
3047		1835.937500
3048		1835.937500
3049		1835.937500
3050		1835.937500
3051		1835.937500
3052		1835.937500
3053		1875.000000
3054		1875.000000
3055		1875.000000
3056		1875.000000
3057		1875.000000
3058		1875.000000
3059		1875.000000
3060		1875.000000
3061		1914.062500
3062		1914.062500
3063		1914.062500
3064		1914.062500
3065		1914.062500
3066		1914.062500
3067		1914.062500
3068		1914.062500
3069		1953.125000
3070		1953.125000
3071		1953.125000
3072		1953.125000
3073		1953.125000
3074		1953.125000
3075		1992.187500
3076		1992.187500
3077		1992.187500
3078		1992.187500
3079		1992.187500
3080		1992.187500
3081		1992.187500
3082		1992.187500
3083		1992.187500
3084		2031.250000
3085		2031.250000
3086		2031.250000
3087		2031.250000
3088		2031.250000
3089		2031.250000
3090		2070.312500
3091		2070.312500
3092		2070.312500
3093		2070.312500
3094		2070.312500
3095		2070.312500
3096		2070.312500
3097		2070.312500
3098		2070.312500
3099		2109.375000
3100		2109.375000
3101		2070.312500
3102		2109.375000
3103		2109.375000
3104		2109.375000
3105		2109.375000
3106		2148.437500
3107		2148.437500
3108		2148.437500
3109		2148.437500
3110		2148.437500
3111		2148.437500
3112		2148.437500
3113		2148.437500
3114		2187.500000
3115		2187.500000
3116		2187.500000
3117		2187.500000
3118		2187.500000
3119		2187.500000
3120		2187.500000
3121		2187.500000
3122		2187.500000
3123		2226.562500
3124		2226.562500
3125		2226.562500
3126		2226.562500
3127		2226.562500
3128		2226.562500
3129		2265.625000
3130		2265.625000
3131		2265.625000
3132		2265.625000
3133		2265.625000
3134		2265.625000
3135		2265.625000
3136		2265.625000
3137		2265.625000
3138		2265.625000
3139		2265.625000
3140		2304.687500
3141		2304.687500
3142		2304.687500
3143		2304.687500
3144		2304.687500
3145		2304.687500
3146		2343.750000
3147		2343.750000
3148		2343.750000
3149		2343.750000
3150		2343.750000
3151		2343.750000
3152		2343.750000
3153		2343.750000
3154		2343.750000
3155		2343.750000
3156		2382.812500
3157		2382.812500
3158		2382.812500
3159		2382.812500
3160		2382.812500
3161		2382.812500
3162		2382.812500
3163		2421.875000
3164		2421.875000
3165		2421.875000
3166		2421.875000
3167		2421.875000
3168		2421.875000
3169		2421.875000
3170		2421.875000
3171		2460.937500
3172		2460.937500
3173		2421.875000
3174		2460.937500
3175		2460.937500
3176		2460.937500
3177		2460.937500
3178		2460.937500
3179		2460.937500
3180		2460.937500
3181		2460.937500
3182		2500.000000
3183		2500.000000
3184		2500.000000
3185		2500.000000
3186		2500.000000
3187		2500.000000
3188		2500.000000
3189		2500.000000
3190		2539.062500
3191		2500.000000
3192		2539.062500
3193		2539.062500
3194		2539.062500
3195		2539.062500
3196		2539.062500
3197		2539.062500
3198		2539.062500
3199		2539.062500
3200		2539.062500
3201		2578.125000
3202		2578.125000
3203		2578.125000
3204		2578.125000
3205		2578.125000
3206		2578.125000
3207		2578.125000
3208		2578.125000
3209		2578.125000
3210		2578.125000
3211		2578.125000
3212		2617.187500
3213		2617.187500
3214		2617.187500
3215		2617.187500
3216		2617.187500
3217		2617.187500
3218		2617.187500
3219		2617.187500
3220		2617.187500
3221		2617.187500
3222		2656.250000
3223		2656.250000
3224		2656.250000
3225		2656.250000
3226		2656.250000
3227		2656.250000
3228		2656.250000
3229		2656.250000
3230		2656.250000
3231		2656.250000
3232		2656.250000
3233		2656.250000
3234		2656.250000
3235		2695.312500
3236		2695.312500
3237		2695.312500
3238		2695.312500
3239		2695.312500
3240		2695.312500
3241		2695.312500
3242		2695.312500
3243		2695.312500
3244		2695.312500
3245		2695.312500
3246		2695.312500
3247		2734.375000
3248		2734.375000
3249		2734.375000
3250		2734.375000
3251		2734.375000
3252		2734.375000
3253		2734.375000
3254		2734.375000
3255		2734.375000
3256		2734.375000
3257		2734.375000
3258		2734.375000
3259		2734.375000
3260		2734.375000
3261		2734.375000
3262		2734.375000
3263		2734.375000
3264		2734.375000
3265		2773.437500
3266		2773.437500
3267		2773.437500
3268		2773.437500
3269		2773.437500
3270		2773.437500
3271		2773.437500
3272		2773.437500
3273		2773.437500
3274		2773.437500
3275		2773.437500
3276		2773.437500
3277		2773.437500
3278		2773.437500
3279		2773.437500
3280		2773.437500
3281		2773.437500
3282		2773.437500
3283		2773.437500
3284		2812.500000
3285		2812.500000
3286		2812.500000
3287		2812.500000
3288		2812.500000
3289		2812.500000
3290		2812.500000
3291		2812.500000
3292		2812.500000
3293		2773.437500
3294		2812.500000
3295		2812.500000
3296		2812.500000
3297		2812.500000
3298		2812.500000
3299		2812.500000
3300		2812.500000
3301		2812.500000
3302		2812.500000
3303		2812.500000
3304		2851.562500
3305		2851.562500
3306		2812.500000
3307		2851.562500
3308		2851.562500
3309		2851.562500
3310		2851.562500
3311		2851.562500
3312		2851.562500
3313		2851.562500
3314		2851.562500
3315		2851.562500
3316		2851.562500
3317		2851.562500
3318		2812.500000
3319		2851.562500
3320		2851.562500
3321		2851.562500
3322		2851.562500
3323		2851.562500
3324		2851.562500
3325		2851.562500
3326		2851.562500
3327		2851.562500
3328		2851.562500
3329		2851.562500
3330		2851.562500
3331		2890.625000
3332		2851.562500
3333		2851.562500
3334		2851.562500
3335		2851.562500
3336		2851.562500
3337		2851.562500
3338		2851.562500
3339		2851.562500
3340		2851.562500
3341		2851.562500
3342		2851.562500
3343		2851.562500
3344		2851.562500
3345		2851.562500
3346		2890.625000
3347		2851.562500
3348		2851.562500
3349		2851.562500
3350		2851.562500
3351		2851.562500
3352		2851.562500
3353		2851.562500
3354		2851.562500
3355		2851.562500
3356		2851.562500
3357		2851.562500
3358		2851.562500
3359		2851.562500
3360		2851.562500
3361		2851.562500
3362		2851.562500
3363		2851.562500
3364		2851.562500
3365		2851.562500
3366		2851.562500
3367		2851.562500
3368		2851.562500
3369		2851.562500
3370		2851.562500
3371		2851.562500
3372		2851.562500
3373		2851.562500
3374		2851.562500
3375		2851.562500
3376		2851.562500
3377		2851.562500
3378		2851.562500
3379		2851.562500
3380		2851.562500
3381		2851.562500
3382		2851.562500
3383		2851.562500
3384		2851.562500
3385		2851.562500
3386		2851.562500
3387		2851.562500
3388		2851.562500
3389		2851.562500
3390		2812.500000
3391		2851.562500
3392		2812.500000
3393		2812.500000
3394		2812.500000
3395		2812.500000
3396		2812.500000
3397		2812.500000
3398		2812.500000
3399		2812.500000
3400		2812.500000
3401		2812.500000
3402		2812.500000
3403		2812.500000
3404		2812.500000
3405		2812.500000
3406		2812.500000
3407		2812.500000
3408		2812.500000
3409		2812.500000
3410		2812.500000
3411		2812.500000
3412		2812.500000
3413		2773.437500
3414		2773.437500
3415		2812.500000
3416		2773.437500
3417		2773.437500
3418		2773.437500
3419		2773.437500
3420		2773.437500
3421		2773.437500
3422		2773.437500
3423		2773.437500
3424		2773.437500
3425		2773.437500
3426		2773.437500
3427		2773.437500
3428		2773.437500
3429		2773.437500
3430		2773.437500
3431		2734.375000
3432		2734.375000
3433		2734.375000
3434		2734.375000
3435		2734.375000
3436		2734.375000
3437		2734.375000
3438		2734.375000
3439		2734.375000
3440		2734.375000
3441		2695.312500
3442		2734.375000
3443		2734.375000
3444		2734.375000
3445		2734.375000
3446		2734.375000
3447		2695.312500
3448		2695.312500
3449		2695.312500
3450		2695.312500
3451		2695.312500
3452		2695.312500
3453		2695.312500
3454		2695.312500
3455		2695.312500
3456		2695.312500
3457		2695.312500
3458		2695.312500
3459		2695.312500
3460		2656.250000
3461		2656.250000
3462		2656.250000
3463		2656.250000
3464		2656.250000
3465		2656.250000
3466		2656.250000
3467		2656.250000
3468		2656.250000
3469		2656.250000
3470		2656.250000
3471		2656.250000
3472		2656.250000
3473		2656.250000
3474		2656.250000
3475		2617.187500
3476		2617.187500
3477		2617.187500
3478		2617.187500
3479		2617.187500
3480		2617.187500
3481		2617.187500
3482		2578.125000
3483		2578.125000
3484		2578.125000
3485		2617.187500
3486		2578.125000
3487		2578.125000
3488		2578.125000
3489		2578.125000
3490		2578.125000
3491		2578.125000
3492		2578.125000
3493		2578.125000
3494		2578.125000
3495		2539.062500
3496		2539.062500
3497		2539.062500
3498		2539.062500
3499		2539.062500
3500		2539.062500
3501		2539.062500
3502		2539.062500
3503		2539.062500
3504		2539.062500
3505		2500.000000
3506		2539.062500
3507		2539.062500
3508		2500.000000
3509		2500.000000
3510		2500.000000
3511		2500.000000
3512		2500.000000
3513		2500.000000
3514		2500.000000
3515		2460.937500
3516		2460.937500
3517		2460.937500
3518		2460.937500
3519		2460.937500
3520		2460.937500
3521		2460.937500
3522		2460.937500
3523		2460.937500
3524		2460.937500
3525		2460.937500
3526		2421.875000
3527		2421.875000
3528		2421.875000
3529		2421.875000
3530		2421.875000
3531		2421.875000
3532		2421.875000
3533		2421.875000
3534		2421.875000
3535		2382.812500
3536		2382.812500
3537		2382.812500
3538		2382.812500
3539		2382.812500
3540		2382.812500
3541		2382.812500
3542		2382.812500
3543		2382.812500
3544		2343.750000
3545		2343.750000
3546		2343.750000
3547		2343.750000
3548		2343.750000
3549		2343.750000
3550		2343.750000
3551		2343.750000
3552		2304.687500
3553		2304.687500
3554		2304.687500
3555		2304.687500
3556		2304.687500
3557		2304.687500
3558		2265.625000
3559		2265.625000
3560		2265.625000
3561		2265.625000
3562		2265.625000
3563		2265.625000
3564		2265.625000
3565		2265.625000
3566		2265.625000
3567		2265.625000
3568		2265.625000
3569		2226.562500
3570		2226.562500
3571		2226.562500
3572		2226.562500
3573		2226.562500
3574		2187.500000
3575		2187.500000
3576		2187.500000
3577		2187.500000
3578		2187.500000
3579		2187.500000
3580		2187.500000
3581		2187.500000
3582		2187.500000
3583		2187.500000
3584		2187.500000
3585		2187.500000
3586		2148.437500
3587		2148.437500
3588		2148.437500
3589		2148.437500
3590		2148.437500
3591		2148.437500
3592		2109.375000
3593		2109.375000
3594		2109.375000
3595		2109.375000
3596		2109.375000
3597		2109.375000
3598		2109.375000
3599		2109.375000
3600		2070.312500
3601		2070.312500
3602		2070.312500
3603		2070.312500
3604		2070.312500
3605		2070.312500
3606		2070.312500
3607		2070.312500
3608		2031.250000
3609		2031.250000
3610		2031.250000
3611		2031.250000
3612		2031.250000
3613		2031.250000
3614		2031.250000
3615		1992.187500
3616		1992.187500
3617		1992.187500
3618		1992.187500
3619		1992.187500
3620		1992.187500
3621		1992.187500
3622		1992.187500
3623		1992.187500
3624		1953.125000
3625		1953.125000
3626		1953.125000
3627		1953.125000
3628		1953.125000
3629		1953.125000
3630		1953.125000
3631		1953.125000
3632		1914.062500
3633		1914.062500
3634		1914.062500
3635		1914.062500
3636		1914.062500
3637		1914.062500
3638		1914.062500
3639		1875.000000
3640		1875.000000
3641		1875.000000
3642		1875.000000
3643		1875.000000
3644		1875.000000
3645		1875.000000
3646		1835.937500
3647		1875.000000
3648		1835.937500
3649		1835.937500
3650		1835.937500
3651		1835.937500
3652		1835.937500
3653		1835.937500
3654		1796.875000
3655		1796.875000
3656		1796.875000
3657		1796.875000
3658		1796.875000
3659		1796.875000
3660		1757.812500
3661		1796.875000
3662		1757.812500
3663		1757.812500
3664		1757.812500
3665		1757.812500
3666		1757.812500
3667		1757.812500
3668		1757.812500
3669		1718.750000
3670		1718.750000
3671		1718.750000
3672		1718.750000
3673		1718.750000
3674		1718.750000
3675		1718.750000
3676		1679.687500
3677		1679.687500
3678		1679.687500
3679		1679.687500
3680		1679.687500
3681		1679.687500
3682		1679.687500
3683		1679.687500
3684		1640.625000
3685		1640.625000
3686		1640.625000
3687		1640.625000
3688		1640.625000
3689		1640.625000
3690		1640.625000
3691		1640.625000
3692		1640.625000
3693		1601.562500
3694		1601.562500
3695		1601.562500
3696		1601.562500
3697		1562.500000
3698		1562.500000
3699		1562.500000
3700		1562.500000
3701		1562.500000
3702		1562.500000
3703		1562.500000
3704		1562.500000
3705		1562.500000
3706		1562.500000
3707		1562.500000
3708		1523.437500
3709		1523.437500
3710		1523.437500
3711		1523.437500
3712		1523.437500
3713		1523.437500
3714		1484.375000
3715		1484.375000
3716		1484.375000
3717		1484.375000
3718		1484.375000
3719		1484.375000
3720		1484.375000
3721		1484.375000
3722		1445.312500
3723		1445.312500
3724		1445.312500
3725		1445.312500
3726		1445.312500
3727		1445.312500
3728		1445.312500
3729		1445.312500
3730		1445.312500
3731		1406.250000
3732		1406.250000
3733		1406.250000
3734		1406.250000
3735		1406.250000
3736		1406.250000
3737		1367.187500
3738		1367.187500
3739		1367.187500
3740		1367.187500
3741		1367.187500
3742		1367.187500
3743		1367.187500
3744		1367.187500
3745		1367.187500
3746		1367.187500
3747		1328.125000
3748		1328.125000
3749		1328.125000
3750		1328.125000
3751		1328.125000
3752		1328.125000
3753		1328.125000
3754		1289.062500
3755		1289.062500
3756		1289.062500
3757		1289.062500
3758		1289.062500
3759		1289.062500
3760		1289.062500
3761		1289.062500
3762		1289.062500
3763		1289.062500
3764		1250.000000
3765		1250.000000
3766		1250.000000
3767		1250.000000
3768		1250.000000
3769		1250.000000
3770		1210.937500
3771		1210.937500
3772		1210.937500
3773		1210.937500
3774		1210.937500
3775		1210.937500
3776		1171.875000
3777		1210.937500
3778		1210.937500
3779		1171.875000
3780		1210.937500
3781		1171.875000
3782		1171.875000
3783		1171.875000
3784		1171.875000
3785		1171.875000
3786		1171.875000
3787		1171.875000
3788		1132.812500
3789		1132.812500
3790		1132.812500
3791		1132.812500
3792		1132.812500
3793		1132.812500
3794		1132.812500
3795		1132.812500
3796		1132.812500
3797		1132.812500
3798		1093.750000
3799		1093.750000
3800		1093.750000
3801		1093.750000
3802		1093.750000
3803		1093.750000
3804		1093.750000
3805		1093.750000
3806		1054.687500
3807		1093.750000
3808		1054.687500
3809		1054.687500
3810		1054.687500
3811		1054.687500
3812		1054.687500
3813		1054.687500
3814		1054.687500
3815		1054.687500
3816		1015.625000
3817		1015.625000
3818		1015.625000
3819		1015.625000
3820		1015.625000
3821		1015.625000
3822		1015.625000
3823		1015.625000
3824		976.562500
3825		1015.625000
3826		976.562500
3827		976.562500
3828		976.562500
3829		976.562500
3830		976.562500
3831		976.562500
3832		976.562500
3833		976.562500
3834		976.562500
3835		937.500000
3836		976.562500
3837		937.500000
3838		937.500000
3839		937.500000
3840		937.500000
3841		937.500000
3842		937.500000
3843		937.500000
3844		898.437500
3845		898.437500
3846		898.437500
3847		898.437500
3848		898.437500
3849		898.437500
3850		898.437500
3851		898.437500
3852		898.437500
3853		898.437500
3854		898.437500
3855		859.375000
3856		859.375000
3857		859.375000
3858		859.375000
3859		859.375000
3860		859.375000
3861		859.375000
3862		859.375000
3863		859.375000
3864		859.375000
3865		820.312500
3866		820.312500
3867		820.312500
3868		820.312500
3869		820.312500
3870		820.312500
3871		820.312500
3872		820.312500
3873		820.312500
3874		781.250000
3875		781.250000
3876		781.250000
3877		781.250000
3878		781.250000
3879		781.250000
3880		781.250000
3881		781.250000
3882		781.250000
3883		781.250000
3884		781.250000
3885		781.250000
3886		781.250000
3887		781.250000
3888		781.250000
3889		742.187500
3890		742.187500
3891		742.187500
3892		742.187500
3893		703.125000
3894		742.187500
3895		742.187500
3896		703.125000
3897		703.125000
3898		703.125000
3899		703.125000
3900		703.125000
3901		703.125000
3902		703.125000
3903		703.125000
3904		703.125000
3905		703.125000
3906		703.125000
3907		703.125000
3908		703.125000
3909		703.125000
3910		703.125000
3911		664.062500
3912		664.062500
3913		664.062500
3914		664.062500
3915		664.062500
3916		664.062500
3917		664.062500
3918		664.062500
3919		664.062500
3920		664.062500
3921		664.062500
3922		664.062500
3923		625.000000
3924		664.062500
3925		664.062500
3926		664.062500
3927		625.000000
3928		625.000000
3929		625.000000
3930		625.000000
3931		625.000000
3932		625.000000
3933		625.000000
3934		625.000000
3935		625.000000
3936		585.937500
3937		585.937500
3938		585.937500
3939		585.937500
3940		585.937500
3941		585.937500
3942		585.937500
3943		585.937500
3944		585.937500
3945		585.937500
3946		585.937500
3947		585.937500
3948		585.937500
3949		585.937500
3950		585.937500
3951		546.875000
3952		546.875000
3953		546.875000
3954		546.875000
3955		546.875000
3956		546.875000
3957		546.875000
3958		546.875000
3959		546.875000
3960		546.875000
3961		546.875000
3962		546.875000
3963		546.875000
3964		546.875000
3965		546.875000
3966		507.812500
3967		546.875000
3968		507.812500
3969		507.812500
3970		507.812500
3971		507.812500
3972		507.812500
3973		507.812500
3974		507.812500
3975		507.812500
3976		507.812500
3977		507.812500
3978		507.812500
3979		507.812500
3980		507.812500
3981		507.812500
3982		507.812500
3983		507.812500
3984		468.750000
3985		468.750000
3986		468.750000
3987		468.750000
3988		468.750000
3989		468.750000
3990		468.750000
3991		468.750000
3992		468.750000
3993		468.750000
3994		468.750000
3995		468.750000
3996		468.750000
3997		468.750000
3998		468.750000
3999		468.750000
4000		468.750000
4001		429.687500
4002		429.687500
4003		468.750000
4004		429.687500
4005		429.687500
4006		429.687500
4007		429.687500
4008		429.687500
4009		429.687500
4010		429.687500
4011		429.687500
4012		429.687500
4013		429.687500
4014		429.687500
4015		429.687500
4016		429.687500
4017		429.687500
4018		429.687500
4019		390.625000
4020		390.625000
4021		390.625000
4022		390.625000
4023		390.625000
4024		390.625000
4025		390.625000
4026		390.625000
4027		390.625000
4028		390.625000
4029		390.625000
4030		390.625000
4031		390.625000
4032		390.625000
4033		390.625000
4034		390.625000
4035		390.625000
4036		390.625000
4037		390.625000
4038		390.625000
4039		390.625000
4040		351.562500
4041		351.562500
4042		351.562500
4043		351.562500
4044		390.625000
4045		351.562500
4046		351.562500
4047		351.562500
4048		351.562500
4049		351.562500
4050		351.562500
4051		351.562500
4052		351.562500
4053		351.562500
4054		351.562500
4055		351.562500
4056		312.500000
4057		351.562500
4058		351.562500
4059		351.562500
4060		351.562500
4061		351.562500
4062		312.500000
4063		351.562500
4064		351.562500
4065		312.500000
4066		351.562500
4067		351.562500
4068		351.562500
4069		351.562500
4070		351.562500
4071		312.500000
4072		351.562500
4073		312.500000
4074		312.500000
4075		312.500000
4076		312.500000
4077		312.500000
4078		312.500000
4079		312.500000
4080		312.500000
4081		312.500000
4082		312.500000
4083		312.500000
4084		312.500000
4085		312.500000
4086		312.500000
4087		312.500000
4088		312.500000
4089		273.437500
4090		312.500000
4091		312.500000
4092		312.500000
4093		312.500000
4094		273.437500
4095		273.437500
4096		273.437500
4097		273.437500
4098		273.437500
4099		273.437500
4100		273.437500
4101		273.437500
4102		273.437500
4103		273.437500
4104		273.437500
4105		312.500000
4106		312.500000
4107		312.500000
4108		312.500000
4109		273.437500
4110		273.437500
4111		273.437500
4112		273.437500
4113		273.437500
4114		273.437500
4115		273.437500
4116		273.437500
4117		273.437500
4118		273.437500
4119		273.437500
4120		273.437500
4121		273.437500
4122		273.437500
4123		273.437500
4124		273.437500
4125		273.437500
4126		273.437500
4127		273.437500
4128		273.437500
4129		273.437500
4130		273.437500
4131		273.437500
4132		273.437500
4133		273.437500
4134		273.437500
4135		273.437500
4136		273.437500
4137		273.437500
4138		273.437500
4139		273.437500
4140		273.437500
4141		273.437500
4142		273.437500
4143		273.437500
4144		273.437500
4145		273.437500
4146		273.437500
4147		273.437500
4148		273.437500
4149		273.437500
4150		273.437500
4151		273.437500
4152		273.437500
4153		234.375000
4154		234.375000
4155		273.437500
4156		273.437500
4157		234.375000
4158		234.375000
4159		273.437500
4160		273.437500
4161		273.437500
4162		273.437500
4163		273.437500
4164		273.437500
4165		273.437500
4166		273.437500
4167		273.437500
4168		273.437500
4169		234.375000
4170		273.437500
4171		234.375000
4172		234.375000
4173		234.375000
4174		234.375000
4175		234.375000
4176		273.437500
4177		234.375000
4178		234.375000
4179		234.375000
4180		234.375000
4181		234.375000
4182		234.375000
4183		234.375000
4184		234.375000
4185		234.375000
4186		234.375000
4187		273.437500
4188		234.375000
4189		234.375000
4190		234.375000
4191		273.437500
4192		234.375000
4193		273.437500
4194		234.375000
4195		234.375000
4196		234.375000
4197		234.375000
4198		273.437500
4199		234.375000
4200		234.375000
4201		234.375000
4202		234.375000
4203		273.437500
4204		273.437500
4205		273.437500
4206		234.375000
4207		273.437500
4208		273.437500
4209		273.437500
4210		273.437500
4211		273.437500
4212		273.437500
4213		273.437500
4214		273.437500
4215		273.437500
4216		273.437500
4217		273.437500
4218		273.437500
4219		273.437500
4220		273.437500
4221		273.437500
4222		273.437500
4223		273.437500
4224		273.437500
4225		273.437500
4226		273.437500
4227		273.437500
4228		273.437500
4229		273.437500
4230		273.437500
4231		273.437500
4232		273.437500
4233		273.437500
4234		273.437500
4235		273.437500
4236		273.437500
4237		273.437500
4238		273.437500
4239		273.437500
4240		273.437500
4241		273.437500
4242		273.437500
4243		273.437500
4244		273.437500
4245		273.437500
4246		273.437500
4247		273.437500
4248		273.437500
4249		273.437500
4250		273.437500
4251		273.437500
4252		273.437500
4253		273.437500
4254		273.437500
4255		273.437500
4256		273.437500
4257		273.437500
4258		273.437500
4259		273.437500
4260		273.437500
4261		273.437500
4262		312.500000
4263		312.500000
4264		312.500000
4265		312.500000
4266		312.500000
4267		312.500000
4268		312.500000
4269		312.500000
4270		312.500000
4271		312.500000
4272		312.500000
4273		312.500000
4274		312.500000
4275		312.500000
4276		312.500000
4277		312.500000
4278		312.500000
4279		312.500000
4280		312.500000
4281		312.500000
4282		312.500000
4283		312.500000
4284		312.500000
4285		312.500000
4286		312.500000
4287		312.500000
4288		312.500000
4289		312.500000
4290		312.500000
4291		312.500000
4292		312.500000
4293		312.500000
4294		312.500000
4295		312.500000
4296		312.500000
4297		312.500000
4298		312.500000
4299		351.562500
4300		351.562500
4301		351.562500
4302		351.562500
4303		351.562500
4304		351.562500
4305		351.562500
4306		351.562500
4307		351.562500
4308		351.562500
4309		351.562500
4310		351.562500
4311		351.562500
4312		351.562500
4313		351.562500
4314		351.562500
4315		351.562500
4316		351.562500
4317		351.562500
4318		351.562500
4319		351.562500
4320		390.625000
4321		390.625000
4322		390.625000
4323		390.625000
4324		390.625000
4325		390.625000
4326		390.625000
4327		390.625000
4328		390.625000
4329		390.625000
4330		390.625000
4331		390.625000
4332		390.625000
4333		390.625000
4334		390.625000
4335		390.625000
4336		390.625000
4337		390.625000
4338		390.625000
4339		390.625000
4340		390.625000
4341		429.687500
4342		429.687500
4343		429.687500
4344		429.687500
4345		390.625000
4346		429.687500
4347		429.687500
4348		429.687500
4349		429.687500
4350		429.687500
4351		429.687500
4352		429.687500
4353		429.687500
4354		429.687500
4355		429.687500
4356		429.687500
4357		429.687500
4358		429.687500
4359		429.687500
4360		429.687500
4361		468.750000
4362		468.750000
4363		468.750000
4364		468.750000
4365		468.750000
4366		468.750000
4367		468.750000
4368		468.750000
4369		468.750000
4370		468.750000
4371		468.750000
4372		468.750000
4373		468.750000
4374		468.750000
4375		468.750000
4376		468.750000
4377		507.812500
4378		468.750000
4379		507.812500
4380		507.812500
4381		468.750000
4382		507.812500
4383		507.812500
4384		507.812500
4385		507.812500
4386		507.812500
4387		507.812500
4388		507.812500
4389		507.812500
4390		546.875000
4391		546.875000
4392		546.875000
4393		546.875000
4394		546.875000
4395		546.875000
4396		546.875000
4397		546.875000
4398		546.875000
4399		546.875000
4400		546.875000
4401		546.875000
4402		546.875000
4403		546.875000
4404		546.875000
4405		546.875000
4406		546.875000
4407		585.937500
4408		585.937500
4409		546.875000
4410		546.875000
4411		585.937500
4412		585.937500
4413		585.937500
4414		585.937500
4415		585.937500
4416		585.937500
4417		585.937500
4418		585.937500
4419		585.937500
4420		585.937500
4421		585.937500
4422		625.000000
4423		625.000000
4424		625.000000
4425		625.000000
4426		625.000000
4427		625.000000
4428		625.000000
4429		625.000000
4430		625.000000
4431		625.000000
4432		664.062500
4433		664.062500
4434		664.062500
4435		664.062500
4436		664.062500
4437		664.062500
4438		664.062500
4439		664.062500
4440		664.062500
4441		664.062500
4442		664.062500
4443		664.062500
4444		703.125000
4445		664.062500
4446		703.125000
4447		703.125000
4448		703.125000
4449		703.125000
4450		703.125000
4451		703.125000
4452		703.125000
4453		703.125000
4454		703.125000
4455		742.187500
4456		703.125000
4457		703.125000
4458		742.187500
4459		742.187500
4460		742.187500
4461		742.187500
4462		742.187500
4463		742.187500
4464		742.187500
4465		781.250000
4466		742.187500
4467		781.250000
4468		781.250000
4469		781.250000
4470		781.250000
4471		781.250000
4472		781.250000
4473		781.250000
4474		781.250000
4475		781.250000
4476		781.250000
4477		781.250000
4478		781.250000
4479		820.312500
4480		820.312500
4481		820.312500
4482		820.312500
4483		820.312500
4484		820.312500
4485		859.375000
4486		859.375000
4487		859.375000
4488		859.375000
4489		859.375000
4490		859.375000
4491		859.375000
4492		859.375000
4493		859.375000
4494		859.375000
4495		859.375000
4496		859.375000
4497		859.375000
4498		859.375000
4499		859.375000
4500		898.437500
4501		859.375000
4502		898.437500
4503		898.437500
4504		898.437500
4505		898.437500
4506		898.437500
4507		937.500000
4508		937.500000
4509		937.500000
4510		937.500000
4511		937.500000
4512		937.500000
4513		937.500000
4514		937.500000
4515		937.500000
4516		937.500000
4517		937.500000
4518		976.562500
4519		976.562500
4520		976.562500
4521		976.562500
4522		976.562500
4523		976.562500
4524		976.562500
4525		976.562500
4526		976.562500
4527		1015.625000
4528		1015.625000
4529		1015.625000
4530		1015.625000
4531		1015.625000
4532		1015.625000
4533		1015.625000
4534		1015.625000
4535		1015.625000
4536		1015.625000
4537		1015.625000
4538		1054.687500
4539		1054.687500
4540		1054.687500
4541		1054.687500
4542		1054.687500
4543		1054.687500
4544		1054.687500
4545		1054.687500
4546		1093.750000
4547		1093.750000
4548		1093.750000
4549		1093.750000
4550		1093.750000
4551		1093.750000
4552		1093.750000
4553		1093.750000
4554		1093.750000
4555		1132.812500
4556		1132.812500
4557		1132.812500
4558		1132.812500
4559		1132.812500
4560		1132.812500
4561		1132.812500
4562		1171.875000
4563		1171.875000
4564		1171.875000
4565		1171.875000
4566		1171.875000
4567		1171.875000
4568		1171.875000
4569		1171.875000
4570		1171.875000
4571		1171.875000
4572		1210.937500
4573		1210.937500
4574		1210.937500
4575		1210.937500
4576		1210.937500
4577		1210.937500
4578		1210.937500
4579		1210.937500
4580		1210.937500
4581		1250.000000
4582		1250.000000
4583		1250.000000
4584		1250.000000
4585		1250.000000
4586		1250.000000
4587		1250.000000
4588		1289.062500
4589		1289.062500
4590		1289.062500
4591		1289.062500
4592		1289.062500
4593		1289.062500
4594		1289.062500
4595		1289.062500
4596		1328.125000
4597		1289.062500
4598		1328.125000
4599		1328.125000
4600		1328.125000
4601		1328.125000
4602		1328.125000
4603		1328.125000
4604		1367.187500
4605		1367.187500
4606		1367.187500
4607		1367.187500
4608		1367.187500
4609		1367.187500
4610		1367.187500
4611		1367.187500
4612		1406.250000
4613		1406.250000
4614		1406.250000
4615		1406.250000
4616		1406.250000
4617		1406.250000
4618		1406.250000
4619		1406.250000
4620		1406.250000
4621		1445.312500
4622		1445.312500
4623		1445.312500
4624		1445.312500
4625		1445.312500
4626		1445.312500
4627		1484.375000
4628		1484.375000
4629		1484.375000
4630		1484.375000
4631		1484.375000
4632		1484.375000
4633		1484.375000
4634		1484.375000
4635		1484.375000
4636		1484.375000
4637		1523.437500
4638		1523.437500
4639		1523.437500
4640		1523.437500
4641		1523.437500
4642		1523.437500
4643		1562.500000
4644		1562.500000
4645		1562.500000
4646		1562.500000
4647		1562.500000
4648		1562.500000
4649		1562.500000
4650		1601.562500
4651		1601.562500
4652		1601.562500
4653		1601.562500
4654		1601.562500
4655		1601.562500
4656		1601.562500
4657		1601.562500
4658		1601.562500
4659		1601.562500
4660		1640.625000
4661		1640.625000
4662		1640.625000
4663		1640.625000
4664		1679.687500
4665		1679.687500
4666		1679.687500
4667		1679.687500
4668		1679.687500
4669		1679.687500
4670		1679.687500
4671		1679.687500
4672		1679.687500
4673		1718.750000
4674		1718.750000
4675		1718.750000
4676		1718.750000
4677		1718.750000
4678		1718.750000
4679		1718.750000
4680		1718.750000
4681		1757.812500
4682		1757.812500
4683		1757.812500
4684		1757.812500
4685		1757.812500
4686		1757.812500
4687		1796.875000
4688		1796.875000
4689		1796.875000
4690		1796.875000
4691		1796.875000
4692		1796.875000
4693		1796.875000
4694		1796.875000
4695		1796.875000
4696		1835.937500
4697		1835.937500
4698		1835.937500
4699		1835.937500
4700		1835.937500
4701		1835.937500
4702		1875.000000
4703		1875.000000
4704		1875.000000
4705		1875.000000
4706		1875.000000
4707		1875.000000
4708		1875.000000
4709		1875.000000
4710		1875.000000
4711		1914.062500
4712		1914.062500
4713		1914.062500
4714		1914.062500
4715		1914.062500
4716		1914.062500
4717		1953.125000
4718		1953.125000
4719		1953.125000
4720		1953.125000
4721		1953.125000
4722		1953.125000
4723		1992.187500
4724		1992.187500
4725		1992.187500
4726		1992.187500
4727		1992.187500
4728		1992.187500
4729		1992.187500
4730		1992.187500
4731		1992.187500
4732		2031.250000
4733		2031.250000
4734		2031.250000
4735		2031.250000
4736		2031.250000
4737		2031.250000
4738		2070.312500
4739		2031.250000
4740		2070.312500
4741		2070.312500
4742		2070.312500
4743		2070.312500
4744		2070.312500
4745		2070.312500
4746		2070.312500
4747		2070.312500
4748		2109.375000
4749		2109.375000
4750		2109.375000
4751		2109.375000
4752		2109.375000
4753		2109.375000
4754		2148.437500
4755		2148.437500
4756		2148.437500
4757		2148.437500
4758		2148.437500
4759		2148.437500
4760		2148.437500
4761		2148.437500
4762		2187.500000
4763		2148.437500
4764		2187.500000
4765		2187.500000
4766		2187.500000
4767		2187.500000
4768		2187.500000
4769		2187.500000
4770		2187.500000
4771		2226.562500
4772		2226.562500
4773		2226.562500
4774		2226.562500
4775		2226.562500
4776		2226.562500
4777		2226.562500
4778		2226.562500
4779		2226.562500
4780		2265.625000
4781		2265.625000
4782		2265.625000
4783		2265.625000
4784		2265.625000
4785		2265.625000
4786		2304.687500
4787		2304.687500
4788		2304.687500
4789		2304.687500
4790		2304.687500
4791		2304.687500
4792		2304.687500
4793		2304.687500
4794		2304.687500
4795		2304.687500
4796		2343.750000
4797		2343.750000
4798		2343.750000
4799		2343.750000
4800		2343.750000
4801		2343.750000
4802		2343.750000
4803		2343.750000
4804		2382.812500
4805		2421.875000
4806		2382.812500
4807		2382.812500
4808		2382.812500
4809		2382.812500
4810		2382.812500
4811		2382.812500
4812		2421.875000
4813		2421.875000
4814		2421.875000
4815		2421.875000
4816		2421.875000
4817		2421.875000
4818		2421.875000
4819		2421.875000
4820		2421.875000
4821		2421.875000
4822		2421.875000
4823		2460.937500
4824		2460.937500
4825		2460.937500
4826		2460.937500
4827		2460.937500
4828		2460.937500
4829		2460.937500
4830		2500.000000
4831		2500.000000
4832		2500.000000
4833		2500.000000
4834		2500.000000
4835		2500.000000
4836		2500.000000
4837		2500.000000
4838		2500.000000
4839		2500.000000
4840		2500.000000
4841		2500.000000
4842		2539.062500
4843		2539.062500
4844		2539.062500
4845		2539.062500
4846		2539.062500
4847		2539.062500
4848		2578.125000
4849		2539.062500
4850		2578.125000
4851		2578.125000
4852		2578.125000
4853		2578.125000
4854		2578.125000
4855		2578.125000
4856		2578.125000
4857		2578.125000
4858		2578.125000
4859		2578.125000
4860		2578.125000
4861		2578.125000
4862		2617.187500
4863		2617.187500
4864		2617.187500
4865		2617.187500
4866		2617.187500
4867		2617.187500
4868		2617.187500
4869		2617.187500
4870		2617.187500
4871		2617.187500
4872		2617.187500
4873		2617.187500
4874		2617.187500
4875		2617.187500
4876		2617.187500
4877		2656.250000
4878		2656.250000
4879		2656.250000
4880		2656.250000
4881		2656.250000
4882		2656.250000
4883		2656.250000
4884		2695.312500
4885		2695.312500
4886		2695.312500
4887		2695.312500
4888		2695.312500
4889		2695.312500
4890		2695.312500
4891		2695.312500
4892		2695.312500
4893		2695.312500
4894		2695.312500
4895		2695.312500
4896		2695.312500
4897		2695.312500
4898		2695.312500
4899		2695.312500
4900		2695.312500
4901		2695.312500
4902		2734.375000
4903		2734.375000
4904		2734.375000
4905		2734.375000
4906		2734.375000
4907		2734.375000
4908		2734.375000
4909		2734.375000
4910		2734.375000
4911		2734.375000
4912		2734.375000
4913		2734.375000
4914		2734.375000
4915		2734.375000
4916		2734.375000
4917		2734.375000
4918		2734.375000
4919		2773.437500
4920		2773.437500
4921		2773.437500
4922		2773.437500
4923		2773.437500
4924		2773.437500
4925		2773.437500
4926		2773.437500
4927		2773.437500
4928		2773.437500
4929		2773.437500
4930		2773.437500
4931		2773.437500
4932		2773.437500
4933		2773.437500
4934		2773.437500
4935		2773.437500
4936		2773.437500
4937		2812.500000
4938		2812.500000
4939		2773.437500
4940		2812.500000
4941		2812.500000
4942		2812.500000
4943		2812.500000
4944		2812.500000
4945		2773.437500
4946		2812.500000
4947		2812.500000
4948		2812.500000
4949		2812.500000
4950		2812.500000
4951		2812.500000
4952		2812.500000
4953		2812.500000
4954		2812.500000
4955		2812.500000
4956		2812.500000
4957		2812.500000
4958		2812.500000
4959		2812.500000
4960		2812.500000
4961		2812.500000
4962		2812.500000
4963		2812.500000
4964		2812.500000
4965		2812.500000
4966		2812.500000
4967		2851.562500
4968		2812.500000
4969		2812.500000
4970		2812.500000
4971		2812.500000
4972		2812.500000
4973		2851.562500
4974		2812.500000
4975		2851.562500
4976		2851.562500
4977		2812.500000
4978		2851.562500
4979		2851.562500
4980		2851.562500
4981		2812.500000
4982		2851.562500
4983		2851.562500
4984		2851.562500
4985		2851.562500
4986		2851.562500
4987		2851.562500
4988		2851.562500
4989		2851.562500
4990		2851.562500
4991		2851.562500
4992		2851.562500
4993		2851.562500
4994		2851.562500
4995		2851.562500
4996		2851.562500
4997		2851.562500
4998		2812.500000
4999		2812.500000
5000		2851.562500
5001		2851.562500
5002		2851.562500
5003		2851.562500
5004		2851.562500
5005		2851.562500
5006		2851.562500
5007		2851.562500
5008		2851.562500
5009		2851.562500
5010		2851.562500
5011		2851.562500
5012		2851.562500
5013		2851.562500
5014		2812.500000
5015		2812.500000
5016		2812.500000
5017		2812.500000
5018		2812.500000
5019		2812.500000
5020		2812.500000
5021		2812.500000
5022		2812.500000
5023		2812.500000
5024		2812.500000
5025		2812.500000
5026		2812.500000
5027		2812.500000
5028		2812.500000
5029		2812.500000
5030		2812.500000
5031		2812.500000
5032		2812.500000
5033		2812.500000
5034		2812.500000
5035		2812.500000
5036		2812.500000
5037		2812.500000
5038		2812.500000
5039		2812.500000
5040		2812.500000
5041		2812.500000
5042		2812.500000
5043		2812.500000
5044		2812.500000
5045		2812.500000
5046		2812.500000
5047		2812.500000
5048		2812.500000
5049		2812.500000
5050		2812.500000
5051		2773.437500
5052		2773.437500
5053		2773.437500
5054		2773.437500
5055		2773.437500
5056		2773.437500
5057		2773.437500
5058		2773.437500
5059		2773.437500
5060		2773.437500
5061		2773.437500
5062		2773.437500
5063		2773.437500
5064		2773.437500
5065		2773.437500
5066		2773.437500
5067		2773.437500
5068		2773.437500
5069		2773.437500
5070		2773.437500
5071		2734.375000
5072		2734.375000
5073		2734.375000
5074		2734.375000
5075		2734.375000
5076		2734.375000
5077		2734.375000
5078		2734.375000
5079		2734.375000
5080		2734.375000
5081		2734.375000
5082		2734.375000
5083		2734.375000
5084		2734.375000
5085		2734.375000
5086		2734.375000
5087		2734.375000
5088		2734.375000
5089		2695.312500
5090		2695.312500
5091		2695.312500
5092		2695.312500
5093		2695.312500
5094		2695.312500
5095		2695.312500
5096		2695.312500
5097		2695.312500
5098		2695.312500
5099		2695.312500
5100		2695.312500
5101		2695.312500
5102		2656.250000
5103		2695.312500
5104		2695.312500
5105		2656.250000
5106		2656.250000
5107		2656.250000
5108		2656.250000
5109		2656.250000
5110		2656.250000
5111		2656.250000
5112		2656.250000
5113		2656.250000
5114		2617.187500
5115		2656.250000
5116		2617.187500
5117		2617.187500
5118		2617.187500
5119		2617.187500
5120		2617.187500
5121		2617.187500
5122		2617.187500
5123		2617.187500
5124		2617.187500
5125		2617.187500
5126		2578.125000
5127		2578.125000
5128		2578.125000
5129		2578.125000
5130		2578.125000
5131		2578.125000
5132		2578.125000
5133		2578.125000
5134		2578.125000
5135		2578.125000
5136		2578.125000
5137		2578.125000
5138		2539.062500
5139		2578.125000
5140		2539.062500
5141		2539.062500
5142		2539.062500
5143		2539.062500
5144		2539.062500
5145		2539.062500
5146		2539.062500
5147		2539.062500
5148		2539.062500
5149		2500.000000
5150		2500.000000
5151		2500.000000
5152		2500.000000
5153		2500.000000
5154		2500.000000
5155		2500.000000
5156		2500.000000
5157		2500.000000
5158		2500.000000
5159		2460.937500
5160		2460.937500
5161		2460.937500
5162		2460.937500
5163		2460.937500
5164		2460.937500
5165		2460.937500
5166		2460.937500
5167		2460.937500
5168		2460.937500
5169		2460.937500
5170		2421.875000
5171		2421.875000
5172		2421.875000
5173		2421.875000
5174		2421.875000
5175		2421.875000
5176		2421.875000
5177		2382.812500
5178		2382.812500
5179		2382.812500
5180		2382.812500
5181		2382.812500
5182		2382.812500
5183		2382.812500
5184		2382.812500
5185		2382.812500
5186		2382.812500
5187		2382.812500
5188		2382.812500
5189		2343.750000
5190		2343.750000
5191		2343.750000
5192		2343.750000
5193		2343.750000
5194		2343.750000
5195		2304.687500
5196		2304.687500
5197		2304.687500
5198		2304.687500
5199		2304.687500
5200		2304.687500
5201		2304.687500
5202		2304.687500
5203		2304.687500
5204		2304.687500
5205		2304.687500
5206		2265.625000
5207		2265.625000
5208		2265.625000
5209		2265.625000
5210		2265.625000
5211		2265.625000
5212		2265.625000
5213		2265.625000
5214		2226.562500
5215		2226.562500
5216		2226.562500
5217		2226.562500
5218		2226.562500
5219		2226.562500
5220		2226.562500
5221		2226.562500
5222		2187.500000
5223		2187.500000
5224		2187.500000
5225		2187.500000
5226		2187.500000
5227		2187.500000
5228		2187.500000
5229		2148.437500
5230		2148.437500
5231		2148.437500
5232		2148.437500
5233		2148.437500
5234		2148.437500
5235		2148.437500
5236		2109.375000
5237		2109.375000
5238		2148.437500
5239		2109.375000
5240		2109.375000
5241		2109.375000
5242		2109.375000
5243		2109.375000
5244		2109.375000
5245		2070.312500
5246		2109.375000
5247		2109.375000
5248		2070.312500
5249		2070.312500
5250		2070.312500
5251		2070.312500
5252		2070.312500
5253		2031.250000
5254		2031.250000
5255		2031.250000
5256		2031.250000
5257		2031.250000
5258		2031.250000
5259		2031.250000
5260		2031.250000
5261		2031.250000
5262		1992.187500
5263		1992.187500
5264		1992.187500
5265		1992.187500
5266		1992.187500
5267		1992.187500
5268		1992.187500
5269		1953.125000
5270		1953.125000
5271		1953.125000
5272		1953.125000
5273		1953.125000
5274		1953.125000
5275		1914.062500
5276		1914.062500
5277		1914.062500
5278		1914.062500
5279		1914.062500
5280		1914.062500
5281		1914.062500
5282		1914.062500
5283		1914.062500
5284		1875.000000
5285		1875.000000
5286		1875.000000
5287		1875.000000
5288		1875.000000
5289		1875.000000
5290		1875.000000
5291		1835.937500
5292		1835.937500
5293		1835.937500
5294		1835.937500
5295		1835.937500
5296		1835.937500
5297		1835.937500
5298		1835.937500
5299		1835.937500
5300		1796.875000
5301		1796.875000
5302		1796.875000
5303		1796.875000
5304		1796.875000
5305		1796.875000
5306		1796.875000
5307		1757.812500
5308		1757.812500
5309		1757.812500
5310		1757.812500
5311		1757.812500
5312		1757.812500
5313		1718.750000
5314		1718.750000
5315		1718.750000
5316		1718.750000
5317		1718.750000
5318		1718.750000
5319		1718.750000
5320		1718.750000
5321		1718.750000
5322		1679.687500
5323		1679.687500
5324		1679.687500
5325		1679.687500
5326		1679.687500
5327		1679.687500
5328		1679.687500
5329		1679.687500
5330		1640.625000
5331		1640.625000
5332		1640.625000
5333		1640.625000
5334		1640.625000
5335		1601.562500
5336		1640.625000
5337		1640.625000
5338		1640.625000
5339		1601.562500
5340		1601.562500
5341		1601.562500
5342		1601.562500
5343		1601.562500
5344		1601.562500
5345		1601.562500
5346		1562.500000
5347		1562.500000
5348		1562.500000
5349		1562.500000
5350		1562.500000
5351		1562.500000
5352		1562.500000
5353		1523.437500
5354		1523.437500
5355		1523.437500
5356		1523.437500
5357		1523.437500
5358		1523.437500
5359		1523.437500
5360		1523.437500
5361		1484.375000
5362		1484.375000
5363		1484.375000
5364		1484.375000
5365		1484.375000
5366		1484.375000
5367		1484.375000
5368		1484.375000
5369		1445.312500
5370		1445.312500
5371		1445.312500
5372		1445.312500
5373		1445.312500
5374		1445.312500
5375		1445.312500
5376		1406.250000
5377		1406.250000
5378		1406.250000
5379		1406.250000
5380		1406.250000
5381		1406.250000
5382		1406.250000
5383		1406.250000
5384		1406.250000
5385		1367.187500
5386		1367.187500
5387		1367.187500
5388		1367.187500
5389		1367.187500
5390		1367.187500
5391		1367.187500
5392		1367.187500
5393		1328.125000
5394		1328.125000
5395		1328.125000
5396		1328.125000
5397		1328.125000
5398		1328.125000
5399		1289.062500
5400		1289.062500
5401		1289.062500
5402		1289.062500
5403		1289.062500
5404		1289.062500
5405		1289.062500
5406		1289.062500
5407		1289.062500
5408		1289.062500
5409		1289.062500
5410		1250.000000
5411		1250.000000
5412		1250.000000
5413		1250.000000
5414		1250.000000
5415		1250.000000
5416		1210.937500
5417		1210.937500
5418		1210.937500
5419		1210.937500
5420		1210.937500
5421		1210.937500
5422		1210.937500
5423		1210.937500
5424		1210.937500
5425		1210.937500
5426		1210.937500
5427		1210.937500
5428		1210.937500
5429		1171.875000
5430		1171.875000
5431		1171.875000
5432		1171.875000
5433		1171.875000
5434		1132.812500
5435		1132.812500
5436		1132.812500
5437		1132.812500
5438		1132.812500
5439		1132.812500
5440		1132.812500
5441		1132.812500
5442		1132.812500
5443		1132.812500
5444		1132.812500
5445		1132.812500
5446		1093.750000
5447		1093.750000
5448		1093.750000
5449		1093.750000
5450		1093.750000
5451		1093.750000
5452		1054.687500
5453		1054.687500
5454		1054.687500
5455		1054.687500
5456		1054.687500
5457		1054.687500
5458		1054.687500
5459		1054.687500
5460		1054.687500
5461		1054.687500
5462		1054.687500
5463		1054.687500
5464		1015.625000
5465		1015.625000
5466		1015.625000
5467		1015.625000
5468		1015.625000
5469		1015.625000
5470		1015.625000
5471		1015.625000
5472		976.562500
5473		976.562500
5474		976.562500
5475		976.562500
5476		976.562500
5477		976.562500
5478		976.562500
5479		976.562500
5480		976.562500
5481		976.562500
5482		976.562500
5483		976.562500
5484		937.500000
5485		937.500000
5486		937.500000
5487		937.500000
5488		937.500000
5489		937.500000
5490		937.500000
5491		898.437500
5492		898.437500
5493		898.437500
5494		898.437500
5495		898.437500
5496		898.437500
5497		898.437500
5498		898.437500
5499		898.437500
5500		898.437500
5501		898.437500
5502		898.437500
5503		859.375000
5504		859.375000
5505		859.375000
5506		859.375000
5507		859.375000
5508		859.375000
5509		859.375000
5510		859.375000
5511		859.375000
5512		820.312500
5513		820.312500
5514		820.312500
5515		820.312500
5516		820.312500
5517		820.312500
5518		820.312500
5519		820.312500
5520		820.312500
5521		820.312500
5522		820.312500
5523		820.312500
5524		781.250000
5525		820.312500
5526		781.250000
5527		781.250000
5528		781.250000
5529		781.250000
5530		781.250000
5531		781.250000
5532		781.250000
5533		781.250000
5534		781.250000
5535		781.250000
5536		742.187500
5537		742.187500
5538		742.187500
5539		742.187500
5540		742.187500
5541		742.187500
5542		742.187500
5543		742.187500
5544		742.187500
5545		742.187500
5546		742.187500
5547		742.187500
5548		742.187500
5549		703.125000
5550		703.125000
5551		703.125000
5552		703.125000
5553		703.125000
5554		703.125000
5555		703.125000
5556		703.125000
5557		703.125000
5558		703.125000
5559		703.125000
5560		664.062500
5561		664.062500
5562		664.062500
5563		664.062500
5564		664.062500
5565		664.062500
5566		664.062500
5567		664.062500
5568		664.062500
5569		664.062500
5570		664.062500
5571		664.062500
5572		664.062500
5573		625.000000
5574		625.000000
5575		625.000000
5576		625.000000
5577		625.000000
5578		625.000000
5579		625.000000
5580		625.000000
5581		625.000000
5582		625.000000
5583		625.000000
5584		625.000000
5585		625.000000
5586		625.000000
5587		625.000000
5588		625.000000
5589		625.000000
5590		585.937500
5591		585.937500
5592		585.937500
5593		585.937500
5594		585.937500
5595		585.937500
5596		585.937500
5597		585.937500
5598		546.875000
5599		546.875000
5600		585.937500
5601		546.875000
5602		546.875000
5603		546.875000
5604		546.875000
5605		546.875000
5606		546.875000
5607		546.875000
5608		546.875000
5609		546.875000
5610		546.875000
5611		546.875000
5612		546.875000
5613		507.812500
5614		507.812500
5615		507.812500
5616		507.812500
5617		507.812500
5618		507.812500
5619		507.812500
5620		507.812500
5621		507.812500
5622		507.812500
5623		507.812500
5624		507.812500
5625		507.812500
5626		507.812500
5627		507.812500
5628		507.812500
5629		507.812500
5630		507.812500
5631		468.750000
5632		468.750000
5633		468.750000
5634		468.750000
5635		468.750000
5636		468.750000
5637		468.750000
5638		468.750000
5639		468.750000
5640		468.750000
5641		468.750000
5642		468.750000
5643		468.750000
5644		468.750000
5645		468.750000
5646		429.687500
5647		468.750000
5648		468.750000
5649		429.687500
5650		429.687500
5651		429.687500
5652		429.687500
5653		429.687500
5654		429.687500
5655		429.687500
5656		429.687500
5657		429.687500
5658		429.687500
5659		429.687500
5660		429.687500
5661		429.687500
5662		429.687500
5663		429.687500
5664		429.687500
5665		429.687500
5666		429.687500
5667		390.625000
5668		390.625000
5669		390.625000
5670		390.625000
5671		390.625000
5672		390.625000
5673		390.625000
5674		390.625000
5675		390.625000
5676		390.625000
5677		390.625000
5678		390.625000
5679		390.625000
5680		390.625000
5681		390.625000
5682		390.625000
5683		390.625000
5684		390.625000
5685		390.625000
5686		390.625000
5687		390.625000
5688		390.625000
5689		390.625000
5690		351.562500
5691		351.562500
5692		351.562500
5693		351.562500
5694		351.562500
5695		351.562500
5696		351.562500
5697		351.562500
5698		351.562500
5699		351.562500
5700		351.562500
5701		351.562500
5702		351.562500
5703		351.562500
5704		351.562500
5705		351.562500
5706		351.562500
5707		351.562500
5708		351.562500
5709		351.562500
5710		351.562500
5711		351.562500
5712		351.562500
5713		351.562500
5714		351.562500
5715		351.562500
5716		351.562500
5717		312.500000
5718		351.562500
5719		312.500000
5720		312.500000
5721		312.500000
5722		312.500000
5723		312.500000
5724		312.500000
5725		312.500000
5726		312.500000
5727		312.500000
5728		312.500000
5729		312.500000
5730		312.500000
5731		312.500000
5732		312.500000
5733		312.500000
5734		312.500000
5735		312.500000
5736		312.500000
5737		312.500000
5738		312.500000
5739		312.500000
5740		312.500000
5741		312.500000
5742		312.500000
5743		312.500000
5744		312.500000
5745		312.500000
5746		312.500000
5747		312.500000
5748		312.500000
5749		312.500000
5750		312.500000
5751		312.500000
5752		312.500000
5753		273.437500
5754		273.437500
5755		273.437500
5756		273.437500
5757		273.437500
5758		273.437500
5759		273.437500
5760		273.437500
5761		273.437500
5762		273.437500
5763		273.437500
5764		273.437500
5765		273.437500
5766		273.437500
5767		273.437500
5768		273.437500
5769		273.437500
5770		273.437500
5771		273.437500
5772		273.437500
5773		273.437500
5774		273.437500
5775		273.437500
5776		273.437500
5777		273.437500
5778		273.437500
5779		273.437500
5780		273.437500
5781		273.437500
5782		273.437500
5783		273.437500
5784		273.437500
5785		273.437500
5786		273.437500
5787		273.437500
5788		273.437500
5789		273.437500
5790		273.437500
5791		273.437500
5792		273.437500
5793		273.437500
5794		273.437500
5795		273.437500
5796		273.437500
5797		273.437500
5798		273.437500
5799		273.437500
5800		273.437500
5801		273.437500
5802		273.437500
5803		273.437500
5804		273.437500
5805		273.437500
5806		273.437500
5807		273.437500
5808		273.437500
5809		273.437500
5810		273.437500
5811		273.437500
5812		234.375000
5813		234.375000
5814		234.375000
5815		234.375000
5816		234.375000
5817		234.375000
5818		234.375000
5819		234.375000
5820		273.437500
5821		273.437500
5822		273.437500
5823		273.437500
5824		273.437500
5825		273.437500
5826		273.437500
5827		273.437500
5828		273.437500
5829		273.437500
5830		273.437500
5831		234.375000
5832		234.375000
5833		234.375000
5834		234.375000
5835		234.375000
5836		234.375000
5837		234.375000
5838		234.375000
5839		234.375000
5840		273.437500
5841		273.437500
5842		273.437500
5843		273.437500
5844		273.437500
5845		273.437500
5846		273.437500
5847		273.437500
5848		273.437500
5849		273.437500
5850		273.437500
5851		273.437500
5852		273.437500
5853		273.437500
5854		273.437500
5855		234.375000
5856		273.437500
5857		273.437500
5858		273.437500
5859		273.437500
5860		273.437500
5861		273.437500
5862		273.437500
5863		273.437500
5864		273.437500
5865		273.437500
5866		273.437500
5867		273.437500
5868		273.437500
5869		273.437500
5870		273.437500
5871		273.437500
5872		273.437500
5873		273.437500
5874		273.437500
5875		273.437500
5876		273.437500
5877		273.437500
5878		273.437500
5879		273.437500
5880		273.437500
5881		273.437500
5882		273.437500
5883		273.437500
5884		273.437500
5885		273.437500
5886		273.437500
5887		273.437500
5888		273.437500
5889		273.437500
5890		273.437500
5891		273.437500
5892		273.437500
5893		273.437500
5894		273.437500
5895		273.437500
5896		273.437500
5897		273.437500
5898		273.437500
5899		273.437500
5900		273.437500
5901		273.437500
5902		273.437500
5903		273.437500
5904		273.437500
5905		273.437500
5906		312.500000
5907		312.500000
5908		312.500000
5909		312.500000
5910		312.500000
5911		312.500000
5912		312.500000
5913		312.500000
5914		312.500000
5915		312.500000
5916		312.500000
5917		312.500000
5918		312.500000
5919		312.500000
5920		312.500000
5921		312.500000
5922		312.500000
5923		312.500000
5924		312.500000
5925		312.500000
5926		312.500000
5927		312.500000
5928		312.500000
5929		312.500000
5930		312.500000
5931		312.500000
5932		312.500000
5933		312.500000
5934		312.500000
5935		312.500000
5936		312.500000
5937		351.562500
5938		312.500000
5939		312.500000
5940		312.500000
5941		312.500000
5942		351.562500
5943		351.562500
5944		351.562500
5945		351.562500
5946		351.562500
5947		351.562500
5948		351.562500
5949		351.562500
5950		351.562500
5951		351.562500
5952		351.562500
5953		351.562500
5954		351.562500
5955		351.562500
5956		351.562500
5957		351.562500
5958		351.562500
5959		351.562500
5960		351.562500
5961		351.562500
5962		351.562500
5963		351.562500
5964		351.562500
5965		390.625000
5966		390.625000
5967		390.625000
5968		390.625000
5969		390.625000
5970		390.625000
5971		390.625000
5972		390.625000
5973		390.625000
5974		390.625000
5975		390.625000
5976		390.625000
5977		390.625000
5978		390.625000
5979		390.625000
5980		390.625000
5981		390.625000
5982		390.625000
5983		390.625000
5984		390.625000
5985		390.625000
5986		429.687500
5987		429.687500
5988		429.687500
5989		429.687500
5990		429.687500
5991		429.687500
5992		429.687500
5993		429.687500
5994		429.687500
5995		390.625000
5996		429.687500
5997		429.687500
5998		429.687500
5999		429.687500
6000		429.687500
6001		429.687500
6002		429.687500
6003		429.687500
6004		468.750000
6005		468.750000
6006		468.750000
6007		468.750000
6008		468.750000
6009		468.750000
6010		468.750000
6011		468.750000
6012		468.750000
6013		468.750000
6014		468.750000
6015		468.750000
6016		468.750000
6017		468.750000
6018		468.750000
6019		468.750000
6020		468.750000
6021		468.750000
6022		507.812500
6023		507.812500
6024		507.812500
6025		507.812500
6026		507.812500
6027		507.812500
6028		507.812500
6029		507.812500
6030		507.812500
6031		507.812500
6032		507.812500
6033		507.812500
6034		507.812500
6035		507.812500
6036		507.812500
6037		507.812500
6038		546.875000
6039		546.875000
6040		546.875000
6041		546.875000
6042		546.875000
6043		546.875000
6044		546.875000
6045		546.875000
6046		546.875000
6047		546.875000
6048		546.875000
6049		546.875000
6050		546.875000
6051		546.875000
6052		546.875000
6053		546.875000
6054		546.875000
6055		585.937500
6056		585.937500
6057		585.937500
6058		585.937500
6059		585.937500
6060		585.937500
6061		585.937500
6062		585.937500
6063		585.937500
6064		585.937500
6065		585.937500
6066		585.937500
6067		625.000000
6068		625.000000
6069		625.000000
6070		625.000000
6071		625.000000
6072		625.000000
6073		625.000000
6074		625.000000
6075		625.000000
6076		625.000000
6077		625.000000
6078		664.062500
6079		664.062500
6080		664.062500
6081		664.062500
6082		664.062500
6083		664.062500
6084		664.062500
6085		664.062500
6086		664.062500
6087		664.062500
6088		664.062500
6089		664.062500
6090		664.062500
6091		664.062500
6092		703.125000
6093		703.125000
6094		703.125000
6095		703.125000
6096		703.125000
6097		703.125000
6098		703.125000
6099		703.125000
6100		703.125000
6101		703.125000
6102		703.125000
6103		742.187500
6104		742.187500
6105		742.187500
6106		742.187500
6107		742.187500
6108		742.187500
6109		742.187500
6110		742.187500
6111		742.187500
6112		742.187500
6113		781.250000
6114		781.250000
6115		781.250000
6116		781.250000
6117		781.250000
6118		781.250000
6119		781.250000
6120		781.250000
6121		781.250000
6122		781.250000
6123		781.250000
6124		781.250000
6125		820.312500
6126		820.312500
6127		820.312500
6128		820.312500
6129		820.312500
6130		820.312500
6131		820.312500
6132		820.312500
6133		820.312500
6134		820.312500
6135		859.375000
6136		859.375000
6137		859.375000
6138		859.375000
6139		859.375000
6140		859.375000
6141		859.375000
6142		859.375000
6143		859.375000
6144		859.375000
6145		898.437500
6146		898.437500
6147		898.437500
6148		898.437500
6149		898.437500
6150		898.437500
6151		898.437500
6152		898.437500
6153		898.437500
6154		898.437500
6155		898.437500
6156		898.437500
6157		937.500000
6158		937.500000
6159		937.500000
6160		937.500000
6161		937.500000
6162		937.500000
6163		937.500000
6164		976.562500
6165		976.562500
6166		976.562500
6167		976.562500
6168		976.562500
6169		976.562500
6170		1015.625000
6171		976.562500
6172		976.562500
6173		976.562500
6174		976.562500
6175		1015.625000
6176		1015.625000
6177		976.562500
6178		1015.625000
6179		1015.625000
6180		1015.625000
6181		1015.625000
6182		1054.687500
6183		1054.687500
6184		1054.687500
6185		1054.687500
6186		1054.687500
6187		1054.687500
6188		1054.687500
6189		1054.687500
6190		1054.687500
6191		1054.687500
6192		1093.750000
6193		1093.750000
6194		1093.750000
6195		1093.750000
6196		1093.750000
6197		1093.750000
6198		1093.750000
6199		1093.750000
6200		1093.750000
6201		1132.812500
6202		1132.812500
6203		1132.812500
6204		1132.812500
6205		1132.812500
6206		1132.812500
6207		1132.812500
6208		1132.812500
6209		1132.812500
6210		1171.875000
6211		1171.875000
6212		1171.875000
6213		1171.875000
6214		1171.875000
6215		1171.875000
6216		1171.875000
6217		1171.875000
6218		1171.875000
6219		1210.937500
6220		1210.937500
6221		1210.937500
6222		1210.937500
6223		1210.937500
6224		1210.937500
6225		1210.937500
6226		1250.000000
6227		1250.000000
6228		1250.000000
6229		1250.000000
6230		1250.000000
6231		1250.000000
6232		1250.000000
6233		1250.000000
6234		1250.000000
6235		1250.000000
6236		1289.062500
6237		1289.062500
6238		1289.062500
6239		1289.062500
6240		1289.062500
6241		1289.062500
6242		1328.125000
6243		1328.125000
6244		1328.125000
6245		1328.125000
6246		1328.125000
6247		1328.125000
6248		1328.125000
6249		1328.125000
6250		1328.125000
6251		1367.187500
6252		1367.187500
6253		1367.187500
6254		1367.187500
6255		1367.187500
6256		1367.187500
6257		1367.187500
6258		1406.250000
6259		1406.250000
6260		1406.250000
6261		1406.250000
6262		1406.250000
6263		1406.250000
6264		1445.312500
6265		1406.250000
6266		1445.312500
6267		1445.312500
6268		1406.250000
6269		1445.312500
6270		1445.312500
6271		1445.312500
6272		1445.312500
6273		1445.312500
6274		1445.312500
6275		1484.375000
6276		1484.375000
6277		1484.375000
6278		1484.375000
6279		1484.375000
6280		1484.375000
6281		1523.437500
6282		1523.437500
6283		1523.437500
6284		1523.437500
6285		1523.437500
6286		1523.437500
6287		1523.437500
6288		1523.437500
6289		1523.437500
6290		1562.500000
6291		1562.500000
6292		1562.500000
6293		1562.500000
6294		1562.500000
6295		1562.500000
6296		1601.562500
6297		1601.562500
6298		1601.562500
6299		1601.562500
6300		1601.562500
6301		1601.562500
6302		1601.562500
6303		1601.562500
6304		1601.562500
6305		1640.625000
6306		1640.625000
6307		1640.625000
6308		1640.625000
6309		1640.625000
6310		1640.625000
6311		1679.687500
6312		1679.687500
6313		1679.687500
6314		1679.687500
6315		1679.687500
6316		1679.687500
6317		1718.750000
6318		1679.687500
6319		1679.687500
6320		1718.750000
6321		1718.750000
6322		1718.750000
6323		1718.750000
6324		1718.750000
6325		1718.750000
6326		1757.812500
6327		1757.812500
6328		1757.812500
6329		1757.812500
6330		1757.812500
6331		1757.812500
6332		1757.812500
6333		1757.812500
6334		1757.812500
6335		1796.875000
6336		1796.875000
6337		1796.875000
6338		1796.875000
6339		1796.875000
6340		1796.875000
6341		1796.875000
6342		1835.937500
6343		1835.937500
6344		1835.937500
6345		1835.937500
6346		1835.937500
6347		1875.000000
6348		1875.000000
6349		1875.000000
6350		1875.000000
6351		1875.000000
6352		1875.000000
6353		1875.000000
6354		1875.000000
6355		1875.000000
6356		1875.000000
6357		1914.062500
6358		1875.000000
6359		1914.062500
6360		1914.062500
6361		1914.062500
6362		1914.062500
6363		1914.062500
6364		1953.125000
6365		1953.125000
6366		1953.125000
6367		1953.125000
6368		1953.125000
6369		1953.125000
6370		1953.125000
6371		1953.125000
6372		1953.125000
6373		1992.187500
6374		1992.187500
6375		1992.187500
6376		1992.187500
6377		1992.187500
6378		1992.187500
6379		1992.187500
6380		2031.250000
6381		2031.250000
6382		2031.250000
6383		2031.250000
6384		2031.250000
6385		2070.312500
6386		2070.312500
6387		2070.312500
6388		2070.312500
6389		2070.312500
6390		2070.312500
6391		2070.312500
6392		2070.312500
6393		2070.312500
6394		2070.312500
6395		2070.312500
6396		2109.375000
6397		2109.375000
6398		2109.375000
6399		2148.437500
6400		2109.375000
6401		2148.437500
6402		2148.437500
6403		2148.437500
6404		2148.437500
6405		2148.437500
6406		2148.437500
6407		2148.437500
6408		2148.437500
6409		2148.437500
6410		2148.437500
6411		2148.437500
6412		2187.500000
6413		2187.500000
6414		2187.500000
6415		2187.500000
6416		2187.500000
6417		2187.500000
6418		2226.562500
6419		2226.562500
6420		2226.562500
6421		2226.562500
6422		2226.562500
6423		2226.562500
6424		2226.562500
6425		2226.562500
6426		2265.625000
6427		2265.625000
6428		2265.625000
6429		2265.625000
6430		2265.625000
6431		2265.625000
6432		2265.625000
6433		2265.625000
6434		2265.625000
6435		2265.625000
6436		2304.687500
6437		2304.687500
6438		2304.687500
6439		2304.687500
6440		2304.687500
6441		2304.687500
6442		2343.750000
6443		2304.687500
6444		2343.750000
6445		2343.750000
6446		2343.750000
6447		2343.750000
6448		2343.750000
6449		2343.750000
6450		2343.750000
6451		2343.750000
6452		2343.750000
6453		2382.812500
6454		2382.812500
6455		2382.812500
6456		2382.812500
6457		2382.812500
6458		2382.812500
6459		2382.812500
6460		2382.812500
6461		2421.875000
6462		2421.875000
6463		2421.875000
6464		2421.875000
6465		2421.875000
6466		2421.875000
6467		2421.875000
6468		2421.875000
6469		2421.875000
6470		2421.875000
6471		2460.937500
6472		2460.937500
6473		2460.937500
6474		2460.937500
6475		2460.937500
6476		2460.937500
6477		2460.937500
6478		2460.937500
6479		2460.937500
6480		2500.000000
6481		2500.000000
6482		2500.000000
6483		2500.000000
6484		2500.000000
6485		2500.000000
6486		2500.000000
6487		2500.000000
6488		2500.000000
6489		2539.062500
6490		2539.062500
6491		2539.062500
6492		2539.062500
6493		2539.062500
6494		2539.062500
6495		2539.062500
6496		2539.062500
6497		2539.062500
6498		2539.062500
6499		2539.062500
6500		2539.062500
6501		2578.125000
6502		2578.125000
6503		2578.125000
6504		2578.125000
6505		2578.125000
6506		2578.125000
6507		2578.125000
6508		2578.125000
6509		2617.187500
6510		2617.187500
6511		2617.187500
6512		2617.187500
6513		2617.187500
6514		2617.187500
6515		2617.187500
6516		2617.187500
6517		2617.187500
6518		2617.187500
6519		2617.187500
6520		2617.187500
6521		2617.187500
6522		2617.187500
6523		2656.250000
6524		2656.250000
6525		2656.250000
6526		2656.250000
6527		2656.250000
6528		2656.250000
6529		2656.250000
6530		2656.250000
6531		2656.250000
6532		2656.250000
6533		2656.250000
6534		2656.250000
6535		2656.250000
6536		2656.250000
6537		2695.312500
6538		2695.312500
6539		2656.250000
6540		2695.312500
6541		2695.312500
6542		2695.312500
6543		2695.312500
6544		2695.312500
6545		2695.312500
6546		2734.375000
6547		2734.375000
6548		2695.312500
6549		2734.375000
6550		2734.375000
6551		2695.312500
6552		2734.375000
6553		2734.375000
6554		2734.375000
6555		2734.375000
6556		2734.375000
6557		2734.375000
6558		2734.375000
6559		2734.375000
6560		2734.375000
6561		2734.375000
6562		2734.375000
6563		2734.375000
6564		2773.437500
6565		2773.437500
6566		2773.437500
6567		2773.437500
6568		2773.437500
6569		2773.437500
6570		2773.437500
6571		2773.437500
6572		2773.437500
6573		2773.437500
6574		2773.437500
6575		2773.437500
6576		2773.437500
6577		2773.437500
6578		2773.437500
6579		2773.437500
6580		2773.437500
6581		2773.437500
6582		2773.437500
6583		2773.437500
6584		2773.437500
6585		2773.437500
6586		2773.437500
6587		2773.437500
6588		2773.437500
6589		2773.437500
6590		2812.500000
6591		2773.437500
6592		2773.437500
6593		2773.437500
6594		2773.437500
6595		2773.437500
6596		2773.437500
6597		2812.500000
6598		2812.500000
6599		2812.500000
6600		2812.500000
6601		2812.500000
6602		2812.500000
6603		2812.500000
6604		2812.500000
6605		2812.500000
6606		2812.500000
6607		2812.500000
6608		2812.500000
6609		2812.500000
6610		2812.500000
6611		2812.500000
6612		2812.500000
6613		2812.500000
6614		2812.500000
6615		2812.500000
6616		2812.500000
6617		2812.500000
6618		2812.500000
6619		2812.500000
6620		2812.500000
6621		2812.500000
6622		2812.500000
6623		2812.500000
6624		2851.562500
6625		2812.500000
6626		2812.500000
6627		2812.500000
6628		2812.500000
6629		2812.500000
6630		2812.500000
6631		2812.500000
6632		2812.500000
6633		2812.500000
6634		2812.500000
6635		2812.500000
6636		2851.562500
6637		2812.500000
6638		2812.500000
6639		2812.500000
6640		2851.562500
6641		2851.562500
6642		2812.500000
6643		2812.500000
6644		2812.500000
6645		2851.562500
6646		2851.562500
6647		2851.562500
6648		2812.500000
6649		2851.562500
6650		2851.562500
6651		2812.500000
6652		2812.500000
6653		2812.500000
6654		2812.500000
6655		2812.500000
6656		2812.500000
6657		2812.500000
6658		2812.500000
6659		2812.500000
6660		2812.500000
6661		2812.500000
6662		2812.500000
6663		2812.500000
6664		2812.500000
6665		2812.500000
6666		2812.500000
6667		2812.500000
6668		2812.500000
6669		2812.500000
6670		2812.500000
6671		2812.500000
6672		2812.500000
6673		2812.500000
6674		2812.500000
6675		2812.500000
6676		2812.500000
6677		2812.500000
6678		2812.500000
6679		2812.500000
6680		2812.500000
6681		2812.500000
6682		2812.500000
6683		2812.500000
6684		2812.500000
6685		2812.500000
6686		2812.500000
6687		2812.500000
6688		2812.500000
6689		2812.500000
6690		2812.500000
6691		2812.500000
6692		2812.500000
6693		2773.437500
6694		2812.500000
6695		2773.437500
6696		2773.437500
6697		2773.437500
6698		2773.437500
6699		2773.437500
6700		2773.437500
6701		2773.437500
6702		2773.437500
6703		2773.437500
6704		2773.437500
6705		2773.437500
6706		2773.437500
6707		2773.437500
6708		2773.437500
6709		2773.437500
6710		2773.437500
6711		2773.437500
6712		2773.437500
6713		2773.437500
6714		2734.375000
6715		2734.375000
6716		2734.375000
6717		2734.375000
6718		2734.375000
6719		2734.375000
6720		2734.375000
6721		2734.375000
6722		2734.375000
6723		2734.375000
6724		2734.375000
6725		2734.375000
6726		2734.375000
6727		2734.375000
6728		2734.375000
6729		2734.375000
6730		2734.375000
6731		2734.375000
6732		2695.312500
6733		2695.312500
6734		2695.312500
6735		2695.312500
6736		2695.312500
6737		2695.312500
6738		2695.312500
6739		2695.312500
6740		2695.312500
6741		2695.312500
6742		2695.312500
6743		2695.312500
6744		2695.312500
6745		2695.312500
6746		2695.312500
6747		2695.312500
6748		2656.250000
6749		2656.250000
6750		2656.250000
6751		2656.250000
6752		2656.250000
6753		2656.250000
6754		2656.250000
6755		2656.250000
6756		2617.187500
6757		2656.250000
6758		2656.250000
6759		2656.250000
6760		2617.187500
6761		2656.250000
6762		2617.187500
6763		2656.250000
6764		2617.187500
6765		2617.187500
6766		2617.187500
6767		2617.187500
6768		2617.187500
6769		2617.187500
6770		2617.187500
6771		2578.125000
6772		2617.187500
6773		2578.125000
6774		2578.125000
6775		2578.125000
6776		2578.125000
6777		2578.125000
6778		2578.125000
6779		2578.125000
6780		2578.125000
6781		2578.125000
6782		2578.125000
6783		2578.125000
6784		2578.125000
6785		2578.125000
6786		2539.062500
6787		2539.062500
6788		2539.062500
6789		2539.062500
6790		2539.062500
6791		2539.062500
6792		2539.062500
6793		2539.062500
6794		2500.000000
6795		2500.000000
6796		2500.000000
6797		2500.000000
6798		2500.000000
6799		2500.000000
6800		2500.000000
6801		2500.000000
6802		2500.000000
6803		2500.000000
6804		2500.000000
6805		2460.937500
6806		2460.937500
6807		2460.937500
6808		2460.937500
6809		2460.937500
6810		2460.937500
6811		2460.937500
6812		2460.937500
6813		2460.937500
6814		2460.937500
6815		2460.937500
6816		2421.875000
6817		2421.875000
6818		2421.875000
6819		2421.875000
6820		2421.875000
6821		2421.875000
6822		2421.875000
6823		2421.875000
6824		2421.875000
6825		2382.812500
6826		2382.812500
6827		2382.812500
6828		2382.812500
6829		2382.812500
6830		2382.812500
6831		2382.812500
6832		2382.812500
6833		2343.750000
6834		2343.750000
6835		2343.750000
6836		2343.750000
6837		2343.750000
6838		2343.750000
6839		2343.750000
6840		2343.750000
6841		2343.750000
6842		2343.750000
6843		2343.750000
6844		2304.687500
6845		2304.687500
6846		2304.687500
6847		2304.687500
6848		2304.687500
6849		2304.687500
6850		2304.687500
6851		2265.625000
6852		2265.625000
6853		2265.625000
6854		2265.625000
6855		2265.625000
6856		2265.625000
6857		2265.625000
6858		2265.625000
6859		2226.562500
6860		2226.562500
6861		2226.562500
6862		2226.562500
6863		2226.562500
6864		2226.562500
6865		2226.562500
6866		2226.562500
6867		2226.562500
6868		2187.500000
6869		2187.500000
6870		2187.500000
6871		2187.500000
6872		2187.500000
6873		2187.500000
6874		2187.500000
6875		2187.500000
6876		2148.437500
6877		2148.437500
6878		2148.437500
6879		2148.437500
6880		2148.437500
6881		2148.437500
6882		2148.437500
6883		2109.375000
6884		2109.375000
6885		2109.375000
6886		2109.375000
6887		2109.375000
6888		2109.375000
6889		2109.375000
6890		2109.375000
6891		2109.375000
6892		2070.312500
6893		2070.312500
6894		2070.312500
6895		2070.312500
6896		2070.312500
6897		2070.312500
6898		2031.250000
6899		2031.250000
6900		2031.250000
6901		2031.250000
6902		2031.250000
6903		2031.250000
6904		2031.250000
6905		2031.250000
6906		2031.250000
6907		2031.250000
6908		1992.187500
6909		1992.187500
6910		1992.187500
6911		1992.187500
6912		1992.187500
6913		1992.187500
6914		1953.125000
6915		1953.125000
6916		1953.125000
6917		1953.125000
6918		1953.125000
6919		1953.125000
6920		1953.125000
6921		1953.125000
6922		1914.062500
6923		1953.125000
6924		1914.062500
6925		1914.062500
6926		1914.062500
6927		1914.062500
6928		1914.062500
6929		1914.062500
6930		1914.062500
6931		1875.000000
6932		1875.000000
6933		1875.000000
6934		1875.000000
6935		1875.000000
6936		1875.000000
6937		1835.937500
6938		1835.937500
6939		1835.937500
6940		1835.937500
6941		1835.937500
6942		1835.937500
6943		1835.937500
6944		1835.937500
6945		1835.937500
6946		1796.875000
6947		1796.875000
6948		1796.875000
6949		1796.875000
6950		1796.875000
6951		1796.875000
6952		1757.812500
6953		1757.812500
6954		1757.812500
6955		1757.812500
6956		1757.812500
6957		1757.812500
6958		1757.812500
6959		1757.812500
6960		1757.812500
6961		1718.750000
6962		1718.750000
6963		1718.750000
6964		1718.750000
6965		1718.750000
6966		1718.750000
6967		1718.750000
6968		1718.750000
6969		1679.687500
6970		1679.687500
6971		1679.687500
6972		1679.687500
6973		1679.687500
6974		1679.687500
6975		1640.625000
6976		1640.625000
6977		1640.625000
6978		1640.625000
6979		1640.625000
6980		1640.625000
6981		1640.625000
6982		1640.625000
6983		1640.625000
6984		1601.562500
6985		1601.562500
6986		1601.562500
6987		1601.562500
6988		1601.562500
6989		1562.500000
6990		1562.500000
6991		1562.500000
6992		1562.500000
6993		1562.500000
6994		1562.500000
6995		1562.500000
6996		1562.500000
6997		1562.500000
6998		1562.500000
6999		1562.500000
7000		1523.437500
7001		1523.437500
7002		1523.437500
7003		1523.437500
7004		1523.437500
7005		1523.437500
7006		1523.437500
7007		1523.437500
7008		1484.375000
7009		1484.375000
7010		1484.375000
7011		1484.375000
7012		1484.375000
7013		1484.375000
7014		1484.375000
7015		1445.312500
7016		1445.312500
7017		1445.312500
7018		1445.312500
7019		1445.312500
7020		1445.312500
7021		1445.312500
7022		1445.312500
7023		1445.312500
7024		1445.312500
7025		1406.250000
7026		1406.250000
7027		1406.250000
7028		1406.250000
7029		1406.250000
7030		1406.250000
7031		1406.250000
7032		1406.250000
7033		1367.187500
7034		1367.187500
7035		1367.187500
7036		1367.187500
7037		1367.187500
7038		1367.187500
7039		1367.187500
7040		1367.187500
7041		1367.187500
7042		1328.125000
7043		1328.125000
7044		1328.125000
7045		1328.125000
7046		1328.125000
7047		1328.125000
7048		1328.125000
7049		1328.125000
7050		1289.062500
7051		1289.062500
7052		1289.062500
7053		1289.062500
7054		1250.000000
7055		1289.062500
7056		1289.062500
7057		1289.062500
7058		1250.000000
7059		1250.000000
7060		1250.000000
7061		1250.000000
7062		1250.000000
7063		1250.000000
7064		1250.000000
7065		1250.000000
7066		1250.000000
7067		1210.937500
7068		1210.937500
7069		1210.937500
7070		1210.937500
7071		1210.937500
7072		1210.937500
7073		1210.937500
7074		1171.875000
7075		1171.875000
7076		1171.875000
7077		1171.875000
7078		1171.875000
7079		1171.875000
7080		1171.875000
7081		1171.875000
7082		1132.812500
7083		1132.812500
7084		1132.812500
7085		1132.812500
7086		1132.812500
7087		1132.812500
7088		1132.812500
7089		1132.812500
7090		1132.812500
7091		1093.750000
7092		1093.750000
7093		1093.750000
7094		1093.750000
7095		1093.750000
7096		1093.750000
7097		1093.750000
7098		1093.750000
7099		1093.750000
7100		1054.687500
7101		1054.687500
7102		1054.687500
7103		1054.687500
7104		1054.687500
7105		1054.687500
7106		1054.687500
7107		1054.687500
7108		1054.687500
7109		1054.687500
7110		1054.687500
7111		1015.625000
7112		1015.625000
7113		1015.625000
7114		1015.625000
7115		1015.625000
7116		1015.625000
7117		976.562500
7118		976.562500
7119		976.562500
7120		976.562500
7121		976.562500
7122		976.562500
7123		976.562500
7124		976.562500
7125		976.562500
7126		976.562500
7127		976.562500
7128		976.562500
7129		976.562500
7130		937.500000
7131		937.500000
7132		937.500000
7133		937.500000
7134		937.500000
7135		937.500000
7136		937.500000
7137		937.500000
7138		898.437500
7139		898.437500
7140		898.437500
7141		898.437500
7142		898.437500
7143		898.437500
7144		898.437500
7145		898.437500
7146		898.437500
7147		898.437500
7148		898.437500
7149		859.375000
7150		859.375000
7151		859.375000
7152		859.375000
7153		859.375000
7154		859.375000
7155		859.375000
7156		820.312500
7157		820.312500
7158		820.312500
7159		859.375000
7160		820.312500
7161		820.312500
7162		820.312500
7163		820.312500
7164		820.312500
7165		820.312500
7166		820.312500
7167		820.312500
7168		781.250000
7169		781.250000
7170		781.250000
7171		781.250000
7172		781.250000
7173		781.250000
7174		781.250000
7175		781.250000
7176		781.250000
7177		781.250000
7178		781.250000
7179		781.250000
7180		781.250000
7181		781.250000
7182		781.250000
7183		742.187500
7184		742.187500
7185		742.187500
7186		742.187500
7187		742.187500
7188		742.187500
7189		742.187500
7190		703.125000
7191		742.187500
7192		703.125000
7193		703.125000
7194		703.125000
7195		703.125000
7196		703.125000
7197		703.125000
7198		703.125000
7199		703.125000
7200		703.125000
7201		703.125000
7202		703.125000
7203		703.125000
7204		664.062500
7205		664.062500
7206		664.062500
7207		664.062500
7208		664.062500
7209		664.062500
7210		664.062500
7211		664.062500
7212		664.062500
7213		664.062500
7214		664.062500
7215		664.062500
7216		664.062500
7217		625.000000
7218		664.062500
7219		625.000000
7220		625.000000
7221		625.000000
7222		625.000000
7223		625.000000
7224		625.000000
7225		625.000000
7226		625.000000
7227		625.000000
7228		625.000000
7229		625.000000
7230		625.000000
7231		585.937500
7232		585.937500
7233		585.937500
7234		585.937500
7235		585.937500
7236		585.937500
7237		585.937500
7238		585.937500
7239		585.937500
7240		585.937500
7241		585.937500
7242		546.875000
7243		546.875000
7244		546.875000
7245		546.875000
7246		546.875000
7247		546.875000
7248		546.875000
7249		546.875000
7250		546.875000
7251		546.875000
7252		546.875000
7253		546.875000
7254		546.875000
7255		546.875000
7256		507.812500
7257		546.875000
7258		507.812500
7259		507.812500
7260		507.812500
7261		507.812500
7262		507.812500
7263		507.812500
7264		507.812500
7265		507.812500
7266		507.812500
7267		507.812500
7268		507.812500
7269		507.812500
7270		507.812500
7271		507.812500
7272		507.812500
7273		468.750000
7274		468.750000
7275		468.750000
7276		468.750000
7277		468.750000
7278		468.750000
7279		468.750000
7280		468.750000
7281		468.750000
7282		468.750000
7283		468.750000
7284		468.750000
7285		468.750000
7286		468.750000
7287		468.750000
7288		468.750000
7289		468.750000
7290		429.687500
7291		468.750000
7292		429.687500
7293		429.687500
7294		429.687500
7295		429.687500
7296		429.687500
7297		429.687500
7298		429.687500
7299		429.687500
7300		429.687500
7301		429.687500
7302		429.687500
7303		429.687500
7304		429.687500
7305		429.687500
7306		429.687500
7307		429.687500
7308		429.687500
7309		429.687500
7310		390.625000
7311		390.625000
7312		390.625000
7313		390.625000
7314		390.625000
7315		390.625000
7316		390.625000
7317		390.625000
7318		390.625000
7319		390.625000
7320		390.625000
7321		390.625000
7322		390.625000
7323		390.625000
7324		390.625000
7325		390.625000
7326		390.625000
7327		390.625000
7328		390.625000
7329		390.625000
7330		351.562500
7331		351.562500
7332		351.562500
7333		351.562500
7334		351.562500
7335		351.562500
7336		351.562500
7337		351.562500
7338		351.562500
7339		351.562500
7340		351.562500
7341		351.562500
7342		351.562500
7343		351.562500
7344		351.562500
7345		351.562500
7346		351.562500
7347		351.562500
7348		351.562500
7349		351.562500
7350		351.562500
7351		351.562500
7352		351.562500
7353		312.500000
7354		312.500000
7355		312.500000
7356		312.500000
7357		351.562500
7358		312.500000
7359		312.500000
7360		312.500000
7361		312.500000
7362		312.500000
7363		312.500000
7364		312.500000
7365		312.500000
7366		312.500000
7367		312.500000
7368		312.500000
7369		312.500000
7370		312.500000
7371		273.437500
7372		312.500000
7373		312.500000
7374		312.500000
7375		312.500000
7376		312.500000
7377		312.500000
7378		312.500000
7379		312.500000
7380		312.500000
7381		312.500000
7382		312.500000
7383		312.500000
7384		312.500000
7385		312.500000
7386		312.500000
7387		312.500000
7388		273.437500
7389		312.500000
7390		273.437500
7391		273.437500
7392		273.437500
7393		312.500000
7394		273.437500
7395		273.437500
7396		273.437500
7397		273.437500
7398		273.437500
7399		273.437500
7400		273.437500
7401		273.437500
7402		273.437500
7403		273.437500
7404		273.437500
7405		273.437500
7406		273.437500
7407		273.437500
7408		273.437500
7409		273.437500
7410		273.437500
7411		273.437500
7412		273.437500
7413		273.437500
7414		273.437500
7415		273.437500
7416		273.437500
7417		273.437500
7418		273.437500
7419		273.437500
7420		273.437500
7421		273.437500
7422		273.437500
7423		273.437500
7424		273.437500
7425		273.437500
7426		273.437500
7427		273.437500
7428		273.437500
7429		273.437500
7430		273.437500
7431		273.437500
7432		273.437500
7433		273.437500
7434		273.437500
7435		273.437500
7436		273.437500
7437		234.375000
7438		273.437500
7439		273.437500
7440		273.437500
7441		273.437500
7442		273.437500
7443		273.437500
7444		273.437500
7445		273.437500
7446		273.437500
7447		273.437500
7448		273.437500
7449		273.437500
7450		273.437500
7451		273.437500
7452		234.375000
7453		273.437500
7454		234.375000
7455		234.375000
7456		273.437500
7457		234.375000
7458		234.375000
7459		234.375000
7460		234.375000
7461		234.375000
7462		234.375000
7463		273.437500
7464		273.437500
7465		273.437500
7466		273.437500
7467		273.437500
7468		273.437500
7469		273.437500
7470		273.437500
7471		273.437500
7472		234.375000
7473		273.437500
7474		234.375000
7475		234.375000
7476		234.375000
7477		234.375000
7478		234.375000
7479		234.375000
7480		234.375000
7481		273.437500
7482		234.375000
7483		234.375000
7484		273.437500
7485		273.437500
7486		273.437500
7487		273.437500
7488		234.375000
7489		234.375000
7490		273.437500
7491		273.437500
7492		234.375000
7493		234.375000
7494		234.375000
7495		234.375000
7496		234.375000
7497		234.375000
7498		234.375000
7499		234.375000
7500		273.437500
7501		234.375000
7502		273.437500
7503		273.437500
7504		273.437500
7505		273.437500
7506		273.437500
7507		273.437500
7508		273.437500
7509		273.437500
7510		273.437500
7511		234.375000
7512		234.375000
7513		273.437500
7514		273.437500
7515		273.437500
7516		273.437500
7517		273.437500
7518		273.437500
7519		273.437500
7520		273.437500
7521		273.437500
7522		273.437500
7523		273.437500
7524		273.437500
7525		273.437500
7526		273.437500
7527		273.437500
7528		273.437500
7529		273.437500
7530		273.437500
7531		273.437500
7532		273.437500
7533		273.437500
7534		273.437500
7535		273.437500
7536		273.437500
7537		273.437500
7538		273.437500
7539		273.437500
7540		273.437500
7541		273.437500
7542		273.437500
7543		273.437500
7544		273.437500
7545		273.437500
7546		273.437500
7547		273.437500
7548		273.437500
7549		273.437500
7550		273.437500
7551		273.437500
7552		273.437500
7553		273.437500
7554		273.437500
7555		273.437500
7556		273.437500
7557		312.500000
7558		273.437500
7559		312.500000
7560		312.500000
7561		312.500000
7562		312.500000
7563		312.500000
7564		312.500000
7565		312.500000
7566		312.500000
7567		312.500000
7568		312.500000
7569		312.500000
7570		312.500000
7571		312.500000
7572		312.500000
7573		312.500000
7574		312.500000
7575		312.500000
7576		312.500000
7577		312.500000
7578		312.500000
7579		312.500000
7580		312.500000
7581		312.500000
7582		312.500000
7583		312.500000
7584		312.500000
7585		312.500000
7586		312.500000
7587		312.500000
7588		312.500000
7589		312.500000
7590		312.500000
7591		312.500000
7592		351.562500
7593		351.562500
7594		351.562500
7595		351.562500
7596		351.562500
7597		351.562500
7598		351.562500
7599		351.562500
7600		351.562500
7601		351.562500
7602		351.562500
7603		351.562500
7604		351.562500
7605		351.562500
7606		351.562500
7607		351.562500
7608		351.562500
7609		351.562500
7610		351.562500
7611		351.562500
7612		351.562500
7613		351.562500
7614		390.625000
7615		351.562500
7616		351.562500
7617		351.562500
7618		351.562500
7619		390.625000
7620		390.625000
7621		390.625000
7622		390.625000
7623		390.625000
7624		390.625000
7625		390.625000
7626		390.625000
7627		390.625000
7628		390.625000
7629		390.625000
7630		390.625000
7631		390.625000
7632		390.625000
7633		390.625000
7634		429.687500
7635		390.625000
7636		390.625000
7637		390.625000
7638		390.625000
7639		429.687500
7640		429.687500
7641		429.687500
7642		429.687500
7643		429.687500
7644		429.687500
7645		429.687500
7646		429.687500
7647		429.687500
7648		429.687500
7649		429.687500
7650		429.687500
7651		429.687500
7652		429.687500
7653		429.687500
7654		429.687500
7655		468.750000
7656		429.687500
7657		429.687500
7658		468.750000
7659		468.750000
7660		468.750000
7661		468.750000
7662		468.750000
7663		468.750000
7664		468.750000
7665		468.750000
7666		468.750000
7667		468.750000
7668		468.750000
7669		468.750000
7670		468.750000
7671		468.750000
7672		468.750000
7673		468.750000
7674		468.750000
7675		468.750000
7676		507.812500
7677		507.812500
7678		507.812500
7679		507.812500
7680		507.812500
7681		507.812500
7682		507.812500
7683		507.812500
7684		507.812500
7685		546.875000
7686		546.875000
7687		546.875000
7688		546.875000
7689		546.875000
7690		546.875000
7691		546.875000
7692		546.875000
7693		546.875000
7694		546.875000
7695		546.875000
7696		546.875000
7697		546.875000
7698		546.875000
7699		546.875000
7700		585.937500
7701		546.875000
7702		585.937500
7703		585.937500
7704		585.937500
7705		585.937500
7706		585.937500
7707		585.937500
7708		585.937500
7709		585.937500
7710		585.937500
7711		585.937500
7712		585.937500
7713		585.937500
7714		585.937500
7715		585.937500
7716		585.937500
7717		585.937500
7718		625.000000
7719		625.000000
7720		625.000000
7721		625.000000
7722		625.000000
7723		625.000000
7724		625.000000
7725		625.000000
7726		625.000000
7727		664.062500
7728		625.000000
7729		625.000000
7730		625.000000
7731		664.062500
7732		664.062500
7733		664.062500
7734		664.062500
7735		664.062500
7736		664.062500
7737		664.062500
7738		664.062500
7739		664.062500
7740		664.062500
7741		703.125000
7742		703.125000
7743		703.125000
7744		703.125000
7745		703.125000
7746		703.125000
7747		703.125000
7748		703.125000
7749		703.125000
7750		703.125000
7751		703.125000
7752		703.125000
7753		703.125000
7754		742.187500
7755		742.187500
7756		742.187500
7757		742.187500
7758		742.187500
7759		742.187500
7760		742.187500
7761		742.187500
7762		742.187500
7763		781.250000
7764		781.250000
7765		781.250000
7766		781.250000
7767		781.250000
7768		742.187500
7769		781.250000
7770		781.250000
7771		781.250000
7772		781.250000
7773		781.250000
7774		820.312500
7775		820.312500
7776		820.312500
7777		820.312500
7778		820.312500
7779		820.312500
7780		820.312500
7781		820.312500
7782		820.312500
7783		820.312500
7784		820.312500
7785		859.375000
7786		859.375000
7787		859.375000
7788		859.375000
7789		859.375000
7790		859.375000
7791		859.375000
7792		859.375000
7793		859.375000
7794		859.375000
7795		898.437500
7796		898.437500
7797		898.437500
7798		898.437500
7799		898.437500
7800		898.437500
7801		898.437500
7802		898.437500
7803		898.437500
7804		937.500000
7805		937.500000
7806		937.500000
7807		937.500000
7808		937.500000
7809		937.500000
7810		937.500000
7811		937.500000
7812		937.500000
7813		976.562500
7814		937.500000
7815		976.562500
7816		976.562500
7817		976.562500
7818		976.562500
7819		976.562500
7820		976.562500
7821		976.562500
7822		1015.625000
7823		976.562500
7824		1015.625000
7825		1015.625000
7826		1015.625000
7827		1015.625000
7828		1015.625000
7829		1015.625000
7830		1054.687500
7831		1015.625000
7832		1054.687500
7833		1054.687500
7834		1054.687500
7835		1054.687500
7836		1054.687500
7837		1054.687500
7838		1054.687500
7839		1054.687500
7840		1054.687500
7841		1054.687500
7842		1093.750000
7843		1093.750000
7844		1093.750000
7845		1093.750000
7846		1093.750000
7847		1093.750000
7848		1132.812500
7849		1132.812500
7850		1132.812500
7851		1132.812500
7852		1132.812500
7853		1093.750000
7854		1132.812500
7855		1132.812500
7856		1132.812500
7857		1132.812500
7858		1132.812500
7859		1132.812500
7860		1171.875000
7861		1171.875000
7862		1171.875000
7863		1171.875000
7864		1210.937500
7865		1210.937500
7866		1210.937500
7867		1210.937500
7868		1210.937500
7869		1210.937500
7870		1210.937500
7871		1210.937500
7872		1210.937500
7873		1210.937500
7874		1210.937500
7875		1210.937500
7876		1250.000000
7877		1250.000000
7878		1250.000000
7879		1250.000000
7880		1210.937500
7881		1250.000000
7882		1250.000000
7883		1250.000000
7884		1289.062500
7885		1289.062500
7886		1289.062500
7887		1289.062500
7888		1289.062500
7889		1289.062500
7890		1289.062500
7891		1289.062500
7892		1289.062500
7893		1328.125000
7894		1328.125000
7895		1328.125000
7896		1328.125000
7897		1328.125000
7898		1328.125000
7899		1367.187500
7900		1367.187500
7901		1367.187500
7902		1367.187500
7903		1367.187500
7904		1367.187500
7905		1367.187500
7906		1367.187500
7907		1367.187500
7908		1406.250000
7909		1406.250000
7910		1406.250000
7911		1406.250000
7912		1406.250000
7913		1406.250000
7914		1406.250000
7915		1406.250000
7916		1445.312500
7917		1445.312500
7918		1445.312500
7919		1445.312500
7920		1445.312500
7921		1445.312500
7922		1484.375000
7923		1484.375000
7924		1484.375000
7925		1484.375000
7926		1484.375000
7927		1484.375000
7928		1484.375000
7929		1484.375000
7930		1484.375000
7931		1484.375000
7932		1523.437500
7933		1523.437500
7934		1523.437500
7935		1523.437500
7936		1523.437500
7937		1523.437500
7938		1562.500000
7939		1562.500000
7940		1562.500000
7941		1562.500000
7942		1562.500000
7943		1562.500000
7944		1562.500000
7945		1562.500000
7946		1601.562500
7947		1601.562500
7948		1601.562500
7949		1601.562500
7950		1601.562500
7951		1601.562500
7952		1601.562500
7953		1601.562500
7954		1601.562500
7955		1601.562500
7956		1640.625000
7957		1640.625000
7958		1640.625000
7959		1640.625000
7960		1679.687500
7961		1679.687500
7962		1679.687500
7963		1679.687500
7964		1679.687500
7965		1679.687500
7966		1679.687500
7967		1679.687500
7968		1718.750000
7969		1718.750000
7970		1718.750000
7971		1718.750000
7972		1718.750000
7973		1718.750000
7974		1718.750000
7975		1718.750000
7976		1757.812500
7977		1757.812500
7978		1757.812500
7979		1757.812500
7980		1757.812500
7981		1757.812500
7982		1757.812500
7983		1796.875000
7984		1796.875000
7985		1796.875000
7986		1796.875000
7987		1796.875000
7988		1796.875000
7989		1796.875000
7990		1796.875000
7991		1835.937500
7992		1835.937500
7993		1835.937500
7994		1835.937500
7995		1835.937500
7996		1835.937500
7997		1835.937500
7998		1875.000000
7999		1875.000000
8000		1875.000000
8001		1875.000000
8002		1875.000000
8003		1875.000000
8004		1875.000000
8005		1914.062500
8006		1914.062500
8007		1914.062500
8008		1914.062500
8009		1914.062500
8010		1914.062500
8011		1914.062500
8012		1953.125000
8013		1914.062500
8014		1953.125000
8015		1953.125000
8016		1953.125000
8017		1953.125000
8018		1953.125000
8019		1953.125000
8020		1953.125000
8021		1992.187500
8022		1992.187500
8023		1992.187500
8024		1992.187500
8025		1992.187500
8026		1992.187500
8027		2031.250000
8028		2031.250000
8029		2031.250000
8030		1992.187500
8031		2031.250000
8032		2031.250000
8033		2031.250000
8034		2031.250000
8035		2031.250000
8036		2070.312500
8037		2070.312500
8038		2070.312500
8039		2070.312500
8040		2070.312500
8041		2070.312500
8042		2109.375000
8043		2109.375000
8044		2109.375000
8045		2109.375000
8046		2109.375000
8047		2109.375000
8048		2109.375000
8049		2109.375000
8050		2148.437500
8051		2148.437500
8052		2148.437500
8053		2148.437500
8054		2148.437500
8055		2148.437500
8056		2148.437500
8057		2148.437500
8058		2148.437500
8059		2187.500000
8060		2187.500000
8061		2187.500000
8062		2187.500000
8063		2187.500000
8064		2187.500000
8065		2226.562500
8066		2226.562500
8067		2226.562500
8068		2226.562500
8069		2226.562500
8070		2226.562500
8071		2226.562500
8072		2226.562500
8073		2226.562500
8074		2226.562500
8075		2226.562500
8076		2226.562500
8077		2265.625000
8078		2265.625000
8079		2265.625000
8080		2265.625000
8081		2265.625000
8082		2265.625000
8083		2304.687500
8084		2304.687500
8085		2304.687500
8086		2304.687500
8087		2304.687500
8088		2304.687500
8089		2304.687500
8090		2304.687500
8091		2304.687500
8092		2304.687500
8093		2304.687500
8094		2304.687500
8095		2343.750000
8096		2343.750000
8097		2343.750000
8098		2343.750000
8099		2343.750000
8100		2382.812500
8101		2382.812500
8102		2382.812500
8103		2382.812500
8104		2382.812500
8105		2343.750000
8106		2382.812500
8107		2382.812500
8108		2382.812500
8109		2382.812500
8110		2421.875000
8111		2421.875000
8112		2421.875000
8113		2421.875000
8114		2421.875000
8115		2421.875000
8116		2421.875000
8117		2421.875000
8118		2460.937500
8119		2460.937500
8120		2460.937500
8121		2460.937500
8122		2460.937500
8123		2460.937500
8124		2460.937500
8125		2460.937500
8126		2460.937500
8127		2460.937500
8128		2500.000000
8129		2500.000000
8130		2500.000000
8131		2500.000000
8132		2500.000000
8133		2500.000000
8134		2500.000000
8135		2500.000000
8136		2500.000000
8137		2500.000000
8138		2500.000000
8139		2500.000000
8140		2539.062500
8141		2539.062500
8142		2539.062500
8143		2539.062500
8144		2539.062500
8145		2539.062500
8146		2539.062500
8147		2539.062500
8148		2539.062500
8149		2539.062500
8150		2578.125000
8151		2578.125000
8152		2578.125000
8153		2578.125000
8154		2578.125000
8155		2578.125000
8156		2578.125000
8157		2578.125000
8158		2578.125000
8159		2617.187500
8160		2617.187500
8161		2617.187500
8162		2617.187500
8163		2617.187500
8164		2617.187500
8165		2617.187500
8166		2617.187500
8167		2617.187500
8168		2617.187500
8169		2617.187500
8170		2617.187500
8171		2617.187500
8172		2656.250000
8173		2656.250000
8174		2656.250000
8175		2656.250000
8176		2656.250000
8177		2656.250000
8178		2656.250000
8179		2656.250000
8180		2656.250000
8181		2656.250000
8182		2656.250000
8183		2656.250000
8184		2695.312500
8185		2695.312500
8186		2695.312500
8187		2695.312500
8188		2695.312500
8189		2695.312500
8190		2695.312500
8191		2695.312500
8192		2695.312500
8193		2695.312500
8194		2695.312500
8195		2695.312500
8196		2695.312500
8197		2695.312500
8198		2695.312500
8199		2695.312500
8200		2695.312500
8201		2734.375000
8202		2734.375000
8203		2734.375000
8204		2734.375000
8205		2734.375000
8206		2734.375000
8207		2734.375000
8208		2734.375000
8209		2734.375000
8210		2734.375000
8211		2734.375000
8212		2734.375000
8213		2734.375000
8214		2734.375000
8215		2734.375000
8216		2734.375000
8217		2734.375000
8218		2734.375000
8219		2734.375000
8220		2773.437500
8221		2773.437500
8222		2773.437500
8223		2773.437500
8224		2773.437500
8225		2773.437500
8226		2773.437500
8227		2773.437500
8228		2773.437500
8229		2773.437500
8230		2773.437500
8231		2773.437500
8232		2773.437500
8233		2773.437500
8234		2773.437500
8235		2773.437500
8236		2773.437500
8237		2773.437500
8238		2773.437500
8239		2773.437500
8240		2812.500000
8241		2812.500000
8242		2812.500000
8243		2812.500000
8244		2812.500000
8245		2812.500000
8246		2812.500000
8247		2812.500000
8248		2812.500000
8249		2812.500000
8250		2812.500000
8251		2812.500000
8252		2812.500000
8253		2812.500000
8254		2812.500000
8255		2812.500000
8256		2812.500000
8257		2812.500000
8258		2812.500000
8259		2812.500000
8260		2812.500000
8261		2812.500000
8262		2812.500000
8263		2812.500000
8264		2812.500000
8265		2812.500000
8266		2812.500000
8267		2812.500000
8268		2812.500000
8269		2812.500000
8270		2812.500000
8271		2812.500000
8272		2812.500000
8273		2812.500000
8274		2812.500000
8275		2812.500000
8276		2812.500000
8277		2812.500000
8278		2812.500000
8279		2812.500000
8280		2812.500000
8281		2812.500000
8282		2812.500000
8283		2812.500000
8284		2812.500000
8285		2851.562500
8286		2812.500000
8287		2812.500000
8288		2812.500000
8289		2812.500000
8290		2812.500000
8291		2812.500000
8292		2812.500000
8293		2812.500000
8294		2812.500000
8295		2812.500000
8296		2812.500000
8297		2812.500000
8298		2812.500000
8299		2812.500000
8300		2812.500000
8301		2812.500000
8302		2812.500000
8303		2812.500000
8304		2812.500000
8305		2812.500000
8306		2812.500000
8307		2812.500000
8308		2812.500000
8309		2812.500000
8310		2812.500000
8311		2812.500000
8312		2812.500000
8313		2812.500000
8314		2773.437500
8315		2812.500000
8316		2812.500000
8317		2812.500000
8318		2812.500000
8319		2812.500000
8320		2812.500000
8321		2812.500000
8322		2812.500000
8323		2812.500000
8324		2812.500000
8325		2812.500000
8326		2812.500000
8327		2812.500000
8328		2812.500000
8329		2773.437500
8330		2812.500000
8331		2773.437500
8332		2773.437500
8333		2773.437500
8334		2773.437500
8335		2773.437500
8336		2812.500000
8337		2812.500000
8338		2773.437500
8339		2773.437500
8340		2773.437500
8341		2773.437500
8342		2773.437500
8343		2773.437500
8344		2773.437500
8345		2773.437500
8346		2773.437500
8347		2773.437500
8348		2773.437500
8349		2773.437500
8350		2773.437500
8351		2773.437500
8352		2773.437500
8353		2773.437500
8354		2773.437500
8355		2773.437500
8356		2773.437500
8357		2773.437500
8358		2773.437500
8359		2773.437500
8360		2773.437500
8361		2734.375000
8362		2734.375000
8363		2734.375000
8364		2734.375000
8365		2734.375000
8366		2734.375000
8367		2734.375000
8368		2734.375000
8369		2734.375000
8370		2734.375000
8371		2734.375000
8372		2734.375000
8373		2734.375000
8374		2734.375000
8375		2734.375000
8376		2734.375000
8377		2695.312500
8378		2695.312500
8379		2695.312500
8380		2695.312500
8381		2695.312500
8382		2695.312500
8383		2695.312500
8384		2695.312500
8385		2695.312500
8386		2695.312500
8387		2695.312500
8388		2695.312500
8389		2695.312500
8390		2695.312500
8391		2695.312500
8392		2695.312500
8393		2656.250000
8394		2656.250000
8395		2656.250000
8396		2656.250000
8397		2656.250000
8398		2656.250000
8399		2656.250000
8400		2656.250000
8401		2656.250000
8402		2656.250000
8403		2656.250000
8404		2656.250000
8405		2617.187500
8406		2656.250000
8407		2617.187500
8408		2617.187500
8409		2617.187500
8410		2617.187500
8411		2617.187500
8412		2617.187500
8413		2617.187500
8414		2617.187500
8415		2578.125000
8416		2578.125000
8417		2578.125000
8418		2578.125000
8419		2578.125000
8420		2578.125000
8421		2578.125000
8422		2578.125000
8423		2578.125000
8424		2578.125000
8425		2578.125000
8426		2578.125000
8427		2578.125000
8428		2578.125000
8429		2578.125000
8430		2539.062500
8431		2539.062500
8432		2539.062500
8433		2539.062500
8434		2539.062500
8435		2539.062500
8436		2539.062500
8437		2539.062500
8438		2539.062500
8439		2500.000000
8440		2500.000000
8441		2539.062500
8442		2500.000000
8443		2500.000000
8444		2500.000000
8445		2500.000000
8446		2500.000000
8447		2500.000000
8448		2500.000000
8449		2500.000000
8450		2460.937500
8451		2460.937500
8452		2460.937500
8453		2460.937500
8454		2460.937500
8455		2460.937500
8456		2460.937500
8457		2460.937500
8458		2460.937500
8459		2460.937500
8460		2460.937500
8461		2460.937500
8462		2421.875000
8463		2421.875000
8464		2421.875000
8465		2421.875000
8466		2421.875000
8467		2421.875000
8468		2421.875000
8469		2421.875000
8470		2382.812500
8471		2382.812500
8472		2382.812500
8473		2382.812500
8474		2382.812500
8475		2382.812500
8476		2382.812500
8477		2343.750000
8478		2382.812500
8479		2382.812500
8480		2343.750000
8481		2343.750000
8482		2343.750000
8483		2343.750000
8484		2343.750000
8485		2343.750000
8486		2343.750000
8487		2304.687500
8488		2304.687500
8489		2304.687500
8490		2304.687500
8491		2265.625000
8492		2304.687500
8493		2304.687500
8494		2304.687500
8495		2265.625000
8496		2265.625000
8497		2265.625000
8498		2265.625000
8499		2265.625000
8500		2265.625000
8501		2265.625000
8502		2265.625000
8503		2265.625000
8504		2265.625000
8505		2265.625000
8506		2226.562500
8507		2226.562500
8508		2226.562500
8509		2226.562500
8510		2226.562500
8511		2226.562500
8512		2187.500000
8513		2187.500000
8514		2187.500000
8515		2187.500000
8516		2187.500000
8517		2187.500000
8518		2187.500000
8519		2187.500000
8520		2187.500000
8521		2187.500000
8522		2148.437500
8523		2148.437500
8524		2148.437500
8525		2148.437500
8526		2148.437500
8527		2148.437500
8528		2148.437500
8529		2148.437500
8530		2109.375000
8531		2109.375000
8532		2109.375000
8533		2109.375000
8534		2109.375000
8535		2109.375000
8536		2109.375000
8537		2109.375000
8538		2109.375000
8539		2070.312500
8540		2070.312500
8541		2070.312500
8542		2070.312500
8543		2070.312500
8544		2070.312500
8545		2070.312500
8546		2031.250000
8547		2031.250000
8548		2031.250000
8549		2031.250000
8550		2031.250000
8551		2031.250000
8552		2031.250000
8553		1992.187500
8554		1992.187500
8555		1992.187500
8556		1992.187500
8557		2031.250000
8558		1992.187500
8559		1992.187500
8560		1992.187500
8561		1953.125000
8562		1953.125000
8563		1953.125000
8564		1953.125000
8565		1953.125000
8566		1953.125000
8567		1953.125000
8568		1953.125000
8569		1914.062500
8570		1914.062500
8571		1914.062500
8572		1914.062500
8573		1914.062500
8574		1914.062500
8575		1914.062500
8576		1914.062500
8577		1875.000000
8578		1875.000000
8579		1875.000000
8580		1875.000000
8581		1875.000000
8582		1875.000000
8583		1875.000000
8584		1875.000000
8585		1835.937500
8586		1835.937500
8587		1835.937500
8588		1835.937500
8589		1835.937500
8590		1835.937500
8591		1835.937500
8592		1835.937500
8593		1796.875000
8594		1796.875000
8595		1796.875000
8596		1796.875000
8597		1796.875000
8598		1757.812500
8599		1757.812500
8600		1757.812500
8601		1757.812500
8602		1757.812500
8603		1757.812500
8604		1757.812500
8605		1757.812500
8606		1757.812500
8607		1757.812500
8608		1718.750000
8609		1718.750000
8610		1718.750000
8611		1718.750000
8612		1718.750000
8613		1679.687500
8614		1679.687500
8615		1679.687500
8616		1679.687500
8617		1679.687500
8618		1679.687500
8619		1679.687500
8620		1679.687500
8621		1679.687500
8622		1679.687500
8623		1640.625000
8624		1640.625000
8625		1640.625000
8626		1640.625000
8627		1640.625000
8628		1640.625000
8629		1640.625000
8630		1601.562500
8631		1601.562500
8632		1601.562500
8633		1601.562500
8634		1601.562500
8635		1601.562500
8636		1601.562500
8637		1562.500000
8638		1562.500000
8639		1562.500000
8640		1562.500000
8641		1562.500000
8642		1562.500000
8643		1562.500000
8644		1562.500000
8645		1562.500000
8646		1523.437500
8647		1523.437500
8648		1523.437500
8649		1523.437500
8650		1523.437500
8651		1523.437500
8652		1484.375000
8653		1484.375000
8654		1484.375000
8655		1484.375000
8656		1484.375000
8657		1484.375000
8658		1484.375000
8659		1484.375000
8660		1484.375000
8661		1484.375000
8662		1484.375000
8663		1445.312500
8664		1445.312500
8665		1445.312500
8666		1445.312500
8667		1445.312500
8668		1445.312500
8669		1406.250000
8670		1406.250000
8671		1406.250000
8672		1406.250000
8673		1406.250000
8674		1406.250000
8675		1406.250000
8676		1367.187500
8677		1367.187500
8678		1367.187500
8679		1367.187500
8680		1367.187500
8681		1367.187500
8682		1367.187500
8683		1367.187500
8684		1367.187500
8685		1367.187500
8686		1328.125000
8687		1328.125000
8688		1328.125000
8689		1328.125000
8690		1328.125000
8691		1328.125000
8692		1328.125000
8693		1289.062500
8694		1289.062500
8695		1289.062500
8696		1289.062500
8697		1289.062500
8698		1289.062500
8699		1289.062500
8700		1250.000000
8701		1289.062500
8702		1289.062500
8703		1250.000000
8704		1250.000000
8705		1250.000000
8706		1250.000000
8707		1250.000000
8708		1250.000000
8709		1210.937500
8710		1210.937500
8711		1210.937500
8712		1210.937500
8713		1210.937500
8714		1210.937500
8715		1210.937500
8716		1210.937500
8717		1210.937500
8718		1210.937500
8719		1210.937500
8720		1171.875000
8721		1171.875000
8722		1171.875000
8723		1171.875000
8724		1171.875000
8725		1171.875000
8726		1171.875000
8727		1132.812500
8728		1132.812500
8729		1132.812500
8730		1132.812500
8731		1132.812500
8732		1132.812500
8733		1132.812500
8734		1132.812500
8735		1132.812500
8736		1093.750000
8737		1093.750000
8738		1093.750000
8739		1093.750000
8740		1093.750000
8741		1093.750000
8742		1093.750000
8743		1093.750000
8744		1093.750000
8745		1054.687500
8746		1093.750000
8747		1054.687500
8748		1054.687500
8749		1054.687500
8750		1054.687500
8751		1054.687500
8752		1054.687500
8753		1054.687500
8754		1015.625000
8755		1015.625000
8756		1015.625000
8757		1015.625000
8758		1015.625000
8759		1015.625000
8760		1015.625000
8761		1015.625000
8762		1015.625000
8763		1015.625000
8764		1015.625000
8765		976.562500
8766		976.562500
8767		976.562500
8768		976.562500
8769		976.562500
8770		976.562500
8771		976.562500
8772		976.562500
8773		976.562500
8774		937.500000
8775		937.500000
8776		937.500000
8777		937.500000
8778		937.500000
8779		937.500000
8780		937.500000
8781		937.500000
8782		937.500000
8783		937.500000
8784		898.437500
8785		898.437500
8786		898.437500
8787		898.437500
8788		898.437500
8789		898.437500
8790		898.437500
8791		898.437500
8792		859.375000
8793		859.375000
8794		859.375000
8795		859.375000
8796		859.375000
8797		859.375000
8798		859.375000
8799		859.375000
8800		859.375000
8801		859.375000
8802		859.375000
8803		859.375000
8804		859.375000
8805		820.312500
8806		820.312500
8807		820.312500
8808		820.312500
8809		820.312500
8810		820.312500
8811		820.312500
8812		820.312500
8813		781.250000
8814		781.250000
8815		781.250000
8816		781.250000
8817		781.250000
8818		781.250000
8819		781.250000
8820		781.250000
8821		781.250000
8822		781.250000
8823		781.250000
8824		781.250000
8825		781.250000
8826		781.250000
8827		781.250000
8828		742.187500
8829		742.187500
8830		742.187500
8831		742.187500
8832		742.187500
8833		742.187500
8834		742.187500
8835		742.187500
8836		742.187500
8837		703.125000
8838		703.125000
8839		703.125000
8840		703.125000
8841		703.125000
8842		703.125000
8843		703.125000
8844		703.125000
8845		703.125000
8846		703.125000
8847		703.125000
8848		703.125000
8849		664.062500
8850		664.062500
8851		664.062500
8852		664.062500
8853		664.062500
8854		664.062500
8855		664.062500
8856		664.062500
8857		664.062500
8858		664.062500
8859		664.062500
8860		664.062500
8861		664.062500
8862		664.062500
8863		664.062500
8864		625.000000
8865		625.000000
8866		625.000000
8867		625.000000
8868		625.000000
8869		625.000000
8870		625.000000
8871		625.000000
8872		625.000000
8873		625.000000
8874		625.000000
8875		585.937500
8876		585.937500
8877		625.000000
8878		585.937500
8879		585.937500
8880		585.937500
8881		585.937500
8882		585.937500
8883		585.937500
8884		585.937500
8885		585.937500
8886		585.937500
8887		585.937500
8888		585.937500
8889		546.875000
8890		546.875000
8891		546.875000
8892		546.875000
8893		546.875000
8894		546.875000
8895		546.875000
8896		546.875000
8897		546.875000
8898		546.875000
8899		546.875000
8900		546.875000
8901		546.875000
8902		546.875000
8903		546.875000
8904		546.875000
8905		507.812500
8906		546.875000
8907		507.812500
8908		507.812500
8909		507.812500
8910		507.812500
8911		507.812500
8912		507.812500
8913		507.812500
8914		507.812500
8915		507.812500
8916		507.812500
8917		507.812500
8918		507.812500
8919		507.812500
8920		507.812500
8921		507.812500
8922		507.812500
8923		468.750000
8924		468.750000
8925		468.750000
8926		468.750000
8927		468.750000
8928		468.750000
8929		468.750000
8930		468.750000
8931		468.750000
8932		468.750000
8933		468.750000
8934		468.750000
8935		468.750000
8936		468.750000
8937		468.750000
8938		468.750000
8939		468.750000
8940		429.687500
8941		429.687500
8942		429.687500
8943		429.687500
8944		429.687500
8945		429.687500
8946		429.687500
8947		429.687500
8948		429.687500
8949		429.687500
8950		429.687500
8951		429.687500
8952		429.687500
8953		429.687500
8954		429.687500
8955		429.687500
8956		429.687500
8957		390.625000
8958		429.687500
8959		390.625000
8960		390.625000
8961		390.625000
8962		390.625000
8963		390.625000
8964		390.625000
8965		390.625000
8966		390.625000
8967		390.625000
8968		390.625000
8969		390.625000
8970		390.625000
8971		390.625000
8972		390.625000
8973		390.625000
8974		390.625000
8975		390.625000
8976		390.625000
8977		390.625000
8978		390.625000
8979		390.625000
8980		390.625000
8981		390.625000
8982		351.562500
8983		351.562500
8984		390.625000
8985		351.562500
8986		390.625000
8987		351.562500
8988		351.562500
8989		351.562500
8990		351.562500
8991		351.562500
8992		351.562500
8993		351.562500
8994		351.562500
8995		351.562500
8996		351.562500
8997		351.562500
8998		351.562500
8999		351.562500
9000		351.562500
9001		351.562500
9002		351.562500
9003		351.562500
9004		351.562500
9005		351.562500
9006		351.562500
9007		351.562500
9008		312.500000
9009		312.500000
9010		312.500000
9011		312.500000
9012		312.500000
9013		312.500000
9014		312.500000
9015		312.500000
9016		312.500000
9017		312.500000
9018		312.500000
9019		312.500000
9020		312.500000
9021		312.500000
9022		312.500000
9023		312.500000
9024		312.500000
9025		312.500000
9026		312.500000
9027		312.500000
9028		312.500000
9029		273.437500
9030		312.500000
9031		312.500000
9032		273.437500
9033		312.500000
9034		273.437500
9035		312.500000
9036		312.500000
9037		312.500000
9038		312.500000
9039		312.500000
9040		312.500000
9041		312.500000
9042		312.500000
9043		312.500000
9044		312.500000
9045		312.500000
9046		312.500000
9047		273.437500
9048		273.437500
9049		273.437500
9050		273.437500
9051		273.437500
9052		273.437500
9053		273.437500
9054		273.437500
9055		273.437500
9056		273.437500
9057		273.437500
9058		273.437500
9059		273.437500
9060		273.437500
9061		273.437500
9062		273.437500
9063		273.437500
9064		273.437500
9065		273.437500
9066		273.437500
9067		273.437500
9068		273.437500
9069		273.437500
9070		273.437500
9071		273.437500
9072		273.437500
9073		273.437500
9074		273.437500
9075		273.437500
9076		273.437500
9077		273.437500
9078		273.437500
9079		273.437500
9080		273.437500
9081		273.437500
9082		273.437500
9083		273.437500
9084		273.437500
9085		273.437500
9086		273.437500
9087		273.437500
9088		273.437500
9089		273.437500
9090		273.437500
9091		273.437500
9092		273.437500
9093		273.437500
9094		273.437500
9095		273.437500
9096		273.437500
9097		273.437500
9098		273.437500
9099		273.437500
9100		273.437500
9101		273.437500
9102		273.437500
9103		273.437500
9104		273.437500
9105		273.437500
9106		273.437500
9107		273.437500
9108		273.437500
9109		273.437500
9110		273.437500
9111		273.437500
9112		273.437500
9113		273.437500
9114		273.437500
9115		273.437500
9116		273.437500
9117		273.437500
9118		273.437500
9119		273.437500
9120		273.437500
9121		273.437500
9122		273.437500
9123		273.437500
9124		273.437500
9125		273.437500
9126		273.437500
9127		273.437500
9128		273.437500
9129		273.437500
9130		273.437500
9131		273.437500
9132		273.437500
9133		273.437500
9134		273.437500
9135		273.437500
9136		273.437500
9137		273.437500
9138		273.437500
9139		273.437500
9140		273.437500
9141		273.437500
9142		273.437500
9143		273.437500
9144		273.437500
9145		273.437500
9146		273.437500
9147		273.437500
9148		273.437500
9149		273.437500
9150		273.437500
9151		273.437500
9152		273.437500
9153		273.437500
9154		273.437500
9155		273.437500
9156		273.437500
9157		273.437500
9158		273.437500
9159		273.437500
9160		273.437500
9161		273.437500
9162		273.437500
9163		273.437500
9164		273.437500
9165		273.437500
9166		273.437500
9167		273.437500
9168		273.437500
9169		273.437500
9170		273.437500
9171		273.437500
9172		273.437500
9173		273.437500
9174		273.437500
9175		273.437500
9176		273.437500
9177		273.437500
9178		273.437500
9179		273.437500
9180		273.437500
9181		273.437500
9182		312.500000
9183		273.437500
9184		273.437500
9185		273.437500
9186		273.437500
9187		273.437500
9188		273.437500
9189		273.437500
9190		273.437500
9191		273.437500
9192		273.437500
9193		273.437500
9194		273.437500
9195		273.437500
9196		273.437500
9197		273.437500
9198		312.500000
9199		312.500000
9200		312.500000
9201		312.500000
9202		312.500000
9203		312.500000
9204		312.500000
9205		312.500000
9206		312.500000
9207		312.500000
9208		312.500000
9209		312.500000
9210		312.500000
9211		312.500000
9212		312.500000
9213		312.500000
9214		312.500000
9215		312.500000
9216		312.500000
9217		312.500000
9218		312.500000
9219		312.500000
9220		312.500000
9221		312.500000
9222		312.500000
9223		312.500000
9224		312.500000
9225		351.562500
9226		312.500000
9227		312.500000
9228		312.500000
9229		312.500000
9230		312.500000
9231		312.500000
9232		312.500000
9233		312.500000
9234		312.500000
9235		312.500000
9236		351.562500
9237		351.562500
9238		351.562500
9239		351.562500
9240		351.562500
9241		351.562500
9242		351.562500
9243		351.562500
9244		351.562500
9245		351.562500
9246		351.562500
9247		351.562500
9248		351.562500
9249		351.562500
9250		351.562500
9251		351.562500
9252		351.562500
9253		351.562500
9254		351.562500
9255		351.562500
9256		351.562500
9257		351.562500
9258		390.625000
9259		390.625000
9260		390.625000
9261		390.625000
9262		390.625000
9263		390.625000
9264		390.625000
9265		390.625000
9266		390.625000
9267		390.625000
9268		390.625000
9269		390.625000
9270		390.625000
9271		390.625000
9272		390.625000
9273		390.625000
9274		390.625000
9275		390.625000
9276		390.625000
9277		390.625000
9278		390.625000
9279		429.687500
9280		390.625000
9281		429.687500
9282		429.687500
9283		429.687500
9284		429.687500
9285		429.687500
9286		429.687500
9287		429.687500
9288		429.687500
9289		429.687500
9290		429.687500
9291		429.687500
9292		429.687500
9293		429.687500
9294		429.687500
9295		429.687500
9296		468.750000
9297		468.750000
9298		429.687500
9299		468.750000
9300		468.750000
9301		468.750000
9302		468.750000
9303		468.750000
9304		468.750000
9305		468.750000
9306		468.750000
9307		468.750000
9308		468.750000
9309		468.750000
9310		468.750000
9311		468.750000
9312		468.750000
9313		468.750000
9314		507.812500
9315		507.812500
9316		507.812500
9317		507.812500
9318		507.812500
9319		507.812500
9320		507.812500
9321		468.750000
9322		507.812500
9323		507.812500
9324		507.812500
9325		507.812500
9326		507.812500
9327		507.812500
9328		507.812500
9329		546.875000
9330		507.812500
9331		507.812500
9332		546.875000
9333		546.875000
9334		546.875000
9335		546.875000
9336		546.875000
9337		546.875000
9338		546.875000
9339		546.875000
9340		546.875000
9341		546.875000
9342		546.875000
9343		585.937500
9344		585.937500
9345		585.937500
9346		585.937500
9347		585.937500
9348		585.937500
9349		585.937500
9350		585.937500
9351		585.937500
9352		585.937500
9353		585.937500
9354		585.937500
9355		585.937500
9356		585.937500
9357		585.937500
9358		585.937500
9359		625.000000
9360		625.000000
9361		625.000000
9362		625.000000
9363		625.000000
9364		625.000000
9365		625.000000
9366		625.000000
9367		625.000000
9368		625.000000
9369		625.000000
9370		625.000000
9371		664.062500
9372		625.000000
9373		664.062500
9374		625.000000
9375		664.062500
9376		664.062500
9377		664.062500
9378		664.062500
9379		664.062500
9380		664.062500
9381		664.062500
9382		703.125000
9383		703.125000
9384		703.125000
9385		703.125000
9386		703.125000
9387		703.125000
9388		703.125000
9389		703.125000
9390		703.125000
9391		703.125000
9392		703.125000
9393		703.125000
9394		703.125000
9395		703.125000
9396		703.125000
9397		742.187500
9398		742.187500
9399		742.187500
9400		742.187500
9401		742.187500
9402		742.187500
9403		742.187500
9404		742.187500
9405		742.187500
9406		742.187500
9407		742.187500
9408		742.187500
9409		781.250000
9410		781.250000
9411		742.187500
9412		781.250000
9413		781.250000
9414		781.250000
9415		781.250000
9416		781.250000
9417		781.250000
9418		781.250000
9419		820.312500
9420		820.312500
9421		820.312500
9422		820.312500
9423		820.312500
9424		820.312500
9425		820.312500
9426		820.312500
9427		820.312500
9428		820.312500
9429		820.312500
9430		859.375000
9431		859.375000
9432		859.375000
9433		859.375000
9434		859.375000
9435		859.375000
9436		859.375000
9437		859.375000
9438		859.375000
9439		898.437500
9440		898.437500
9441		898.437500
9442		898.437500
9443		898.437500
9444		898.437500
9445		898.437500
9446		898.437500
9447		898.437500
9448		898.437500
9449		898.437500
9450		898.437500
9451		937.500000
9452		937.500000
9453		937.500000
9454		937.500000
9455		937.500000
9456		937.500000
9457		976.562500
9458		937.500000
9459		976.562500
9460		937.500000
9461		976.562500
9462		976.562500
9463		976.562500
9464		976.562500
9465		976.562500
9466		976.562500
9467		976.562500
9468		976.562500
9469		1015.625000
9470		1015.625000
9471		1015.625000
9472		1015.625000
9473		1015.625000
9474		1015.625000
9475		1015.625000
9476		1015.625000
9477		1015.625000
9478		1054.687500
9479		1054.687500
9480		1054.687500
9481		1054.687500
9482		1054.687500
9483		1054.687500
9484		1054.687500
9485		1054.687500
9486		1054.687500
9487		1054.687500
9488		1093.750000
9489		1093.750000
9490		1093.750000
9491		1093.750000
9492		1093.750000
9493		1093.750000
9494		1093.750000
9495		1132.812500
9496		1132.812500
9497		1132.812500
9498		1132.812500
9499		1132.812500
9500		1132.812500
9501		1132.812500
9502		1132.812500
9503		1171.875000
9504		1171.875000
9505		1171.875000
9506		1171.875000
9507		1171.875000
9508		1171.875000
9509		1171.875000
9510		1171.875000
9511		1171.875000
9512		1171.875000
9513		1210.937500
9514		1210.937500
9515		1210.937500
9516		1210.937500
9517		1210.937500
9518		1210.937500
9519		1210.937500
9520		1250.000000
9521		1250.000000
9522		1250.000000
9523		1250.000000
9524		1250.000000
9525		1250.000000
9526		1250.000000
9527		1250.000000
9528		1289.062500
9529		1250.000000
9530		1289.062500
9531		1289.062500
9532		1289.062500
9533		1289.062500
9534		1289.062500
9535		1289.062500
9536		1289.062500
9537		1328.125000
9538		1289.062500
9539		1328.125000
9540		1328.125000
9541		1328.125000
9542		1328.125000
9543		1328.125000
9544		1328.125000
9545		1367.187500
9546		1367.187500
9547		1367.187500
9548		1367.187500
9549		1367.187500
9550		1367.187500
9551		1367.187500
9552		1367.187500
9553		1367.187500
9554		1406.250000
9555		1406.250000
9556		1406.250000
9557		1406.250000
9558		1406.250000
9559		1406.250000
9560		1445.312500
9561		1406.250000
9562		1445.312500
9563		1445.312500
9564		1445.312500
9565		1445.312500
9566		1445.312500
9567		1484.375000
9568		1484.375000
9569		1484.375000
9570		1484.375000
9571		1484.375000
9572		1484.375000
9573		1484.375000
9574		1484.375000
9575		1484.375000
9576		1484.375000
9577		1523.437500
9578		1523.437500
9579		1523.437500
9580		1523.437500
9581		1523.437500
9582		1523.437500
9583		1562.500000
9584		1562.500000
9585		1562.500000
9586		1562.500000
9587		1562.500000
9588		1562.500000
9589		1562.500000
9590		1562.500000
9591		1562.500000
9592		1562.500000
9593		1601.562500
9594		1601.562500
9595		1601.562500
9596		1601.562500
9597		1601.562500
9598		1640.625000
9599		1640.625000
9600		1640.625000
9601		1640.625000
9602		1640.625000
9603		1640.625000
9604		1640.625000
9605		1679.687500
9606		1679.687500
9607		1679.687500
9608		1679.687500
9609		1679.687500
9610		1679.687500
9611		1679.687500
9612		1679.687500
9613		1679.687500
9614		1718.750000
9615		1718.750000
9616		1718.750000
9617		1718.750000
9618		1718.750000
9619		1718.750000
9620		1757.812500
9621		1757.812500
9622		1757.812500
9623		1757.812500
9624		1757.812500
9625		1757.812500
9626		1757.812500
9627		1757.812500
9628		1796.875000
9629		1796.875000
9630		1796.875000
9631		1796.875000
9632		1796.875000
9633		1796.875000
9634		1796.875000
9635		1796.875000
9636		1835.937500
9637		1835.937500
9638		1835.937500
9639		1835.937500
9640		1835.937500
9641		1875.000000
9642		1875.000000
9643		1875.000000
9644		1875.000000
9645		1875.000000
9646		1875.000000
9647		1875.000000
9648		1875.000000
9649		1875.000000
9650		1914.062500
9651		1914.062500
9652		1914.062500
9653		1914.062500
9654		1914.062500
9655		1914.062500
9656		1914.062500
9657		1914.062500
9658		1953.125000
9659		1953.125000
9660		1953.125000
9661		1953.125000
9662		1953.125000
9663		1953.125000
9664		1953.125000
9665		1992.187500
9666		1992.187500
9667		1992.187500
9668		1992.187500
9669		1992.187500
9670		1992.187500
9671		1992.187500
9672		1992.187500
9673		1992.187500
9674		2031.250000
9675		2031.250000
9676		2031.250000
9677		2031.250000
9678		2031.250000
9679		2031.250000
9680		2070.312500
9681		2070.312500
9682		2070.312500
9683		2070.312500
9684		2070.312500
9685		2070.312500
9686		2070.312500
9687		2070.312500
9688		2070.312500
9689		2109.375000
9690		2109.375000
9691		2109.375000
9692		2109.375000
9693		2109.375000
9694		2148.437500
9695		2109.375000
9696		2148.437500
9697		2148.437500
9698		2148.437500
9699		2148.437500
9700		2148.437500
9701		2148.437500
9702		2148.437500
9703		2148.437500
9704		2187.500000
9705		2187.500000
9706		2187.500000
9707		2187.500000
9708		2187.500000
9709		2187.500000
9710		2187.500000
9711		2187.500000
9712		2226.562500
9713		2226.562500
9714		2226.562500
9715		2226.562500
9716		2226.562500
9717		2226.562500
9718		2226.562500
9719		2265.625000
9720		2265.625000
9721		2265.625000
9722		2265.625000
9723		2265.625000
9724		2265.625000
9725		2265.625000
9726		2265.625000
9727		2265.625000
9728		2304.687500
9729		2304.687500
9730		2304.687500
9731		2304.687500
9732		2304.687500
9733		2304.687500
9734		2304.687500
9735		2304.687500
9736		2304.687500
9737		2304.687500
9738		2343.750000
9739		2343.750000
9740		2343.750000
9741		2343.750000
9742		2343.750000
9743		2343.750000
9744		2343.750000
9745		2382.812500
9746		2382.812500
9747		2382.812500
9748		2382.812500
9749		2382.812500
9750		2382.812500
9751		2382.812500
9752		2382.812500
9753		2382.812500
9754		2382.812500
9755		2382.812500
9756		2421.875000
9757		2421.875000
9758		2421.875000
9759		2421.875000
9760		2421.875000
9761		2421.875000
9762		2421.875000
9763		2460.937500
9764		2460.937500
9765		2460.937500
9766		2460.937500
9767		2460.937500
9768		2460.937500
9769		2460.937500
9770		2460.937500
9771		2460.937500
9772		2460.937500
9773		2460.937500
9774		2500.000000
9775		2500.000000
9776		2500.000000
9777		2500.000000
9778		2500.000000
9779		2500.000000
9780		2500.000000
9781		2539.062500
9782		2500.000000
9783		2539.062500
9784		2539.062500
9785		2539.062500
9786		2539.062500
9787		2539.062500
9788		2539.062500
9789		2539.062500
9790		2539.062500
9791		2539.062500
9792		2539.062500
9793		2539.062500
9794		2539.062500
9795		2578.125000
9796		2578.125000
9797		2578.125000
9798		2578.125000
9799		2578.125000
9800		2578.125000
9801		2617.187500
9802		2578.125000
9803		2617.187500
9804		2617.187500
9805		2617.187500
9806		2617.187500
9807		2617.187500
9808		2617.187500
9809		2617.187500
9810		2617.187500
9811		2617.187500
9812		2617.187500
9813		2617.187500
9814		2617.187500
9815		2617.187500
9816		2656.250000
9817		2656.250000
9818		2656.250000
9819		2656.250000
9820		2656.250000
9821		2656.250000
9822		2656.250000
9823		2656.250000
9824		2656.250000
9825		2656.250000
9826		2656.250000
9827		2656.250000
9828		2656.250000
9829		2656.250000
9830		2656.250000
9831		2695.312500
9832		2695.312500
9833		2695.312500
9834		2695.312500
9835		2695.312500
9836		2695.312500
9837		2695.312500
9838		2695.312500
9839		2695.312500
9840		2734.375000
9841		2734.375000
9842		2734.375000
9843		2734.375000
9844		2734.375000
9845		2734.375000
9846		2734.375000
9847		2734.375000
9848		2734.375000
9849		2734.375000
9850		2734.375000
9851		2734.375000
9852		2734.375000
9853		2734.375000
9854		2734.375000
9855		2734.375000
9856		2734.375000
9857		2734.375000
9858		2773.437500
9859		2773.437500
9860		2734.375000
9861		2773.437500
9862		2773.437500
9863		2773.437500
9864		2773.437500
9865		2773.437500
9866		2773.437500
9867		2773.437500
9868		2773.437500
9869		2773.437500
9870		2773.437500
9871		2773.437500
9872		2773.437500
9873		2773.437500
9874		2773.437500
9875		2773.437500
9876		2773.437500
9877		2773.437500
9878		2773.437500
9879		2773.437500
9880		2773.437500
9881		2773.437500
9882		2773.437500
9883		2773.437500
9884		2812.500000
9885		2812.500000
9886		2812.500000
9887		2773.437500
9888		2812.500000
9889		2812.500000
9890		2812.500000
9891		2812.500000
9892		2812.500000
9893		2812.500000
9894		2812.500000
9895		2812.500000
9896		2812.500000
9897		2812.500000
9898		2812.500000
9899		2812.500000
9900		2812.500000
9901		2812.500000
9902		2812.500000
9903		2812.500000
9904		2812.500000
9905		2812.500000
9906		2812.500000
9907		2812.500000
9908		2812.500000
9909		2812.500000
9910		2812.500000
9911		2812.500000
9912		2812.500000
9913		2812.500000
9914		2812.500000
9915		2812.500000
9916		2812.500000
9917		2812.500000
9918		2812.500000
9919		2812.500000
9920		2812.500000
9921		2851.562500
9922		2812.500000
9923		2812.500000
9924		2812.500000
9925		2851.562500
9926		2851.562500
9927		2851.562500
9928		2812.500000
9929		2812.500000
9930		2812.500000
9931		2851.562500
9932		2812.500000
9933		2812.500000
9934		2812.500000
9935		2812.500000
9936		2812.500000
9937		2812.500000
9938		2812.500000
9939		2812.500000
9940		2812.500000
9941		2851.562500
9942		2851.562500
9943		2851.562500
9944		2851.562500
9945		2812.500000
9946		2851.562500
9947		2851.562500
9948		2812.500000
9949		2851.562500
9950		2812.500000
9951		2812.500000
9952		2812.500000
9953		2812.500000
9954		2812.500000
9955		2812.500000
9956		2812.500000
9957		2812.500000
9958		2812.500000
9959		2812.500000
9960		2812.500000
9961		2812.500000
9962		2812.500000
9963		2812.500000
9964		2812.500000
9965		2812.500000
9966		2812.500000
9967		2812.500000
9968		2812.500000
9969		2812.500000
9970		2812.500000
9971		2812.500000
9972		2812.500000
9973		2812.500000
9974		2812.500000
9975		2812.500000
9976		2812.500000
9977		2812.500000
9978		2812.500000
9979		2812.500000
9980		2812.500000
9981		2812.500000
9982		2812.500000
9983		2812.500000
9984		2773.437500
9985		2812.500000
9986		2812.500000
9987		2773.437500
9988		2773.437500
9989		2773.437500
9990		2773.437500
9991		2773.437500
9992		2773.437500
9993		2773.437500
9994		2773.437500
9995		2773.437500
9996		2773.437500
9997		2773.437500
9998		2773.437500
9999		2773.437500
10000		2773.437500
