Channel              :		CH1
Frequency            :		973.6Hz
Period               :		1.027ms
PK-PK                :		275.4mV
Probe attenuation    :		1X
Voltage per ADC value:		0.122070mV
Time interval        :		2.00000us

index		CH1_Voltage(mV)
1		138.671875
2		138.671875
3		136.718750
4		138.671875
5		132.812500
6		138.671875
7		132.812500
8		140.625000
9		132.812500
10		140.625000
11		132.812500
12		138.671875
13		132.812500
14		138.671875
15		130.859375
16		138.671875
17		132.812500
18		138.671875
19		132.812500
20		134.765625
21		132.812500
22		134.765625
23		128.906250
24		136.718750
25		128.906250
26		134.765625
27		128.906250
28		134.765625
29		126.953125
30		134.765625
31		126.953125
32		132.812500
33		125.000000
34		132.812500
35		125.000000
36		130.859375
37		125.000000
38		126.953125
39		121.093750
40		126.953125
41		121.093750
42		126.953125
43		119.140625
44		126.953125
45		117.187500
46		125.000000
47		117.187500
48		123.046875
49		113.281250
50		123.046875
51		113.281250
52		121.093750
53		113.281250
54		117.187500
55		109.375000
56		115.234375
57		107.421875
58		115.234375
59		105.468750
60		113.281250
61		103.515625
62		111.328125
63		101.562500
64		109.375000
65		99.609375
66		107.421875
67		97.656250
68		105.468750
69		97.656250
70		101.562500
71		95.703125
72		99.609375
73		91.796875
74		97.656250
75		89.843750
76		95.703125
77		85.937500
78		93.750000
79		82.031250
80		91.796875
81		82.031250
82		89.843750
83		78.125000
84		85.937500
85		78.125000
86		83.984375
87		76.171875
88		80.078125
89		70.312500
90		76.171875
91		68.359375
92		76.171875
93		64.453125
94		72.265625
95		62.500000
96		68.359375
97		58.593750
98		66.406250
99		56.640625
100		64.453125
101		54.687500
102		60.546875
103		52.734375
104		56.640625
105		48.828125
106		52.734375
107		44.921875
108		52.734375
109		41.015625
110		48.828125
111		39.062500
112		46.875000
113		35.156250
114		42.968750
115		31.250000
116		39.062500
117		27.343750
118		37.109375
119		27.343750
120		33.203125
121		23.437500
122		29.296875
123		19.531250
124		25.390625
125		15.625000
126		23.437500
127		11.718750
128		21.484375
129		7.812500
130		17.578125
131		5.859375
132		13.671875
133		1.953125
134		11.718750
135		0.000000
136		7.812500
137		-1.953125
138		1.953125
139		-5.859375
140		0.000000
141		-9.765625
142		-3.906250
143		-13.671875
144		-5.859375
145		-17.578125
146		-9.765625
147		-21.484375
148		-11.718750
149		-23.437500
150		-15.625000
151		-25.390625
152		-19.531250
153		-29.296875
154		-23.437500
155		-31.250000
156		-27.343750
157		-37.109375
158		-31.250000
159		-41.015625
160		-31.250000
161		-44.921875
162		-35.156250
163		-46.875000
164		-39.062500
165		-50.781250
166		-42.968750
167		-52.734375
168		-44.921875
169		-52.734375
170		-46.875000
171		-56.640625
172		-52.734375
173		-62.500000
174		-54.687500
175		-66.406250
176		-56.640625
177		-68.359375
178		-60.546875
179		-70.312500
180		-62.500000
181		-72.265625
182		-66.406250
183		-76.171875
184		-68.359375
185		-78.125000
186		-70.312500
187		-80.078125
188		-76.171875
189		-82.031250
190		-78.125000
191		-87.890625
192		-80.078125
193		-89.843750
194		-82.031250
195		-91.796875
196		-83.984375
197		-93.750000
198		-85.937500
199		-97.656250
200		-89.843750
201		-99.609375
202		-91.796875
203		-99.609375
204		-93.750000
205		-101.562500
206		-97.656250
207		-105.468750
208		-99.609375
209		-107.421875
210		-99.609375
211		-109.375000
212		-101.562500
213		-111.328125
214		-103.515625
215		-113.281250
216		-105.468750
217		-115.234375
218		-107.421875
219		-115.234375
220		-109.375000
221		-115.234375
222		-113.281250
223		-119.140625
224		-115.234375
225		-121.093750
226		-113.281250
227		-123.046875
228		-115.234375
229		-123.046875
230		-117.187500
231		-125.000000
232		-117.187500
233		-126.953125
234		-119.140625
235		-126.953125
236		-119.140625
237		-125.000000
238		-123.046875
239		-126.953125
240		-123.046875
241		-130.859375
242		-123.046875
243		-130.859375
244		-123.046875
245		-130.859375
246		-123.046875
247		-130.859375
248		-125.000000
249		-132.812500
250		-125.000000
251		-132.812500
252		-125.000000
253		-130.859375
254		-126.953125
255		-130.859375
256		-128.906250
257		-132.812500
258		-126.953125
259		-132.812500
260		-125.000000
261		-132.812500
262		-125.000000
263		-132.812500
264		-125.000000
265		-130.859375
266		-125.000000
267		-130.859375
268		-125.000000
269		-130.859375
270		-125.000000
271		-128.906250
272		-125.000000
273		-126.953125
274		-125.000000
275		-128.906250
276		-121.093750
277		-128.906250
278		-121.093750
279		-126.953125
280		-121.093750
281		-126.953125
282		-119.140625
283		-125.000000
284		-119.140625
285		-123.046875
286		-117.187500
287		-121.093750
288		-117.187500
289		-119.140625
290		-115.234375
291		-119.140625
292		-111.328125
293		-117.187500
294		-111.328125
295		-117.187500
296		-109.375000
297		-113.281250
298		-107.421875
299		-113.281250
300		-105.468750
301		-111.328125
302		-103.515625
303		-109.375000
304		-101.562500
305		-105.468750
306		-101.562500
307		-103.515625
308		-99.609375
309		-103.515625
310		-95.703125
311		-99.609375
312		-93.750000
313		-97.656250
314		-89.843750
315		-95.703125
316		-87.890625
317		-93.750000
318		-85.937500
319		-89.843750
320		-83.984375
321		-85.937500
322		-82.031250
323		-83.984375
324		-80.078125
325		-82.031250
326		-74.218750
327		-80.078125
328		-72.265625
329		-76.171875
330		-70.312500
331		-74.218750
332		-66.406250
333		-70.312500
334		-62.500000
335		-68.359375
336		-60.546875
337		-66.406250
338		-58.593750
339		-60.546875
340		-56.640625
341		-58.593750
342		-50.781250
343		-56.640625
344		-48.828125
345		-54.687500
346		-44.921875
347		-50.781250
348		-42.968750
349		-46.875000
350		-39.062500
351		-42.968750
352		-37.109375
353		-41.015625
354		-33.203125
355		-35.156250
356		-31.250000
357		-33.203125
358		-27.343750
359		-31.250000
360		-21.484375
361		-27.343750
362		-19.531250
363		-23.437500
364		-17.578125
365		-21.484375
366		-13.671875
367		-17.578125
368		-9.765625
369		-13.671875
370		-5.859375
371		-9.765625
372		-3.906250
373		-5.859375
374		-1.953125
375		-1.953125
376		3.906250
377		-1.953125
378		7.812500
379		1.953125
380		9.765625
381		5.859375
382		13.671875
383		9.765625
384		17.578125
385		11.718750
386		19.531250
387		15.625000
388		21.484375
389		19.531250
390		25.390625
391		23.437500
392		27.343750
393		25.390625
394		33.203125
395		27.343750
396		35.156250
397		31.250000
398		39.062500
399		35.156250
400		41.015625
401		37.109375
402		44.921875
403		41.015625
404		48.828125
405		44.921875
406		50.781250
407		48.828125
408		52.734375
409		50.781250
410		58.593750
411		52.734375
412		60.546875
413		56.640625
414		64.453125
415		58.593750
416		66.406250
417		60.546875
418		70.312500
419		64.453125
420		72.265625
421		66.406250
422		72.265625
423		72.265625
424		76.171875
425		74.218750
426		78.125000
427		74.218750
428		82.031250
429		78.125000
430		85.937500
431		80.078125
432		87.890625
433		82.031250
434		89.843750
435		83.984375
436		91.796875
437		85.937500
438		93.750000
439		91.796875
440		95.703125
441		93.750000
442		97.656250
443		93.750000
444		101.562500
445		97.656250
446		103.515625
447		97.656250
448		105.468750
449		101.562500
450		107.421875
451		101.562500
452		109.375000
453		103.515625
454		111.328125
455		107.421875
456		111.328125
457		109.375000
458		113.281250
459		111.328125
460		117.187500
461		111.328125
462		117.187500
463		113.281250
464		121.093750
465		115.234375
466		121.093750
467		115.234375
468		123.046875
469		117.187500
470		125.000000
471		119.140625
472		125.000000
473		123.046875
474		125.000000
475		123.046875
476		126.953125
477		123.046875
478		130.859375
479		123.046875
480		130.859375
481		125.000000
482		130.859375
483		125.000000
484		132.812500
485		126.953125
486		134.765625
487		128.906250
488		134.765625
489		128.906250
490		134.765625
491		130.859375
492		134.765625
493		130.859375
494		136.718750
495		130.859375
496		136.718750
497		130.859375
498		136.718750
499		130.859375
500		138.671875
501		130.859375
502		138.671875
503		132.812500
504		138.671875
505		132.812500
506		138.671875
507		134.765625
508		136.718750
509		134.765625
510		138.671875
511		132.812500
512		138.671875
513		132.812500
514		140.625000
515		132.812500
516		140.625000
517		132.812500
518		140.625000
519		132.812500
520		140.625000
521		134.765625
522		138.671875
523		134.765625
524		138.671875
525		134.765625
526		136.718750
527		130.859375
528		138.671875
529		132.812500
530		138.671875
531		130.859375
532		138.671875
533		130.859375
534		136.718750
535		130.859375
536		136.718750
537		128.906250
538		136.718750
539		128.906250
540		134.765625
541		128.906250
542		132.812500
543		126.953125
544		132.812500
545		125.000000
546		132.812500
547		125.000000
548		130.859375
549		123.046875
550		130.859375
551		123.046875
552		128.906250
553		121.093750
554		128.906250
555		119.140625
556		126.953125
557		119.140625
558		123.046875
559		119.140625
560		121.093750
561		115.234375
562		123.046875
563		113.281250
564		121.093750
565		111.328125
566		119.140625
567		109.375000
568		117.187500
569		109.375000
570		115.234375
571		105.468750
572		113.281250
573		107.421875
574		111.328125
575		105.468750
576		107.421875
577		99.609375
578		107.421875
579		99.609375
580		105.468750
581		97.656250
582		103.515625
583		95.703125
584		101.562500
585		91.796875
586		99.609375
587		89.843750
588		97.656250
589		89.843750
590		95.703125
591		85.937500
592		89.843750
593		83.984375
594		87.890625
595		80.078125
596		87.890625
597		78.125000
598		83.984375
599		74.218750
600		83.984375
601		72.265625
602		80.078125
603		68.359375
604		76.171875
605		66.406250
606		74.218750
607		66.406250
608		70.312500
609		62.500000
610		66.406250
611		58.593750
612		64.453125
613		54.687500
614		62.500000
615		52.734375
616		60.546875
617		48.828125
618		56.640625
619		46.875000
620		54.687500
621		42.968750
622		50.781250
623		41.015625
624		48.828125
625		39.062500
626		42.968750
627		35.156250
628		39.062500
629		31.250000
630		39.062500
631		27.343750
632		35.156250
633		23.437500
634		31.250000
635		21.484375
636		29.296875
637		17.578125
638		25.390625
639		15.625000
640		23.437500
641		11.718750
642		17.578125
643		9.765625
644		13.671875
645		5.859375
646		11.718750
647		0.000000
648		9.765625
649		-1.953125
650		5.859375
651		-5.859375
652		1.953125
653		-9.765625
654		0.000000
655		-11.718750
656		-3.906250
657		-13.671875
658		-7.812500
659		-17.578125
660		-11.718750
661		-23.437500
662		-15.625000
663		-23.437500
664		-17.578125
665		-29.296875
666		-19.531250
667		-31.250000
668		-23.437500
669		-35.156250
670		-27.343750
671		-37.109375
672		-31.250000
673		-41.015625
674		-33.203125
675		-42.968750
676		-39.062500
677		-46.875000
678		-41.015625
679		-50.781250
680		-42.968750
681		-54.687500
682		-46.875000
683		-56.640625
684		-48.828125
685		-58.593750
686		-52.734375
687		-64.453125
688		-54.687500
689		-66.406250
690		-58.593750
691		-66.406250
692		-62.500000
693		-70.312500
694		-66.406250
695		-74.218750
696		-68.359375
697		-78.125000
698		-70.312500
699		-80.078125
700		-72.265625
701		-83.984375
702		-74.218750
703		-85.937500
704		-78.125000
705		-87.890625
706		-82.031250
707		-89.843750
708		-82.031250
709		-91.796875
710		-87.890625
711		-95.703125
712		-89.843750
713		-97.656250
714		-89.843750
715		-101.562500
716		-91.796875
717		-101.562500
718		-95.703125
719		-103.515625
720		-95.703125
721		-107.421875
722		-99.609375
723		-107.421875
724		-101.562500
725		-109.375000
726		-105.468750
727		-111.328125
728		-107.421875
729		-115.234375
730		-107.421875
731		-115.234375
732		-109.375000
733		-117.187500
734		-111.328125
735		-119.140625
736		-113.281250
737		-121.093750
738		-113.281250
739		-121.093750
740		-115.234375
741		-121.093750
742		-117.187500
743		-123.046875
744		-119.140625
745		-125.000000
746		-119.140625
747		-126.953125
748		-119.140625
749		-126.953125
750		-121.093750
751		-128.906250
752		-121.093750
753		-128.906250
754		-123.046875
755		-130.859375
756		-123.046875
757		-130.859375
758		-125.000000
759		-128.906250
760		-126.953125
761		-130.859375
762		-126.953125
763		-132.812500
764		-125.000000
765		-132.812500
766		-125.000000
767		-132.812500
768		-126.953125
769		-132.812500
770		-126.953125
771		-132.812500
772		-126.953125
773		-132.812500
774		-126.953125
775		-130.859375
776		-128.906250
777		-130.859375
778		-126.953125
779		-130.859375
780		-125.000000
781		-130.859375
782		-125.000000
783		-130.859375
784		-125.000000
785		-130.859375
786		-123.046875
787		-130.859375
788		-123.046875
789		-128.906250
790		-123.046875
791		-126.953125
792		-121.093750
793		-125.000000
794		-123.046875
795		-125.000000
796		-119.140625
797		-125.000000
798		-119.140625
799		-123.046875
800		-117.187500
801		-123.046875
802		-115.234375
803		-121.093750
804		-113.281250
805		-119.140625
806		-113.281250
807		-119.140625
808		-111.328125
809		-115.234375
810		-111.328125
811		-113.281250
812		-109.375000
813		-113.281250
814		-105.468750
815		-111.328125
816		-103.515625
817		-109.375000
818		-101.562500
819		-107.421875
820		-99.609375
821		-103.515625
822		-97.656250
823		-103.515625
824		-95.703125
825		-99.609375
826		-95.703125
827		-95.703125
828		-91.796875
829		-95.703125
830		-87.890625
831		-93.750000
832		-85.937500
833		-91.796875
834		-82.031250
835		-87.890625
836		-80.078125
837		-85.937500
838		-78.125000
839		-82.031250
840		-74.218750
841		-80.078125
842		-74.218750
843		-76.171875
844		-70.312500
845		-72.265625
846		-66.406250
847		-70.312500
848		-62.500000
849		-68.359375
850		-60.546875
851		-66.406250
852		-58.593750
853		-62.500000
854		-54.687500
855		-60.546875
856		-50.781250
857		-56.640625
858		-48.828125
859		-52.734375
860		-46.875000
861		-48.828125
862		-42.968750
863		-46.875000
864		-39.062500
865		-42.968750
866		-35.156250
867		-41.015625
868		-31.250000
869		-37.109375
870		-29.296875
871		-33.203125
872		-25.390625
873		-29.296875
874		-23.437500
875		-27.343750
876		-21.484375
877		-21.484375
878		-17.578125
879		-19.531250
880		-11.718750
881		-17.578125
882		-9.765625
883		-13.671875
884		-5.859375
885		-9.765625
886		-1.953125
887		-7.812500
888		1.953125
889		-3.906250
890		3.906250
891		-1.953125
892		7.812500
893		3.906250
894		9.765625
895		7.812500
896		11.718750
897		9.765625
898		17.578125
899		11.718750
900		21.484375
901		17.578125
902		25.390625
903		19.531250
904		27.343750
905		21.484375
906		29.296875
907		25.390625
908		33.203125
909		29.296875
910		35.156250
911		33.203125
912		39.062500
913		37.109375
914		42.968750
915		39.062500
916		46.875000
917		41.015625
918		48.828125
919		44.921875
920		52.734375
921		46.875000
922		54.687500
923		50.781250
924		58.593750
925		52.734375
926		60.546875
927		58.593750
928		62.500000
929		60.546875
930		64.453125
931		62.500000
932		70.312500
933		64.453125
934		72.265625
935		66.406250
936		76.171875
937		70.312500
938		78.125000
939		72.265625
940		80.078125
941		76.171875
942		83.984375
943		80.078125
944		83.984375
945		82.031250
946		85.937500
947		83.984375
948		89.843750
949		85.937500
950		93.750000
951		87.890625
952		95.703125
953		89.843750
954		97.656250
955		91.796875
956		99.609375
957		93.750000
958		101.562500
959		95.703125
960		103.515625
961		101.562500
962		103.515625
963		101.562500
964		107.421875
965		103.515625
966		109.375000
967		103.515625
968		111.328125
969		105.468750
970		113.281250
971		107.421875
972		115.234375
973		111.328125
974		117.187500
975		111.328125
976		117.187500
977		115.234375
978		117.187500
979		117.187500
980		119.140625
981		117.187500
982		123.046875
983		117.187500
984		125.000000
985		119.140625
986		126.953125
987		121.093750
988		126.953125
989		121.093750
990		128.906250
991		123.046875
992		128.906250
993		125.000000
994		128.906250
995		126.953125
996		130.859375
997		126.953125
998		132.812500
999		126.953125
1000		134.765625
1001		128.906250
1002		134.765625
1003		128.906250
1004		134.765625
1005		128.906250
1006		136.718750
1007		128.906250
1008		136.718750
1009		130.859375
1010		138.671875
1011		132.812500
1012		134.765625
1013		134.765625
1014		136.718750
1015		132.812500
1016		138.671875
1017		132.812500
1018		138.671875
1019		132.812500
1020		138.671875
1021		132.812500
1022		140.625000
1023		132.812500
1024		140.625000
1025		132.812500
1026		140.625000
1027		134.765625
1028		138.671875
1029		134.765625
1030		138.671875
1031		132.812500
1032		138.671875
1033		132.812500
1034		138.671875
1035		132.812500
1036		138.671875
1037		132.812500
1038		138.671875
1039		132.812500
1040		138.671875
1041		130.859375
1042		138.671875
1043		130.859375
1044		138.671875
1045		132.812500
1046		134.765625
1047		130.859375
1048		136.718750
1049		128.906250
1050		136.718750
1051		128.906250
1052		136.718750
1053		128.906250
1054		134.765625
1055		126.953125
1056		134.765625
1057		126.953125
1058		132.812500
1059		125.000000
1060		132.812500
1061		126.953125
1062		128.906250
1063		125.000000
1064		126.953125
1065		123.046875
1066		126.953125
1067		121.093750
1068		126.953125
1069		119.140625
1070		125.000000
1071		119.140625
1072		123.046875
1073		117.187500
1074		123.046875
1075		115.234375
1076		121.093750
1077		115.234375
1078		119.140625
1079		113.281250
1080		117.187500
1081		109.375000
1082		115.234375
1083		107.421875
1084		115.234375
1085		105.468750
1086		113.281250
1087		103.515625
1088		111.328125
1089		101.562500
1090		109.375000
1091		99.609375
1092		107.421875
1093		99.609375
1094		105.468750
1095		97.656250
1096		101.562500
1097		95.703125
1098		99.609375
1099		91.796875
1100		99.609375
1101		89.843750
1102		95.703125
1103		85.937500
1104		93.750000
1105		83.984375
1106		91.796875
1107		82.031250
1108		89.843750
1109		78.125000
1110		87.890625
1111		78.125000
1112		83.984375
1113		76.171875
1114		80.078125
1115		72.265625
1116		78.125000
1117		68.359375
1118		76.171875
1119		66.406250
1120		74.218750
1121		62.500000
1122		70.312500
1123		58.593750
1124		68.359375
1125		56.640625
1126		64.453125
1127		56.640625
1128		62.500000
1129		52.734375
1130		56.640625
1131		48.828125
1132		54.687500
1133		44.921875
1134		54.687500
1135		41.015625
1136		50.781250
1137		39.062500
1138		46.875000
1139		35.156250
1140		42.968750
1141		33.203125
1142		41.015625
1143		31.250000
1144		39.062500
1145		27.343750
1146		33.203125
1147		25.390625
1148		29.296875
1149		19.531250
1150		27.343750
1151		17.578125
1152		25.390625
1153		11.718750
1154		21.484375
1155		9.765625
1156		17.578125
1157		5.859375
1158		15.625000
1159		3.906250
1160		11.718750
1161		1.953125
1162		7.812500
1163		-1.953125
1164		3.906250
1165		-7.812500
1166		0.000000
1167		-9.765625
1168		-1.953125
1169		-13.671875
1170		-5.859375
1171		-17.578125
1172		-7.812500
1173		-19.531250
1174		-11.718750
1175		-23.437500
1176		-15.625000
1177		-25.390625
1178		-17.578125
1179		-27.343750
1180		-23.437500
1181		-31.250000
1182		-27.343750
1183		-35.156250
1184		-29.296875
1185		-39.062500
1186		-31.250000
1187		-41.015625
1188		-35.156250
1189		-46.875000
1190		-37.109375
1191		-48.828125
1192		-41.015625
1193		-50.781250
1194		-42.968750
1195		-52.734375
1196		-48.828125
1197		-56.640625
1198		-52.734375
1199		-60.546875
1200		-54.687500
1201		-64.453125
1202		-54.687500
1203		-68.359375
1204		-58.593750
1205		-70.312500
1206		-62.500000
1207		-72.265625
1208		-64.453125
1209		-74.218750
1210		-66.406250
1211		-78.125000
1212		-70.312500
1213		-78.125000
1214		-74.218750
1215		-83.984375
1216		-78.125000
1217		-85.937500
1218		-78.125000
1219		-87.890625
1220		-82.031250
1221		-91.796875
1222		-83.984375
1223		-91.796875
1224		-85.937500
1225		-95.703125
1226		-87.890625
1227		-97.656250
1228		-89.843750
1229		-97.656250
1230		-95.703125
1231		-99.609375
1232		-95.703125
1233		-105.468750
1234		-97.656250
1235		-107.421875
1236		-99.609375
1237		-109.375000
1238		-101.562500
1239		-111.328125
1240		-103.515625
1241		-113.281250
1242		-105.468750
1243		-115.234375
1244		-107.421875
1245		-115.234375
1246		-109.375000
1247		-115.234375
1248		-113.281250
1249		-119.140625
1250		-113.281250
1251		-121.093750
1252		-113.281250
1253		-121.093750
1254		-115.234375
1255		-123.046875
1256		-115.234375
1257		-125.000000
1258		-117.187500
1259		-125.000000
1260		-119.140625
1261		-126.953125
1262		-119.140625
1263		-125.000000
1264		-123.046875
1265		-126.953125
1266		-123.046875
1267		-128.906250
1268		-123.046875
1269		-130.859375
1270		-123.046875
1271		-130.859375
1272		-125.000000
1273		-130.859375
1274		-125.000000
1275		-132.812500
1276		-125.000000
1277		-132.812500
1278		-126.953125
1279		-130.859375
1280		-126.953125
1281		-130.859375
1282		-128.906250
1283		-132.812500
1284		-126.953125
1285		-132.812500
1286		-125.000000
1287		-132.812500
1288		-125.000000
1289		-132.812500
1290		-125.000000
1291		-132.812500
1292		-125.000000
1293		-132.812500
1294		-125.000000
1295		-130.859375
1296		-125.000000
1297		-128.906250
1298		-125.000000
1299		-128.906250
1300		-125.000000
1301		-128.906250
1302		-123.046875
1303		-128.906250
1304		-121.093750
1305		-128.906250
1306		-121.093750
1307		-126.953125
1308		-119.140625
1309		-125.000000
1310		-119.140625
1311		-125.000000
1312		-117.187500
1313		-121.093750
1314		-117.187500
1315		-119.140625
1316		-117.187500
1317		-119.140625
1318		-113.281250
1319		-119.140625
1320		-111.328125
1321		-117.187500
1322		-111.328125
1323		-115.234375
1324		-107.421875
1325		-113.281250
1326		-107.421875
1327		-111.328125
1328		-105.468750
1329		-111.328125
1330		-103.515625
1331		-105.468750
1332		-103.515625
1333		-105.468750
1334		-99.609375
1335		-103.515625
1336		-95.703125
1337		-101.562500
1338		-93.750000
1339		-99.609375
1340		-91.796875
1341		-97.656250
1342		-89.843750
1343		-95.703125
1344		-85.937500
1345		-93.750000
1346		-85.937500
1347		-87.890625
1348		-83.984375
1349		-85.937500
1350		-82.031250
1351		-83.984375
1352		-76.171875
1353		-82.031250
1354		-74.218750
1355		-78.125000
1356		-70.312500
1357		-76.171875
1358		-68.359375
1359		-72.265625
1360		-64.453125
1361		-70.312500
1362		-62.500000
1363		-66.406250
1364		-60.546875
1365		-62.500000
1366		-58.593750
1367		-60.546875
1368		-52.734375
1369		-58.593750
1370		-50.781250
1371		-54.687500
1372		-46.875000
1373		-52.734375
1374		-42.968750
1375		-48.828125
1376		-41.015625
1377		-46.875000
1378		-37.109375
1379		-41.015625
1380		-35.156250
1381		-37.109375
1382		-33.203125
1383		-33.203125
1384		-27.343750
1385		-33.203125
1386		-23.437500
1387		-29.296875
1388		-21.484375
1389		-25.390625
1390		-17.578125
1391		-23.437500
1392		-13.671875
1393		-19.531250
1394		-11.718750
1395		-15.625000
1396		-7.812500
1397		-11.718750
1398		-5.859375
1399		-7.812500
1400		-1.953125
1401		-5.859375
1402		1.953125
1403		-1.953125
1404		5.859375
1405		0.000000
1406		9.765625
1407		3.906250
1408		11.718750
1409		5.859375
1410		15.625000
1411		11.718750
1412		17.578125
1413		13.671875
1414		19.531250
1415		19.531250
1416		23.437500
1417		21.484375
1418		29.296875
1419		23.437500
1420		31.250000
1421		25.390625
1422		35.156250
1423		29.296875
1424		39.062500
1425		33.203125
1426		41.015625
1427		37.109375
1428		44.921875
1429		39.062500
1430		46.875000
1431		44.921875
1432		48.828125
1433		46.875000
1434		52.734375
1435		48.828125
1436		56.640625
1437		52.734375
1438		58.593750
1439		54.687500
1440		62.500000
1441		56.640625
1442		64.453125
1443		60.546875
1444		68.359375
1445		62.500000
1446		70.312500
1447		66.406250
1448		72.265625
1449		70.312500
1450		74.218750
1451		72.265625
1452		80.078125
1453		74.218750
1454		82.031250
1455		76.171875
1456		83.984375
1457		78.125000
1458		85.937500
1459		82.031250
1460		87.890625
1461		83.984375
1462		91.796875
1463		85.937500
1464		93.750000
1465		89.843750
1466		95.703125
1467		91.796875
1468		97.656250
1469		93.750000
1470		101.562500
1471		95.703125
1472		103.515625
1473		97.656250
1474		105.468750
1475		99.609375
1476		107.421875
1477		101.562500
1478		109.375000
1479		103.515625
1480		111.328125
1481		107.421875
1482		111.328125
1483		109.375000
1484		113.281250
1485		109.375000
1486		117.187500
1487		111.328125
1488		119.140625
1489		113.281250
1490		119.140625
1491		115.234375
1492		121.093750
1493		115.234375
1494		123.046875
1495		117.187500
1496		125.000000
1497		119.140625
1498		125.000000
1499		123.046875
1500		125.000000
1501		123.046875
1502		126.953125
1503		123.046875
1504		128.906250
1505		123.046875
1506		130.859375
1507		125.000000
1508		130.859375
1509		125.000000
1510		132.812500
1511		126.953125
1512		132.812500
1513		126.953125
1514		134.765625
1515		130.859375
1516		132.812500
1517		130.859375
1518		134.765625
1519		130.859375
1520		136.718750
1521		130.859375
1522		136.718750
1523		130.859375
1524		138.671875
1525		130.859375
1526		138.671875
1527		132.812500
1528		138.671875
1529		132.812500
1530		138.671875
1531		134.765625
1532		138.671875
1533		134.765625
1534		138.671875
1535		132.812500
1536		140.625000
1537		132.812500
1538		140.625000
1539		134.765625
1540		140.625000
1541		134.765625
1542		140.625000
1543		134.765625
1544		140.625000
1545		132.812500
1546		140.625000
1547		134.765625
1548		140.625000
1549		134.765625
1550		138.671875
1551		134.765625
1552		136.718750
1553		132.812500
1554		138.671875
1555		132.812500
1556		138.671875
1557		130.859375
1558		138.671875
1559		130.859375
1560		136.718750
1561		130.859375
1562		136.718750
1563		130.859375
1564		136.718750
1565		130.859375
1566		134.765625
1567		130.859375
1568		132.812500
1569		126.953125
1570		132.812500
1571		126.953125
1572		132.812500
1573		125.000000
1574		132.812500
1575		125.000000
1576		130.859375
1577		123.046875
1578		130.859375
1579		123.046875
1580		128.906250
1581		121.093750
1582		128.906250
1583		121.093750
1584		125.000000
1585		117.187500
1586		123.046875
1587		117.187500
1588		123.046875
1589		115.234375
1590		123.046875
1591		113.281250
1592		119.140625
1593		111.328125
1594		119.140625
1595		109.375000
1596		117.187500
1597		107.421875
1598		115.234375
1599		107.421875
1600		111.328125
1601		105.468750
1602		109.375000
1603		101.562500
1604		109.375000
1605		99.609375
1606		107.421875
1607		97.656250
1608		105.468750
1609		95.703125
1610		103.515625
1611		93.750000
1612		101.562500
1613		91.796875
1614		99.609375
1615		89.843750
1616		95.703125
1617		87.890625
1618		91.796875
1619		83.984375
1620		91.796875
1621		82.031250
1622		89.843750
1623		80.078125
1624		85.937500
1625		74.218750
1626		83.984375
1627		74.218750
1628		82.031250
1629		70.312500
1630		78.125000
1631		68.359375
1632		76.171875
1633		66.406250
1634		72.265625
1635		64.453125
1636		68.359375
1637		58.593750
1638		68.359375
1639		56.640625
1640		64.453125
1641		52.734375
1642		62.500000
1643		50.781250
1644		58.593750
1645		46.875000
1646		54.687500
1647		44.921875
1648		52.734375
1649		42.968750
1650		48.828125
1651		41.015625
1652		44.921875
1653		35.156250
1654		42.968750
1655		31.250000
1656		39.062500
1657		27.343750
1658		37.109375
1659		27.343750
1660		33.203125
1661		21.484375
1662		31.250000
1663		17.578125
1664		27.343750
1665		17.578125
1666		23.437500
1667		13.671875
1668		19.531250
1669		7.812500
1670		15.625000
1671		5.859375
1672		13.671875
1673		1.953125
1674		9.765625
1675		0.000000
1676		7.812500
1677		-3.906250
1678		3.906250
1679		-5.859375
1680		0.000000
1681		-11.718750
1682		-1.953125
1683		-11.718750
1684		-7.812500
1685		-15.625000
1686		-9.765625
1687		-19.531250
1688		-13.671875
1689		-25.390625
1690		-15.625000
1691		-27.343750
1692		-19.531250
1693		-31.250000
1694		-21.484375
1695		-33.203125
1696		-25.390625
1697		-37.109375
1698		-29.296875
1699		-39.062500
1700		-31.250000
1701		-41.015625
1702		-37.109375
1703		-44.921875
1704		-39.062500
1705		-50.781250
1706		-41.015625
1707		-50.781250
1708		-44.921875
1709		-56.640625
1710		-46.875000
1711		-58.593750
1712		-50.781250
1713		-62.500000
1714		-54.687500
1715		-64.453125
1716		-56.640625
1717		-66.406250
1718		-60.546875
1719		-68.359375
1720		-64.453125
1721		-72.265625
1722		-64.453125
1723		-76.171875
1724		-68.359375
1725		-78.125000
1726		-70.312500
1727		-80.078125
1728		-74.218750
1729		-83.984375
1730		-76.171875
1731		-85.937500
1732		-78.125000
1733		-87.890625
1734		-82.031250
1735		-89.843750
1736		-85.937500
1737		-93.750000
1738		-87.890625
1739		-95.703125
1740		-87.890625
1741		-99.609375
1742		-91.796875
1743		-101.562500
1744		-93.750000
1745		-103.515625
1746		-95.703125
1747		-105.468750
1748		-97.656250
1749		-107.421875
1750		-99.609375
1751		-107.421875
1752		-103.515625
1753		-111.328125
1754		-105.468750
1755		-113.281250
1756		-105.468750
1757		-113.281250
1758		-107.421875
1759		-115.234375
1760		-109.375000
1761		-117.187500
1762		-109.375000
1763		-119.140625
1764		-111.328125
1765		-121.093750
1766		-113.281250
1767		-119.140625
1768		-117.187500
1769		-121.093750
1770		-119.140625
1771		-123.046875
1772		-117.187500
1773		-125.000000
1774		-117.187500
1775		-126.953125
1776		-119.140625
1777		-126.953125
1778		-121.093750
1779		-126.953125
1780		-121.093750
1781		-128.906250
1782		-123.046875
1783		-128.906250
1784		-123.046875
1785		-126.953125
1786		-125.000000
1787		-130.859375
1788		-125.000000
1789		-130.859375
1790		-125.000000
1791		-130.859375
1792		-125.000000
1793		-130.859375
1794		-125.000000
1795		-132.812500
1796		-125.000000
1797		-132.812500
1798		-125.000000
1799		-130.859375
1800		-125.000000
1801		-128.906250
1802		-126.953125
1803		-128.906250
1804		-126.953125
1805		-130.859375
1806		-123.046875
1807		-130.859375
1808		-125.000000
1809		-130.859375
1810		-123.046875
1811		-128.906250
1812		-123.046875
1813		-128.906250
1814		-121.093750
1815		-126.953125
1816		-121.093750
1817		-125.000000
1818		-121.093750
1819		-125.000000
1820		-121.093750
1821		-125.000000
1822		-117.187500
1823		-125.000000
1824		-117.187500
1825		-123.046875
1826		-115.234375
1827		-121.093750
1828		-115.234375
1829		-119.140625
1830		-113.281250
1831		-119.140625
1832		-111.328125
1833		-117.187500
1834		-111.328125
1835		-113.281250
1836		-109.375000
1837		-111.328125
1838		-107.421875
1839		-111.328125
1840		-105.468750
1841		-111.328125
1842		-103.515625
1843		-107.421875
1844		-101.562500
1845		-107.421875
1846		-97.656250
1847		-103.515625
1848		-97.656250
1849		-101.562500
1850		-95.703125
1851		-97.656250
1852		-93.750000
1853		-95.703125
1854		-91.796875
1855		-93.750000
1856		-87.890625
1857		-91.796875
1858		-83.984375
1859		-89.843750
1860		-82.031250
1861		-85.937500
1862		-80.078125
1863		-83.984375
1864		-76.171875
1865		-82.031250
1866		-74.218750
1867		-78.125000
1868		-72.265625
1869		-74.218750
1870		-70.312500
1871		-72.265625
1872		-66.406250
1873		-72.265625
1874		-62.500000
1875		-66.406250
1876		-60.546875
1877		-64.453125
1878		-56.640625
1879		-60.546875
1880		-54.687500
1881		-58.593750
1882		-50.781250
1883		-56.640625
1884		-48.828125
1885		-50.781250
1886		-46.875000
1887		-48.828125
1888		-42.968750
1889		-46.875000
1890		-39.062500
1891		-42.968750
1892		-35.156250
1893		-39.062500
1894		-31.250000
1895		-37.109375
1896		-29.296875
1897		-31.250000
1898		-25.390625
1899		-31.250000
1900		-21.484375
1901		-25.390625
1902		-19.531250
1903		-21.484375
1904		-17.578125
1905		-17.578125
1906		-11.718750
1907		-15.625000
1908		-9.765625
1909		-11.718750
1910		-5.859375
1911		-7.812500
1912		-1.953125
1913		-5.859375
1914		0.000000
1915		-1.953125
1916		3.906250
1917		0.000000
1918		5.859375
1919		5.859375
1920		9.765625
1921		7.812500
1922		15.625000
1923		9.765625
1924		17.578125
1925		13.671875
1926		21.484375
1927		15.625000
1928		25.390625
1929		19.531250
1930		29.296875
1931		23.437500
1932		31.250000
1933		27.343750
1934		33.203125
1935		31.250000
1936		35.156250
1937		35.156250
1938		39.062500
1939		37.109375
1940		42.968750
1941		39.062500
1942		46.875000
1943		41.015625
1944		50.781250
1945		44.921875
1946		52.734375
1947		48.828125
1948		56.640625
1949		50.781250
1950		58.593750
1951		54.687500
1952		60.546875
1953		58.593750
1954		62.500000
1955		60.546875
1956		68.359375
1957		62.500000
1958		70.312500
1959		66.406250
1960		74.218750
1961		68.359375
1962		76.171875
1963		70.312500
1964		78.125000
1965		74.218750
1966		80.078125
1967		76.171875
1968		82.031250
1969		80.078125
1970		83.984375
1971		83.984375
1972		87.890625
1973		83.984375
1974		91.796875
1975		85.937500
1976		93.750000
1977		89.843750
1978		97.656250
1979		89.843750
1980		97.656250
1981		93.750000
1982		99.609375
1983		95.703125
1984		103.515625
1985		97.656250
1986		103.515625
1987		101.562500
1988		105.468750
1989		103.515625
1990		109.375000
1991		103.515625
1992		111.328125
1993		105.468750
1994		111.328125
1995		107.421875
1996		115.234375
1997		107.421875
1998		115.234375
1999		111.328125
2000		117.187500
2001		113.281250
2002		119.140625
2003		115.234375
2004		119.140625
2005		117.187500
2006		121.093750
2007		117.187500
2008		123.046875
2009		119.140625
2010		126.953125
2011		119.140625
2012		126.953125
2013		123.046875
2014		128.906250
2015		121.093750
2016		128.906250
2017		123.046875
2018		130.859375
2019		126.953125
2020		130.859375
2021		128.906250
2022		130.859375
2023		126.953125
2024		134.765625
2025		126.953125
2026		134.765625
2027		128.906250
2028		134.765625
2029		128.906250
2030		136.718750
2031		130.859375
2032		136.718750
2033		130.859375
2034		138.671875
2035		130.859375
2036		138.671875
2037		134.765625
2038		136.718750
2039		134.765625
2040		138.671875
2041		132.812500
2042		138.671875
2043		132.812500
2044		140.625000
2045		134.765625
2046		140.625000
2047		132.812500
2048		140.625000
2049		134.765625
2050		140.625000
2051		134.765625
2052		140.625000
2053		136.718750
2054		138.671875
2055		136.718750
2056		138.671875
2057		134.765625
2058		140.625000
2059		134.765625
2060		140.625000
2061		134.765625
2062		140.625000
2063		134.765625
2064		140.625000
2065		132.812500
2066		140.625000
2067		132.812500
2068		140.625000
2069		134.765625
2070		136.718750
2071		134.765625
2072		136.718750
2073		130.859375
2074		136.718750
2075		130.859375
2076		136.718750
2077		130.859375
2078		136.718750
2079		128.906250
2080		134.765625
2081		128.906250
2082		134.765625
2083		126.953125
2084		134.765625
2085		126.953125
2086		132.812500
2087		126.953125
2088		130.859375
2089		125.000000
2090		128.906250
2091		123.046875
2092		128.906250
2093		123.046875
2094		128.906250
2095		119.140625
2096		126.953125
2097		119.140625
2098		125.000000
2099		117.187500
2100		125.000000
2101		115.234375
2102		123.046875
2103		117.187500
2104		119.140625
2105		115.234375
2106		117.187500
2107		111.328125
2108		117.187500
2109		109.375000
2110		117.187500
2111		107.421875
2112		115.234375
2113		105.468750
2114		113.281250
2115		103.515625
2116		111.328125
2117		101.562500
2118		107.421875
2119		101.562500
2120		107.421875
2121		99.609375
2122		103.515625
2123		93.750000
2124		101.562500
2125		93.750000
2126		99.609375
2127		89.843750
2128		99.609375
2129		89.843750
2130		95.703125
2131		85.937500
2132		93.750000
2133		82.031250
2134		89.843750
2135		80.078125
2136		87.890625
2137		80.078125
2138		83.984375
2139		78.125000
2140		82.031250
2141		72.265625
2142		80.078125
2143		70.312500
2144		78.125000
2145		66.406250
2146		74.218750
2147		62.500000
2148		72.265625
2149		60.546875
2150		68.359375
2151		58.593750
2152		66.406250
2153		56.640625
2154		62.500000
2155		54.687500
2156		58.593750
2157		48.828125
2158		56.640625
2159		46.875000
2160		54.687500
2161		42.968750
2162		50.781250
2163		41.015625
2164		48.828125
2165		37.109375
2166		44.921875
2167		33.203125
2168		42.968750
2169		33.203125
2170		37.109375
2171		29.296875
2172		33.203125
2173		25.390625
2174		31.250000
2175		21.484375
2176		29.296875
2177		17.578125
2178		25.390625
2179		13.671875
2180		23.437500
2181		11.718750
2182		19.531250
2183		7.812500
2184		15.625000
2185		3.906250
2186		11.718750
2187		3.906250
2188		7.812500
2189		0.000000
2190		3.906250
2191		-5.859375
2192		1.953125
2193		-7.812500
2194		0.000000
2195		-11.718750
2196		-3.906250
2197		-15.625000
2198		-7.812500
2199		-19.531250
2200		-9.765625
2201		-21.484375
2202		-15.625000
2203		-23.437500
2204		-15.625000
2205		-27.343750
2206		-21.484375
2207		-31.250000
2208		-25.390625
2209		-33.203125
2210		-27.343750
2211		-39.062500
2212		-29.296875
2213		-41.015625
2214		-33.203125
2215		-44.921875
2216		-35.156250
2217		-46.875000
2218		-41.015625
2219		-48.828125
2220		-42.968750
2221		-52.734375
2222		-46.875000
2223		-54.687500
2224		-50.781250
2225		-60.546875
2226		-52.734375
2227		-64.453125
2228		-54.687500
2229		-66.406250
2230		-58.593750
2231		-68.359375
2232		-60.546875
2233		-72.265625
2234		-64.453125
2235		-74.218750
2236		-66.406250
2237		-76.171875
2238		-70.312500
2239		-78.125000
2240		-74.218750
2241		-82.031250
2242		-76.171875
2243		-85.937500
2244		-76.171875
2245		-87.890625
2246		-80.078125
2247		-91.796875
2248		-82.031250
2249		-91.796875
2250		-85.937500
2251		-93.750000
2252		-87.890625
2253		-97.656250
2254		-89.843750
2255		-97.656250
2256		-93.750000
2257		-99.609375
2258		-95.703125
2259		-103.515625
2260		-95.703125
2261		-105.468750
2262		-99.609375
2263		-109.375000
2264		-99.609375
2265		-109.375000
2266		-103.515625
2267		-111.328125
2268		-103.515625
2269		-113.281250
2270		-105.468750
2271		-113.281250
2272		-109.375000
2273		-115.234375
2274		-111.328125
2275		-119.140625
2276		-111.328125
2277		-119.140625
2278		-113.281250
2279		-121.093750
2280		-115.234375
2281		-121.093750
2282		-115.234375
2283		-125.000000
2284		-117.187500
2285		-125.000000
2286		-117.187500
2287		-125.000000
2288		-119.140625
2289		-125.000000
2290		-121.093750
2291		-126.953125
2292		-121.093750
2293		-128.906250
2294		-121.093750
2295		-128.906250
2296		-123.046875
2297		-130.859375
2298		-123.046875
2299		-130.859375
2300		-123.046875
2301		-130.859375
2302		-125.000000
2303		-130.859375
2304		-125.000000
2305		-128.906250
2306		-126.953125
2307		-128.906250
2308		-126.953125
2309		-130.859375
2310		-125.000000
2311		-130.859375
2312		-125.000000
2313		-130.859375
2314		-125.000000
2315		-130.859375
2316		-125.000000
2317		-130.859375
2318		-123.046875
2319		-130.859375
2320		-123.046875
2321		-128.906250
2322		-125.000000
2323		-126.953125
2324		-125.000000
2325		-128.906250
2326		-123.046875
2327		-128.906250
2328		-121.093750
2329		-126.953125
2330		-121.093750
2331		-126.953125
2332		-119.140625
2333		-125.000000
2334		-119.140625
2335		-125.000000
2336		-117.187500
2337		-123.046875
2338		-117.187500
2339		-119.140625
2340		-117.187500
2341		-119.140625
2342		-115.234375
2343		-119.140625
2344		-113.281250
2345		-117.187500
2346		-111.328125
2347		-117.187500
2348		-109.375000
2349		-113.281250
2350		-107.421875
2351		-113.281250
2352		-105.468750
2353		-111.328125
2354		-105.468750
2355		-109.375000
2356		-103.515625
2357		-105.468750
2358		-101.562500
2359		-103.515625
2360		-97.656250
2361		-101.562500
2362		-95.703125
2363		-99.609375
2364		-93.750000
2365		-97.656250
2366		-91.796875
2367		-95.703125
2368		-87.890625
2369		-91.796875
2370		-85.937500
2371		-91.796875
2372		-85.937500
2373		-85.937500
2374		-82.031250
2375		-83.984375
2376		-78.125000
2377		-82.031250
2378		-76.171875
2379		-80.078125
2380		-74.218750
2381		-78.125000
2382		-70.312500
2383		-74.218750
2384		-66.406250
2385		-72.265625
2386		-64.453125
2387		-68.359375
2388		-62.500000
2389		-64.453125
2390		-60.546875
2391		-62.500000
2392		-56.640625
2393		-60.546875
2394		-52.734375
2395		-56.640625
2396		-48.828125
2397		-54.687500
2398		-46.875000
2399		-50.781250
2400		-42.968750
2401		-46.875000
2402		-41.015625
2403		-42.968750
2404		-35.156250
2405		-41.015625
2406		-35.156250
2407		-37.109375
2408		-31.250000
2409		-33.203125
2410		-27.343750
2411		-31.250000
2412		-23.437500
2413		-27.343750
2414		-19.531250
2415		-25.390625
2416		-17.578125
2417		-21.484375
2418		-13.671875
2419		-17.578125
2420		-9.765625
2421		-13.671875
2422		-7.812500
2423		-9.765625
2424		-5.859375
2425		-7.812500
2426		-1.953125
2427		-3.906250
2428		3.906250
2429		-1.953125
2430		5.859375
2431		1.953125
2432		9.765625
2433		5.859375
2434		13.671875
2435		9.765625
2436		13.671875
2437		11.718750
2438		17.578125
2439		15.625000
2440		21.484375
2441		19.531250
2442		23.437500
2443		23.437500
2444		29.296875
2445		25.390625
2446		31.250000
2447		27.343750
2448		35.156250
2449		29.296875
2450		37.109375
2451		33.203125
2452		39.062500
2453		39.062500
2454		44.921875
2455		41.015625
2456		46.875000
2457		44.921875
2458		48.828125
2459		48.828125
2460		52.734375
2461		50.781250
2462		54.687500
2463		52.734375
2464		58.593750
2465		54.687500
2466		60.546875
2467		60.546875
2468		64.453125
2469		62.500000
2470		66.406250
2471		64.453125
2472		70.312500
2473		68.359375
2474		72.265625
2475		70.312500
2476		74.218750
2477		74.218750
2478		78.125000
2479		76.171875
2480		82.031250
2481		76.171875
2482		83.984375
2483		82.031250
2484		85.937500
2485		82.031250
2486		87.890625
2487		85.937500
2488		89.843750
2489		87.890625
2490		91.796875
2491		91.796875
2492		93.750000
2493		93.750000
2494		97.656250
2495		95.703125
2496		99.609375
2497		97.656250
2498		101.562500
2499		99.609375
2500		103.515625
2501		101.562500
2502		105.468750
2503		103.515625
2504		107.421875
2505		105.468750
2506		111.328125
2507		107.421875
2508		111.328125
2509		109.375000
2510		113.281250
2511		109.375000
2512		115.234375
2513		113.281250
2514		117.187500
2515		113.281250
2516		119.140625
2517		117.187500
2518		121.093750
2519		117.187500
2520		121.093750
2521		119.140625
2522		123.046875
2523		119.140625
2524		123.046875
2525		123.046875
2526		125.000000
2527		123.046875
2528		126.953125
2529		125.000000
2530		128.906250
2531		125.000000
2532		128.906250
2533		126.953125
2534		130.859375
2535		128.906250
2536		130.859375
2537		128.906250
2538		132.812500
2539		128.906250
2540		134.765625
2541		130.859375
2542		132.812500
2543		132.812500
2544		134.765625
2545		132.812500
2546		136.718750
2547		132.812500
2548		136.718750
2549		132.812500
2550		136.718750
2551		134.765625
2552		136.718750
2553		134.765625
2554		136.718750
2555		134.765625
2556		138.671875
2557		134.765625
2558		138.671875
2559		134.765625
2560		138.671875
2561		134.765625
2562		138.671875
2563		136.718750
2564		138.671875
2565		134.765625
2566		138.671875
2567		136.718750
2568		138.671875
2569		136.718750
2570		138.671875
2571		136.718750
2572		138.671875
2573		136.718750
2574		138.671875
2575		136.718750
2576		138.671875
2577		134.765625
2578		138.671875
2579		134.765625
2580		138.671875
2581		134.765625
2582		136.718750
2583		132.812500
2584		136.718750
2585		132.812500
2586		136.718750
2587		132.812500
2588		136.718750
2589		130.859375
2590		134.765625
2591		130.859375
2592		134.765625
2593		130.859375
2594		132.812500
2595		128.906250
2596		132.812500
2597		128.906250
2598		132.812500
2599		126.953125
2600		130.859375
2601		126.953125
2602		128.906250
2603		125.000000
2604		128.906250
2605		123.046875
2606		126.953125
2607		123.046875
2608		126.953125
2609		121.093750
2610		125.000000
2611		119.140625
2612		123.046875
2613		119.140625
2614		121.093750
2615		117.187500
2616		121.093750
2617		115.234375
2618		119.140625
2619		113.281250
2620		117.187500
2621		111.328125
2622		115.234375
2623		109.375000
2624		113.281250
2625		109.375000
2626		111.328125
2627		105.468750
2628		109.375000
2629		103.515625
2630		107.421875
2631		101.562500
2632		105.468750
2633		99.609375
2634		103.515625
2635		97.656250
2636		101.562500
2637		95.703125
2638		99.609375
2639		91.796875
2640		97.656250
2641		91.796875
2642		95.703125
2643		87.890625
2644		91.796875
2645		85.937500
2646		89.843750
2647		83.984375
2648		87.890625
2649		80.078125
2650		85.937500
2651		78.125000
2652		82.031250
2653		76.171875
2654		80.078125
2655		72.265625
2656		78.125000
2657		70.312500
2658		76.171875
2659		68.359375
2660		72.265625
2661		64.453125
2662		70.312500
2663		62.500000
2664		66.406250
2665		58.593750
2666		62.500000
2667		56.640625
2668		60.546875
2669		52.734375
2670		56.640625
2671		50.781250
2672		54.687500
2673		46.875000
2674		52.734375
2675		42.968750
2676		48.828125
2677		41.015625
2678		44.921875
2679		37.109375
2680		42.968750
2681		33.203125
2682		39.062500
2683		31.250000
2684		37.109375
2685		27.343750
2686		31.250000
2687		25.390625
2688		29.296875
2689		21.484375
2690		25.390625
2691		17.578125
2692		23.437500
2693		13.671875
2694		19.531250
2695		11.718750
2696		15.625000
2697		7.812500
2698		13.671875
2699		3.906250
2700		9.765625
2701		0.000000
2702		5.859375
2703		-1.953125
2704		1.953125
2705		-5.859375
2706		0.000000
2707		-9.765625
2708		-3.906250
2709		-11.718750
2710		-7.812500
2711		-15.625000
2712		-11.718750
2713		-19.531250
2714		-13.671875
2715		-21.484375
2716		-17.578125
2717		-25.390625
2718		-21.484375
2719		-29.296875
2720		-23.437500
2721		-31.250000
2722		-27.343750
2723		-35.156250
2724		-29.296875
2725		-37.109375
2726		-33.203125
2727		-41.015625
2728		-37.109375
2729		-44.921875
2730		-39.062500
2731		-48.828125
2732		-41.015625
2733		-50.781250
2734		-44.921875
2735		-54.687500
2736		-48.828125
2737		-56.640625
2738		-52.734375
2739		-60.546875
2740		-54.687500
2741		-62.500000
2742		-58.593750
2743		-66.406250
2744		-60.546875
2745		-68.359375
2746		-64.453125
2747		-70.312500
2748		-66.406250
2749		-74.218750
2750		-70.312500
2751		-76.171875
2752		-72.265625
2753		-80.078125
2754		-76.171875
2755		-82.031250
2756		-78.125000
2757		-85.937500
2758		-82.031250
2759		-87.890625
2760		-83.984375
2761		-89.843750
2762		-85.937500
2763		-91.796875
2764		-87.890625
2765		-93.750000
2766		-89.843750
2767		-97.656250
2768		-91.796875
2769		-99.609375
2770		-95.703125
2771		-101.562500
2772		-97.656250
2773		-103.515625
2774		-99.609375
2775		-105.468750
2776		-101.562500
2777		-107.421875
2778		-103.515625
2779		-109.375000
2780		-105.468750
2781		-111.328125
2782		-107.421875
2783		-113.281250
2784		-109.375000
2785		-115.234375
2786		-111.328125
2787		-117.187500
2788		-113.281250
2789		-117.187500
2790		-115.234375
2791		-119.140625
2792		-115.234375
2793		-121.093750
2794		-117.187500
2795		-121.093750
2796		-119.140625
2797		-123.046875
2798		-119.140625
2799		-125.000000
2800		-121.093750
2801		-125.000000
2802		-121.093750
2803		-126.953125
2804		-123.046875
2805		-126.953125
2806		-123.046875
2807		-126.953125
2808		-125.000000
2809		-126.953125
2810		-125.000000
2811		-128.906250
2812		-126.953125
2813		-128.906250
2814		-125.000000
2815		-130.859375
2816		-126.953125
2817		-130.859375
2818		-126.953125
2819		-130.859375
2820		-126.953125
2821		-130.859375
2822		-126.953125
2823		-130.859375
2824		-126.953125
2825		-130.859375
2826		-126.953125
2827		-130.859375
2828		-126.953125
2829		-128.906250
2830		-126.953125
2831		-130.859375
2832		-126.953125
2833		-128.906250
2834		-126.953125
2835		-128.906250
2836		-126.953125
2837		-128.906250
2838		-125.000000
2839		-126.953125
2840		-125.000000
2841		-126.953125
2842		-123.046875
2843		-125.000000
2844		-123.046875
2845		-125.000000
2846		-123.046875
2847		-125.000000
2848		-121.093750
2849		-123.046875
2850		-119.140625
2851		-121.093750
2852		-119.140625
2853		-121.093750
2854		-117.187500
2855		-119.140625
2856		-115.234375
2857		-117.187500
2858		-113.281250
2859		-117.187500
2860		-113.281250
2861		-115.234375
2862		-111.328125
2863		-113.281250
2864		-109.375000
2865		-111.328125
2866		-107.421875
2867		-109.375000
2868		-105.468750
2869		-107.421875
2870		-103.515625
2871		-105.468750
2872		-101.562500
2873		-103.515625
2874		-99.609375
2875		-101.562500
2876		-97.656250
2877		-99.609375
2878		-95.703125
2879		-97.656250
2880		-93.750000
2881		-95.703125
2882		-89.843750
2883		-91.796875
2884		-87.890625
2885		-89.843750
2886		-85.937500
2887		-87.890625
2888		-83.984375
2889		-83.984375
2890		-80.078125
2891		-82.031250
2892		-76.171875
2893		-80.078125
2894		-74.218750
2895		-76.171875
2896		-72.265625
2897		-74.218750
2898		-68.359375
2899		-70.312500
2900		-66.406250
2901		-68.359375
2902		-62.500000
2903		-64.453125
2904		-60.546875
2905		-62.500000
2906		-56.640625
2907		-60.546875
2908		-54.687500
2909		-56.640625
2910		-50.781250
2911		-52.734375
2912		-48.828125
2913		-48.828125
2914		-44.921875
2915		-46.875000
2916		-41.015625
2917		-42.968750
2918		-39.062500
2919		-41.015625
2920		-35.156250
2921		-37.109375
2922		-31.250000
2923		-33.203125
2924		-27.343750
2925		-29.296875
2926		-23.437500
2927		-27.343750
2928		-21.484375
2929		-23.437500
2930		-19.531250
2931		-21.484375
2932		-15.625000
2933		-17.578125
2934		-11.718750
2935		-13.671875
2936		-7.812500
2937		-9.765625
2938		-5.859375
2939		-7.812500
2940		-1.953125
2941		-3.906250
2942		1.953125
2943		0.000000
2944		3.906250
2945		3.906250
2946		7.812500
2947		5.859375
2948		11.718750
2949		9.765625
2950		13.671875
2951		13.671875
2952		17.578125
2953		15.625000
2954		21.484375
2955		19.531250
2956		25.390625
2957		23.437500
2958		27.343750
2959		25.390625
2960		31.250000
2961		29.296875
2962		33.203125
2963		33.203125
2964		37.109375
2965		35.156250
2966		41.015625
2967		39.062500
2968		42.968750
2969		41.015625
2970		46.875000
2971		44.921875
2972		48.828125
2973		48.828125
2974		52.734375
2975		50.781250
2976		54.687500
2977		52.734375
2978		58.593750
2979		56.640625
2980		60.546875
2981		60.546875
2982		64.453125
2983		62.500000
2984		66.406250
2985		66.406250
2986		70.312500
2987		66.406250
2988		72.265625
2989		70.312500
2990		74.218750
2991		72.265625
2992		78.125000
2993		76.171875
2994		80.078125
2995		78.125000
2996		82.031250
2997		82.031250
2998		85.937500
2999		83.984375
3000		87.890625
3001		85.937500
3002		89.843750
3003		87.890625
3004		91.796875
3005		91.796875
3006		95.703125
3007		91.796875
3008		97.656250
3009		95.703125
3010		99.609375
3011		97.656250
3012		101.562500
3013		99.609375
3014		103.515625
3015		101.562500
3016		105.468750
3017		103.515625
3018		107.421875
3019		105.468750
3020		109.375000
3021		107.421875
3022		111.328125
3023		109.375000
3024		113.281250
3025		111.328125
3026		115.234375
3027		111.328125
3028		115.234375
3029		115.234375
3030		117.187500
3031		117.187500
3032		121.093750
3033		117.187500
3034		121.093750
3035		119.140625
3036		123.046875
3037		121.093750
3038		123.046875
3039		121.093750
3040		125.000000
3041		123.046875
3042		126.953125
3043		125.000000
3044		128.906250
3045		126.953125
3046		128.906250
3047		126.953125
3048		128.906250
3049		126.953125
3050		130.859375
3051		128.906250
3052		130.859375
3053		128.906250
3054		132.812500
3055		130.859375
3056		134.765625
3057		130.859375
3058		134.765625
3059		130.859375
3060		134.765625
3061		132.812500
3062		134.765625
3063		132.812500
3064		136.718750
3065		132.812500
3066		136.718750
3067		134.765625
3068		136.718750
3069		134.765625
3070		138.671875
3071		134.765625
3072		138.671875
3073		134.765625
3074		138.671875
3075		134.765625
3076		138.671875
3077		134.765625
3078		138.671875
3079		136.718750
3080		138.671875
3081		134.765625
3082		138.671875
3083		134.765625
3084		138.671875
3085		134.765625
3086		138.671875
3087		134.765625
3088		138.671875
3089		134.765625
3090		136.718750
3091		134.765625
3092		138.671875
3093		132.812500
3094		138.671875
3095		134.765625
3096		136.718750
3097		132.812500
3098		136.718750
3099		132.812500
3100		136.718750
3101		132.812500
3102		134.765625
3103		130.859375
3104		134.765625
3105		130.859375
3106		132.812500
3107		128.906250
3108		132.812500
3109		128.906250
3110		132.812500
3111		126.953125
3112		130.859375
3113		126.953125
3114		130.859375
3115		125.000000
3116		128.906250
3117		123.046875
3118		128.906250
3119		123.046875
3120		126.953125
3121		123.046875
3122		125.000000
3123		121.093750
3124		125.000000
3125		119.140625
3126		123.046875
3127		117.187500
3128		121.093750
3129		117.187500
3130		119.140625
3131		115.234375
3132		117.187500
3133		113.281250
3134		117.187500
3135		111.328125
3136		115.234375
3137		109.375000
3138		113.281250
3139		107.421875
3140		111.328125
3141		105.468750
3142		109.375000
3143		103.515625
3144		107.421875
3145		101.562500
3146		105.468750
3147		99.609375
3148		103.515625
3149		95.703125
3150		101.562500
3151		93.750000
3152		97.656250
3153		91.796875
3154		95.703125
3155		89.843750
3156		93.750000
3157		87.890625
3158		91.796875
3159		83.984375
3160		89.843750
3161		82.031250
3162		85.937500
3163		80.078125
3164		83.984375
3165		78.125000
3166		82.031250
3167		74.218750
3168		78.125000
3169		72.265625
3170		76.171875
3171		68.359375
3172		74.218750
3173		66.406250
3174		70.312500
3175		62.500000
3176		68.359375
3177		58.593750
3178		64.453125
3179		56.640625
3180		62.500000
3181		54.687500
3182		58.593750
3183		50.781250
3184		56.640625
3185		48.828125
3186		52.734375
3187		44.921875
3188		50.781250
3189		42.968750
3190		46.875000
3191		39.062500
3192		44.921875
3193		35.156250
3194		41.015625
3195		33.203125
3196		39.062500
3197		29.296875
3198		33.203125
3199		25.390625
3200		31.250000
3201		23.437500
3202		29.296875
3203		19.531250
3204		25.390625
3205		15.625000
3206		21.484375
3207		11.718750
3208		17.578125
3209		9.765625
3210		13.671875
3211		5.859375
3212		11.718750
3213		1.953125
3214		7.812500
3215		0.000000
3216		3.906250
3217		-3.906250
3218		1.953125
3219		-7.812500
3220		-1.953125
3221		-9.765625
3222		-5.859375
3223		-13.671875
3224		-7.812500
3225		-15.625000
3226		-11.718750
3227		-19.531250
3228		-15.625000
3229		-23.437500
3230		-17.578125
3231		-25.390625
3232		-21.484375
3233		-29.296875
3234		-25.390625
3235		-33.203125
3236		-29.296875
3237		-35.156250
3238		-31.250000
3239		-39.062500
3240		-35.156250
3241		-42.968750
3242		-37.109375
3243		-46.875000
3244		-41.015625
3245		-48.828125
3246		-44.921875
3247		-52.734375
3248		-46.875000
3249		-54.687500
3250		-50.781250
3251		-58.593750
3252		-52.734375
3253		-60.546875
3254		-54.687500
3255		-64.453125
3256		-58.593750
3257		-66.406250
3258		-62.500000
3259		-70.312500
3260		-64.453125
3261		-72.265625
3262		-68.359375
3263		-76.171875
3264		-70.312500
3265		-78.125000
3266		-74.218750
3267		-80.078125
3268		-76.171875
3269		-83.984375
3270		-78.125000
3271		-85.937500
3272		-82.031250
3273		-87.890625
3274		-83.984375
3275		-89.843750
3276		-85.937500
3277		-93.750000
3278		-87.890625
3279		-95.703125
3280		-91.796875
3281		-97.656250
3282		-93.750000
3283		-101.562500
3284		-95.703125
3285		-101.562500
3286		-97.656250
3287		-103.515625
3288		-99.609375
3289		-105.468750
3290		-101.562500
3291		-109.375000
3292		-103.515625
3293		-109.375000
3294		-105.468750
3295		-111.328125
3296		-107.421875
3297		-113.281250
3298		-109.375000
3299		-115.234375
3300		-111.328125
3301		-117.187500
3302		-113.281250
3303		-119.140625
3304		-115.234375
3305		-119.140625
3306		-115.234375
3307		-121.093750
3308		-117.187500
3309		-121.093750
3310		-119.140625
3311		-123.046875
3312		-119.140625
3313		-125.000000
3314		-119.140625
3315		-125.000000
3316		-121.093750
3317		-125.000000
3318		-123.046875
3319		-126.953125
3320		-123.046875
3321		-126.953125
3322		-123.046875
3323		-128.906250
3324		-125.000000
3325		-128.906250
3326		-125.000000
3327		-128.906250
3328		-126.953125
3329		-128.906250
3330		-126.953125
3331		-128.906250
3332		-126.953125
3333		-130.859375
3334		-126.953125
3335		-130.859375
3336		-126.953125
3337		-130.859375
3338		-126.953125
3339		-130.859375
3340		-126.953125
3341		-128.906250
3342		-126.953125
3343		-130.859375
3344		-126.953125
3345		-128.906250
3346		-125.000000
3347		-128.906250
3348		-126.953125
3349		-128.906250
3350		-125.000000
3351		-128.906250
3352		-125.000000
3353		-126.953125
3354		-123.046875
3355		-126.953125
3356		-123.046875
3357		-125.000000
3358		-123.046875
3359		-125.000000
3360		-121.093750
3361		-123.046875
3362		-119.140625
3363		-123.046875
3364		-119.140625
3365		-121.093750
3366		-117.187500
3367		-119.140625
3368		-115.234375
3369		-119.140625
3370		-115.234375
3371		-117.187500
3372		-113.281250
3373		-115.234375
3374		-111.328125
3375		-113.281250
3376		-109.375000
3377		-111.328125
3378		-107.421875
3379		-109.375000
3380		-105.468750
3381		-109.375000
3382		-105.468750
3383		-105.468750
3384		-101.562500
3385		-103.515625
3386		-99.609375
3387		-101.562500
3388		-97.656250
3389		-99.609375
3390		-95.703125
3391		-97.656250
3392		-93.750000
3393		-95.703125
3394		-91.796875
3395		-93.750000
3396		-87.890625
3397		-91.796875
3398		-85.937500
3399		-87.890625
3400		-83.984375
3401		-85.937500
3402		-80.078125
3403		-83.984375
3404		-78.125000
3405		-80.078125
3406		-76.171875
3407		-76.171875
3408		-72.265625
3409		-74.218750
3410		-70.312500
3411		-72.265625
3412		-66.406250
3413		-68.359375
3414		-64.453125
3415		-66.406250
3416		-60.546875
3417		-62.500000
3418		-58.593750
3419		-60.546875
3420		-54.687500
3421		-56.640625
3422		-52.734375
3423		-52.734375
3424		-48.828125
3425		-50.781250
3426		-44.921875
3427		-48.828125
3428		-42.968750
3429		-44.921875
3430		-39.062500
3431		-41.015625
3432		-37.109375
3433		-37.109375
3434		-33.203125
3435		-35.156250
3436		-29.296875
3437		-31.250000
3438		-25.390625
3439		-27.343750
3440		-23.437500
3441		-25.390625
3442		-19.531250
3443		-21.484375
3444		-15.625000
3445		-17.578125
3446		-13.671875
3447		-15.625000
3448		-9.765625
3449		-11.718750
3450		-5.859375
3451		-7.812500
3452		-1.953125
3453		-5.859375
3454		0.000000
3455		-1.953125
3456		3.906250
3457		1.953125
3458		5.859375
3459		5.859375
3460		11.718750
3461		7.812500
3462		13.671875
3463		11.718750
3464		17.578125
3465		15.625000
3466		19.531250
3467		17.578125
3468		23.437500
3469		21.484375
3470		27.343750
3471		23.437500
3472		29.296875
3473		27.343750
3474		33.203125
3475		31.250000
3476		37.109375
3477		33.203125
3478		39.062500
3479		37.109375
3480		42.968750
3481		39.062500
3482		44.921875
3483		42.968750
3484		48.828125
3485		46.875000
3486		52.734375
3487		48.828125
3488		54.687500
3489		52.734375
3490		58.593750
3491		54.687500
3492		60.546875
3493		58.593750
3494		64.453125
3495		60.546875
3496		66.406250
3497		64.453125
3498		68.359375
3499		66.406250
3500		70.312500
3501		70.312500
3502		74.218750
3503		72.265625
3504		76.171875
3505		74.218750
3506		80.078125
3507		78.125000
3508		82.031250
3509		78.125000
3510		83.984375
3511		82.031250
3512		87.890625
3513		83.984375
3514		89.843750
3515		85.937500
3516		91.796875
3517		89.843750
3518		93.750000
3519		91.796875
3520		97.656250
3521		93.750000
3522		99.609375
3523		95.703125
3524		101.562500
3525		97.656250
3526		103.515625
3527		99.609375
3528		105.468750
3529		101.562500
3530		107.421875
3531		103.515625
3532		109.375000
3533		107.421875
3534		109.375000
3535		109.375000
3536		113.281250
3537		109.375000
3538		115.234375
3539		111.328125
3540		117.187500
3541		113.281250
3542		117.187500
3543		115.234375
3544		119.140625
3545		115.234375
3546		121.093750
3547		117.187500
3548		123.046875
3549		119.140625
3550		123.046875
3551		121.093750
3552		125.000000
3553		121.093750
3554		126.953125
3555		123.046875
3556		128.906250
3557		125.000000
3558		130.859375
3559		125.000000
3560		130.859375
3561		126.953125
3562		130.859375
3563		128.906250
3564		132.812500
3565		128.906250
3566		132.812500
3567		130.859375
3568		132.812500
3569		130.859375
3570		134.765625
3571		130.859375
3572		134.765625
3573		130.859375
3574		136.718750
3575		132.812500
3576		136.718750
3577		132.812500
3578		138.671875
3579		132.812500
3580		138.671875
3581		132.812500
3582		138.671875
3583		134.765625
3584		138.671875
3585		134.765625
3586		138.671875
3587		136.718750
3588		138.671875
3589		136.718750
3590		138.671875
3591		136.718750
3592		138.671875
3593		136.718750
3594		138.671875
3595		136.718750
3596		138.671875
3597		136.718750
3598		138.671875
3599		134.765625
3600		138.671875
3601		136.718750
3602		138.671875
3603		134.765625
3604		138.671875
3605		134.765625
3606		138.671875
3607		134.765625
3608		136.718750
3609		134.765625
3610		136.718750
3611		132.812500
3612		136.718750
3613		132.812500
3614		134.765625
3615		132.812500
3616		134.765625
3617		130.859375
3618		134.765625
3619		130.859375
3620		132.812500
3621		128.906250
3622		132.812500
3623		128.906250
3624		130.859375
3625		126.953125
3626		130.859375
3627		126.953125
3628		128.906250
3629		125.000000
3630		128.906250
3631		125.000000
3632		126.953125
3633		123.046875
3634		126.953125
3635		121.093750
3636		125.000000
3637		121.093750
3638		123.046875
3639		119.140625
3640		121.093750
3641		117.187500
3642		121.093750
3643		115.234375
3644		119.140625
3645		113.281250
3646		117.187500
3647		113.281250
3648		115.234375
3649		111.328125
3650		113.281250
3651		109.375000
3652		111.328125
3653		107.421875
3654		111.328125
3655		105.468750
3656		107.421875
3657		103.515625
3658		107.421875
3659		99.609375
3660		103.515625
3661		99.609375
3662		101.562500
3663		95.703125
3664		99.609375
3665		93.750000
3666		97.656250
3667		91.796875
3668		95.703125
3669		89.843750
3670		93.750000
3671		87.890625
3672		89.843750
3673		83.984375
3674		87.890625
3675		82.031250
3676		85.937500
3677		80.078125
3678		83.984375
3679		76.171875
3680		80.078125
3681		74.218750
3682		78.125000
3683		70.312500
3684		76.171875
3685		68.359375
3686		72.265625
3687		62.500000
3688		70.312500
3689		60.546875
3690		68.359375
3691		56.640625
3692		66.406250
3693		56.640625
3694		60.546875
3695		52.734375
3696		58.593750
3697		50.781250
3698		54.687500
3699		46.875000
3700		52.734375
3701		44.921875
3702		48.828125
3703		39.062500
3704		46.875000
3705		35.156250
3706		44.921875
3707		33.203125
3708		42.968750
3709		31.250000
3710		39.062500
3711		29.296875
3712		33.203125
3713		25.390625
3714		29.296875
3715		23.437500
3716		27.343750
3717		19.531250
3718		23.437500
3719		15.625000
3720		19.531250
3721		11.718750
3722		19.531250
3723		5.859375
3724		15.625000
3725		3.906250
3726		13.671875
3727		1.953125
3728		7.812500
3729		-1.953125
3730		3.906250
3731		-3.906250
3732		0.000000
3733		-7.812500
3734		-3.906250
3735		-9.765625
3736		-5.859375
3737		-17.578125
3738		-7.812500
3739		-19.531250
3740		-7.812500
3741		-25.390625
3742		-13.671875
3743		-25.390625
3744		-15.625000
3745		-27.343750
3746		-23.437500
3747		-31.250000
3748		-25.390625
3749		-33.203125
3750		-29.296875
3751		-37.109375
3752		-33.203125
3753		-39.062500
3754		-35.156250
3755		-44.921875
3756		-35.156250
3757		-48.828125
3758		-39.062500
3759		-52.734375
3760		-41.015625
3761		-52.734375
3762		-48.828125
3763		-54.687500
3764		-50.781250
3765		-58.593750
3766		-54.687500
3767		-62.500000
3768		-56.640625
3769		-64.453125
3770		-60.546875
3771		-72.265625
3772		-62.500000
3773		-74.218750
3774		-64.453125
3775		-76.171875
3776		-64.453125
3777		-76.171875
3778		-72.265625
3779		-78.125000
3780		-74.218750
3781		-82.031250
3782		-78.125000
3783		-83.984375
3784		-80.078125
3785		-85.937500
3786		-82.031250
3787		-91.796875
3788		-83.984375
3789		-93.750000
3790		-83.984375
3791		-95.703125
3792		-85.937500
3793		-97.656250
3794		-87.890625
3795		-97.656250
3796		-93.750000
3797		-99.609375
3798		-95.703125
3799		-101.562500
3800		-97.656250
3801		-103.515625
3802		-99.609375
3803		-105.468750
3804		-101.562500
3805		-111.328125
3806		-101.562500
3807		-113.281250
3808		-103.515625
3809		-115.234375
3810		-105.468750
3811		-113.281250
3812		-109.375000
3813		-115.234375
3814		-111.328125
3815		-115.234375
3816		-113.281250
3817		-117.187500
3818		-115.234375
3819		-119.140625
3820		-115.234375
3821		-123.046875
3822		-115.234375
3823		-125.000000
3824		-115.234375
3825		-125.000000
3826		-117.187500
3827		-126.953125
3828		-117.187500
3829		-125.000000
3830		-121.093750
3831		-125.000000
3832		-123.046875
3833		-126.953125
3834		-123.046875
3835		-126.953125
3836		-125.000000
3837		-126.953125
3838		-125.000000
3839		-130.859375
3840		-121.093750
3841		-130.859375
3842		-123.046875
3843		-130.859375
3844		-123.046875
3845		-128.906250
3846		-126.953125
3847		-128.906250
3848		-126.953125
3849		-128.906250
3850		-126.953125
3851		-130.859375
3852		-126.953125
3853		-128.906250
3854		-126.953125
3855		-132.812500
3856		-123.046875
3857		-130.859375
3858		-123.046875
3859		-130.859375
3860		-123.046875
3861		-128.906250
3862		-125.000000
3863		-126.953125
3864		-125.000000
3865		-126.953125
3866		-123.046875
3867		-125.000000
3868		-123.046875
3869		-125.000000
3870		-123.046875
3871		-125.000000
3872		-121.093750
3873		-125.000000
3874		-117.187500
3875		-123.046875
3876		-117.187500
3877		-123.046875
3878		-117.187500
3879		-119.140625
3880		-117.187500
3881		-119.140625
3882		-115.234375
3883		-117.187500
3884		-113.281250
3885		-115.234375
3886		-111.328125
3887		-115.234375
3888		-111.328125
3889		-111.328125
3890		-109.375000
3891		-113.281250
3892		-105.468750
3893		-109.375000
3894		-103.515625
3895		-107.421875
3896		-103.515625
3897		-105.468750
3898		-99.609375
3899		-101.562500
3900		-99.609375
3901		-99.609375
3902		-95.703125
3903		-97.656250
3904		-93.750000
3905		-95.703125
3906		-91.796875
3907		-93.750000
3908		-87.890625
3909		-91.796875
3910		-85.937500
3911		-87.890625
3912		-83.984375
3913		-85.937500
3914		-82.031250
3915		-83.984375
3916		-80.078125
3917		-80.078125
3918		-76.171875
3919		-78.125000
3920		-74.218750
3921		-76.171875
3922		-72.265625
3923		-72.265625
3924		-68.359375
3925		-70.312500
3926		-66.406250
3927		-66.406250
3928		-62.500000
3929		-64.453125
3930		-60.546875
3931		-60.546875
3932		-54.687500
3933		-58.593750
3934		-52.734375
3935		-54.687500
3936		-50.781250
3937		-52.734375
3938		-46.875000
3939		-48.828125
3940		-44.921875
3941		-44.921875
3942		-41.015625
3943		-42.968750
3944		-37.109375
3945		-39.062500
3946		-35.156250
3947		-35.156250
3948		-31.250000
3949		-33.203125
3950		-27.343750
3951		-29.296875
3952		-25.390625
3953		-25.390625
3954		-21.484375
3955		-23.437500
3956		-17.578125
3957		-19.531250
3958		-15.625000
3959		-15.625000
3960		-11.718750
3961		-13.671875
3962		-7.812500
3963		-9.765625
3964		-3.906250
3965		-5.859375
3966		-1.953125
3967		-3.906250
3968		1.953125
3969		0.000000
3970		5.859375
3971		3.906250
3972		7.812500
3973		7.812500
3974		11.718750
3975		9.765625
3976		15.625000
3977		13.671875
3978		17.578125
3979		17.578125
3980		21.484375
3981		19.531250
3982		25.390625
3983		23.437500
3984		27.343750
3985		27.343750
3986		31.250000
3987		29.296875
3988		35.156250
3989		33.203125
3990		37.109375
3991		35.156250
3992		41.015625
3993		39.062500
3994		42.968750
3995		42.968750
3996		46.875000
3997		44.921875
3998		50.781250
3999		46.875000
4000		52.734375
4001		50.781250
4002		54.687500
4003		54.687500
4004		58.593750
4005		56.640625
4006		62.500000
4007		58.593750
4008		64.453125
4009		62.500000
4010		66.406250
4011		64.453125
4012		70.312500
4013		68.359375
4014		74.218750
4015		70.312500
4016		76.171875
4017		74.218750
4018		78.125000
4019		76.171875
4020		80.078125
4021		80.078125
4022		83.984375
4023		82.031250
4024		85.937500
4025		83.984375
4026		87.890625
4027		87.890625
4028		89.843750
4029		89.843750
4030		93.750000
4031		91.796875
4032		95.703125
4033		93.750000
4034		97.656250
4035		95.703125
4036		99.609375
4037		97.656250
4038		101.562500
4039		99.609375
4040		105.468750
4041		101.562500
4042		105.468750
4043		103.515625
4044		107.421875
4045		105.468750
4046		109.375000
4047		107.421875
4048		113.281250
4049		109.375000
4050		113.281250
4051		111.328125
4052		115.234375
4053		113.281250
4054		117.187500
4055		115.234375
4056		119.140625
4057		115.234375
4058		121.093750
4059		117.187500
4060		121.093750
4061		119.140625
4062		123.046875
4063		121.093750
4064		125.000000
4065		121.093750
4066		125.000000
4067		123.046875
4068		126.953125
4069		125.000000
4070		128.906250
4071		126.953125
4072		128.906250
4073		126.953125
4074		130.859375
4075		128.906250
4076		132.812500
4077		128.906250
4078		132.812500
4079		130.859375
4080		132.812500
4081		130.859375
4082		134.765625
4083		130.859375
4084		134.765625
4085		132.812500
4086		134.765625
4087		132.812500
4088		136.718750
4089		134.765625
4090		136.718750
4091		132.812500
4092		138.671875
4093		134.765625
4094		138.671875
4095		134.765625
4096		138.671875
4097		134.765625
4098		138.671875
4099		134.765625
4100		138.671875
4101		136.718750
4102		138.671875
4103		136.718750
4104		138.671875
4105		136.718750
4106		138.671875
4107		136.718750
4108		140.625000
4109		136.718750
4110		140.625000
4111		136.718750
4112		138.671875
4113		134.765625
4114		140.625000
4115		134.765625
4116		138.671875
4117		134.765625
4118		138.671875
4119		134.765625
4120		138.671875
4121		134.765625
4122		136.718750
4123		132.812500
4124		138.671875
4125		132.812500
4126		136.718750
4127		132.812500
4128		136.718750
4129		132.812500
4130		134.765625
4131		130.859375
4132		134.765625
4133		130.859375
4134		134.765625
4135		130.859375
4136		132.812500
4137		128.906250
4138		132.812500
4139		128.906250
4140		130.859375
4141		126.953125
4142		130.859375
4143		125.000000
4144		128.906250
4145		125.000000
4146		126.953125
4147		123.046875
4148		126.953125
4149		121.093750
4150		125.000000
4151		121.093750
4152		123.046875
4153		119.140625
4154		121.093750
4155		117.187500
4156		121.093750
4157		115.234375
4158		119.140625
4159		115.234375
4160		117.187500
4161		113.281250
4162		115.234375
4163		111.328125
4164		113.281250
4165		109.375000
4166		111.328125
4167		107.421875
4168		109.375000
4169		105.468750
4170		107.421875
4171		103.515625
4172		107.421875
4173		99.609375
4174		103.515625
4175		97.656250
4176		101.562500
4177		95.703125
4178		99.609375
4179		93.750000
4180		97.656250
4181		91.796875
4182		95.703125
4183		89.843750
4184		93.750000
4185		85.937500
4186		89.843750
4187		83.984375
4188		87.890625
4189		82.031250
4190		85.937500
4191		78.125000
4192		82.031250
4193		76.171875
4194		80.078125
4195		74.218750
4196		78.125000
4197		70.312500
4198		76.171875
4199		68.359375
4200		72.265625
4201		64.453125
4202		68.359375
4203		62.500000
4204		66.406250
4205		58.593750
4206		64.453125
4207		56.640625
4208		60.546875
4209		52.734375
4210		58.593750
4211		50.781250
4212		54.687500
4213		46.875000
4214		50.781250
4215		44.921875
4216		48.828125
4217		41.015625
4218		44.921875
4219		39.062500
4220		42.968750
4221		35.156250
4222		39.062500
4223		31.250000
4224		35.156250
4225		29.296875
4226		33.203125
4227		25.390625
4228		31.250000
4229		21.484375
4230		27.343750
4231		17.578125
4232		23.437500
4233		15.625000
4234		19.531250
4235		11.718750
4236		15.625000
4237		9.765625
4238		13.671875
4239		5.859375
4240		9.765625
4241		1.953125
4242		5.859375
4243		-1.953125
4244		3.906250
4245		-3.906250
4246		0.000000
4247		-7.812500
4248		-3.906250
4249		-11.718750
4250		-5.859375
4251		-13.671875
4252		-9.765625
4253		-17.578125
4254		-13.671875
4255		-21.484375
4256		-17.578125
4257		-23.437500
4258		-19.531250
4259		-27.343750
4260		-23.437500
4261		-31.250000
4262		-25.390625
4263		-35.156250
4264		-29.296875
4265		-37.109375
4266		-33.203125
4267		-41.015625
4268		-35.156250
4269		-42.968750
4270		-39.062500
4271		-46.875000
4272		-42.968750
4273		-48.828125
4274		-44.921875
4275		-52.734375
4276		-48.828125
4277		-56.640625
4278		-50.781250
4279		-58.593750
4280		-54.687500
4281		-62.500000
4282		-56.640625
4283		-64.453125
4284		-60.546875
4285		-66.406250
4286		-62.500000
4287		-70.312500
4288		-66.406250
4289		-74.218750
4290		-68.359375
4291		-76.171875
4292		-72.265625
4293		-78.125000
4294		-74.218750
4295		-82.031250
4296		-76.171875
4297		-83.984375
4298		-80.078125
4299		-85.937500
4300		-82.031250
4301		-87.890625
4302		-83.984375
4303		-89.843750
4304		-87.890625
4305		-93.750000
4306		-89.843750
4307		-95.703125
4308		-91.796875
4309		-97.656250
4310		-93.750000
4311		-99.609375
4312		-95.703125
4313		-101.562500
4314		-97.656250
4315		-103.515625
4316		-99.609375
4317		-105.468750
4318		-101.562500
4319		-107.421875
4320		-103.515625
4321		-109.375000
4322		-105.468750
4323		-111.328125
4324		-107.421875
4325		-115.234375
4326		-109.375000
4327		-115.234375
4328		-109.375000
4329		-115.234375
4330		-113.281250
4331		-117.187500
4332		-113.281250
4333		-119.140625
4334		-115.234375
4335		-119.140625
4336		-117.187500
4337		-121.093750
4338		-117.187500
4339		-123.046875
4340		-119.140625
4341		-123.046875
4342		-121.093750
4343		-126.953125
4344		-119.140625
4345		-126.953125
4346		-121.093750
4347		-125.000000
4348		-123.046875
4349		-126.953125
4350		-123.046875
4351		-126.953125
4352		-125.000000
4353		-126.953125
4354		-125.000000
4355		-126.953125
4356		-125.000000
4357		-128.906250
4358		-125.000000
4359		-130.859375
4360		-125.000000
4361		-130.859375
4362		-125.000000
4363		-128.906250
4364		-126.953125
4365		-128.906250
4366		-126.953125
4367		-128.906250
4368		-126.953125
4369		-128.906250
4370		-125.000000
4371		-128.906250
4372		-125.000000
4373		-126.953125
4374		-125.000000
4375		-126.953125
4376		-123.046875
4377		-128.906250
4378		-123.046875
4379		-126.953125
4380		-123.046875
4381		-125.000000
4382		-121.093750
4383		-125.000000
4384		-121.093750
4385		-123.046875
4386		-121.093750
4387		-123.046875
4388		-119.140625
4389		-121.093750
4390		-117.187500
4391		-119.140625
4392		-117.187500
4393		-121.093750
4394		-113.281250
4395		-119.140625
4396		-113.281250
4397		-115.234375
4398		-113.281250
4399		-113.281250
4400		-111.328125
4401		-111.328125
4402		-109.375000
4403		-111.328125
4404		-107.421875
4405		-109.375000
4406		-105.468750
4407		-107.421875
4408		-103.515625
4409		-105.468750
4410		-101.562500
4411		-105.468750
4412		-97.656250
4413		-103.515625
4414		-97.656250
4415		-99.609375
4416		-95.703125
4417		-97.656250
4418		-93.750000
4419		-93.750000
4420		-91.796875
4421		-91.796875
4422		-87.890625
4423		-89.843750
4424		-85.937500
4425		-87.890625
4426		-83.984375
4427		-85.937500
4428		-80.078125
4429		-83.984375
4430		-78.125000
4431		-80.078125
4432		-76.171875
4433		-76.171875
4434		-72.265625
4435		-74.218750
4436		-70.312500
4437		-72.265625
4438		-66.406250
4439		-68.359375
4440		-64.453125
4441		-66.406250
4442		-60.546875
4443		-62.500000
4444		-56.640625
4445		-60.546875
4446		-54.687500
4447		-56.640625
4448		-50.781250
4449		-54.687500
4450		-48.828125
4451		-50.781250
4452		-46.875000
4453		-46.875000
4454		-42.968750
4455		-44.921875
4456		-39.062500
4457		-41.015625
4458		-37.109375
4459		-37.109375
4460		-33.203125
4461		-37.109375
4462		-27.343750
4463		-33.203125
4464		-27.343750
4465		-27.343750
4466		-23.437500
4467		-25.390625
4468		-19.531250
4469		-21.484375
4470		-15.625000
4471		-17.578125
4472		-13.671875
4473		-13.671875
4474		-9.765625
4475		-11.718750
4476		-5.859375
4477		-7.812500
4478		-1.953125
4479		-3.906250
4480		0.000000
4481		-1.953125
4482		3.906250
4483		1.953125
4484		5.859375
4485		5.859375
4486		9.765625
4487		7.812500
4488		13.671875
4489		11.718750
4490		15.625000
4491		15.625000
4492		21.484375
4493		17.578125
4494		23.437500
4495		21.484375
4496		27.343750
4497		25.390625
4498		29.296875
4499		27.343750
4500		33.203125
4501		31.250000
4502		35.156250
4503		35.156250
4504		39.062500
4505		37.109375
4506		42.968750
4507		41.015625
4508		44.921875
4509		44.921875
4510		48.828125
4511		46.875000
4512		50.781250
4513		50.781250
4514		54.687500
4515		52.734375
4516		56.640625
4517		56.640625
4518		60.546875
4519		58.593750
4520		62.500000
4521		62.500000
4522		66.406250
4523		64.453125
4524		68.359375
4525		68.359375
4526		72.265625
4527		70.312500
4528		74.218750
4529		72.265625
4530		76.171875
4531		76.171875
4532		80.078125
4533		78.125000
4534		82.031250
4535		80.078125
4536		85.937500
4537		83.984375
4538		87.890625
4539		85.937500
4540		89.843750
4541		87.890625
4542		91.796875
4543		89.843750
4544		93.750000
4545		93.750000
4546		95.703125
4547		95.703125
4548		99.609375
4549		97.656250
4550		101.562500
4551		99.609375
4552		103.515625
4553		101.562500
4554		105.468750
4555		103.515625
4556		107.421875
4557		105.468750
4558		109.375000
4559		107.421875
4560		111.328125
4561		109.375000
4562		113.281250
4563		111.328125
4564		115.234375
4565		113.281250
4566		115.234375
4567		115.234375
4568		117.187500
4569		117.187500
4570		119.140625
4571		117.187500
4572		121.093750
4573		119.140625
4574		123.046875
4575		121.093750
4576		123.046875
4577		123.046875
4578		125.000000
4579		123.046875
4580		126.953125
4581		125.000000
4582		126.953125
4583		126.953125
4584		128.906250
4585		126.953125
4586		130.859375
4587		128.906250
4588		130.859375
4589		128.906250
4590		132.812500
4591		128.906250
4592		132.812500
4593		130.859375
4594		132.812500
4595		132.812500
4596		134.765625
4597		132.812500
4598		134.765625
4599		132.812500
4600		136.718750
4601		132.812500
4602		136.718750
4603		134.765625
4604		136.718750
4605		134.765625
4606		136.718750
4607		134.765625
4608		138.671875
4609		136.718750
4610		138.671875
4611		136.718750
4612		138.671875
4613		136.718750
4614		138.671875
4615		136.718750
4616		138.671875
4617		136.718750
4618		138.671875
4619		136.718750
4620		138.671875
4621		136.718750
4622		138.671875
4623		136.718750
4624		138.671875
4625		136.718750
4626		138.671875
4627		136.718750
4628		138.671875
4629		136.718750
4630		138.671875
4631		136.718750
4632		138.671875
4633		134.765625
4634		138.671875
4635		134.765625
4636		138.671875
4637		134.765625
4638		136.718750
4639		134.765625
4640		136.718750
4641		132.812500
4642		136.718750
4643		132.812500
4644		134.765625
4645		132.812500
4646		134.765625
4647		130.859375
4648		134.765625
4649		130.859375
4650		132.812500
4651		128.906250
4652		132.812500
4653		128.906250
4654		130.859375
4655		126.953125
4656		130.859375
4657		126.953125
4658		128.906250
4659		125.000000
4660		126.953125
4661		123.046875
4662		126.953125
4663		121.093750
4664		125.000000
4665		121.093750
4666		123.046875
4667		119.140625
4668		123.046875
4669		117.187500
4670		121.093750
4671		115.234375
4672		119.140625
4673		113.281250
4674		117.187500
4675		111.328125
4676		115.234375
4677		111.328125
4678		113.281250
4679		109.375000
4680		111.328125
4681		107.421875
4682		109.375000
4683		105.468750
4684		107.421875
4685		103.515625
4686		105.468750
4687		99.609375
4688		103.515625
4689		97.656250
4690		101.562500
4691		95.703125
4692		99.609375
4693		93.750000
4694		97.656250
4695		91.796875
4696		95.703125
4697		89.843750
4698		91.796875
4699		85.937500
4700		89.843750
4701		83.984375
4702		87.890625
4703		82.031250
4704		85.937500
4705		78.125000
4706		82.031250
4707		76.171875
4708		80.078125
4709		72.265625
4710		78.125000
4711		70.312500
4712		74.218750
4713		68.359375
4714		72.265625
4715		64.453125
4716		68.359375
4717		62.500000
4718		66.406250
4719		58.593750
4720		62.500000
4721		56.640625
4722		60.546875
4723		52.734375
4724		56.640625
4725		48.828125
4726		54.687500
4727		46.875000
4728		50.781250
4729		42.968750
4730		48.828125
4731		41.015625
4732		44.921875
4733		37.109375
4734		41.015625
4735		33.203125
4736		39.062500
4737		31.250000
4738		35.156250
4739		27.343750
4740		33.203125
4741		25.390625
4742		29.296875
4743		21.484375
4744		25.390625
4745		17.578125
4746		23.437500
4747		15.625000
4748		19.531250
4749		11.718750
4750		15.625000
4751		7.812500
4752		11.718750
4753		5.859375
4754		9.765625
4755		1.953125
4756		5.859375
4757		-1.953125
4758		1.953125
4759		-5.859375
4760		0.000000
4761		-7.812500
4762		-3.906250
4763		-11.718750
4764		-7.812500
4765		-15.625000
4766		-9.765625
4767		-17.578125
4768		-13.671875
4769		-21.484375
4770		-17.578125
4771		-25.390625
4772		-19.531250
4773		-27.343750
4774		-23.437500
4775		-31.250000
4776		-27.343750
4777		-35.156250
4778		-29.296875
4779		-37.109375
4780		-33.203125
4781		-41.015625
4782		-37.109375
4783		-44.921875
4784		-39.062500
4785		-46.875000
4786		-42.968750
4787		-50.781250
4788		-44.921875
4789		-52.734375
4790		-48.828125
4791		-56.640625
4792		-52.734375
4793		-58.593750
4794		-54.687500
4795		-62.500000
4796		-58.593750
4797		-64.453125
4798		-60.546875
4799		-68.359375
4800		-64.453125
4801		-70.312500
4802		-66.406250
4803		-74.218750
4804		-68.359375
4805		-76.171875
4806		-72.265625
4807		-78.125000
4808		-74.218750
4809		-82.031250
4810		-78.125000
4811		-83.984375
4812		-80.078125
4813		-85.937500
4814		-82.031250
4815		-89.843750
4816		-85.937500
4817		-91.796875
4818		-87.890625
4819		-93.750000
4820		-89.843750
4821		-95.703125
4822		-91.796875
4823		-97.656250
4824		-93.750000
4825		-99.609375
4826		-97.656250
4827		-103.515625
4828		-99.609375
4829		-103.515625
4830		-99.609375
4831		-105.468750
4832		-103.515625
4833		-109.375000
4834		-105.468750
4835		-109.375000
4836		-107.421875
4837		-111.328125
4838		-109.375000
4839		-113.281250
4840		-109.375000
4841		-115.234375
4842		-111.328125
4843		-117.187500
4844		-113.281250
4845		-117.187500
4846		-115.234375
4847		-119.140625
4848		-117.187500
4849		-121.093750
4850		-117.187500
4851		-121.093750
4852		-119.140625
4853		-123.046875
4854		-119.140625
4855		-123.046875
4856		-121.093750
4857		-125.000000
4858		-121.093750
4859		-125.000000
4860		-123.046875
4861		-126.953125
4862		-123.046875
4863		-126.953125
4864		-125.000000
4865		-126.953125
4866		-125.000000
4867		-126.953125
4868		-125.000000
4869		-128.906250
4870		-125.000000
4871		-128.906250
4872		-126.953125
4873		-128.906250
4874		-126.953125
4875		-128.906250
4876		-126.953125
4877		-128.906250
4878		-126.953125
4879		-128.906250
4880		-126.953125
4881		-128.906250
4882		-125.000000
4883		-128.906250
4884		-126.953125
4885		-128.906250
4886		-125.000000
4887		-126.953125
4888		-125.000000
4889		-126.953125
4890		-125.000000
4891		-126.953125
4892		-123.046875
4893		-126.953125
4894		-123.046875
4895		-125.000000
4896		-123.046875
4897		-125.000000
4898		-121.093750
4899		-123.046875
4900		-121.093750
4901		-123.046875
4902		-119.140625
4903		-121.093750
4904		-119.140625
4905		-121.093750
4906		-117.187500
4907		-119.140625
4908		-115.234375
4909		-117.187500
4910		-115.234375
4911		-117.187500
4912		-113.281250
4913		-115.234375
4914		-111.328125
4915		-113.281250
4916		-109.375000
4917		-111.328125
4918		-107.421875
4919		-109.375000
4920		-105.468750
4921		-107.421875
4922		-103.515625
4923		-105.468750
4924		-101.562500
4925		-103.515625
4926		-99.609375
4927		-101.562500
4928		-97.656250
4929		-99.609375
4930		-95.703125
4931		-97.656250
4932		-93.750000
4933		-95.703125
4934		-91.796875
4935		-91.796875
4936		-87.890625
4937		-89.843750
4938		-85.937500
4939		-87.890625
4940		-83.984375
4941		-83.984375
4942		-80.078125
4943		-82.031250
4944		-78.125000
4945		-80.078125
4946		-76.171875
4947		-76.171875
4948		-72.265625
4949		-74.218750
4950		-70.312500
4951		-70.312500
4952		-66.406250
4953		-68.359375
4954		-64.453125
4955		-64.453125
4956		-60.546875
4957		-62.500000
4958		-58.593750
4959		-60.546875
4960		-54.687500
4961		-56.640625
4962		-52.734375
4963		-52.734375
4964		-48.828125
4965		-50.781250
4966		-44.921875
4967		-46.875000
4968		-42.968750
4969		-42.968750
4970		-39.062500
4971		-41.015625
4972		-35.156250
4973		-37.109375
4974		-33.203125
4975		-33.203125
4976		-29.296875
4977		-31.250000
4978		-25.390625
4979		-27.343750
4980		-23.437500
4981		-23.437500
4982		-19.531250
4983		-21.484375
4984		-15.625000
4985		-17.578125
4986		-11.718750
4987		-13.671875
4988		-9.765625
4989		-11.718750
4990		-5.859375
4991		-7.812500
4992		-1.953125
4993		-3.906250
4994		0.000000
4995		0.000000
4996		3.906250
4997		1.953125
4998		7.812500
4999		5.859375
5000		11.718750
5001		9.765625
5002		13.671875
5003		11.718750
5004		17.578125
5005		15.625000
5006		21.484375
5007		19.531250
5008		23.437500
5009		21.484375
5010		27.343750
5011		25.390625
5012		29.296875
5013		29.296875
5014		33.203125
5015		31.250000
5016		37.109375
5017		35.156250
5018		39.062500
5019		39.062500
5020		42.968750
5021		41.015625
5022		44.921875
5023		44.921875
5024		48.828125
5025		46.875000
5026		50.781250
5027		50.781250
5028		54.687500
5029		52.734375
5030		58.593750
5031		56.640625
5032		60.546875
5033		58.593750
5034		64.453125
5035		62.500000
5036		66.406250
5037		64.453125
5038		68.359375
5039		68.359375
5040		72.265625
5041		70.312500
5042		74.218750
5043		72.265625
5044		76.171875
5045		76.171875
5046		80.078125
5047		78.125000
5048		82.031250
5049		80.078125
5050		83.984375
5051		83.984375
5052		87.890625
5053		85.937500
5054		89.843750
5055		87.890625
5056		91.796875
5057		89.843750
5058		93.750000
5059		93.750000
5060		97.656250
5061		95.703125
5062		99.609375
5063		97.656250
5064		101.562500
5065		99.609375
5066		103.515625
5067		101.562500
5068		105.468750
5069		103.515625
5070		107.421875
5071		105.468750
5072		109.375000
5073		107.421875
5074		111.328125
5075		109.375000
5076		113.281250
5077		111.328125
5078		115.234375
5079		113.281250
5080		117.187500
5081		115.234375
5082		117.187500
5083		115.234375
5084		119.140625
5085		117.187500
5086		121.093750
5087		119.140625
5088		123.046875
5089		121.093750
5090		125.000000
5091		121.093750
5092		125.000000
5093		123.046875
5094		126.953125
5095		125.000000
5096		126.953125
5097		125.000000
5098		128.906250
5099		126.953125
5100		128.906250
5101		128.906250
5102		130.859375
5103		128.906250
5104		132.812500
5105		130.859375
5106		132.812500
5107		130.859375
5108		132.812500
5109		132.812500
5110		134.765625
5111		132.812500
5112		134.765625
5113		132.812500
5114		134.765625
5115		134.765625
5116		136.718750
5117		134.765625
5118		136.718750
5119		134.765625
5120		138.671875
5121		134.765625
5122		138.671875
5123		136.718750
5124		138.671875
5125		136.718750
5126		138.671875
5127		136.718750
5128		138.671875
5129		136.718750
5130		138.671875
5131		136.718750
5132		138.671875
5133		136.718750
5134		138.671875
5135		136.718750
5136		138.671875
5137		136.718750
5138		138.671875
5139		136.718750
5140		138.671875
5141		136.718750
5142		138.671875
5143		134.765625
5144		138.671875
5145		134.765625
5146		138.671875
5147		134.765625
5148		136.718750
5149		134.765625
5150		136.718750
5151		132.812500
5152		136.718750
5153		132.812500
5154		136.718750
5155		132.812500
5156		134.765625
5157		130.859375
5158		134.765625
5159		130.859375
5160		134.765625
5161		130.859375
5162		132.812500
5163		128.906250
5164		132.812500
5165		128.906250
5166		130.859375
5167		126.953125
5168		128.906250
5169		126.953125
5170		128.906250
5171		125.000000
5172		126.953125
5173		123.046875
5174		126.953125
5175		123.046875
5176		125.000000
5177		121.093750
5178		123.046875
5179		119.140625
5180		123.046875
5181		117.187500
5182		121.093750
5183		115.234375
5184		119.140625
5185		115.234375
5186		117.187500
5187		113.281250
5188		115.234375
5189		111.328125
5190		113.281250
5191		109.375000
5192		113.281250
5193		107.421875
5194		111.328125
5195		105.468750
5196		109.375000
5197		103.515625
5198		107.421875
5199		101.562500
5200		105.468750
5201		97.656250
5202		103.515625
5203		95.703125
5204		99.609375
5205		93.750000
5206		97.656250
5207		91.796875
5208		95.703125
5209		89.843750
5210		93.750000
5211		87.890625
5212		91.796875
5213		85.937500
5214		89.843750
5215		82.031250
5216		85.937500
5217		80.078125
5218		83.984375
5219		76.171875
5220		82.031250
5221		74.218750
5222		78.125000
5223		72.265625
5224		76.171875
5225		68.359375
5226		72.265625
5227		66.406250
5228		70.312500
5229		62.500000
5230		66.406250
5231		60.546875
5232		64.453125
5233		56.640625
5234		60.546875
5235		54.687500
5236		58.593750
5237		50.781250
5238		54.687500
5239		48.828125
5240		52.734375
5241		44.921875
5242		48.828125
5243		41.015625
5244		46.875000
5245		39.062500
5246		42.968750
5247		35.156250
5248		39.062500
5249		33.203125
5250		37.109375
5251		29.296875
5252		33.203125
5253		25.390625
5254		31.250000
5255		21.484375
5256		27.343750
5257		19.531250
5258		23.437500
5259		15.625000
5260		21.484375
5261		11.718750
5262		17.578125
5263		9.765625
5264		13.671875
5265		5.859375
5266		11.718750
5267		1.953125
5268		7.812500
5269		0.000000
5270		3.906250
5271		-3.906250
5272		0.000000
5273		-7.812500
5274		-1.953125
5275		-9.765625
5276		-5.859375
5277		-13.671875
5278		-9.765625
5279		-17.578125
5280		-11.718750
5281		-19.531250
5282		-15.625000
5283		-23.437500
5284		-19.531250
5285		-27.343750
5286		-21.484375
5287		-31.250000
5288		-25.390625
5289		-33.203125
5290		-29.296875
5291		-37.109375
5292		-31.250000
5293		-39.062500
5294		-35.156250
5295		-42.968750
5296		-39.062500
5297		-46.875000
5298		-41.015625
5299		-48.828125
5300		-44.921875
5301		-52.734375
5302		-48.828125
5303		-54.687500
5304		-50.781250
5305		-58.593750
5306		-52.734375
5307		-60.546875
5308		-56.640625
5309		-64.453125
5310		-60.546875
5311		-66.406250
5312		-62.500000
5313		-70.312500
5314		-66.406250
5315		-72.265625
5316		-68.359375
5317		-76.171875
5318		-72.265625
5319		-78.125000
5320		-74.218750
5321		-82.031250
5322		-76.171875
5323		-83.984375
5324		-80.078125
5325		-85.937500
5326		-82.031250
5327		-87.890625
5328		-83.984375
5329		-91.796875
5330		-85.937500
5331		-93.750000
5332		-89.843750
5333		-95.703125
5334		-91.796875
5335		-97.656250
5336		-93.750000
5337		-99.609375
5338		-95.703125
5339		-101.562500
5340		-95.703125
5341		-103.515625
5342		-99.609375
5343		-107.421875
5344		-99.609375
5345		-107.421875
5346		-103.515625
5347		-109.375000
5348		-105.468750
5349		-111.328125
5350		-107.421875
5351		-113.281250
5352		-109.375000
5353		-113.281250
5354		-111.328125
5355		-117.187500
5356		-111.328125
5357		-117.187500
5358		-113.281250
5359		-121.093750
5360		-115.234375
5361		-119.140625
5362		-117.187500
5363		-121.093750
5364		-115.234375
5365		-121.093750
5366		-119.140625
5367		-123.046875
5368		-121.093750
5369		-125.000000
5370		-121.093750
5371		-126.953125
5372		-121.093750
5373		-126.953125
5374		-123.046875
5375		-126.953125
5376		-123.046875
5377		-128.906250
5378		-121.093750
5379		-130.859375
5380		-123.046875
5381		-126.953125
5382		-125.000000
5383		-128.906250
5384		-125.000000
5385		-128.906250
5386		-125.000000
5387		-130.859375
5388		-125.000000
5389		-130.859375
5390		-125.000000
5391		-128.906250
5392		-125.000000
5393		-130.859375
5394		-123.046875
5395		-128.906250
5396		-125.000000
5397		-130.859375
5398		-123.046875
5399		-126.953125
5400		-125.000000
5401		-126.953125
5402		-123.046875
5403		-128.906250
5404		-121.093750
5405		-126.953125
5406		-121.093750
5407		-126.953125
5408		-121.093750
5409		-125.000000
5410		-121.093750
5411		-125.000000
5412		-119.140625
5413		-123.046875
5414		-119.140625
5415		-121.093750
5416		-119.140625
5417		-121.093750
5418		-117.187500
5419		-121.093750
5420		-113.281250
5421		-121.093750
5422		-111.328125
5423		-117.187500
5424		-113.281250
5425		-115.234375
5426		-111.328125
5427		-115.234375
5428		-107.421875
5429		-111.328125
5430		-107.421875
5431		-113.281250
5432		-103.515625
5433		-107.421875
5434		-103.515625
5435		-105.468750
5436		-101.562500
5437		-105.468750
5438		-97.656250
5439		-103.515625
5440		-97.656250
5441		-99.609375
5442		-95.703125
5443		-99.609375
5444		-91.796875
5445		-97.656250
5446		-89.843750
5447		-95.703125
5448		-85.937500
5449		-89.843750
5450		-85.937500
5451		-87.890625
5452		-83.984375
5453		-85.937500
5454		-80.078125
5455		-87.890625
5456		-76.171875
5457		-80.078125
5458		-76.171875
5459		-78.125000
5460		-72.265625
5461		-78.125000
5462		-68.359375
5463		-74.218750
5464		-64.453125
5465		-68.359375
5466		-64.453125
5467		-66.406250
5468		-62.500000
5469		-62.500000
5470		-58.593750
5471		-62.500000
5472		-52.734375
5473		-58.593750
5474		-50.781250
5475		-54.687500
5476		-48.828125
5477		-50.781250
5478		-42.968750
5479		-50.781250
5480		-42.968750
5481		-46.875000
5482		-39.062500
5483		-41.015625
5484		-37.109375
5485		-39.062500
5486		-33.203125
5487		-37.109375
5488		-27.343750
5489		-35.156250
5490		-27.343750
5491		-29.296875
5492		-23.437500
5493		-25.390625
5494		-19.531250
5495		-25.390625
5496		-15.625000
5497		-19.531250
5498		-11.718750
5499		-15.625000
5500		-9.765625
5501		-11.718750
5502		-7.812500
5503		-9.765625
5504		-3.906250
5505		-7.812500
5506		0.000000
5507		-3.906250
5508		1.953125
5509		1.953125
5510		5.859375
5511		3.906250
5512		11.718750
5513		5.859375
5514		11.718750
5515		7.812500
5516		15.625000
5517		13.671875
5518		19.531250
5519		17.578125
5520		23.437500
5521		19.531250
5522		29.296875
5523		23.437500
5524		29.296875
5525		27.343750
5526		31.250000
5527		31.250000
5528		39.062500
5529		31.250000
5530		41.015625
5531		35.156250
5532		42.968750
5533		39.062500
5534		44.921875
5535		42.968750
5536		46.875000
5537		46.875000
5538		50.781250
5539		46.875000
5540		56.640625
5541		50.781250
5542		56.640625
5543		54.687500
5544		60.546875
5545		56.640625
5546		66.406250
5547		60.546875
5548		68.359375
5549		64.453125
5550		68.359375
5551		66.406250
5552		70.312500
5553		68.359375
5554		74.218750
5555		70.312500
5556		78.125000
5557		74.218750
5558		80.078125
5559		78.125000
5560		82.031250
5561		80.078125
5562		85.937500
5563		80.078125
5564		87.890625
5565		83.984375
5566		89.843750
5567		87.890625
5568		91.796875
5569		89.843750
5570		93.750000
5571		91.796875
5572		99.609375
5573		91.796875
5574		99.609375
5575		95.703125
5576		99.609375
5577		99.609375
5578		103.515625
5579		97.656250
5580		107.421875
5581		101.562500
5582		109.375000
5583		105.468750
5584		109.375000
5585		107.421875
5586		111.328125
5587		109.375000
5588		113.281250
5589		109.375000
5590		115.234375
5591		111.328125
5592		117.187500
5593		113.281250
5594		117.187500
5595		113.281250
5596		123.046875
5597		115.234375
5598		121.093750
5599		117.187500
5600		125.000000
5601		121.093750
5602		123.046875
5603		121.093750
5604		126.953125
5605		121.093750
5606		128.906250
5607		123.046875
5608		128.906250
5609		125.000000
5610		128.906250
5611		126.953125
5612		132.812500
5613		126.953125
5614		130.859375
5615		126.953125
5616		134.765625
5617		128.906250
5618		132.812500
5619		130.859375
5620		132.812500
5621		130.859375
5622		134.765625
5623		128.906250
5624		136.718750
5625		132.812500
5626		136.718750
5627		134.765625
5628		136.718750
5629		132.812500
5630		138.671875
5631		134.765625
5632		136.718750
5633		134.765625
5634		138.671875
5635		136.718750
5636		138.671875
5637		136.718750
5638		140.625000
5639		136.718750
5640		138.671875
5641		134.765625
5642		140.625000
5643		136.718750
5644		138.671875
5645		136.718750
5646		140.625000
5647		136.718750
5648		138.671875
5649		136.718750
5650		140.625000
5651		136.718750
5652		140.625000
5653		136.718750
5654		140.625000
5655		136.718750
5656		138.671875
5657		136.718750
5658		138.671875
5659		136.718750
5660		138.671875
5661		134.765625
5662		138.671875
5663		134.765625
5664		136.718750
5665		132.812500
5666		136.718750
5667		134.765625
5668		136.718750
5669		132.812500
5670		134.765625
5671		132.812500
5672		134.765625
5673		130.859375
5674		134.765625
5675		130.859375
5676		132.812500
5677		128.906250
5678		132.812500
5679		128.906250
5680		130.859375
5681		126.953125
5682		130.859375
5683		126.953125
5684		130.859375
5685		125.000000
5686		128.906250
5687		123.046875
5688		126.953125
5689		121.093750
5690		126.953125
5691		119.140625
5692		125.000000
5693		117.187500
5694		125.000000
5695		117.187500
5696		123.046875
5697		115.234375
5698		121.093750
5699		115.234375
5700		119.140625
5701		113.281250
5702		117.187500
5703		111.328125
5704		115.234375
5705		109.375000
5706		113.281250
5707		105.468750
5708		111.328125
5709		103.515625
5710		109.375000
5711		103.515625
5712		109.375000
5713		101.562500
5714		107.421875
5715		97.656250
5716		103.515625
5717		97.656250
5718		101.562500
5719		93.750000
5720		97.656250
5721		91.796875
5722		95.703125
5723		89.843750
5724		95.703125
5725		85.937500
5726		91.796875
5727		83.984375
5728		89.843750
5729		80.078125
5730		87.890625
5731		78.125000
5732		85.937500
5733		76.171875
5734		82.031250
5735		74.218750
5736		78.125000
5737		70.312500
5738		76.171875
5739		68.359375
5740		74.218750
5741		64.453125
5742		70.312500
5743		60.546875
5744		68.359375
5745		58.593750
5746		66.406250
5747		54.687500
5748		62.500000
5749		52.734375
5750		58.593750
5751		50.781250
5752		54.687500
5753		46.875000
5754		52.734375
5755		44.921875
5756		48.828125
5757		41.015625
5758		46.875000
5759		37.109375
5760		42.968750
5761		33.203125
5762		41.015625
5763		31.250000
5764		37.109375
5765		27.343750
5766		33.203125
5767		25.390625
5768		31.250000
5769		21.484375
5770		27.343750
5771		17.578125
5772		23.437500
5773		15.625000
5774		21.484375
5775		11.718750
5776		17.578125
5777		7.812500
5778		13.671875
5779		3.906250
5780		9.765625
5781		1.953125
5782		5.859375
5783		-1.953125
5784		5.859375
5785		-3.906250
5786		0.000000
5787		-7.812500
5788		-3.906250
5789		-11.718750
5790		-5.859375
5791		-13.671875
5792		-9.765625
5793		-17.578125
5794		-11.718750
5795		-21.484375
5796		-15.625000
5797		-25.390625
5798		-19.531250
5799		-27.343750
5800		-23.437500
5801		-31.250000
5802		-25.390625
5803		-33.203125
5804		-29.296875
5805		-37.109375
5806		-31.250000
5807		-39.062500
5808		-35.156250
5809		-42.968750
5810		-39.062500
5811		-48.828125
5812		-41.015625
5813		-50.781250
5814		-44.921875
5815		-52.734375
5816		-46.875000
5817		-56.640625
5818		-50.781250
5819		-58.593750
5820		-54.687500
5821		-62.500000
5822		-56.640625
5823		-64.453125
5824		-58.593750
5825		-68.359375
5826		-62.500000
5827		-72.265625
5828		-66.406250
5829		-72.265625
5830		-66.406250
5831		-76.171875
5832		-70.312500
5833		-80.078125
5834		-74.218750
5835		-80.078125
5836		-76.171875
5837		-83.984375
5838		-80.078125
5839		-85.937500
5840		-82.031250
5841		-87.890625
5842		-83.984375
5843		-89.843750
5844		-85.937500
5845		-93.750000
5846		-87.890625
5847		-95.703125
5848		-89.843750
5849		-97.656250
5850		-93.750000
5851		-99.609375
5852		-95.703125
5853		-101.562500
5854		-97.656250
5855		-103.515625
5856		-99.609375
5857		-105.468750
5858		-101.562500
5859		-107.421875
5860		-103.515625
5861		-109.375000
5862		-105.468750
5863		-111.328125
5864		-107.421875
5865		-113.281250
5866		-109.375000
5867		-115.234375
5868		-109.375000
5869		-115.234375
5870		-111.328125
5871		-117.187500
5872		-113.281250
5873		-119.140625
5874		-115.234375
5875		-119.140625
5876		-115.234375
5877		-121.093750
5878		-117.187500
5879		-123.046875
5880		-117.187500
5881		-123.046875
5882		-119.140625
5883		-123.046875
5884		-121.093750
5885		-125.000000
5886		-121.093750
5887		-125.000000
5888		-123.046875
5889		-126.953125
5890		-123.046875
5891		-126.953125
5892		-123.046875
5893		-126.953125
5894		-123.046875
5895		-128.906250
5896		-125.000000
5897		-128.906250
5898		-125.000000
5899		-128.906250
5900		-125.000000
5901		-128.906250
5902		-125.000000
5903		-126.953125
5904		-125.000000
5905		-128.906250
5906		-125.000000
5907		-128.906250
5908		-125.000000
5909		-128.906250
5910		-125.000000
5911		-126.953125
5912		-125.000000
5913		-126.953125
5914		-123.046875
5915		-126.953125
5916		-123.046875
5917		-126.953125
5918		-123.046875
5919		-125.000000
5920		-123.046875
5921		-125.000000
5922		-121.093750
5923		-125.000000
5924		-119.140625
5925		-123.046875
5926		-119.140625
5927		-123.046875
5928		-119.140625
5929		-121.093750
5930		-117.187500
5931		-119.140625
5932		-115.234375
5933		-117.187500
5934		-115.234375
5935		-117.187500
5936		-113.281250
5937		-115.234375
5938		-111.328125
5939		-113.281250
5940		-109.375000
5941		-113.281250
5942		-109.375000
5943		-109.375000
5944		-105.468750
5945		-109.375000
5946		-105.468750
5947		-107.421875
5948		-103.515625
5949		-105.468750
5950		-101.562500
5951		-103.515625
5952		-99.609375
5953		-101.562500
5954		-97.656250
5955		-99.609375
5956		-95.703125
5957		-97.656250
5958		-91.796875
5959		-93.750000
5960		-89.843750
5961		-91.796875
5962		-87.890625
5963		-89.843750
5964		-83.984375
5965		-87.890625
5966		-82.031250
5967		-83.984375
5968		-80.078125
5969		-82.031250
5970		-78.125000
5971		-78.125000
5972		-74.218750
5973		-76.171875
5974		-72.265625
5975		-74.218750
5976		-68.359375
5977		-70.312500
5978		-66.406250
5979		-68.359375
5980		-62.500000
5981		-64.453125
5982		-60.546875
5983		-62.500000
5984		-56.640625
5985		-58.593750
5986		-54.687500
5987		-56.640625
5988		-50.781250
5989		-52.734375
5990		-48.828125
5991		-50.781250
5992		-44.921875
5993		-46.875000
5994		-41.015625
5995		-42.968750
5996		-39.062500
5997		-39.062500
5998		-35.156250
5999		-37.109375
6000		-31.250000
6001		-33.203125
6002		-27.343750
6003		-31.250000
6004		-25.390625
6005		-27.343750
6006		-21.484375
6007		-23.437500
6008		-19.531250
6009		-21.484375
6010		-15.625000
6011		-17.578125
6012		-11.718750
6013		-13.671875
6014		-7.812500
6015		-9.765625
6016		-5.859375
6017		-7.812500
6018		-1.953125
6019		-3.906250
6020		0.000000
6021		0.000000
6022		3.906250
6023		1.953125
6024		7.812500
6025		5.859375
6026		11.718750
6027		9.765625
6028		13.671875
6029		11.718750
6030		17.578125
6031		15.625000
6032		19.531250
6033		19.531250
6034		23.437500
6035		23.437500
6036		27.343750
6037		25.390625
6038		31.250000
6039		29.296875
6040		33.203125
6041		31.250000
6042		37.109375
6043		35.156250
6044		41.015625
6045		39.062500
6046		42.968750
6047		41.015625
6048		46.875000
6049		44.921875
6050		48.828125
6051		46.875000
6052		52.734375
6053		50.781250
6054		54.687500
6055		52.734375
6056		58.593750
6057		56.640625
6058		60.546875
6059		58.593750
6060		64.453125
6061		62.500000
6062		66.406250
6063		64.453125
6064		68.359375
6065		66.406250
6066		72.265625
6067		70.312500
6068		74.218750
6069		72.265625
6070		78.125000
6071		76.171875
6072		80.078125
6073		78.125000
6074		82.031250
6075		80.078125
6076		85.937500
6077		83.984375
6078		87.890625
6079		85.937500
6080		89.843750
6081		87.890625
6082		93.750000
6083		89.843750
6084		93.750000
6085		91.796875
6086		97.656250
6087		93.750000
6088		99.609375
6089		97.656250
6090		101.562500
6091		99.609375
6092		103.515625
6093		101.562500
6094		105.468750
6095		103.515625
6096		107.421875
6097		105.468750
6098		109.375000
6099		107.421875
6100		111.328125
6101		109.375000
6102		113.281250
6103		111.328125
6104		115.234375
6105		113.281250
6106		117.187500
6107		115.234375
6108		119.140625
6109		115.234375
6110		119.140625
6111		117.187500
6112		121.093750
6113		119.140625
6114		123.046875
6115		121.093750
6116		125.000000
6117		121.093750
6118		126.953125
6119		123.046875
6120		126.953125
6121		125.000000
6122		126.953125
6123		125.000000
6124		128.906250
6125		126.953125
6126		130.859375
6127		128.906250
6128		130.859375
6129		128.906250
6130		132.812500
6131		130.859375
6132		132.812500
6133		130.859375
6134		134.765625
6135		130.859375
6136		134.765625
6137		130.859375
6138		136.718750
6139		132.812500
6140		136.718750
6141		134.765625
6142		136.718750
6143		134.765625
6144		136.718750
6145		134.765625
6146		138.671875
6147		134.765625
6148		138.671875
6149		134.765625
6150		138.671875
6151		136.718750
6152		138.671875
6153		134.765625
6154		140.625000
6155		136.718750
6156		138.671875
6157		136.718750
6158		138.671875
6159		136.718750
6160		140.625000
6161		136.718750
6162		138.671875
6163		136.718750
6164		138.671875
6165		134.765625
6166		140.625000
6167		134.765625
6168		138.671875
6169		134.765625
6170		138.671875
6171		134.765625
6172		138.671875
6173		134.765625
6174		138.671875
6175		132.812500
6176		136.718750
6177		134.765625
6178		136.718750
6179		132.812500
6180		136.718750
6181		132.812500
6182		136.718750
6183		132.812500
6184		134.765625
6185		130.859375
6186		134.765625
6187		130.859375
6188		132.812500
6189		128.906250
6190		132.812500
6191		126.953125
6192		130.859375
6193		126.953125
6194		130.859375
6195		125.000000
6196		128.906250
6197		125.000000
6198		128.906250
6199		123.046875
6200		126.953125
6201		123.046875
6202		126.953125
6203		119.140625
6204		125.000000
6205		119.140625
6206		123.046875
6207		119.140625
6208		121.093750
6209		115.234375
6210		121.093750
6211		115.234375
6212		117.187500
6213		113.281250
6214		117.187500
6215		111.328125
6216		115.234375
6217		109.375000
6218		113.281250
6219		107.421875
6220		111.328125
6221		105.468750
6222		109.375000
6223		103.515625
6224		107.421875
6225		101.562500
6226		105.468750
6227		99.609375
6228		103.515625
6229		95.703125
6230		101.562500
6231		95.703125
6232		99.609375
6233		91.796875
6234		97.656250
6235		89.843750
6236		93.750000
6237		87.890625
6238		91.796875
6239		85.937500
6240		89.843750
6241		82.031250
6242		85.937500
6243		80.078125
6244		83.984375
6245		78.125000
6246		82.031250
6247		74.218750
6248		78.125000
6249		70.312500
6250		76.171875
6251		68.359375
6252		74.218750
6253		66.406250
6254		70.312500
6255		64.453125
6256		68.359375
6257		60.546875
6258		64.453125
6259		56.640625
6260		62.500000
6261		54.687500
6262		58.593750
6263		52.734375
6264		56.640625
6265		48.828125
6266		52.734375
6267		44.921875
6268		50.781250
6269		42.968750
6270		46.875000
6271		39.062500
6272		42.968750
6273		37.109375
6274		41.015625
6275		31.250000
6276		37.109375
6277		29.296875
6278		35.156250
6279		25.390625
6280		31.250000
6281		23.437500
6282		27.343750
6283		19.531250
6284		25.390625
6285		17.578125
6286		21.484375
6287		11.718750
6288		17.578125
6289		9.765625
6290		15.625000
6291		7.812500
6292		11.718750
6293		3.906250
6294		7.812500
6295		0.000000
6296		5.859375
6297		-3.906250
6298		1.953125
6299		-5.859375
6300		-1.953125
6301		-9.765625
6302		-5.859375
6303		-13.671875
6304		-7.812500
6305		-15.625000
6306		-11.718750
6307		-19.531250
6308		-15.625000
6309		-23.437500
6310		-17.578125
6311		-25.390625
6312		-21.484375
6313		-31.250000
6314		-25.390625
6315		-33.203125
6316		-27.343750
6317		-37.109375
6318		-31.250000
6319		-39.062500
6320		-35.156250
6321		-42.968750
6322		-37.109375
6323		-44.921875
6324		-41.015625
6325		-48.828125
6326		-42.968750
6327		-52.734375
6328		-46.875000
6329		-54.687500
6330		-50.781250
6331		-58.593750
6332		-52.734375
6333		-60.546875
6334		-56.640625
6335		-64.453125
6336		-58.593750
6337		-66.406250
6338		-62.500000
6339		-70.312500
6340		-64.453125
6341		-72.265625
6342		-68.359375
6343		-74.218750
6344		-70.312500
6345		-78.125000
6346		-72.265625
6347		-80.078125
6348		-76.171875
6349		-83.984375
6350		-78.125000
6351		-85.937500
6352		-82.031250
6353		-87.890625
6354		-83.984375
6355		-89.843750
6356		-85.937500
6357		-91.796875
6358		-87.890625
6359		-95.703125
6360		-89.843750
6361		-97.656250
6362		-91.796875
6363		-99.609375
6364		-95.703125
6365		-101.562500
6366		-97.656250
6367		-103.515625
6368		-99.609375
6369		-105.468750
6370		-101.562500
6371		-107.421875
6372		-103.515625
6373		-109.375000
6374		-105.468750
6375		-109.375000
6376		-107.421875
6377		-111.328125
6378		-109.375000
6379		-113.281250
6380		-109.375000
6381		-115.234375
6382		-111.328125
6383		-117.187500
6384		-113.281250
6385		-119.140625
6386		-115.234375
6387		-119.140625
6388		-115.234375
6389		-121.093750
6390		-117.187500
6391		-121.093750
6392		-119.140625
6393		-123.046875
6394		-119.140625
6395		-123.046875
6396		-119.140625
6397		-125.000000
6398		-121.093750
6399		-125.000000
6400		-121.093750
6401		-126.953125
6402		-123.046875
6403		-126.953125
6404		-123.046875
6405		-126.953125
6406		-123.046875
6407		-126.953125
6408		-125.000000
6409		-126.953125
6410		-125.000000
6411		-128.906250
6412		-125.000000
6413		-128.906250
6414		-125.000000
6415		-128.906250
6416		-125.000000
6417		-128.906250
6418		-125.000000
6419		-128.906250
6420		-125.000000
6421		-128.906250
6422		-125.000000
6423		-128.906250
6424		-125.000000
6425		-126.953125
6426		-125.000000
6427		-126.953125
6428		-123.046875
6429		-126.953125
6430		-123.046875
6431		-126.953125
6432		-123.046875
6433		-125.000000
6434		-121.093750
6435		-125.000000
6436		-121.093750
6437		-123.046875
6438		-121.093750
6439		-123.046875
6440		-119.140625
6441		-121.093750
6442		-119.140625
6443		-121.093750
6444		-117.187500
6445		-119.140625
6446		-115.234375
6447		-119.140625
6448		-113.281250
6449		-117.187500
6450		-111.328125
6451		-115.234375
6452		-111.328125
6453		-113.281250
6454		-109.375000
6455		-111.328125
6456		-107.421875
6457		-109.375000
6458		-105.468750
6459		-107.421875
6460		-103.515625
6461		-107.421875
6462		-101.562500
6463		-103.515625
6464		-99.609375
6465		-101.562500
6466		-97.656250
6467		-101.562500
6468		-95.703125
6469		-97.656250
6470		-91.796875
6471		-95.703125
6472		-91.796875
6473		-93.750000
6474		-89.843750
6475		-89.843750
6476		-85.937500
6477		-87.890625
6478		-83.984375
6479		-85.937500
6480		-82.031250
6481		-83.984375
6482		-78.125000
6483		-80.078125
6484		-76.171875
6485		-78.125000
6486		-72.265625
6487		-74.218750
6488		-70.312500
6489		-72.265625
6490		-68.359375
6491		-68.359375
6492		-64.453125
6493		-66.406250
6494		-62.500000
6495		-64.453125
6496		-58.593750
6497		-60.546875
6498		-56.640625
6499		-58.593750
6500		-52.734375
6501		-54.687500
6502		-50.781250
6503		-50.781250
6504		-46.875000
6505		-48.828125
6506		-42.968750
6507		-44.921875
6508		-41.015625
6509		-41.015625
6510		-37.109375
6511		-39.062500
6512		-33.203125
6513		-35.156250
6514		-31.250000
6515		-33.203125
6516		-27.343750
6517		-29.296875
6518		-23.437500
6519		-25.390625
6520		-21.484375
6521		-21.484375
6522		-17.578125
6523		-19.531250
6524		-13.671875
6525		-15.625000
6526		-11.718750
6527		-11.718750
6528		-7.812500
6529		-9.765625
6530		-3.906250
6531		-5.859375
6532		0.000000
6533		-1.953125
6534		1.953125
6535		1.953125
6536		5.859375
6537		3.906250
6538		9.765625
6539		7.812500
6540		11.718750
6541		9.765625
6542		15.625000
6543		13.671875
6544		19.531250
6545		17.578125
6546		21.484375
6547		19.531250
6548		25.390625
6549		23.437500
6550		29.296875
6551		27.343750
6552		31.250000
6553		29.296875
6554		35.156250
6555		33.203125
6556		39.062500
6557		37.109375
6558		41.015625
6559		39.062500
6560		44.921875
6561		42.968750
6562		48.828125
6563		44.921875
6564		50.781250
6565		48.828125
6566		52.734375
6567		50.781250
6568		56.640625
6569		54.687500
6570		58.593750
6571		56.640625
6572		62.500000
6573		60.546875
6574		66.406250
6575		64.453125
6576		68.359375
6577		66.406250
6578		70.312500
6579		68.359375
6580		74.218750
6581		72.265625
6582		76.171875
6583		74.218750
6584		78.125000
6585		76.171875
6586		82.031250
6587		78.125000
6588		83.984375
6589		82.031250
6590		85.937500
6591		83.984375
6592		87.890625
6593		87.890625
6594		91.796875
6595		89.843750
6596		93.750000
6597		91.796875
6598		95.703125
6599		93.750000
6600		99.609375
6601		95.703125
6602		99.609375
6603		97.656250
6604		101.562500
6605		101.562500
6606		105.468750
6607		101.562500
6608		105.468750
6609		105.468750
6610		107.421875
6611		105.468750
6612		109.375000
6613		107.421875
6614		111.328125
6615		109.375000
6616		113.281250
6617		111.328125
6618		115.234375
6619		113.281250
6620		117.187500
6621		115.234375
6622		119.140625
6623		117.187500
6624		121.093750
6625		117.187500
6626		121.093750
6627		121.093750
6628		123.046875
6629		121.093750
6630		125.000000
6631		123.046875
6632		126.953125
6633		123.046875
6634		126.953125
6635		125.000000
6636		128.906250
6637		126.953125
6638		130.859375
6639		126.953125
6640		130.859375
6641		128.906250
6642		132.812500
6643		130.859375
6644		132.812500
6645		130.859375
6646		134.765625
6647		130.859375
6648		134.765625
6649		132.812500
6650		134.765625
6651		132.812500
6652		136.718750
6653		132.812500
6654		136.718750
6655		134.765625
6656		136.718750
6657		134.765625
6658		138.671875
6659		134.765625
6660		138.671875
6661		136.718750
6662		138.671875
6663		134.765625
6664		138.671875
6665		136.718750
6666		138.671875
6667		136.718750
6668		140.625000
6669		136.718750
6670		138.671875
6671		136.718750
6672		140.625000
6673		136.718750
6674		140.625000
6675		136.718750
6676		140.625000
6677		136.718750
6678		138.671875
6679		134.765625
6680		140.625000
6681		134.765625
6682		140.625000
6683		134.765625
6684		140.625000
6685		136.718750
6686		138.671875
6687		134.765625
6688		138.671875
6689		132.812500
6690		138.671875
6691		132.812500
6692		136.718750
6693		134.765625
6694		136.718750
6695		132.812500
6696		134.765625
6697		130.859375
6698		136.718750
6699		130.859375
6700		136.718750
6701		130.859375
6702		132.812500
6703		128.906250
6704		134.765625
6705		128.906250
6706		132.812500
6707		126.953125
6708		132.812500
6709		126.953125
6710		130.859375
6711		125.000000
6712		128.906250
6713		123.046875
6714		128.906250
6715		121.093750
6716		126.953125
6717		119.140625
6718		126.953125
6719		119.140625
6720		125.000000
6721		117.187500
6722		123.046875
6723		115.234375
6724		121.093750
6725		115.234375
6726		119.140625
6727		113.281250
6728		117.187500
6729		109.375000
6730		115.234375
6731		107.421875
6732		115.234375
6733		107.421875
6734		113.281250
6735		103.515625
6736		111.328125
6737		103.515625
6738		109.375000
6739		99.609375
6740		107.421875
6741		97.656250
6742		103.515625
6743		97.656250
6744		101.562500
6745		95.703125
6746		99.609375
6747		91.796875
6748		97.656250
6749		87.890625
6750		95.703125
6751		85.937500
6752		93.750000
6753		83.984375
6754		89.843750
6755		82.031250
6756		87.890625
6757		78.125000
6758		87.890625
6759		78.125000
6760		82.031250
6761		74.218750
6762		78.125000
6763		72.265625
6764		76.171875
6765		68.359375
6766		76.171875
6767		66.406250
6768		72.265625
6769		62.500000
6770		70.312500
6771		58.593750
6772		66.406250
6773		56.640625
6774		64.453125
6775		54.687500
6776		60.546875
6777		52.734375
6778		56.640625
6779		48.828125
6780		52.734375
6781		44.921875
6782		50.781250
6783		41.015625
6784		48.828125
6785		39.062500
6786		44.921875
6787		35.156250
6788		42.968750
6789		29.296875
6790		39.062500
6791		29.296875
6792		37.109375
6793		27.343750
6794		33.203125
6795		23.437500
6796		27.343750
6797		19.531250
6798		25.390625
6799		15.625000
6800		23.437500
6801		11.718750
6802		21.484375
6803		7.812500
6804		15.625000
6805		5.859375
6806		13.671875
6807		1.953125
6808		9.765625
6809		-1.953125
6810		7.812500
6811		-1.953125
6812		1.953125
6813		-7.812500
6814		-1.953125
6815		-11.718750
6816		-3.906250
6817		-13.671875
6818		-7.812500
6819		-17.578125
6820		-9.765625
6821		-21.484375
6822		-11.718750
6823		-25.390625
6824		-15.625000
6825		-27.343750
6826		-19.531250
6827		-29.296875
6828		-23.437500
6829		-33.203125
6830		-27.343750
6831		-37.109375
6832		-31.250000
6833		-41.015625
6834		-31.250000
6835		-42.968750
6836		-35.156250
6837		-46.875000
6838		-39.062500
6839		-48.828125
6840		-42.968750
6841		-52.734375
6842		-44.921875
6843		-54.687500
6844		-48.828125
6845		-56.640625
6846		-52.734375
6847		-60.546875
6848		-54.687500
6849		-64.453125
6850		-56.640625
6851		-66.406250
6852		-58.593750
6853		-70.312500
6854		-62.500000
6855		-72.265625
6856		-64.453125
6857		-76.171875
6858		-68.359375
6859		-78.125000
6860		-70.312500
6861		-80.078125
6862		-74.218750
6863		-82.031250
6864		-78.125000
6865		-85.937500
6866		-80.078125
6867		-87.890625
6868		-80.078125
6869		-89.843750
6870		-83.984375
6871		-93.750000
6872		-85.937500
6873		-95.703125
6874		-87.890625
6875		-97.656250
6876		-89.843750
6877		-97.656250
6878		-91.796875
6879		-99.609375
6880		-97.656250
6881		-103.515625
6882		-97.656250
6883		-105.468750
6884		-99.609375
6885		-109.375000
6886		-101.562500
6887		-109.375000
6888		-103.515625
6889		-111.328125
6890		-103.515625
6891		-113.281250
6892		-105.468750
6893		-115.234375
6894		-107.421875
6895		-115.234375
6896		-111.328125
6897		-117.187500
6898		-113.281250
6899		-119.140625
6900		-113.281250
6901		-121.093750
6902		-113.281250
6903		-121.093750
6904		-115.234375
6905		-123.046875
6906		-115.234375
6907		-125.000000
6908		-117.187500
6909		-125.000000
6910		-119.140625
6911		-123.046875
6912		-121.093750
6913		-125.000000
6914		-121.093750
6915		-126.953125
6916		-121.093750
6917		-128.906250
6918		-121.093750
6919		-128.906250
6920		-123.046875
6921		-128.906250
6922		-123.046875
6923		-128.906250
6924		-123.046875
6925		-128.906250
6926		-123.046875
6927		-128.906250
6928		-123.046875
6929		-126.953125
6930		-125.000000
6931		-126.953125
6932		-123.046875
6933		-130.859375
6934		-123.046875
6935		-128.906250
6936		-123.046875
6937		-128.906250
6938		-121.093750
6939		-128.906250
6940		-121.093750
6941		-128.906250
6942		-121.093750
6943		-126.953125
6944		-121.093750
6945		-125.000000
6946		-121.093750
6947		-123.046875
6948		-121.093750
6949		-125.000000
6950		-117.187500
6951		-125.000000
6952		-117.187500
6953		-123.046875
6954		-115.234375
6955		-121.093750
6956		-115.234375
6957		-121.093750
6958		-113.281250
6959		-119.140625
6960		-113.281250
6961		-119.140625
6962		-111.328125
6963		-115.234375
6964		-111.328125
6965		-115.234375
6966		-109.375000
6967		-113.281250
6968		-107.421875
6969		-111.328125
6970		-103.515625
6971		-109.375000
6972		-103.515625
6973		-107.421875
6974		-99.609375
6975		-107.421875
6976		-99.609375
6977		-105.468750
6978		-97.656250
6979		-99.609375
6980		-95.703125
6981		-97.656250
6982		-93.750000
6983		-97.656250
6984		-89.843750
6985		-95.703125
6986		-87.890625
6987		-91.796875
6988		-85.937500
6989		-91.796875
6990		-83.984375
6991		-87.890625
6992		-80.078125
6993		-85.937500
6994		-78.125000
6995		-80.078125
6996		-78.125000
6997		-78.125000
6998		-74.218750
6999		-76.171875
7000		-70.312500
7001		-76.171875
7002		-66.406250
7003		-72.265625
7004		-64.453125
7005		-70.312500
7006		-60.546875
7007		-66.406250
7008		-58.593750
7009		-62.500000
7010		-54.687500
7011		-60.546875
7012		-54.687500
7013		-54.687500
7014		-50.781250
7015		-52.734375
7016		-48.828125
7017		-50.781250
7018		-42.968750
7019		-48.828125
7020		-41.015625
7021		-44.921875
7022		-37.109375
7023		-41.015625
7024		-33.203125
7025		-39.062500
7026		-29.296875
7027		-33.203125
7028		-27.343750
7029		-29.296875
7030		-25.390625
7031		-27.343750
7032		-21.484375
7033		-25.390625
7034		-17.578125
7035		-21.484375
7036		-13.671875
7037		-19.531250
7038		-9.765625
7039		-15.625000
7040		-7.812500
7041		-11.718750
7042		-3.906250
7043		-7.812500
7044		-1.953125
7045		-5.859375
7046		0.000000
7047		0.000000
7048		3.906250
7049		3.906250
7050		9.765625
7051		3.906250
7052		11.718750
7053		7.812500
7054		15.625000
7055		11.718750
7056		19.531250
7057		13.671875
7058		23.437500
7059		17.578125
7060		25.390625
7061		19.531250
7062		27.343750
7063		25.390625
7064		31.250000
7065		29.296875
7066		33.203125
7067		31.250000
7068		39.062500
7069		33.203125
7070		42.968750
7071		37.109375
7072		44.921875
7073		39.062500
7074		48.828125
7075		42.968750
7076		50.781250
7077		46.875000
7078		54.687500
7079		50.781250
7080		54.687500
7081		52.734375
7082		58.593750
7083		56.640625
7084		62.500000
7085		56.640625
7086		66.406250
7087		60.546875
7088		68.359375
7089		64.453125
7090		72.265625
7091		66.406250
7092		74.218750
7093		68.359375
7094		78.125000
7095		72.265625
7096		78.125000
7097		76.171875
7098		80.078125
7099		78.125000
7100		83.984375
7101		78.125000
7102		87.890625
7103		82.031250
7104		89.843750
7105		83.984375
7106		91.796875
7107		87.890625
7108		93.750000
7109		87.890625
7110		97.656250
7111		91.796875
7112		99.609375
7113		95.703125
7114		99.609375
7115		97.656250
7116		101.562500
7117		97.656250
7118		105.468750
7119		101.562500
7120		107.421875
7121		101.562500
7122		109.375000
7123		103.515625
7124		111.328125
7125		107.421875
7126		113.281250
7127		107.421875
7128		115.234375
7129		109.375000
7130		115.234375
7131		113.281250
7132		117.187500
7133		113.281250
7134		119.140625
7135		115.234375
7136		121.093750
7137		115.234375
7138		123.046875
7139		119.140625
7140		125.000000
7141		119.140625
7142		126.953125
7143		121.093750
7144		126.953125
7145		121.093750
7146		128.906250
7147		125.000000
7148		128.906250
7149		126.953125
7150		128.906250
7151		126.953125
7152		132.812500
7153		126.953125
7154		132.812500
7155		128.906250
7156		134.765625
7157		128.906250
7158		134.765625
7159		128.906250
7160		136.718750
7161		130.859375
7162		136.718750
7163		132.812500
7164		136.718750
7165		132.812500
7166		136.718750
7167		130.859375
7168		138.671875
7169		132.812500
7170		140.625000
7171		132.812500
7172		140.625000
7173		134.765625
7174		140.625000
7175		134.765625
7176		140.625000
7177		134.765625
7178		140.625000
7179		134.765625
7180		140.625000
7181		136.718750
7182		138.671875
7183		136.718750
7184		140.625000
7185		134.765625
7186		140.625000
7187		136.718750
7188		142.578125
7189		134.765625
7190		142.578125
7191		134.765625
7192		140.625000
7193		134.765625
7194		142.578125
7195		134.765625
7196		140.625000
7197		136.718750
7198		138.671875
7199		134.765625
7200		138.671875
7201		132.812500
7202		140.625000
7203		132.812500
7204		138.671875
7205		130.859375
7206		138.671875
7207		130.859375
7208		138.671875
7209		130.859375
7210		136.718750
7211		128.906250
7212		136.718750
7213		128.906250
7214		134.765625
7215		128.906250
7216		132.812500
7217		126.953125
7218		132.812500
7219		126.953125
7220		132.812500
7221		125.000000
7222		132.812500
7223		125.000000
7224		130.859375
7225		123.046875
7226		130.859375
7227		121.093750
7228		128.906250
7229		121.093750
7230		126.953125
7231		121.093750
7232		123.046875
7233		119.140625
7234		123.046875
7235		115.234375
7236		123.046875
7237		113.281250
7238		121.093750
7239		111.328125
7240		119.140625
7241		109.375000
7242		117.187500
7243		107.421875
7244		115.234375
7245		107.421875
7246		113.281250
7247		107.421875
7248		111.328125
7249		105.468750
7250		107.421875
7251		99.609375
7252		107.421875
7253		99.609375
7254		105.468750
7255		97.656250
7256		103.515625
7257		93.750000
7258		101.562500
7259		93.750000
7260		99.609375
7261		89.843750
7262		97.656250
7263		87.890625
7264		93.750000
7265		85.937500
7266		89.843750
7267		83.984375
7268		87.890625
7269		78.125000
7270		87.890625
7271		78.125000
7272		85.937500
7273		74.218750
7274		82.031250
7275		72.265625
7276		80.078125
7277		68.359375
7278		76.171875
7279		66.406250
7280		74.218750
7281		64.453125
7282		70.312500
7283		62.500000
7284		66.406250
7285		58.593750
7286		64.453125
7287		54.687500
7288		62.500000
7289		52.734375
7290		58.593750
7291		48.828125
7292		56.640625
7293		46.875000
7294		54.687500
7295		42.968750
7296		50.781250
7297		41.015625
7298		46.875000
7299		39.062500
7300		42.968750
7301		33.203125
7302		39.062500
7303		31.250000
7304		39.062500
7305		27.343750
7306		35.156250
7307		23.437500
7308		33.203125
7309		19.531250
7310		29.296875
7311		17.578125
7312		25.390625
7313		13.671875
7314		21.484375
7315		11.718750
7316		17.578125
7317		9.765625
7318		13.671875
7319		3.906250
7320		11.718750
7321		0.000000
7322		7.812500
7323		-3.906250
7324		5.859375
7325		-5.859375
7326		1.953125
7327		-9.765625
7328		-1.953125
7329		-11.718750
7330		-3.906250
7331		-13.671875
7332		-7.812500
7333		-17.578125
7334		-13.671875
7335		-21.484375
7336		-15.625000
7337		-25.390625
7338		-17.578125
7339		-27.343750
7340		-19.531250
7341		-33.203125
7342		-23.437500
7343		-35.156250
7344		-27.343750
7345		-39.062500
7346		-31.250000
7347		-41.015625
7348		-33.203125
7349		-42.968750
7350		-39.062500
7351		-46.875000
7352		-41.015625
7353		-50.781250
7354		-42.968750
7355		-54.687500
7356		-46.875000
7357		-58.593750
7358		-48.828125
7359		-60.546875
7360		-50.781250
7361		-62.500000
7362		-54.687500
7363		-66.406250
7364		-58.593750
7365		-66.406250
7366		-62.500000
7367		-70.312500
7368		-64.453125
7369		-72.265625
7370		-68.359375
7371		-76.171875
7372		-70.312500
7373		-78.125000
7374		-72.265625
7375		-82.031250
7376		-74.218750
7377		-83.984375
7378		-78.125000
7379		-85.937500
7380		-80.078125
7381		-87.890625
7382		-83.984375
7383		-89.843750
7384		-85.937500
7385		-95.703125
7386		-89.843750
7387		-95.703125
7388		-89.843750
7389		-99.609375
7390		-91.796875
7391		-101.562500
7392		-93.750000
7393		-103.515625
7394		-95.703125
7395		-105.468750
7396		-97.656250
7397		-105.468750
7398		-99.609375
7399		-107.421875
7400		-103.515625
7401		-109.375000
7402		-105.468750
7403		-113.281250
7404		-105.468750
7405		-113.281250
7406		-107.421875
7407		-115.234375
7408		-109.375000
7409		-117.187500
7410		-109.375000
7411		-117.187500
7412		-111.328125
7413		-119.140625
7414		-113.281250
7415		-121.093750
7416		-113.281250
7417		-119.140625
7418		-117.187500
7419		-123.046875
7420		-117.187500
7421		-125.000000
7422		-117.187500
7423		-125.000000
7424		-117.187500
7425		-125.000000
7426		-119.140625
7427		-126.953125
7428		-119.140625
7429		-126.953125
7430		-121.093750
7431		-126.953125
7432		-121.093750
7433		-126.953125
7434		-123.046875
7435		-126.953125
7436		-123.046875
7437		-128.906250
7438		-123.046875
7439		-128.906250
7440		-123.046875
7441		-128.906250
7442		-123.046875
7443		-128.906250
7444		-121.093750
7445		-128.906250
7446		-123.046875
7447		-128.906250
7448		-123.046875
7449		-126.953125
7450		-125.000000
7451		-126.953125
7452		-123.046875
7453		-128.906250
7454		-121.093750
7455		-126.953125
7456		-121.093750
7457		-126.953125
7458		-121.093750
7459		-126.953125
7460		-119.140625
7461		-125.000000
7462		-119.140625
7463		-123.046875
7464		-117.187500
7465		-123.046875
7466		-117.187500
7467		-121.093750
7468		-117.187500
7469		-119.140625
7470		-115.234375
7471		-119.140625
7472		-113.281250
7473		-119.140625
7474		-111.328125
7475		-117.187500
7476		-109.375000
7477		-115.234375
7478		-107.421875
7479		-113.281250
7480		-107.421875
7481		-113.281250
7482		-105.468750
7483		-109.375000
7484		-105.468750
7485		-107.421875
7486		-103.515625
7487		-107.421875
7488		-99.609375
7489		-105.468750
7490		-97.656250
7491		-103.515625
7492		-97.656250
7493		-101.562500
7494		-93.750000
7495		-99.609375
7496		-91.796875
7497		-95.703125
7498		-89.843750
7499		-93.750000
7500		-87.890625
7501		-89.843750
7502		-85.937500
7503		-89.843750
7504		-82.031250
7505		-87.890625
7506		-80.078125
7507		-83.984375
7508		-76.171875
7509		-82.031250
7510		-74.218750
7511		-80.078125
7512		-72.265625
7513		-76.171875
7514		-68.359375
7515		-74.218750
7516		-68.359375
7517		-70.312500
7518		-64.453125
7519		-66.406250
7520		-62.500000
7521		-66.406250
7522		-56.640625
7523		-62.500000
7524		-54.687500
7525		-60.546875
7526		-50.781250
7527		-56.640625
7528		-48.828125
7529		-54.687500
7530		-44.921875
7531		-50.781250
7532		-42.968750
7533		-44.921875
7534		-41.015625
7535		-42.968750
7536		-37.109375
7537		-39.062500
7538		-33.203125
7539		-39.062500
7540		-29.296875
7541		-33.203125
7542		-25.390625
7543		-31.250000
7544		-23.437500
7545		-27.343750
7546		-19.531250
7547		-25.390625
7548		-15.625000
7549		-19.531250
7550		-13.671875
7551		-15.625000
7552		-11.718750
7553		-13.671875
7554		-5.859375
7555		-13.671875
7556		-1.953125
7557		-7.812500
7558		1.953125
7559		-3.906250
7560		3.906250
7561		0.000000
7562		7.812500
7563		1.953125
7564		9.765625
7565		5.859375
7566		13.671875
7567		9.765625
7568		15.625000
7569		13.671875
7570		17.578125
7571		15.625000
7572		23.437500
7573		19.531250
7574		27.343750
7575		21.484375
7576		31.250000
7577		25.390625
7578		33.203125
7579		27.343750
7580		37.109375
7581		31.250000
7582		39.062500
7583		33.203125
7584		41.015625
7585		39.062500
7586		42.968750
7587		42.968750
7588		48.828125
7589		44.921875
7590		50.781250
7591		46.875000
7592		54.687500
7593		50.781250
7594		56.640625
7595		52.734375
7596		60.546875
7597		54.687500
7598		64.453125
7599		58.593750
7600		64.453125
7601		64.453125
7602		68.359375
7603		66.406250
7604		72.265625
7605		66.406250
7606		74.218750
7607		68.359375
7608		78.125000
7609		72.265625
7610		80.078125
7611		74.218750
7612		83.984375
7613		78.125000
7614		85.937500
7615		80.078125
7616		87.890625
7617		83.984375
7618		87.890625
7619		87.890625
7620		91.796875
7621		87.890625
7622		95.703125
7623		89.843750
7624		97.656250
7625		91.796875
7626		99.609375
7627		93.750000
7628		101.562500
7629		97.656250
7630		103.515625
7631		97.656250
7632		107.421875
7633		101.562500
7634		107.421875
7635		105.468750
7636		109.375000
7637		105.468750
7638		111.328125
7639		107.421875
7640		113.281250
7641		109.375000
7642		115.234375
7643		109.375000
7644		117.187500
7645		111.328125
7646		119.140625
7647		113.281250
7648		121.093750
7649		115.234375
7650		123.046875
7651		119.140625
7652		121.093750
7653		121.093750
7654		123.046875
7655		121.093750
7656		126.953125
7657		121.093750
7658		126.953125
7659		123.046875
7660		128.906250
7661		123.046875
7662		130.859375
7663		125.000000
7664		130.859375
7665		125.000000
7666		132.812500
7667		126.953125
7668		132.812500
7669		130.859375
7670		132.812500
7671		128.906250
7672		136.718750
7673		130.859375
7674		136.718750
7675		130.859375
7676		136.718750
7677		130.859375
7678		136.718750
7679		132.812500
7680		138.671875
7681		132.812500
7682		138.671875
7683		132.812500
7684		138.671875
7685		134.765625
7686		138.671875
7687		136.718750
7688		138.671875
7689		134.765625
7690		140.625000
7691		134.765625
7692		140.625000
7693		134.765625
7694		140.625000
7695		134.765625
7696		140.625000
7697		134.765625
7698		142.578125
7699		134.765625
7700		142.578125
7701		136.718750
7702		140.625000
7703		136.718750
7704		138.671875
7705		134.765625
7706		140.625000
7707		134.765625
7708		140.625000
7709		134.765625
7710		140.625000
7711		134.765625
7712		140.625000
7713		134.765625
7714		140.625000
7715		132.812500
7716		140.625000
7717		132.812500
7718		138.671875
7719		134.765625
7720		136.718750
7721		132.812500
7722		136.718750
7723		130.859375
7724		136.718750
7725		128.906250
7726		136.718750
7727		128.906250
7728		134.765625
7729		128.906250
7730		134.765625
7731		126.953125
7732		134.765625
7733		126.953125
7734		132.812500
7735		126.953125
7736		130.859375
7737		125.000000
7738		128.906250
7739		123.046875
7740		128.906250
7741		121.093750
7742		128.906250
7743		121.093750
7744		126.953125
7745		119.140625
7746		125.000000
7747		117.187500
7748		123.046875
7749		115.234375
7750		123.046875
7751		115.234375
7752		121.093750
7753		113.281250
7754		117.187500
7755		109.375000
7756		115.234375
7757		109.375000
7758		115.234375
7759		107.421875
7760		113.281250
7761		103.515625
7762		111.328125
7763		101.562500
7764		111.328125
7765		101.562500
7766		107.421875
7767		99.609375
7768		105.468750
7769		97.656250
7770		101.562500
7771		95.703125
7772		99.609375
7773		91.796875
7774		99.609375
7775		89.843750
7776		97.656250
7777		87.890625
7778		93.750000
7779		83.984375
7780		91.796875
7781		82.031250
7782		89.843750
7783		78.125000
7784		85.937500
7785		78.125000
7786		83.984375
7787		76.171875
7788		80.078125
7789		70.312500
7790		78.125000
7791		68.359375
7792		76.171875
7793		64.453125
7794		72.265625
7795		62.500000
7796		70.312500
7797		60.546875
7798		68.359375
7799		56.640625
7800		64.453125
7801		54.687500
7802		62.500000
7803		52.734375
7804		56.640625
7805		48.828125
7806		54.687500
7807		44.921875
7808		52.734375
7809		42.968750
7810		50.781250
7811		39.062500
7812		46.875000
7813		35.156250
7814		44.921875
7815		33.203125
7816		41.015625
7817		29.296875
7818		37.109375
7819		27.343750
7820		33.203125
7821		23.437500
7822		29.296875
7823		19.531250
7824		25.390625
7825		15.625000
7826		25.390625
7827		11.718750
7828		21.484375
7829		9.765625
7830		17.578125
7831		5.859375
7832		15.625000
7833		3.906250
7834		11.718750
7835		1.953125
7836		7.812500
7837		-1.953125
7838		1.953125
7839		-7.812500
7840		0.000000
7841		-9.765625
7842		-1.953125
7843		-13.671875
7844		-5.859375
7845		-15.625000
7846		-9.765625
7847		-19.531250
7848		-11.718750
7849		-23.437500
7850		-15.625000
7851		-25.390625
7852		-17.578125
7853		-27.343750
7854		-23.437500
7855		-31.250000
7856		-25.390625
7857		-37.109375
7858		-29.296875
7859		-39.062500
7860		-31.250000
7861		-42.968750
7862		-33.203125
7863		-46.875000
7864		-37.109375
7865		-48.828125
7866		-41.015625
7867		-52.734375
7868		-44.921875
7869		-52.734375
7870		-46.875000
7871		-56.640625
7872		-50.781250
7873		-60.546875
7874		-54.687500
7875		-62.500000
7876		-56.640625
7877		-66.406250
7878		-58.593750
7879		-70.312500
7880		-60.546875
7881		-72.265625
7882		-62.500000
7883		-74.218750
7884		-68.359375
7885		-76.171875
7886		-70.312500
7887		-78.125000
7888		-74.218750
7889		-82.031250
7890		-76.171875
7891		-83.984375
7892		-78.125000
7893		-87.890625
7894		-80.078125
7895		-89.843750
7896		-82.031250
7897		-93.750000
7898		-85.937500
7899		-95.703125
7900		-85.937500
7901		-95.703125
7902		-89.843750
7903		-97.656250
7904		-93.750000
7905		-99.609375
7906		-95.703125
7907		-103.515625
7908		-97.656250
7909		-105.468750
7910		-97.656250
7911		-107.421875
7912		-99.609375
7913		-109.375000
7914		-101.562500
7915		-111.328125
7916		-103.515625
7917		-113.281250
7918		-105.468750
7919		-113.281250
7920		-107.421875
7921		-113.281250
7922		-111.328125
7923		-115.234375
7924		-111.328125
7925		-119.140625
7926		-111.328125
7927		-119.140625
7928		-113.281250
7929		-121.093750
7930		-115.234375
7931		-123.046875
7932		-115.234375
7933		-123.046875
7934		-117.187500
7935		-125.000000
7936		-117.187500
7937		-123.046875
7938		-121.093750
7939		-125.000000
7940		-121.093750
7941		-126.953125
7942		-119.140625
7943		-126.953125
7944		-121.093750
7945		-126.953125
7946		-121.093750
7947		-128.906250
7948		-123.046875
7949		-128.906250
7950		-123.046875
7951		-128.906250
7952		-123.046875
7953		-126.953125
7954		-123.046875
7955		-126.953125
7956		-125.000000
7957		-128.906250
7958		-123.046875
7959		-128.906250
7960		-123.046875
7961		-128.906250
7962		-123.046875
7963		-128.906250
7964		-123.046875
7965		-128.906250
7966		-121.093750
7967		-128.906250
7968		-121.093750
7969		-126.953125
7970		-123.046875
7971		-125.000000
7972		-121.093750
7973		-125.000000
7974		-121.093750
7975		-126.953125
7976		-119.140625
7977		-123.046875
7978		-117.187500
7979		-125.000000
7980		-117.187500
7981		-123.046875
7982		-117.187500
7983		-121.093750
7984		-115.234375
7985		-121.093750
7986		-113.281250
7987		-117.187500
7988		-113.281250
7989		-115.234375
7990		-113.281250
7991		-115.234375
7992		-109.375000
7993		-115.234375
7994		-107.421875
7995		-113.281250
7996		-105.468750
7997		-111.328125
7998		-103.515625
7999		-109.375000
8000		-101.562500
8001		-107.421875
8002		-99.609375
8003		-105.468750
8004		-99.609375
8005		-101.562500
8006		-97.656250
8007		-99.609375
8008		-93.750000
8009		-99.609375
8010		-91.796875
8011		-97.656250
8012		-89.843750
8013		-93.750000
8014		-85.937500
8015		-91.796875
8016		-83.984375
8017		-89.843750
8018		-82.031250
8019		-87.890625
8020		-82.031250
8021		-82.031250
8022		-78.125000
8023		-80.078125
8024		-76.171875
8025		-78.125000
8026		-72.265625
8027		-76.171875
8028		-68.359375
8029		-74.218750
8030		-66.406250
8031		-70.312500
8032		-62.500000
8033		-68.359375
8034		-60.546875
8035		-64.453125
8036		-56.640625
8037		-62.500000
8038		-56.640625
8039		-56.640625
8040		-52.734375
8041		-54.687500
8042		-48.828125
8043		-52.734375
8044		-44.921875
8045		-50.781250
8046		-42.968750
8047		-46.875000
8048		-39.062500
8049		-42.968750
8050		-35.156250
8051		-41.015625
8052		-33.203125
8053		-37.109375
8054		-31.250000
8055		-31.250000
8056		-27.343750
8057		-29.296875
8058		-23.437500
8059		-27.343750
8060		-19.531250
8061		-25.390625
8062		-15.625000
8063		-19.531250
8064		-11.718750
8065		-17.578125
8066		-9.765625
8067		-13.671875
8068		-5.859375
8069		-11.718750
8070		-3.906250
8071		-5.859375
8072		-1.953125
8073		-1.953125
8074		1.953125
8075		0.000000
8076		7.812500
8077		1.953125
8078		9.765625
8079		5.859375
8080		13.671875
8081		9.765625
8082		17.578125
8083		11.718750
8084		19.531250
8085		17.578125
8086		23.437500
8087		19.531250
8088		25.390625
8089		23.437500
8090		27.343750
8091		27.343750
8092		33.203125
8093		29.296875
8094		37.109375
8095		31.250000
8096		41.015625
8097		35.156250
8098		42.968750
8099		39.062500
8100		46.875000
8101		41.015625
8102		48.828125
8103		44.921875
8104		50.781250
8105		48.828125
8106		52.734375
8107		52.734375
8108		56.640625
8109		52.734375
8110		60.546875
8111		56.640625
8112		64.453125
8113		58.593750
8114		66.406250
8115		62.500000
8116		70.312500
8117		64.453125
8118		72.265625
8119		66.406250
8120		74.218750
8121		72.265625
8122		76.171875
8123		74.218750
8124		78.125000
8125		76.171875
8126		83.984375
8127		78.125000
8128		85.937500
8129		82.031250
8130		87.890625
8131		83.984375
8132		89.843750
8133		85.937500
8134		93.750000
8135		87.890625
8136		95.703125
8137		89.843750
8138		95.703125
8139		93.750000
8140		97.656250
8141		95.703125
8142		101.562500
8143		97.656250
8144		103.515625
8145		99.609375
8146		105.468750
8147		101.562500
8148		107.421875
8149		103.515625
8150		109.375000
8151		105.468750
8152		113.281250
8153		107.421875
8154		115.234375
8155		111.328125
8156		113.281250
8157		113.281250
8158		115.234375
8159		113.281250
8160		119.140625
8161		115.234375
8162		121.093750
8163		115.234375
8164		123.046875
8165		117.187500
8166		125.000000
8167		119.140625
8168		125.000000
8169		119.140625
8170		126.953125
8171		123.046875
8172		126.953125
8173		125.000000
8174		126.953125
8175		125.000000
8176		130.859375
8177		125.000000
8178		130.859375
8179		126.953125
8180		132.812500
8181		126.953125
8182		134.765625
8183		128.906250
8184		134.765625
8185		128.906250
8186		136.718750
8187		130.859375
8188		136.718750
8189		132.812500
8190		134.765625
8191		132.812500
8192		136.718750
8193		132.812500
8194		138.671875
8195		132.812500
8196		140.625000
8197		134.765625
8198		140.625000
8199		132.812500
8200		140.625000
8201		134.765625
8202		140.625000
8203		134.765625
8204		140.625000
8205		134.765625
8206		140.625000
8207		136.718750
8208		140.625000
8209		136.718750
8210		140.625000
8211		136.718750
8212		140.625000
8213		136.718750
8214		140.625000
8215		136.718750
8216		140.625000
8217		136.718750
8218		140.625000
8219		136.718750
8220		140.625000
8221		134.765625
8222		140.625000
8223		136.718750
8224		138.671875
8225		136.718750
8226		138.671875
8227		134.765625
8228		140.625000
8229		132.812500
8230		140.625000
8231		132.812500
8232		138.671875
8233		132.812500
8234		138.671875
8235		130.859375
8236		138.671875
8237		130.859375
8238		136.718750
8239		132.812500
8240		134.765625
8241		130.859375
8242		132.812500
8243		126.953125
8244		134.765625
8245		126.953125
8246		132.812500
8247		125.000000
8248		132.812500
8249		125.000000
8250		130.859375
8251		123.046875
8252		130.859375
8253		123.046875
8254		128.906250
8255		123.046875
8256		126.953125
8257		121.093750
8258		125.000000
8259		117.187500
8260		123.046875
8261		115.234375
8262		123.046875
8263		115.234375
8264		123.046875
8265		113.281250
8266		121.093750
8267		111.328125
8268		119.140625
8269		109.375000
8270		117.187500
8271		107.421875
8272		115.234375
8273		107.421875
8274		111.328125
8275		105.468750
8276		109.375000
8277		101.562500
8278		109.375000
8279		99.609375
8280		107.421875
8281		97.656250
8282		105.468750
8283		95.703125
8284		103.515625
8285		93.750000
8286		101.562500
8287		89.843750
8288		97.656250
8289		89.843750
8290		95.703125
8291		87.890625
8292		91.796875
8293		83.984375
8294		89.843750
8295		80.078125
8296		87.890625
8297		78.125000
8298		85.937500
8299		76.171875
8300		82.031250
8301		72.265625
8302		82.031250
8303		70.312500
8304		78.125000
8305		68.359375
8306		76.171875
8307		66.406250
8308		70.312500
8309		64.453125
8310		68.359375
8311		58.593750
8312		66.406250
8313		54.687500
8314		64.453125
8315		52.734375
8316		60.546875
8317		50.781250
8318		58.593750
8319		46.875000
8320		54.687500
8321		44.921875
8322		50.781250
8323		42.968750
8324		46.875000
8325		39.062500
8326		42.968750
8327		35.156250
8328		41.015625
8329		33.203125
8330		39.062500
8331		27.343750
8332		35.156250
8333		25.390625
8334		33.203125
8335		21.484375
8336		29.296875
8337		17.578125
8338		27.343750
8339		17.578125
8340		23.437500
8341		13.671875
8342		17.578125
8343		9.765625
8344		13.671875
8345		3.906250
8346		13.671875
8347		1.953125
8348		11.718750
8349		-1.953125
8350		7.812500
8351		-3.906250
8352		3.906250
8353		-7.812500
8354		0.000000
8355		-11.718750
8356		-3.906250
8357		-13.671875
8358		-7.812500
8359		-15.625000
8360		-11.718750
8361		-21.484375
8362		-13.671875
8363		-23.437500
8364		-15.625000
8365		-27.343750
8366		-19.531250
8367		-31.250000
8368		-23.437500
8369		-33.203125
8370		-25.390625
8371		-37.109375
8372		-29.296875
8373		-39.062500
8374		-33.203125
8375		-42.968750
8376		-37.109375
8377		-46.875000
8378		-41.015625
8379		-48.828125
8380		-41.015625
8381		-52.734375
8382		-44.921875
8383		-56.640625
8384		-46.875000
8385		-60.546875
8386		-50.781250
8387		-62.500000
8388		-54.687500
8389		-64.453125
8390		-56.640625
8391		-66.406250
8392		-62.500000
8393		-68.359375
8394		-64.453125
8395		-74.218750
8396		-66.406250
8397		-76.171875
8398		-68.359375
8399		-80.078125
8400		-72.265625
8401		-82.031250
8402		-74.218750
8403		-83.984375
8404		-76.171875
8405		-85.937500
8406		-78.125000
8407		-87.890625
8408		-83.984375
8409		-89.843750
8410		-85.937500
8411		-93.750000
8412		-87.890625
8413		-95.703125
8414		-87.890625
8415		-97.656250
8416		-91.796875
8417		-101.562500
8418		-93.750000
8419		-103.515625
8420		-95.703125
8421		-105.468750
8422		-97.656250
8423		-105.468750
8424		-99.609375
8425		-107.421875
8426		-103.515625
8427		-109.375000
8428		-105.468750
8429		-113.281250
8430		-105.468750
8431		-115.234375
8432		-107.421875
8433		-115.234375
8434		-109.375000
8435		-117.187500
8436		-109.375000
8437		-119.140625
8438		-111.328125
8439		-119.140625
8440		-113.281250
8441		-119.140625
8442		-117.187500
8443		-121.093750
8444		-117.187500
8445		-123.046875
8446		-117.187500
8447		-125.000000
8448		-117.187500
8449		-125.000000
8450		-119.140625
8451		-126.953125
8452		-119.140625
8453		-126.953125
8454		-121.093750
8455		-126.953125
8456		-121.093750
8457		-128.906250
8458		-121.093750
8459		-126.953125
8460		-123.046875
8461		-128.906250
8462		-123.046875
8463		-128.906250
8464		-123.046875
8465		-128.906250
8466		-123.046875
8467		-130.859375
8468		-123.046875
8469		-130.859375
8470		-123.046875
8471		-130.859375
8472		-123.046875
8473		-130.859375
8474		-123.046875
8475		-126.953125
8476		-125.000000
8477		-126.953125
8478		-125.000000
8479		-128.906250
8480		-123.046875
8481		-128.906250
8482		-121.093750
8483		-128.906250
8484		-121.093750
8485		-126.953125
8486		-121.093750
8487		-126.953125
8488		-121.093750
8489		-126.953125
8490		-119.140625
8491		-125.000000
8492		-119.140625
8493		-123.046875
8494		-119.140625
8495		-121.093750
8496		-117.187500
8497		-121.093750
8498		-115.234375
8499		-121.093750
8500		-113.281250
8501		-119.140625
8502		-111.328125
8503		-117.187500
8504		-111.328125
8505		-117.187500
8506		-109.375000
8507		-115.234375
8508		-109.375000
8509		-111.328125
8510		-107.421875
8511		-109.375000
8512		-105.468750
8513		-109.375000
8514		-103.515625
8515		-107.421875
8516		-99.609375
8517		-105.468750
8518		-99.609375
8519		-103.515625
8520		-95.703125
8521		-101.562500
8522		-93.750000
8523		-99.609375
8524		-91.796875
8525		-95.703125
8526		-91.796875
8527		-93.750000
8528		-87.890625
8529		-91.796875
8530		-83.984375
8531		-89.843750
8532		-82.031250
8533		-87.890625
8534		-80.078125
8535		-85.937500
8536		-76.171875
8537		-82.031250
8538		-74.218750
8539		-80.078125
8540		-70.312500
8541		-74.218750
8542		-70.312500
8543		-72.265625
8544		-68.359375
8545		-70.312500
8546		-62.500000
8547		-68.359375
8548		-60.546875
8549		-64.453125
8550		-56.640625
8551		-60.546875
8552		-54.687500
8553		-58.593750
8554		-50.781250
8555		-54.687500
8556		-46.875000
8557		-52.734375
8558		-44.921875
8559		-46.875000
8560		-42.968750
8561		-44.921875
8562		-39.062500
8563		-42.968750
8564		-35.156250
8565		-41.015625
8566		-31.250000
8567		-37.109375
8568		-29.296875
8569		-33.203125
8570		-25.390625
8571		-29.296875
8572		-21.484375
8573		-27.343750
8574		-19.531250
8575		-23.437500
8576		-17.578125
8577		-17.578125
8578		-13.671875
8579		-15.625000
8580		-9.765625
8581		-13.671875
8582		-5.859375
8583		-9.765625
8584		-1.953125
8585		-5.859375
8586		1.953125
8587		-3.906250
8588		5.859375
8589		0.000000
8590		7.812500
8591		3.906250
8592		9.765625
8593		7.812500
8594		13.671875
8595		11.718750
8596		17.578125
8597		11.718750
8598		21.484375
8599		15.625000
8600		25.390625
8601		19.531250
8602		27.343750
8603		21.484375
8604		31.250000
8605		25.390625
8606		33.203125
8607		29.296875
8608		37.109375
8609		33.203125
8610		39.062500
8611		37.109375
8612		41.015625
8613		39.062500
8614		46.875000
8615		41.015625
8616		50.781250
8617		44.921875
8618		52.734375
8619		46.875000
8620		56.640625
8621		50.781250
8622		58.593750
8623		54.687500
8624		62.500000
8625		56.640625
8626		62.500000
8627		60.546875
8628		66.406250
8629		64.453125
8630		70.312500
8631		64.453125
8632		72.265625
8633		68.359375
8634		76.171875
8635		70.312500
8636		78.125000
8637		74.218750
8638		82.031250
8639		76.171875
8640		83.984375
8641		78.125000
8642		85.937500
8643		82.031250
8644		85.937500
8645		85.937500
8646		89.843750
8647		85.937500
8648		93.750000
8649		87.890625
8650		95.703125
8651		89.843750
8652		97.656250
8653		93.750000
8654		101.562500
8655		95.703125
8656		103.515625
8657		97.656250
8658		105.468750
8659		99.609375
8660		105.468750
8661		103.515625
8662		107.421875
8663		103.515625
8664		111.328125
8665		105.468750
8666		113.281250
8667		107.421875
8668		115.234375
8669		109.375000
8670		115.234375
8671		109.375000
8672		117.187500
8673		111.328125
8674		119.140625
8675		113.281250
8676		119.140625
8677		117.187500
8678		121.093750
8679		119.140625
8680		123.046875
8681		117.187500
8682		125.000000
8683		121.093750
8684		126.953125
8685		121.093750
8686		128.906250
8687		123.046875
8688		128.906250
8689		123.046875
8690		130.859375
8691		125.000000
8692		130.859375
8693		126.953125
8694		130.859375
8695		128.906250
8696		130.859375
8697		128.906250
8698		134.765625
8699		128.906250
8700		134.765625
8701		130.859375
8702		136.718750
8703		128.906250
8704		138.671875
8705		130.859375
8706		138.671875
8707		130.859375
8708		138.671875
8709		132.812500
8710		138.671875
8711		134.765625
8712		136.718750
8713		134.765625
8714		140.625000
8715		134.765625
8716		140.625000
8717		134.765625
8718		140.625000
8719		134.765625
8720		140.625000
8721		134.765625
8722		140.625000
8723		134.765625
8724		140.625000
8725		134.765625
8726		140.625000
8727		136.718750
8728		140.625000
8729		136.718750
8730		138.671875
8731		134.765625
8732		140.625000
8733		134.765625
8734		142.578125
8735		134.765625
8736		140.625000
8737		134.765625
8738		140.625000
8739		132.812500
8740		140.625000
8741		132.812500
8742		138.671875
8743		134.765625
8744		138.671875
8745		134.765625
8746		136.718750
8747		130.859375
8748		136.718750
8749		130.859375
8750		136.718750
8751		128.906250
8752		136.718750
8753		128.906250
8754		136.718750
8755		126.953125
8756		134.765625
8757		126.953125
8758		132.812500
8759		126.953125
8760		132.812500
8761		126.953125
8762		130.859375
8763		125.000000
8764		128.906250
8765		123.046875
8766		128.906250
8767		121.093750
8768		126.953125
8769		119.140625
8770		126.953125
8771		119.140625
8772		125.000000
8773		117.187500
8774		123.046875
8775		115.234375
8776		123.046875
8777		115.234375
8778		119.140625
8779		113.281250
8780		117.187500
8781		111.328125
8782		117.187500
8783		107.421875
8784		115.234375
8785		105.468750
8786		113.281250
8787		105.468750
8788		111.328125
8789		101.562500
8790		109.375000
8791		101.562500
8792		107.421875
8793		99.609375
8794		105.468750
8795		97.656250
8796		101.562500
8797		93.750000
8798		99.609375
8799		89.843750
8800		97.656250
8801		87.890625
8802		97.656250
8803		85.937500
8804		93.750000
8805		83.984375
8806		91.796875
8807		82.031250
8808		87.890625
8809		80.078125
8810		85.937500
8811		78.125000
8812		82.031250
8813		76.171875
8814		80.078125
8815		70.312500
8816		78.125000
8817		68.359375
8818		76.171875
8819		66.406250
8820		72.265625
8821		62.500000
8822		70.312500
8823		58.593750
8824		68.359375
8825		56.640625
8826		64.453125
8827		54.687500
8828		60.546875
8829		52.734375
8830		56.640625
8831		46.875000
8832		54.687500
8833		44.921875
8834		52.734375
8835		41.015625
8836		48.828125
8837		37.109375
8838		44.921875
8839		35.156250
8840		42.968750
8841		31.250000
8842		41.015625
8843		29.296875
8844		37.109375
8845		27.343750
8846		31.250000
8847		23.437500
8848		29.296875
8849		17.578125
8850		27.343750
8851		15.625000
8852		23.437500
8853		11.718750
8854		19.531250
8855		7.812500
8856		15.625000
8857		5.859375
8858		13.671875
8859		1.953125
8860		9.765625
8861		0.000000
8862		5.859375
8863		-1.953125
8864		1.953125
8865		-7.812500
8866		0.000000
8867		-11.718750
8868		-1.953125
8869		-13.671875
8870		-5.859375
8871		-17.578125
8872		-9.765625
8873		-21.484375
8874		-11.718750
8875		-25.390625
8876		-15.625000
8877		-25.390625
8878		-19.531250
8879		-29.296875
8880		-23.437500
8881		-33.203125
8882		-27.343750
8883		-37.109375
8884		-29.296875
8885		-41.015625
8886		-31.250000
8887		-44.921875
8888		-35.156250
8889		-46.875000
8890		-39.062500
8891		-48.828125
8892		-42.968750
8893		-50.781250
8894		-44.921875
8895		-54.687500
8896		-48.828125
8897		-56.640625
8898		-52.734375
8899		-62.500000
8900		-54.687500
8901		-64.453125
8902		-56.640625
8903		-68.359375
8904		-60.546875
8905		-70.312500
8906		-62.500000
8907		-74.218750
8908		-64.453125
8909		-76.171875
8910		-68.359375
8911		-76.171875
8912		-70.312500
8913		-80.078125
8914		-76.171875
8915		-82.031250
8916		-78.125000
8917		-85.937500
8918		-78.125000
8919		-87.890625
8920		-82.031250
8921		-91.796875
8922		-83.984375
8923		-93.750000
8924		-85.937500
8925		-95.703125
8926		-89.843750
8927		-97.656250
8928		-89.843750
8929		-99.609375
8930		-95.703125
8931		-101.562500
8932		-97.656250
8933		-105.468750
8934		-97.656250
8935		-107.421875
8936		-99.609375
8937		-109.375000
8938		-101.562500
8939		-111.328125
8940		-103.515625
8941		-113.281250
8942		-105.468750
8943		-115.234375
8944		-107.421875
8945		-113.281250
8946		-111.328125
8947		-115.234375
8948		-113.281250
8949		-119.140625
8950		-113.281250
8951		-121.093750
8952		-113.281250
8953		-121.093750
8954		-115.234375
8955		-123.046875
8956		-115.234375
8957		-125.000000
8958		-117.187500
8959		-125.000000
8960		-119.140625
8961		-125.000000
8962		-119.140625
8963		-125.000000
8964		-123.046875
8965		-126.953125
8966		-123.046875
8967		-128.906250
8968		-121.093750
8969		-128.906250
8970		-123.046875
8971		-130.859375
8972		-123.046875
8973		-130.859375
8974		-123.046875
8975		-130.859375
8976		-125.000000
8977		-130.859375
8978		-125.000000
8979		-128.906250
8980		-126.953125
8981		-128.906250
8982		-126.953125
8983		-132.812500
8984		-125.000000
8985		-130.859375
8986		-125.000000
8987		-130.859375
8988		-125.000000
8989		-130.859375
8990		-125.000000
8991		-130.859375
8992		-125.000000
8993		-130.859375
8994		-123.046875
8995		-130.859375
8996		-125.000000
8997		-126.953125
8998		-125.000000
8999		-126.953125
9000		-121.093750
9001		-128.906250
9002		-121.093750
9003		-126.953125
9004		-119.140625
9005		-126.953125
9006		-119.140625
9007		-125.000000
9008		-119.140625
9009		-123.046875
9010		-117.187500
9011		-123.046875
9012		-115.234375
9013		-119.140625
9014		-115.234375
9015		-117.187500
9016		-115.234375
9017		-117.187500
9018		-111.328125
9019		-117.187500
9020		-109.375000
9021		-115.234375
9022		-107.421875
9023		-113.281250
9024		-107.421875
9025		-111.328125
9026		-105.468750
9027		-109.375000
9028		-101.562500
9029		-105.468750
9030		-101.562500
9031		-103.515625
9032		-99.609375
9033		-103.515625
9034		-95.703125
9035		-101.562500
9036		-93.750000
9037		-99.609375
9038		-91.796875
9039		-95.703125
9040		-89.843750
9041		-95.703125
9042		-85.937500
9043		-91.796875
9044		-83.984375
9045		-87.890625
9046		-83.984375
9047		-83.984375
9048		-80.078125
9049		-82.031250
9050		-76.171875
9051		-82.031250
9052		-74.218750
9053		-78.125000
9054		-70.312500
9055		-76.171875
9056		-68.359375
9057		-72.265625
9058		-64.453125
9059		-68.359375
9060		-62.500000
9061		-68.359375
9062		-58.593750
9063		-62.500000
9064		-58.593750
9065		-58.593750
9066		-54.687500
9067		-56.640625
9068		-48.828125
9069		-54.687500
9070		-46.875000
9071		-52.734375
9072		-42.968750
9073		-48.828125
9074		-41.015625
9075		-44.921875
9076		-37.109375
9077		-42.968750
9078		-35.156250
9079		-39.062500
9080		-33.203125
9081		-33.203125
9082		-29.296875
9083		-31.250000
9084		-25.390625
9085		-29.296875
9086		-21.484375
9087		-25.390625
9088		-17.578125
9089		-21.484375
9090		-15.625000
9091		-19.531250
9092		-11.718750
9093		-15.625000
9094		-7.812500
9095		-13.671875
9096		-5.859375
9097		-7.812500
9098		-3.906250
9099		-3.906250
9100		0.000000
9101		-3.906250
9102		5.859375
9103		0.000000
9104		7.812500
9105		3.906250
9106		11.718750
9107		7.812500
9108		15.625000
9109		9.765625
9110		17.578125
9111		13.671875
9112		21.484375
9113		17.578125
9114		23.437500
9115		21.484375
9116		25.390625
9117		25.390625
9118		31.250000
9119		25.390625
9120		35.156250
9121		29.296875
9122		37.109375
9123		33.203125
9124		41.015625
9125		37.109375
9126		44.921875
9127		39.062500
9128		46.875000
9129		42.968750
9130		48.828125
9131		46.875000
9132		50.781250
9133		50.781250
9134		54.687500
9135		50.781250
9136		58.593750
9137		52.734375
9138		62.500000
9139		56.640625
9140		64.453125
9141		58.593750
9142		66.406250
9143		62.500000
9144		70.312500
9145		64.453125
9146		72.265625
9147		70.312500
9148		74.218750
9149		72.265625
9150		76.171875
9151		76.171875
9152		80.078125
9153		76.171875
9154		83.984375
9155		78.125000
9156		85.937500
9157		82.031250
9158		87.890625
9159		83.984375
9160		91.796875
9161		85.937500
9162		93.750000
9163		87.890625
9164		93.750000
9165		91.796875
9166		97.656250
9167		93.750000
9168		99.609375
9169		95.703125
9170		103.515625
9171		97.656250
9172		105.468750
9173		99.609375
9174		107.421875
9175		101.562500
9176		109.375000
9177		103.515625
9178		111.328125
9179		105.468750
9180		111.328125
9181		109.375000
9182		113.281250
9183		111.328125
9184		113.281250
9185		111.328125
9186		117.187500
9187		111.328125
9188		119.140625
9189		113.281250
9190		121.093750
9191		115.234375
9192		123.046875
9193		117.187500
9194		125.000000
9195		119.140625
9196		125.000000
9197		121.093750
9198		125.000000
9199		123.046875
9200		126.953125
9201		123.046875
9202		128.906250
9203		123.046875
9204		130.859375
9205		125.000000
9206		132.812500
9207		126.953125
9208		132.812500
9209		126.953125
9210		132.812500
9211		128.906250
9212		134.765625
9213		128.906250
9214		134.765625
9215		130.859375
9216		134.765625
9217		132.812500
9218		134.765625
9219		130.859375
9220		138.671875
9221		130.859375
9222		138.671875
9223		132.812500
9224		138.671875
9225		132.812500
9226		138.671875
9227		132.812500
9228		138.671875
9229		134.765625
9230		140.625000
9231		136.718750
9232		138.671875
9233		136.718750
9234		138.671875
9235		134.765625
9236		140.625000
9237		134.765625
9238		140.625000
9239		134.765625
9240		140.625000
9241		134.765625
9242		140.625000
9243		134.765625
9244		140.625000
9245		134.765625
9246		140.625000
9247		134.765625
9248		140.625000
9249		134.765625
9250		138.671875
9251		132.812500
9252		140.625000
9253		132.812500
9254		138.671875
9255		132.812500
9256		138.671875
9257		132.812500
9258		138.671875
9259		130.859375
9260		138.671875
9261		130.859375
9262		138.671875
9263		130.859375
9264		136.718750
9265		130.859375
9266		134.765625
9267		130.859375
9268		132.812500
9269		126.953125
9270		134.765625
9271		126.953125
9272		132.812500
9273		125.000000
9274		132.812500
9275		123.046875
9276		130.859375
9277		123.046875
9278		128.906250
9279		121.093750
9280		128.906250
9281		123.046875
9282		126.953125
9283		121.093750
9284		125.000000
9285		117.187500
9286		123.046875
9287		117.187500
9288		123.046875
9289		115.234375
9290		121.093750
9291		113.281250
9292		121.093750
9293		111.328125
9294		119.140625
9295		111.328125
9296		115.234375
9297		109.375000
9298		115.234375
9299		107.421875
9300		111.328125
9301		105.468750
9302		109.375000
9303		101.562500
9304		109.375000
9305		99.609375
9306		107.421875
9307		97.656250
9308		105.468750
9309		95.703125
9310		103.515625
9311		93.750000
9312		99.609375
9313		91.796875
9314		97.656250
9315		89.843750
9316		93.750000
9317		87.890625
9318		91.796875
9319		83.984375
9320		89.843750
9321		80.078125
9322		89.843750
9323		78.125000
9324		85.937500
9325		76.171875
9326		83.984375
9327		72.265625
9328		80.078125
9329		70.312500
9330		78.125000
9331		68.359375
9332		76.171875
9333		66.406250
9334		70.312500
9335		60.546875
9336		68.359375
9337		58.593750
9338		66.406250
9339		56.640625
9340		62.500000
9341		52.734375
9342		62.500000
9343		50.781250
9344		58.593750
9345		46.875000
9346		54.687500
9347		44.921875
9348		52.734375
9349		42.968750
9350		46.875000
9351		39.062500
9352		42.968750
9353		33.203125
9354		41.015625
9355		31.250000
9356		39.062500
9357		27.343750
9358		35.156250
9359		25.390625
9360		33.203125
9361		23.437500
9362		29.296875
9363		17.578125
9364		25.390625
9365		17.578125
9366		23.437500
9367		13.671875
9368		17.578125
9369		7.812500
9370		15.625000
9371		3.906250
9372		13.671875
9373		1.953125
9374		9.765625
9375		0.000000
9376		5.859375
9377		-5.859375
9378		3.906250
9379		-7.812500
9380		0.000000
9381		-9.765625
9382		-3.906250
9383		-13.671875
9384		-7.812500
9385		-17.578125
9386		-11.718750
9387		-21.484375
9388		-13.671875
9389		-25.390625
9390		-17.578125
9391		-29.296875
9392		-19.531250
9393		-31.250000
9394		-23.437500
9395		-35.156250
9396		-27.343750
9397		-37.109375
9398		-29.296875
9399		-39.062500
9400		-35.156250
9401		-42.968750
9402		-37.109375
9403		-46.875000
9404		-39.062500
9405		-50.781250
9406		-42.968750
9407		-54.687500
9408		-44.921875
9409		-56.640625
9410		-48.828125
9411		-58.593750
9412		-52.734375
9413		-62.500000
9414		-54.687500
9415		-64.453125
9416		-56.640625
9417		-66.406250
9418		-62.500000
9419		-70.312500
9420		-64.453125
9421		-74.218750
9422		-66.406250
9423		-76.171875
9424		-68.359375
9425		-80.078125
9426		-72.265625
9427		-82.031250
9428		-74.218750
9429		-85.937500
9430		-76.171875
9431		-85.937500
9432		-80.078125
9433		-87.890625
9434		-83.984375
9435		-89.843750
9436		-85.937500
9437		-93.750000
9438		-87.890625
9439		-97.656250
9440		-87.890625
9441		-99.609375
9442		-91.796875
9443		-101.562500
9444		-93.750000
9445		-103.515625
9446		-95.703125
9447		-105.468750
9448		-97.656250
9449		-105.468750
9450		-101.562500
9451		-107.421875
9452		-103.515625
9453		-111.328125
9454		-105.468750
9455		-111.328125
9456		-105.468750
9457		-115.234375
9458		-107.421875
9459		-115.234375
9460		-109.375000
9461		-117.187500
9462		-111.328125
9463		-119.140625
9464		-113.281250
9465		-119.140625
9466		-113.281250
9467		-119.140625
9468		-117.187500
9469		-121.093750
9470		-117.187500
9471		-125.000000
9472		-117.187500
9473		-125.000000
9474		-119.140625
9475		-126.953125
9476		-119.140625
9477		-125.000000
9478		-121.093750
9479		-128.906250
9480		-121.093750
9481		-128.906250
9482		-123.046875
9483		-126.953125
9484		-125.000000
9485		-126.953125
9486		-125.000000
9487		-130.859375
9488		-123.046875
9489		-130.859375
9490		-125.000000
9491		-130.859375
9492		-125.000000
9493		-130.859375
9494		-125.000000
9495		-130.859375
9496		-125.000000
9497		-130.859375
9498		-125.000000
9499		-130.859375
9500		-125.000000
9501		-128.906250
9502		-126.953125
9503		-128.906250
9504		-125.000000
9505		-128.906250
9506		-125.000000
9507		-128.906250
9508		-123.046875
9509		-128.906250
9510		-123.046875
9511		-128.906250
9512		-123.046875
9513		-126.953125
9514		-121.093750
9515		-126.953125
9516		-121.093750
9517		-125.000000
9518		-121.093750
9519		-123.046875
9520		-119.140625
9521		-125.000000
9522		-117.187500
9523		-123.046875
9524		-115.234375
9525		-121.093750
9526		-115.234375
9527		-121.093750
9528		-113.281250
9529		-119.140625
9530		-111.328125
9531		-117.187500
9532		-109.375000
9533		-115.234375
9534		-109.375000
9535		-111.328125
9536		-109.375000
9537		-111.328125
9538		-105.468750
9539		-111.328125
9540		-103.515625
9541		-109.375000
9542		-101.562500
9543		-107.421875
9544		-99.609375
9545		-105.468750
9546		-97.656250
9547		-101.562500
9548		-95.703125
9549		-101.562500
9550		-93.750000
9551		-95.703125
9552		-91.796875
9553		-93.750000
9554		-89.843750
9555		-93.750000
9556		-85.937500
9557		-91.796875
9558		-83.984375
9559		-87.890625
9560		-80.078125
9561		-85.937500
9562		-78.125000
9563		-82.031250
9564		-74.218750
9565		-80.078125
9566		-74.218750
9567		-78.125000
9568		-72.265625
9569		-72.265625
9570		-68.359375
9571		-70.312500
9572		-64.453125
9573		-68.359375
9574		-60.546875
9575		-66.406250
9576		-58.593750
9577		-62.500000
9578		-54.687500
9579		-60.546875
9580		-52.734375
9581		-56.640625
9582		-48.828125
9583		-54.687500
9584		-48.828125
9585		-48.828125
9586		-44.921875
9587		-46.875000
9588		-41.015625
9589		-44.921875
9590		-37.109375
9591		-41.015625
9592		-33.203125
9593		-39.062500
9594		-31.250000
9595		-33.203125
9596		-27.343750
9597		-31.250000
9598		-23.437500
9599		-29.296875
9600		-21.484375
9601		-23.437500
9602		-19.531250
9603		-19.531250
9604		-15.625000
9605		-17.578125
9606		-9.765625
9607		-15.625000
9608		-7.812500
9609		-9.765625
9610		-3.906250
9611		-9.765625
9612		0.000000
9613		-3.906250
9614		3.906250
9615		-1.953125
9616		5.859375
9617		1.953125
9618		7.812500
9619		5.859375
9620		11.718750
9621		9.765625
9622		15.625000
9623		11.718750
9624		19.531250
9625		13.671875
9626		23.437500
9627		17.578125
9628		27.343750
9629		21.484375
9630		29.296875
9631		25.390625
9632		33.203125
9633		27.343750
9634		35.156250
9635		33.203125
9636		37.109375
9637		35.156250
9638		42.968750
9639		39.062500
9640		44.921875
9641		39.062500
9642		48.828125
9643		42.968750
9644		50.781250
9645		46.875000
9646		54.687500
9647		48.828125
9648		56.640625
9649		52.734375
9650		60.546875
9651		56.640625
9652		60.546875
9653		60.546875
9654		64.453125
9655		62.500000
9656		68.359375
9657		64.453125
9658		72.265625
9659		66.406250
9660		74.218750
9661		68.359375
9662		76.171875
9663		72.265625
9664		80.078125
9665		74.218750
9666		82.031250
9667		78.125000
9668		82.031250
9669		82.031250
9670		85.937500
9671		83.984375
9672		89.843750
9673		83.984375
9674		91.796875
9675		87.890625
9676		93.750000
9677		87.890625
9678		95.703125
9679		89.843750
9680		97.656250
9681		93.750000
9682		101.562500
9683		95.703125
9684		101.562500
9685		99.609375
9686		103.515625
9687		101.562500
9688		105.468750
9689		103.515625
9690		109.375000
9691		103.515625
9692		111.328125
9693		107.421875
9694		113.281250
9695		107.421875
9696		115.234375
9697		109.375000
9698		117.187500
9699		111.328125
9700		117.187500
9701		111.328125
9702		119.140625
9703		117.187500
9704		119.140625
9705		117.187500
9706		123.046875
9707		119.140625
9708		125.000000
9709		119.140625
9710		125.000000
9711		121.093750
9712		126.953125
9713		121.093750
9714		128.906250
9715		123.046875
9716		128.906250
9717		125.000000
9718		130.859375
9719		126.953125
9720		128.906250
9721		128.906250
9722		132.812500
9723		126.953125
9724		134.765625
9725		128.906250
9726		134.765625
9727		128.906250
9728		134.765625
9729		130.859375
9730		136.718750
9731		130.859375
9732		136.718750
9733		130.859375
9734		138.671875
9735		132.812500
9736		136.718750
9737		134.765625
9738		136.718750
9739		132.812500
9740		138.671875
9741		132.812500
9742		138.671875
9743		132.812500
9744		140.625000
9745		132.812500
9746		140.625000
9747		134.765625
9748		140.625000
9749		134.765625
9750		140.625000
9751		132.812500
9752		140.625000
9753		136.718750
9754		138.671875
9755		136.718750
9756		138.671875
9757		134.765625
9758		140.625000
9759		134.765625
9760		140.625000
9761		132.812500
9762		140.625000
9763		132.812500
9764		140.625000
9765		134.765625
9766		140.625000
9767		132.812500
9768		138.671875
9769		134.765625
9770		136.718750
9771		134.765625
9772		136.718750
9773		130.859375
9774		136.718750
9775		128.906250
9776		136.718750
9777		130.859375
9778		136.718750
9779		128.906250
9780		134.765625
9781		128.906250
9782		134.765625
9783		126.953125
9784		132.812500
9785		126.953125
9786		132.812500
9787		126.953125
9788		130.859375
9789		125.000000
9790		128.906250
9791		123.046875
9792		128.906250
9793		121.093750
9794		128.906250
9795		121.093750
9796		126.953125
9797		117.187500
9798		125.000000
9799		117.187500
9800		125.000000
9801		115.234375
9802		121.093750
9803		115.234375
9804		119.140625
9805		113.281250
9806		117.187500
9807		109.375000
9808		117.187500
9809		109.375000
9810		115.234375
9811		105.468750
9812		113.281250
9813		105.468750
9814		111.328125
9815		101.562500
9816		109.375000
9817		101.562500
9818		109.375000
9819		99.609375
9820		105.468750
9821		97.656250
9822		101.562500
9823		93.750000
9824		99.609375
9825		91.796875
9826		99.609375
9827		89.843750
9828		97.656250
9829		85.937500
9830		95.703125
9831		85.937500
9832		91.796875
9833		82.031250
9834		89.843750
9835		80.078125
9836		87.890625
9837		78.125000
9838		82.031250
9839		76.171875
9840		80.078125
9841		72.265625
9842		80.078125
9843		68.359375
9844		76.171875
9845		66.406250
9846		74.218750
9847		62.500000
9848		70.312500
9849		60.546875
9850		68.359375
9851		58.593750
9852		66.406250
9853		56.640625
9854		60.546875
9855		52.734375
9856		58.593750
9857		48.828125
9858		54.687500
9859		44.921875
9860		52.734375
9861		42.968750
9862		50.781250
9863		39.062500
9864		46.875000
9865		37.109375
9866		42.968750
9867		35.156250
9868		41.015625
9869		31.250000
9870		37.109375
9871		29.296875
9872		33.203125
9873		23.437500
9874		29.296875
9875		21.484375
9876		29.296875
9877		17.578125
9878		25.390625
9879		13.671875
9880		21.484375
9881		9.765625
9882		17.578125
9883		5.859375
9884		15.625000
9885		5.859375
9886		11.718750
9887		1.953125
9888		7.812500
9889		0.000000
9890		3.906250
9891		-5.859375
9892		0.000000
9893		-7.812500
9894		-1.953125
9895		-11.718750
9896		-5.859375
9897		-15.625000
9898		-7.812500
9899		-17.578125
9900		-11.718750
9901		-23.437500
9902		-15.625000
9903		-23.437500
9904		-19.531250
9905		-27.343750
9906		-23.437500
9907		-31.250000
9908		-25.390625
9909		-35.156250
9910		-27.343750
9911		-37.109375
9912		-31.250000
9913		-41.015625
9914		-33.203125
9915		-44.921875
9916		-37.109375
9917		-48.828125
9918		-41.015625
9919		-50.781250
9920		-42.968750
9921		-52.734375
9922		-48.828125
9923		-56.640625
9924		-50.781250
9925		-60.546875
9926		-52.734375
9927		-64.453125
9928		-54.687500
9929		-66.406250
9930		-58.593750
9931		-70.312500
9932		-62.500000
9933		-72.265625
9934		-64.453125
9935		-74.218750
9936		-66.406250
9937		-76.171875
9938		-72.265625
9939		-78.125000
9940		-74.218750
9941		-83.984375
9942		-76.171875
9943		-83.984375
9944		-78.125000
9945		-89.843750
9946		-80.078125
9947		-91.796875
9948		-83.984375
9949		-91.796875
9950		-83.984375
9951		-95.703125
9952		-87.890625
9953		-95.703125
9954		-89.843750
9955		-97.656250
9956		-93.750000
9957		-101.562500
9958		-95.703125
9959		-103.515625
9960		-95.703125
9961		-107.421875
9962		-99.609375
9963		-109.375000
9964		-101.562500
9965		-109.375000
9966		-103.515625
9967		-111.328125
9968		-103.515625
9969		-113.281250
9970		-107.421875
9971		-113.281250
9972		-109.375000
9973		-115.234375
9974		-111.328125
9975		-119.140625
9976		-111.328125
9977		-119.140625
9978		-113.281250
9979		-121.093750
9980		-113.281250
9981		-123.046875
9982		-115.234375
9983		-123.046875
9984		-117.187500
9985		-125.000000
9986		-117.187500
9987		-123.046875
9988		-119.140625
9989		-125.000000
9990		-121.093750
9991		-126.953125
9992		-121.093750
9993		-128.906250
9994		-121.093750
9995		-128.906250
9996		-123.046875
9997		-128.906250
9998		-123.046875
9999		-130.859375
10000		-123.046875
