Channel              :		CH1
Frequency            :		973.6Hz
Period               :		1.027ms
PK-PK                :		302.7mV
Probe attenuation    :		1X
Voltage per ADC value:		0.122070mV
Time interval        :		2.00000us

index		CH1_Voltage(mV)
1		152.343750
2		152.343750
3		146.484375
4		150.390625
5		146.484375
6		148.437500
7		144.531250
8		150.390625
9		144.531250
10		150.390625
11		144.531250
12		150.390625
13		144.531250
14		150.390625
15		142.578125
16		150.390625
17		142.578125
18		148.437500
19		144.531250
20		148.437500
21		144.531250
22		146.484375
23		140.625000
24		146.484375
25		140.625000
26		146.484375
27		138.671875
28		146.484375
29		138.671875
30		144.531250
31		136.718750
32		144.531250
33		136.718750
34		142.578125
35		134.765625
36		140.625000
37		136.718750
38		138.671875
39		132.812500
40		136.718750
41		130.859375
42		138.671875
43		128.906250
44		136.718750
45		128.906250
46		134.765625
47		126.953125
48		134.765625
49		125.000000
50		130.859375
51		123.046875
52		130.859375
53		123.046875
54		126.953125
55		121.093750
56		125.000000
57		117.187500
58		125.000000
59		115.234375
60		123.046875
61		113.281250
62		121.093750
63		111.328125
64		119.140625
65		109.375000
66		117.187500
67		107.421875
68		113.281250
69		105.468750
70		111.328125
71		103.515625
72		107.421875
73		99.609375
74		105.468750
75		95.703125
76		105.468750
77		95.703125
78		101.562500
79		91.796875
80		99.609375
81		87.890625
82		95.703125
83		85.937500
84		93.750000
85		83.984375
86		89.843750
87		82.031250
88		85.937500
89		78.125000
90		83.984375
91		74.218750
92		82.031250
93		70.312500
94		78.125000
95		68.359375
96		76.171875
97		64.453125
98		72.265625
99		62.500000
100		68.359375
101		56.640625
102		66.406250
103		56.640625
104		62.500000
105		52.734375
106		56.640625
107		46.875000
108		54.687500
109		42.968750
110		52.734375
111		41.015625
112		48.828125
113		37.109375
114		44.921875
115		35.156250
116		42.968750
117		31.250000
118		37.109375
119		27.343750
120		35.156250
121		25.390625
122		29.296875
123		19.531250
124		25.390625
125		17.578125
126		23.437500
127		11.718750
128		21.484375
129		7.812500
130		15.625000
131		3.906250
132		13.671875
133		0.000000
134		9.765625
135		-1.953125
136		5.859375
137		-3.906250
138		0.000000
139		-7.812500
140		-3.906250
141		-13.671875
142		-7.812500
143		-15.625000
144		-9.765625
145		-21.484375
146		-13.671875
147		-23.437500
148		-15.625000
149		-29.296875
150		-19.531250
151		-31.250000
152		-23.437500
153		-33.203125
154		-27.343750
155		-39.062500
156		-33.203125
157		-42.968750
158		-37.109375
159		-46.875000
160		-39.062500
161		-48.828125
162		-42.968750
163		-54.687500
164		-44.921875
165		-58.593750
166		-48.828125
167		-60.546875
168		-52.734375
169		-64.453125
170		-56.640625
171		-66.406250
172		-60.546875
173		-68.359375
174		-64.453125
175		-72.265625
176		-66.406250
177		-78.125000
178		-70.312500
179		-80.078125
180		-72.265625
181		-83.984375
182		-76.171875
183		-87.890625
184		-78.125000
185		-89.843750
186		-82.031250
187		-91.796875
188		-83.984375
189		-93.750000
190		-89.843750
191		-97.656250
192		-91.796875
193		-101.562500
194		-93.750000
195		-105.468750
196		-95.703125
197		-105.468750
198		-99.609375
199		-109.375000
200		-101.562500
201		-111.328125
202		-103.515625
203		-113.281250
204		-107.421875
205		-115.234375
206		-111.328125
207		-119.140625
208		-113.281250
209		-121.093750
210		-115.234375
211		-123.046875
212		-117.187500
213		-126.953125
214		-119.140625
215		-126.953125
216		-121.093750
217		-128.906250
218		-123.046875
219		-130.859375
220		-125.000000
221		-130.859375
222		-128.906250
223		-132.812500
224		-128.906250
225		-138.671875
226		-130.859375
227		-138.671875
228		-130.859375
229		-138.671875
230		-132.812500
231		-140.625000
232		-132.812500
233		-140.625000
234		-134.765625
235		-144.531250
236		-136.718750
237		-144.531250
238		-136.718750
239		-142.578125
240		-140.625000
241		-144.531250
242		-140.625000
243		-146.484375
244		-140.625000
245		-148.437500
246		-140.625000
247		-148.437500
248		-142.578125
249		-148.437500
250		-142.578125
251		-148.437500
252		-142.578125
253		-150.390625
254		-142.578125
255		-146.484375
256		-144.531250
257		-148.437500
258		-144.531250
259		-148.437500
260		-142.578125
261		-150.390625
262		-142.578125
263		-150.390625
264		-142.578125
265		-148.437500
266		-142.578125
267		-148.437500
268		-142.578125
269		-148.437500
270		-142.578125
271		-146.484375
272		-140.625000
273		-144.531250
274		-142.578125
275		-146.484375
276		-138.671875
277		-144.531250
278		-138.671875
279		-144.531250
280		-136.718750
281		-142.578125
282		-136.718750
283		-140.625000
284		-134.765625
285		-140.625000
286		-134.765625
287		-140.625000
288		-132.812500
289		-134.765625
290		-132.812500
291		-134.765625
292		-130.859375
293		-134.765625
294		-126.953125
295		-132.812500
296		-125.000000
297		-128.906250
298		-125.000000
299		-130.859375
300		-121.093750
301		-125.000000
302		-119.140625
303		-125.000000
304		-117.187500
305		-121.093750
306		-117.187500
307		-117.187500
308		-115.234375
309		-115.234375
310		-111.328125
311		-115.234375
312		-107.421875
313		-113.281250
314		-105.468750
315		-109.375000
316		-101.562500
317		-107.421875
318		-99.609375
319		-105.468750
320		-97.656250
321		-101.562500
322		-95.703125
323		-97.656250
324		-91.796875
325		-93.750000
326		-89.843750
327		-93.750000
328		-83.984375
329		-89.843750
330		-82.031250
331		-87.890625
332		-78.125000
333		-82.031250
334		-76.171875
335		-80.078125
336		-72.265625
337		-76.171875
338		-68.359375
339		-72.265625
340		-66.406250
341		-68.359375
342		-64.453125
343		-66.406250
344		-58.593750
345		-62.500000
346		-54.687500
347		-60.546875
348		-50.781250
349		-54.687500
350		-48.828125
351		-52.734375
352		-42.968750
353		-48.828125
354		-41.015625
355		-44.921875
356		-39.062500
357		-39.062500
358		-35.156250
359		-37.109375
360		-29.296875
361		-35.156250
362		-27.343750
363		-31.250000
364		-23.437500
365		-27.343750
366		-19.531250
367		-23.437500
368		-15.625000
369		-19.531250
370		-11.718750
371		-15.625000
372		-7.812500
373		-9.765625
374		-5.859375
375		-7.812500
376		-1.953125
377		-3.906250
378		3.906250
379		-1.953125
380		7.812500
381		3.906250
382		9.765625
383		5.859375
384		15.625000
385		9.765625
386		17.578125
387		13.671875
388		21.484375
389		17.578125
390		23.437500
391		21.484375
392		27.343750
393		25.390625
394		31.250000
395		29.296875
396		37.109375
397		31.250000
398		39.062500
399		35.156250
400		42.968750
401		39.062500
402		46.875000
403		41.015625
404		50.781250
405		44.921875
406		52.734375
407		50.781250
408		54.687500
409		52.734375
410		58.593750
411		54.687500
412		62.500000
413		58.593750
414		66.406250
415		60.546875
416		70.312500
417		66.406250
418		72.265625
419		68.359375
420		76.171875
421		70.312500
422		78.125000
423		76.171875
424		80.078125
425		78.125000
426		82.031250
427		80.078125
428		87.890625
429		83.984375
430		89.843750
431		85.937500
432		93.750000
433		87.890625
434		95.703125
435		89.843750
436		97.656250
437		93.750000
438		101.562500
439		95.703125
440		101.562500
441		99.609375
442		103.515625
443		103.515625
444		109.375000
445		103.515625
446		111.328125
447		105.468750
448		113.281250
449		109.375000
450		115.234375
451		109.375000
452		117.187500
453		113.281250
454		119.140625
455		113.281250
456		121.093750
457		119.140625
458		121.093750
459		119.140625
460		123.046875
461		121.093750
462		126.953125
463		121.093750
464		128.906250
465		123.046875
466		130.859375
467		125.000000
468		132.812500
469		126.953125
470		132.812500
471		128.906250
472		136.718750
473		130.859375
474		134.765625
475		132.812500
476		136.718750
477		132.812500
478		138.671875
479		132.812500
480		140.625000
481		134.765625
482		140.625000
483		134.765625
484		142.578125
485		136.718750
486		144.531250
487		138.671875
488		144.531250
489		140.625000
490		146.484375
491		142.578125
492		144.531250
493		142.578125
494		146.484375
495		142.578125
496		148.437500
497		142.578125
498		148.437500
499		142.578125
500		150.390625
501		142.578125
502		150.390625
503		144.531250
504		150.390625
505		144.531250
506		150.390625
507		146.484375
508		148.437500
509		146.484375
510		148.437500
511		144.531250
512		150.390625
513		144.531250
514		152.343750
515		144.531250
516		152.343750
517		144.531250
518		152.343750
519		144.531250
520		150.390625
521		144.531250
522		150.390625
523		144.531250
524		150.390625
525		146.484375
526		148.437500
527		142.578125
528		148.437500
529		142.578125
530		150.390625
531		142.578125
532		150.390625
533		142.578125
534		148.437500
535		140.625000
536		148.437500
537		140.625000
538		146.484375
539		140.625000
540		146.484375
541		140.625000
542		144.531250
543		140.625000
544		142.578125
545		136.718750
546		144.531250
547		136.718750
548		142.578125
549		134.765625
550		140.625000
551		132.812500
552		140.625000
553		132.812500
554		138.671875
555		130.859375
556		138.671875
557		130.859375
558		136.718750
559		128.906250
560		132.812500
561		125.000000
562		132.812500
563		125.000000
564		130.859375
565		123.046875
566		130.859375
567		121.093750
568		126.953125
569		119.140625
570		126.953125
571		117.187500
572		125.000000
573		115.234375
574		123.046875
575		115.234375
576		119.140625
577		111.328125
578		115.234375
579		107.421875
580		115.234375
581		105.468750
582		113.281250
583		103.515625
584		111.328125
585		101.562500
586		109.375000
587		99.609375
588		105.468750
589		95.703125
590		103.515625
591		95.703125
592		99.609375
593		91.796875
594		95.703125
595		87.890625
596		93.750000
597		85.937500
598		91.796875
599		82.031250
600		89.843750
601		80.078125
602		87.890625
603		76.171875
604		83.984375
605		74.218750
606		82.031250
607		72.265625
608		78.125000
609		68.359375
610		72.265625
611		64.453125
612		70.312500
613		60.546875
614		68.359375
615		56.640625
616		66.406250
617		52.734375
618		62.500000
619		48.828125
620		58.593750
621		46.875000
622		56.640625
623		44.921875
624		52.734375
625		41.015625
626		46.875000
627		39.062500
628		42.968750
629		33.203125
630		41.015625
631		29.296875
632		37.109375
633		25.390625
634		35.156250
635		23.437500
636		31.250000
637		19.531250
638		27.343750
639		15.625000
640		23.437500
641		13.671875
642		19.531250
643		9.765625
644		13.671875
645		3.906250
646		9.765625
647		0.000000
648		9.765625
649		-3.906250
650		5.859375
651		-7.812500
652		0.000000
653		-9.765625
654		-1.953125
655		-15.625000
656		-5.859375
657		-17.578125
658		-9.765625
659		-19.531250
660		-15.625000
661		-25.390625
662		-19.531250
663		-29.296875
664		-21.484375
665		-33.203125
666		-23.437500
667		-37.109375
668		-27.343750
669		-41.015625
670		-33.203125
671		-42.968750
672		-35.156250
673		-46.875000
674		-39.062500
675		-50.781250
676		-44.921875
677		-52.734375
678		-48.828125
679		-56.640625
680		-52.734375
681		-60.546875
682		-54.687500
683		-64.453125
684		-58.593750
685		-68.359375
686		-60.546875
687		-72.265625
688		-64.453125
689		-74.218750
690		-66.406250
691		-76.171875
692		-72.265625
693		-80.078125
694		-76.171875
695		-85.937500
696		-78.125000
697		-87.890625
698		-80.078125
699		-91.796875
700		-82.031250
701		-93.750000
702		-85.937500
703		-97.656250
704		-89.843750
705		-99.609375
706		-91.796875
707		-101.562500
708		-95.703125
709		-103.515625
710		-99.609375
711		-107.421875
712		-101.562500
713		-111.328125
714		-103.515625
715		-113.281250
716		-105.468750
717		-115.234375
718		-109.375000
719		-119.140625
720		-111.328125
721		-121.093750
722		-113.281250
723		-123.046875
724		-115.234375
725		-123.046875
726		-117.187500
727		-125.000000
728		-121.093750
729		-128.906250
730		-123.046875
731		-130.859375
732		-123.046875
733		-132.812500
734		-126.953125
735		-134.765625
736		-126.953125
737		-136.718750
738		-128.906250
739		-138.671875
740		-130.859375
741		-138.671875
742		-132.812500
743		-138.671875
744		-136.718750
745		-142.578125
746		-136.718750
747		-144.531250
748		-136.718750
749		-144.531250
750		-138.671875
751		-144.531250
752		-138.671875
753		-146.484375
754		-138.671875
755		-148.437500
756		-140.625000
757		-148.437500
758		-140.625000
759		-146.484375
760		-144.531250
761		-146.484375
762		-144.531250
763		-150.390625
764		-142.578125
765		-150.390625
766		-144.531250
767		-150.390625
768		-144.531250
769		-150.390625
770		-144.531250
771		-150.390625
772		-144.531250
773		-150.390625
774		-144.531250
775		-148.437500
776		-144.531250
777		-148.437500
778		-146.484375
779		-150.390625
780		-142.578125
781		-148.437500
782		-142.578125
783		-148.437500
784		-142.578125
785		-148.437500
786		-140.625000
787		-146.484375
788		-140.625000
789		-146.484375
790		-140.625000
791		-144.531250
792		-138.671875
793		-142.578125
794		-138.671875
795		-140.625000
796		-138.671875
797		-142.578125
798		-134.765625
799		-140.625000
800		-132.812500
801		-140.625000
802		-132.812500
803		-138.671875
804		-130.859375
805		-136.718750
806		-128.906250
807		-134.765625
808		-126.953125
809		-130.859375
810		-126.953125
811		-128.906250
812		-125.000000
813		-126.953125
814		-121.093750
815		-126.953125
816		-119.140625
817		-125.000000
818		-117.187500
819		-121.093750
820		-115.234375
821		-119.140625
822		-111.328125
823		-117.187500
824		-109.375000
825		-115.234375
826		-107.421875
827		-111.328125
828		-107.421875
829		-107.421875
830		-101.562500
831		-107.421875
832		-99.609375
833		-103.515625
834		-95.703125
835		-101.562500
836		-93.750000
837		-97.656250
838		-89.843750
839		-95.703125
840		-87.890625
841		-91.796875
842		-83.984375
843		-87.890625
844		-82.031250
845		-83.984375
846		-80.078125
847		-82.031250
848		-74.218750
849		-78.125000
850		-70.312500
851		-76.171875
852		-68.359375
853		-74.218750
854		-64.453125
855		-68.359375
856		-60.546875
857		-66.406250
858		-58.593750
859		-60.546875
860		-54.687500
861		-56.640625
862		-52.734375
863		-52.734375
864		-46.875000
865		-52.734375
866		-42.968750
867		-46.875000
868		-39.062500
869		-44.921875
870		-37.109375
871		-41.015625
872		-31.250000
873		-37.109375
874		-29.296875
875		-33.203125
876		-27.343750
877		-27.343750
878		-23.437500
879		-25.390625
880		-19.531250
881		-21.484375
882		-13.671875
883		-19.531250
884		-11.718750
885		-15.625000
886		-5.859375
887		-11.718750
888		-1.953125
889		-7.812500
890		1.953125
891		-3.906250
892		5.859375
893		0.000000
894		5.859375
895		5.859375
896		9.765625
897		9.765625
898		15.625000
899		11.718750
900		19.531250
901		13.671875
902		23.437500
903		17.578125
904		27.343750
905		21.484375
906		29.296875
907		25.390625
908		33.203125
909		29.296875
910		35.156250
911		35.156250
912		39.062500
913		37.109375
914		42.968750
915		39.062500
916		48.828125
917		42.968750
918		50.781250
919		46.875000
920		54.687500
921		48.828125
922		58.593750
923		52.734375
924		60.546875
925		56.640625
926		64.453125
927		60.546875
928		66.406250
929		64.453125
930		68.359375
931		66.406250
932		72.265625
933		68.359375
934		78.125000
935		72.265625
936		80.078125
937		74.218750
938		83.984375
939		78.125000
940		85.937500
941		80.078125
942		87.890625
943		83.984375
944		89.843750
945		87.890625
946		91.796875
947		89.843750
948		95.703125
949		91.796875
950		99.609375
951		93.750000
952		101.562500
953		97.656250
954		103.515625
955		99.609375
956		105.468750
957		101.562500
958		109.375000
959		103.515625
960		111.328125
961		107.421875
962		111.328125
963		111.328125
964		115.234375
965		111.328125
966		119.140625
967		113.281250
968		121.093750
969		115.234375
970		123.046875
971		117.187500
972		123.046875
973		119.140625
974		125.000000
975		121.093750
976		126.953125
977		123.046875
978		126.953125
979		126.953125
980		128.906250
981		126.953125
982		132.812500
983		126.953125
984		134.765625
985		128.906250
986		134.765625
987		130.859375
988		136.718750
989		132.812500
990		138.671875
991		132.812500
992		140.625000
993		134.765625
994		140.625000
995		138.671875
996		140.625000
997		138.671875
998		140.625000
999		136.718750
1000		144.531250
1001		138.671875
1002		146.484375
1003		140.625000
1004		146.484375
1005		140.625000
1006		146.484375
1007		140.625000
1008		148.437500
1009		142.578125
1010		148.437500
1011		144.531250
1012		146.484375
1013		144.531250
1014		148.437500
1015		144.531250
1016		150.390625
1017		144.531250
1018		150.390625
1019		144.531250
1020		150.390625
1021		144.531250
1022		150.390625
1023		144.531250
1024		150.390625
1025		144.531250
1026		152.343750
1027		144.531250
1028		150.390625
1029		146.484375
1030		150.390625
1031		146.484375
1032		150.390625
1033		144.531250
1034		152.343750
1035		144.531250
1036		150.390625
1037		144.531250
1038		150.390625
1039		144.531250
1040		150.390625
1041		144.531250
1042		150.390625
1043		144.531250
1044		150.390625
1045		144.531250
1046		146.484375
1047		144.531250
1048		146.484375
1049		142.578125
1050		148.437500
1051		140.625000
1052		146.484375
1053		138.671875
1054		146.484375
1055		138.671875
1056		146.484375
1057		138.671875
1058		144.531250
1059		136.718750
1060		144.531250
1061		136.718750
1062		142.578125
1063		136.718750
1064		138.671875
1065		132.812500
1066		140.625000
1067		132.812500
1068		138.671875
1069		130.859375
1070		138.671875
1071		128.906250
1072		136.718750
1073		126.953125
1074		134.765625
1075		126.953125
1076		132.812500
1077		125.000000
1078		130.859375
1079		125.000000
1080		126.953125
1081		123.046875
1082		125.000000
1083		119.140625
1084		126.953125
1085		117.187500
1086		123.046875
1087		113.281250
1088		121.093750
1089		111.328125
1090		121.093750
1091		111.328125
1092		117.187500
1093		107.421875
1094		115.234375
1095		107.421875
1096		111.328125
1097		105.468750
1098		109.375000
1099		101.562500
1100		107.421875
1101		97.656250
1102		105.468750
1103		95.703125
1104		103.515625
1105		93.750000
1106		101.562500
1107		89.843750
1108		97.656250
1109		87.890625
1110		95.703125
1111		85.937500
1112		93.750000
1113		83.984375
1114		87.890625
1115		80.078125
1116		83.984375
1117		76.171875
1118		83.984375
1119		72.265625
1120		80.078125
1121		70.312500
1122		78.125000
1123		66.406250
1124		74.218750
1125		62.500000
1126		72.265625
1127		60.546875
1128		68.359375
1129		58.593750
1130		62.500000
1131		54.687500
1132		60.546875
1133		50.781250
1134		56.640625
1135		46.875000
1136		54.687500
1137		42.968750
1138		50.781250
1139		41.015625
1140		46.875000
1141		35.156250
1142		44.921875
1143		33.203125
1144		41.015625
1145		31.250000
1146		37.109375
1147		27.343750
1148		33.203125
1149		23.437500
1150		29.296875
1151		19.531250
1152		27.343750
1153		15.625000
1154		21.484375
1155		9.765625
1156		19.531250
1157		7.812500
1158		15.625000
1159		3.906250
1160		11.718750
1161		1.953125
1162		7.812500
1163		-1.953125
1164		1.953125
1165		-5.859375
1166		0.000000
1167		-11.718750
1168		-3.906250
1169		-15.625000
1170		-5.859375
1171		-17.578125
1172		-9.765625
1173		-23.437500
1174		-13.671875
1175		-23.437500
1176		-17.578125
1177		-29.296875
1178		-21.484375
1179		-31.250000
1180		-25.390625
1181		-35.156250
1182		-29.296875
1183		-39.062500
1184		-33.203125
1185		-44.921875
1186		-35.156250
1187		-46.875000
1188		-39.062500
1189		-50.781250
1190		-42.968750
1191		-54.687500
1192		-46.875000
1193		-56.640625
1194		-48.828125
1195		-60.546875
1196		-52.734375
1197		-62.500000
1198		-58.593750
1199		-66.406250
1200		-62.500000
1201		-70.312500
1202		-62.500000
1203		-74.218750
1204		-66.406250
1205		-78.125000
1206		-70.312500
1207		-82.031250
1208		-74.218750
1209		-83.984375
1210		-76.171875
1211		-85.937500
1212		-80.078125
1213		-87.890625
1214		-83.984375
1215		-91.796875
1216		-87.890625
1217		-97.656250
1218		-89.843750
1219		-97.656250
1220		-91.796875
1221		-101.562500
1222		-93.750000
1223		-105.468750
1224		-97.656250
1225		-107.421875
1226		-99.609375
1227		-111.328125
1228		-101.562500
1229		-111.328125
1230		-105.468750
1231		-113.281250
1232		-109.375000
1233		-117.187500
1234		-111.328125
1235		-121.093750
1236		-111.328125
1237		-121.093750
1238		-115.234375
1239		-125.000000
1240		-117.187500
1241		-126.953125
1242		-119.140625
1243		-128.906250
1244		-121.093750
1245		-130.859375
1246		-123.046875
1247		-130.859375
1248		-126.953125
1249		-132.812500
1250		-128.906250
1251		-134.765625
1252		-128.906250
1253		-138.671875
1254		-130.859375
1255		-138.671875
1256		-132.812500
1257		-140.625000
1258		-132.812500
1259		-142.578125
1260		-132.812500
1261		-142.578125
1262		-134.765625
1263		-140.625000
1264		-136.718750
1265		-142.578125
1266		-138.671875
1267		-144.531250
1268		-138.671875
1269		-144.531250
1270		-138.671875
1271		-146.484375
1272		-140.625000
1273		-146.484375
1274		-140.625000
1275		-148.437500
1276		-142.578125
1277		-148.437500
1278		-142.578125
1279		-148.437500
1280		-142.578125
1281		-148.437500
1282		-144.531250
1283		-148.437500
1284		-144.531250
1285		-148.437500
1286		-142.578125
1287		-148.437500
1288		-142.578125
1289		-148.437500
1290		-142.578125
1291		-148.437500
1292		-142.578125
1293		-148.437500
1294		-142.578125
1295		-148.437500
1296		-140.625000
1297		-144.531250
1298		-142.578125
1299		-144.531250
1300		-142.578125
1301		-144.531250
1302		-138.671875
1303		-144.531250
1304		-138.671875
1305		-142.578125
1306		-136.718750
1307		-142.578125
1308		-136.718750
1309		-140.625000
1310		-134.765625
1311		-140.625000
1312		-132.812500
1313		-138.671875
1314		-132.812500
1315		-134.765625
1316		-132.812500
1317		-132.812500
1318		-126.953125
1319		-132.812500
1320		-126.953125
1321		-132.812500
1322		-125.000000
1323		-130.859375
1324		-123.046875
1325		-128.906250
1326		-121.093750
1327		-126.953125
1328		-119.140625
1329		-123.046875
1330		-117.187500
1331		-119.140625
1332		-117.187500
1333		-117.187500
1334		-113.281250
1335		-117.187500
1336		-109.375000
1337		-113.281250
1338		-107.421875
1339		-113.281250
1340		-105.468750
1341		-109.375000
1342		-101.562500
1343		-107.421875
1344		-99.609375
1345		-105.468750
1346		-97.656250
1347		-99.609375
1348		-95.703125
1349		-97.656250
1350		-91.796875
1351		-93.750000
1352		-87.890625
1353		-93.750000
1354		-83.984375
1355		-87.890625
1356		-82.031250
1357		-85.937500
1358		-78.125000
1359		-83.984375
1360		-76.171875
1361		-80.078125
1362		-70.312500
1363		-76.171875
1364		-70.312500
1365		-72.265625
1366		-66.406250
1367		-68.359375
1368		-62.500000
1369		-66.406250
1370		-58.593750
1371		-64.453125
1372		-54.687500
1373		-58.593750
1374		-50.781250
1375		-56.640625
1376		-46.875000
1377		-50.781250
1378		-42.968750
1379		-48.828125
1380		-41.015625
1381		-42.968750
1382		-39.062500
1383		-39.062500
1384		-35.156250
1385		-35.156250
1386		-29.296875
1387		-33.203125
1388		-25.390625
1389		-31.250000
1390		-21.484375
1391		-25.390625
1392		-17.578125
1393		-23.437500
1394		-13.671875
1395		-19.531250
1396		-11.718750
1397		-15.625000
1398		-9.765625
1399		-9.765625
1400		-5.859375
1401		-5.859375
1402		0.000000
1403		-5.859375
1404		3.906250
1405		0.000000
1406		7.812500
1407		1.953125
1408		11.718750
1409		7.812500
1410		15.625000
1411		9.765625
1412		17.578125
1413		15.625000
1414		21.484375
1415		19.531250
1416		23.437500
1417		23.437500
1418		27.343750
1419		25.390625
1420		33.203125
1421		27.343750
1422		37.109375
1423		33.203125
1424		41.015625
1425		35.156250
1426		42.968750
1427		41.015625
1428		46.875000
1429		41.015625
1430		50.781250
1431		46.875000
1432		52.734375
1433		50.781250
1434		54.687500
1435		54.687500
1436		60.546875
1437		54.687500
1438		64.453125
1439		58.593750
1440		68.359375
1441		62.500000
1442		70.312500
1443		64.453125
1444		72.265625
1445		68.359375
1446		76.171875
1447		72.265625
1448		78.125000
1449		76.171875
1450		80.078125
1451		80.078125
1452		83.984375
1453		82.031250
1454		87.890625
1455		82.031250
1456		91.796875
1457		85.937500
1458		93.750000
1459		87.890625
1460		97.656250
1461		91.796875
1462		99.609375
1463		95.703125
1464		101.562500
1465		99.609375
1466		101.562500
1467		101.562500
1468		105.468750
1469		101.562500
1470		109.375000
1471		103.515625
1472		111.328125
1473		107.421875
1474		113.281250
1475		107.421875
1476		117.187500
1477		111.328125
1478		117.187500
1479		113.281250
1480		119.140625
1481		115.234375
1482		121.093750
1483		119.140625
1484		123.046875
1485		119.140625
1486		126.953125
1487		121.093750
1488		126.953125
1489		123.046875
1490		130.859375
1491		125.000000
1492		130.859375
1493		126.953125
1494		132.812500
1495		126.953125
1496		134.765625
1497		128.906250
1498		134.765625
1499		132.812500
1500		134.765625
1501		134.765625
1502		136.718750
1503		134.765625
1504		140.625000
1505		134.765625
1506		140.625000
1507		136.718750
1508		142.578125
1509		136.718750
1510		144.531250
1511		138.671875
1512		144.531250
1513		138.671875
1514		146.484375
1515		140.625000
1516		146.484375
1517		142.578125
1518		146.484375
1519		144.531250
1520		148.437500
1521		142.578125
1522		148.437500
1523		144.531250
1524		148.437500
1525		144.531250
1526		148.437500
1527		144.531250
1528		150.390625
1529		146.484375
1530		150.390625
1531		146.484375
1532		150.390625
1533		146.484375
1534		150.390625
1535		148.437500
1536		150.390625
1537		146.484375
1538		152.343750
1539		146.484375
1540		152.343750
1541		144.531250
1542		152.343750
1543		146.484375
1544		152.343750
1545		144.531250
1546		152.343750
1547		146.484375
1548		152.343750
1549		148.437500
1550		150.390625
1551		146.484375
1552		148.437500
1553		144.531250
1554		150.390625
1555		144.531250
1556		150.390625
1557		142.578125
1558		150.390625
1559		142.578125
1560		148.437500
1561		142.578125
1562		148.437500
1563		140.625000
1564		148.437500
1565		142.578125
1566		146.484375
1567		142.578125
1568		144.531250
1569		138.671875
1570		144.531250
1571		138.671875
1572		144.531250
1573		136.718750
1574		142.578125
1575		134.765625
1576		142.578125
1577		134.765625
1578		140.625000
1579		132.812500
1580		140.625000
1581		132.812500
1582		138.671875
1583		132.812500
1584		134.765625
1585		130.859375
1586		132.812500
1587		126.953125
1588		134.765625
1589		125.000000
1590		132.812500
1591		125.000000
1592		130.859375
1593		121.093750
1594		128.906250
1595		119.140625
1596		126.953125
1597		119.140625
1598		125.000000
1599		117.187500
1600		123.046875
1601		115.234375
1602		119.140625
1603		111.328125
1604		117.187500
1605		111.328125
1606		115.234375
1607		105.468750
1608		115.234375
1609		105.468750
1610		111.328125
1611		101.562500
1612		109.375000
1613		99.609375
1614		107.421875
1615		97.656250
1616		105.468750
1617		95.703125
1618		99.609375
1619		93.750000
1620		97.656250
1621		89.843750
1622		95.703125
1623		85.937500
1624		93.750000
1625		83.984375
1626		91.796875
1627		80.078125
1628		87.890625
1629		78.125000
1630		85.937500
1631		74.218750
1632		82.031250
1633		72.265625
1634		78.125000
1635		70.312500
1636		74.218750
1637		66.406250
1638		72.265625
1639		60.546875
1640		70.312500
1641		60.546875
1642		66.406250
1643		54.687500
1644		64.453125
1645		52.734375
1646		60.546875
1647		48.828125
1648		56.640625
1649		46.875000
1650		54.687500
1651		42.968750
1652		48.828125
1653		39.062500
1654		44.921875
1655		33.203125
1656		42.968750
1657		31.250000
1658		39.062500
1659		27.343750
1660		35.156250
1661		23.437500
1662		33.203125
1663		21.484375
1664		29.296875
1665		17.578125
1666		25.390625
1667		13.671875
1668		19.531250
1669		11.718750
1670		15.625000
1671		5.859375
1672		13.671875
1673		3.906250
1674		11.718750
1675		-1.953125
1676		7.812500
1677		-3.906250
1678		3.906250
1679		-9.765625
1680		0.000000
1681		-11.718750
1682		-3.906250
1683		-15.625000
1684		-7.812500
1685		-17.578125
1686		-13.671875
1687		-23.437500
1688		-17.578125
1689		-25.390625
1690		-19.531250
1691		-31.250000
1692		-23.437500
1693		-35.156250
1694		-25.390625
1695		-39.062500
1696		-29.296875
1697		-41.015625
1698		-33.203125
1699		-44.921875
1700		-37.109375
1701		-46.875000
1702		-41.015625
1703		-50.781250
1704		-44.921875
1705		-56.640625
1706		-48.828125
1707		-58.593750
1708		-50.781250
1709		-62.500000
1710		-52.734375
1711		-66.406250
1712		-56.640625
1713		-68.359375
1714		-60.546875
1715		-72.265625
1716		-64.453125
1717		-74.218750
1718		-68.359375
1719		-78.125000
1720		-72.265625
1721		-82.031250
1722		-76.171875
1723		-85.937500
1724		-76.171875
1725		-87.890625
1726		-80.078125
1727		-91.796875
1728		-83.984375
1729		-93.750000
1730		-85.937500
1731		-97.656250
1732		-89.843750
1733		-97.656250
1734		-91.796875
1735		-101.562500
1736		-97.656250
1737		-103.515625
1738		-99.609375
1739		-107.421875
1740		-99.609375
1741		-111.328125
1742		-103.515625
1743		-113.281250
1744		-105.468750
1745		-115.234375
1746		-107.421875
1747		-117.187500
1748		-111.328125
1749		-121.093750
1750		-113.281250
1751		-121.093750
1752		-117.187500
1753		-123.046875
1754		-119.140625
1755		-126.953125
1756		-119.140625
1757		-126.953125
1758		-121.093750
1759		-130.859375
1760		-123.046875
1761		-132.812500
1762		-125.000000
1763		-134.765625
1764		-126.953125
1765		-134.765625
1766		-128.906250
1767		-134.765625
1768		-130.859375
1769		-136.718750
1770		-132.812500
1771		-140.625000
1772		-132.812500
1773		-140.625000
1774		-132.812500
1775		-142.578125
1776		-134.765625
1777		-142.578125
1778		-136.718750
1779		-144.531250
1780		-136.718750
1781		-144.531250
1782		-138.671875
1783		-146.484375
1784		-138.671875
1785		-144.531250
1786		-142.578125
1787		-144.531250
1788		-142.578125
1789		-146.484375
1790		-140.625000
1791		-148.437500
1792		-140.625000
1793		-148.437500
1794		-142.578125
1795		-148.437500
1796		-142.578125
1797		-148.437500
1798		-142.578125
1799		-148.437500
1800		-140.625000
1801		-146.484375
1802		-142.578125
1803		-146.484375
1804		-142.578125
1805		-146.484375
1806		-140.625000
1807		-148.437500
1808		-140.625000
1809		-146.484375
1810		-140.625000
1811		-146.484375
1812		-138.671875
1813		-146.484375
1814		-138.671875
1815		-144.531250
1816		-138.671875
1817		-144.531250
1818		-136.718750
1819		-140.625000
1820		-136.718750
1821		-140.625000
1822		-136.718750
1823		-140.625000
1824		-134.765625
1825		-138.671875
1826		-132.812500
1827		-138.671875
1828		-130.859375
1829		-136.718750
1830		-128.906250
1831		-134.765625
1832		-128.906250
1833		-132.812500
1834		-126.953125
1835		-130.859375
1836		-126.953125
1837		-126.953125
1838		-123.046875
1839		-126.953125
1840		-121.093750
1841		-126.953125
1842		-117.187500
1843		-123.046875
1844		-115.234375
1845		-121.093750
1846		-113.281250
1847		-119.140625
1848		-111.328125
1849		-115.234375
1850		-107.421875
1851		-113.281250
1852		-107.421875
1853		-109.375000
1854		-105.468750
1855		-107.421875
1856		-101.562500
1857		-105.468750
1858		-97.656250
1859		-103.515625
1860		-95.703125
1861		-99.609375
1862		-91.796875
1863		-97.656250
1864		-89.843750
1865		-95.703125
1866		-87.890625
1867		-91.796875
1868		-83.984375
1869		-85.937500
1870		-82.031250
1871		-83.984375
1872		-78.125000
1873		-82.031250
1874		-74.218750
1875		-78.125000
1876		-72.265625
1877		-76.171875
1878		-66.406250
1879		-72.265625
1880		-64.453125
1881		-68.359375
1882		-60.546875
1883		-64.453125
1884		-56.640625
1885		-62.500000
1886		-54.687500
1887		-56.640625
1888		-52.734375
1889		-52.734375
1890		-46.875000
1891		-50.781250
1892		-42.968750
1893		-46.875000
1894		-39.062500
1895		-42.968750
1896		-35.156250
1897		-39.062500
1898		-31.250000
1899		-37.109375
1900		-27.343750
1901		-33.203125
1902		-25.390625
1903		-27.343750
1904		-21.484375
1905		-23.437500
1906		-17.578125
1907		-21.484375
1908		-13.671875
1909		-17.578125
1910		-9.765625
1911		-13.671875
1912		-5.859375
1913		-11.718750
1914		-1.953125
1915		-7.812500
1916		1.953125
1917		-3.906250
1918		3.906250
1919		0.000000
1920		7.812500
1921		5.859375
1922		11.718750
1923		9.765625
1924		17.578125
1925		11.718750
1926		19.531250
1927		15.625000
1928		23.437500
1929		19.531250
1930		27.343750
1931		23.437500
1932		31.250000
1933		27.343750
1934		35.156250
1935		29.296875
1936		37.109375
1937		35.156250
1938		39.062500
1939		39.062500
1940		44.921875
1941		39.062500
1942		48.828125
1943		42.968750
1944		50.781250
1945		46.875000
1946		54.687500
1947		50.781250
1948		58.593750
1949		52.734375
1950		62.500000
1951		56.640625
1952		64.453125
1953		62.500000
1954		66.406250
1955		64.453125
1956		70.312500
1957		66.406250
1958		74.218750
1959		70.312500
1960		78.125000
1961		72.265625
1962		80.078125
1963		76.171875
1964		83.984375
1965		78.125000
1966		85.937500
1967		82.031250
1968		89.843750
1969		85.937500
1970		89.843750
1971		87.890625
1972		93.750000
1973		91.796875
1974		97.656250
1975		91.796875
1976		99.609375
1977		95.703125
1978		103.515625
1979		97.656250
1980		105.468750
1981		99.609375
1982		107.421875
1983		101.562500
1984		109.375000
1985		105.468750
1986		111.328125
1987		109.375000
1988		113.281250
1989		111.328125
1990		115.234375
1991		111.328125
1992		119.140625
1993		113.281250
1994		121.093750
1995		115.234375
1996		123.046875
1997		117.187500
1998		125.000000
1999		119.140625
2000		126.953125
2001		121.093750
2002		128.906250
2003		125.000000
2004		128.906250
2005		126.953125
2006		130.859375
2007		126.953125
2008		134.765625
2009		128.906250
2010		134.765625
2011		128.906250
2012		136.718750
2013		130.859375
2014		138.671875
2015		132.812500
2016		138.671875
2017		132.812500
2018		140.625000
2019		134.765625
2020		140.625000
2021		138.671875
2022		140.625000
2023		138.671875
2024		144.531250
2025		138.671875
2026		144.531250
2027		138.671875
2028		146.484375
2029		140.625000
2030		146.484375
2031		140.625000
2032		148.437500
2033		142.578125
2034		148.437500
2035		142.578125
2036		148.437500
2037		144.531250
2038		148.437500
2039		146.484375
2040		148.437500
2041		144.531250
2042		150.390625
2043		144.531250
2044		150.390625
2045		144.531250
2046		152.343750
2047		146.484375
2048		152.343750
2049		144.531250
2050		152.343750
2051		146.484375
2052		152.343750
2053		148.437500
2054		150.390625
2055		148.437500
2056		150.390625
2057		146.484375
2058		152.343750
2059		146.484375
2060		152.343750
2061		146.484375
2062		152.343750
2063		144.531250
2064		152.343750
2065		144.531250
2066		152.343750
2067		144.531250
2068		152.343750
2069		144.531250
2070		150.390625
2071		146.484375
2072		148.437500
2073		144.531250
2074		148.437500
2075		142.578125
2076		148.437500
2077		140.625000
2078		148.437500
2079		140.625000
2080		146.484375
2081		138.671875
2082		146.484375
2083		138.671875
2084		144.531250
2085		138.671875
2086		144.531250
2087		138.671875
2088		140.625000
2089		136.718750
2090		140.625000
2091		134.765625
2092		140.625000
2093		132.812500
2094		138.671875
2095		130.859375
2096		138.671875
2097		130.859375
2098		136.718750
2099		126.953125
2100		134.765625
2101		126.953125
2102		132.812500
2103		126.953125
2104		132.812500
2105		125.000000
2106		128.906250
2107		121.093750
2108		126.953125
2109		119.140625
2110		126.953125
2111		117.187500
2112		125.000000
2113		115.234375
2114		123.046875
2115		113.281250
2116		119.140625
2117		111.328125
2118		117.187500
2119		109.375000
2120		115.234375
2121		109.375000
2122		111.328125
2123		105.468750
2124		109.375000
2125		101.562500
2126		109.375000
2127		99.609375
2128		105.468750
2129		95.703125
2130		103.515625
2131		93.750000
2132		101.562500
2133		91.796875
2134		99.609375
2135		87.890625
2136		95.703125
2137		87.890625
2138		91.796875
2139		83.984375
2140		87.890625
2141		80.078125
2142		85.937500
2143		76.171875
2144		83.984375
2145		74.218750
2146		82.031250
2147		70.312500
2148		78.125000
2149		66.406250
2150		76.171875
2151		62.500000
2152		72.265625
2153		62.500000
2154		68.359375
2155		58.593750
2156		64.453125
2157		56.640625
2158		60.546875
2159		50.781250
2160		58.593750
2161		46.875000
2162		54.687500
2163		44.921875
2164		52.734375
2165		41.015625
2166		48.828125
2167		37.109375
2168		44.921875
2169		33.203125
2170		41.015625
2171		31.250000
2172		37.109375
2173		27.343750
2174		33.203125
2175		23.437500
2176		29.296875
2177		19.531250
2178		27.343750
2179		15.625000
2180		23.437500
2181		11.718750
2182		19.531250
2183		7.812500
2184		15.625000
2185		3.906250
2186		13.671875
2187		1.953125
2188		9.765625
2189		-1.953125
2190		3.906250
2191		-7.812500
2192		0.000000
2193		-11.718750
2194		-1.953125
2195		-13.671875
2196		-5.859375
2197		-17.578125
2198		-9.765625
2199		-21.484375
2200		-13.671875
2201		-25.390625
2202		-17.578125
2203		-27.343750
2204		-21.484375
2205		-31.250000
2206		-25.390625
2207		-35.156250
2208		-29.296875
2209		-39.062500
2210		-31.250000
2211		-42.968750
2212		-35.156250
2213		-46.875000
2214		-39.062500
2215		-50.781250
2216		-42.968750
2217		-52.734375
2218		-44.921875
2219		-56.640625
2220		-48.828125
2221		-58.593750
2222		-52.734375
2223		-62.500000
2224		-58.593750
2225		-68.359375
2226		-60.546875
2227		-72.265625
2228		-62.500000
2229		-72.265625
2230		-66.406250
2231		-78.125000
2232		-68.359375
2233		-80.078125
2234		-72.265625
2235		-83.984375
2236		-74.218750
2237		-85.937500
2238		-78.125000
2239		-87.890625
2240		-83.984375
2241		-89.843750
2242		-85.937500
2243		-95.703125
2244		-87.890625
2245		-97.656250
2246		-91.796875
2247		-101.562500
2248		-93.750000
2249		-105.468750
2250		-95.703125
2251		-105.468750
2252		-97.656250
2253		-109.375000
2254		-101.562500
2255		-109.375000
2256		-105.468750
2257		-111.328125
2258		-107.421875
2259		-115.234375
2260		-109.375000
2261		-119.140625
2262		-111.328125
2263		-121.093750
2264		-113.281250
2265		-123.046875
2266		-115.234375
2267		-125.000000
2268		-117.187500
2269		-126.953125
2270		-121.093750
2271		-126.953125
2272		-121.093750
2273		-128.906250
2274		-125.000000
2275		-132.812500
2276		-126.953125
2277		-134.765625
2278		-126.953125
2279		-136.718750
2280		-128.906250
2281		-136.718750
2282		-130.859375
2283		-138.671875
2284		-132.812500
2285		-140.625000
2286		-132.812500
2287		-140.625000
2288		-134.765625
2289		-140.625000
2290		-136.718750
2291		-140.625000
2292		-138.671875
2293		-144.531250
2294		-138.671875
2295		-144.531250
2296		-138.671875
2297		-146.484375
2298		-138.671875
2299		-146.484375
2300		-140.625000
2301		-146.484375
2302		-140.625000
2303		-146.484375
2304		-140.625000
2305		-146.484375
2306		-140.625000
2307		-146.484375
2308		-144.531250
2309		-148.437500
2310		-142.578125
2311		-148.437500
2312		-142.578125
2313		-148.437500
2314		-142.578125
2315		-148.437500
2316		-140.625000
2317		-148.437500
2318		-140.625000
2319		-146.484375
2320		-140.625000
2321		-146.484375
2322		-140.625000
2323		-144.531250
2324		-142.578125
2325		-142.578125
2326		-140.625000
2327		-144.531250
2328		-138.671875
2329		-144.531250
2330		-138.671875
2331		-142.578125
2332		-136.718750
2333		-142.578125
2334		-134.765625
2335		-140.625000
2336		-134.765625
2337		-138.671875
2338		-132.812500
2339		-136.718750
2340		-132.812500
2341		-134.765625
2342		-132.812500
2343		-134.765625
2344		-128.906250
2345		-134.765625
2346		-126.953125
2347		-132.812500
2348		-125.000000
2349		-130.859375
2350		-123.046875
2351		-128.906250
2352		-121.093750
2353		-126.953125
2354		-119.140625
2355		-125.000000
2356		-119.140625
2357		-121.093750
2358		-117.187500
2359		-117.187500
2360		-113.281250
2361		-117.187500
2362		-109.375000
2363		-115.234375
2364		-107.421875
2365		-113.281250
2366		-105.468750
2367		-111.328125
2368		-103.515625
2369		-107.421875
2370		-99.609375
2371		-105.468750
2372		-97.656250
2373		-99.609375
2374		-95.703125
2375		-97.656250
2376		-93.750000
2377		-95.703125
2378		-89.843750
2379		-93.750000
2380		-85.937500
2381		-91.796875
2382		-82.031250
2383		-87.890625
2384		-78.125000
2385		-83.984375
2386		-76.171875
2387		-80.078125
2388		-72.265625
2389		-78.125000
2390		-70.312500
2391		-72.265625
2392		-68.359375
2393		-68.359375
2394		-62.500000
2395		-66.406250
2396		-58.593750
2397		-64.453125
2398		-54.687500
2399		-60.546875
2400		-52.734375
2401		-56.640625
2402		-48.828125
2403		-52.734375
2404		-44.921875
2405		-48.828125
2406		-42.968750
2407		-44.921875
2408		-39.062500
2409		-41.015625
2410		-35.156250
2411		-39.062500
2412		-31.250000
2413		-35.156250
2414		-27.343750
2415		-33.203125
2416		-23.437500
2417		-27.343750
2418		-19.531250
2419		-25.390625
2420		-15.625000
2421		-21.484375
2422		-11.718750
2423		-15.625000
2424		-9.765625
2425		-11.718750
2426		-5.859375
2427		-7.812500
2428		-1.953125
2429		-5.859375
2430		1.953125
2431		-1.953125
2432		5.859375
2433		1.953125
2434		9.765625
2435		5.859375
2436		13.671875
2437		9.765625
2438		17.578125
2439		11.718750
2440		19.531250
2441		17.578125
2442		23.437500
2443		21.484375
2444		27.343750
2445		23.437500
2446		31.250000
2447		27.343750
2448		35.156250
2449		29.296875
2450		39.062500
2451		33.203125
2452		42.968750
2453		37.109375
2454		44.921875
2455		41.015625
2456		48.828125
2457		46.875000
2458		50.781250
2459		48.828125
2460		54.687500
2461		52.734375
2462		58.593750
2463		54.687500
2464		62.500000
2465		56.640625
2466		66.406250
2467		60.546875
2468		70.312500
2469		64.453125
2470		72.265625
2471		68.359375
2472		76.171875
2473		72.265625
2474		76.171875
2475		74.218750
2476		80.078125
2477		78.125000
2478		83.984375
2479		80.078125
2480		87.890625
2481		82.031250
2482		89.843750
2483		83.984375
2484		93.750000
2485		87.890625
2486		95.703125
2487		89.843750
2488		97.656250
2489		91.796875
2490		99.609375
2491		97.656250
2492		101.562500
2493		99.609375
2494		103.515625
2495		101.562500
2496		109.375000
2497		103.515625
2498		111.328125
2499		105.468750
2500		113.281250
2501		107.421875
2502		115.234375
2503		111.328125
2504		117.187500
2505		113.281250
2506		119.140625
2507		115.234375
2508		119.140625
2509		117.187500
2510		121.093750
2511		119.140625
2512		125.000000
2513		119.140625
2514		126.953125
2515		121.093750
2516		128.906250
2517		125.000000
2518		130.859375
2519		125.000000
2520		132.812500
2521		126.953125
2522		134.765625
2523		128.906250
2524		134.765625
2525		132.812500
2526		134.765625
2527		132.812500
2528		138.671875
2529		132.812500
2530		140.625000
2531		134.765625
2532		140.625000
2533		134.765625
2534		142.578125
2535		136.718750
2536		144.531250
2537		136.718750
2538		144.531250
2539		140.625000
2540		146.484375
2541		142.578125
2542		144.531250
2543		142.578125
2544		144.531250
2545		142.578125
2546		148.437500
2547		142.578125
2548		148.437500
2549		142.578125
2550		150.390625
2551		144.531250
2552		150.390625
2553		144.531250
2554		150.390625
2555		144.531250
2556		150.390625
2557		146.484375
2558		152.343750
2559		148.437500
2560		150.390625
2561		146.484375
2562		152.343750
2563		146.484375
2564		152.343750
2565		146.484375
2566		152.343750
2567		146.484375
2568		152.343750
2569		146.484375
2570		152.343750
2571		146.484375
2572		152.343750
2573		146.484375
2574		152.343750
2575		148.437500
2576		150.390625
2577		148.437500
2578		150.390625
2579		144.531250
2580		152.343750
2581		144.531250
2582		150.390625
2583		144.531250
2584		150.390625
2585		144.531250
2586		150.390625
2587		142.578125
2588		150.390625
2589		142.578125
2590		148.437500
2591		142.578125
2592		146.484375
2593		142.578125
2594		146.484375
2595		140.625000
2596		146.484375
2597		138.671875
2598		146.484375
2599		138.671875
2600		144.531250
2601		136.718750
2602		142.578125
2603		134.765625
2604		142.578125
2605		134.765625
2606		140.625000
2607		134.765625
2608		140.625000
2609		132.812500
2610		136.718750
2611		130.859375
2612		134.765625
2613		128.906250
2614		134.765625
2615		126.953125
2616		132.812500
2617		125.000000
2618		132.812500
2619		123.046875
2620		130.859375
2621		121.093750
2622		128.906250
2623		119.140625
2624		126.953125
2625		119.140625
2626		123.046875
2627		117.187500
2628		121.093750
2629		113.281250
2630		119.140625
2631		111.328125
2632		117.187500
2633		109.375000
2634		117.187500
2635		105.468750
2636		113.281250
2637		103.515625
2638		111.328125
2639		101.562500
2640		109.375000
2641		99.609375
2642		105.468750
2643		97.656250
2644		101.562500
2645		93.750000
2646		99.609375
2647		89.843750
2648		97.656250
2649		87.890625
2650		95.703125
2651		85.937500
2652		93.750000
2653		82.031250
2654		89.843750
2655		78.125000
2656		85.937500
2657		76.171875
2658		83.984375
2659		74.218750
2660		80.078125
2661		72.265625
2662		76.171875
2663		66.406250
2664		74.218750
2665		62.500000
2666		72.265625
2667		60.546875
2668		68.359375
2669		56.640625
2670		64.453125
2671		54.687500
2672		60.546875
2673		50.781250
2674		58.593750
2675		48.828125
2676		54.687500
2677		44.921875
2678		50.781250
2679		39.062500
2680		46.875000
2681		37.109375
2682		44.921875
2683		31.250000
2684		41.015625
2685		29.296875
2686		37.109375
2687		25.390625
2688		35.156250
2689		21.484375
2690		31.250000
2691		19.531250
2692		25.390625
2693		15.625000
2694		21.484375
2695		11.718750
2696		17.578125
2697		5.859375
2698		15.625000
2699		3.906250
2700		11.718750
2701		0.000000
2702		7.812500
2703		-3.906250
2704		3.906250
2705		-7.812500
2706		1.953125
2707		-9.765625
2708		-3.906250
2709		-13.671875
2710		-7.812500
2711		-17.578125
2712		-11.718750
2713		-23.437500
2714		-15.625000
2715		-25.390625
2716		-17.578125
2717		-29.296875
2718		-21.484375
2719		-33.203125
2720		-25.390625
2721		-37.109375
2722		-29.296875
2723		-41.015625
2724		-33.203125
2725		-42.968750
2726		-35.156250
2727		-46.875000
2728		-41.015625
2729		-50.781250
2730		-44.921875
2731		-56.640625
2732		-46.875000
2733		-58.593750
2734		-50.781250
2735		-62.500000
2736		-54.687500
2737		-66.406250
2738		-56.640625
2739		-68.359375
2740		-60.546875
2741		-70.312500
2742		-64.453125
2743		-74.218750
2744		-68.359375
2745		-76.171875
2746		-72.265625
2747		-80.078125
2748		-74.218750
2749		-85.937500
2750		-76.171875
2751		-87.890625
2752		-80.078125
2753		-91.796875
2754		-83.984375
2755		-93.750000
2756		-85.937500
2757		-95.703125
2758		-89.843750
2759		-97.656250
2760		-93.750000
2761		-99.609375
2762		-95.703125
2763		-105.468750
2764		-99.609375
2765		-107.421875
2766		-99.609375
2767		-111.328125
2768		-101.562500
2769		-113.281250
2770		-105.468750
2771		-115.234375
2772		-107.421875
2773		-119.140625
2774		-109.375000
2775		-119.140625
2776		-113.281250
2777		-119.140625
2778		-117.187500
2779		-123.046875
2780		-117.187500
2781		-126.953125
2782		-119.140625
2783		-126.953125
2784		-121.093750
2785		-130.859375
2786		-123.046875
2787		-132.812500
2788		-125.000000
2789		-132.812500
2790		-125.000000
2791		-136.718750
2792		-128.906250
2793		-134.765625
2794		-130.859375
2795		-136.718750
2796		-132.812500
2797		-138.671875
2798		-132.812500
2799		-140.625000
2800		-134.765625
2801		-140.625000
2802		-134.765625
2803		-142.578125
2804		-136.718750
2805		-144.531250
2806		-136.718750
2807		-144.531250
2808		-138.671875
2809		-144.531250
2810		-138.671875
2811		-144.531250
2812		-142.578125
2813		-148.437500
2814		-140.625000
2815		-146.484375
2816		-140.625000
2817		-148.437500
2818		-140.625000
2819		-148.437500
2820		-142.578125
2821		-148.437500
2822		-142.578125
2823		-148.437500
2824		-140.625000
2825		-146.484375
2826		-142.578125
2827		-146.484375
2828		-144.531250
2829		-146.484375
2830		-144.531250
2831		-148.437500
2832		-140.625000
2833		-146.484375
2834		-140.625000
2835		-146.484375
2836		-140.625000
2837		-146.484375
2838		-140.625000
2839		-144.531250
2840		-138.671875
2841		-144.531250
2842		-138.671875
2843		-142.578125
2844		-138.671875
2845		-140.625000
2846		-138.671875
2847		-140.625000
2848		-134.765625
2849		-142.578125
2850		-134.765625
2851		-136.718750
2852		-132.812500
2853		-138.671875
2854		-130.859375
2855		-136.718750
2856		-130.859375
2857		-134.765625
2858		-126.953125
2859		-132.812500
2860		-126.953125
2861		-128.906250
2862		-126.953125
2863		-126.953125
2864		-123.046875
2865		-126.953125
2866		-119.140625
2867		-125.000000
2868		-119.140625
2869		-123.046875
2870		-115.234375
2871		-121.093750
2872		-113.281250
2873		-121.093750
2874		-111.328125
2875		-117.187500
2876		-109.375000
2877		-111.328125
2878		-107.421875
2879		-109.375000
2880		-105.468750
2881		-109.375000
2882		-101.562500
2883		-105.468750
2884		-97.656250
2885		-103.515625
2886		-95.703125
2887		-101.562500
2888		-93.750000
2889		-97.656250
2890		-89.843750
2891		-95.703125
2892		-87.890625
2893		-91.796875
2894		-83.984375
2895		-87.890625
2896		-82.031250
2897		-83.984375
2898		-78.125000
2899		-83.984375
2900		-74.218750
2901		-78.125000
2902		-70.312500
2903		-76.171875
2904		-68.359375
2905		-72.265625
2906		-66.406250
2907		-70.312500
2908		-62.500000
2909		-66.406250
2910		-58.593750
2911		-60.546875
2912		-56.640625
2913		-56.640625
2914		-52.734375
2915		-54.687500
2916		-46.875000
2917		-52.734375
2918		-44.921875
2919		-46.875000
2920		-41.015625
2921		-44.921875
2922		-35.156250
2923		-41.015625
2924		-33.203125
2925		-37.109375
2926		-29.296875
2927		-35.156250
2928		-27.343750
2929		-29.296875
2930		-21.484375
2931		-25.390625
2932		-17.578125
2933		-21.484375
2934		-13.671875
2935		-19.531250
2936		-9.765625
2937		-13.671875
2938		-7.812500
2939		-11.718750
2940		-3.906250
2941		-7.812500
2942		0.000000
2943		-5.859375
2944		1.953125
2945		1.953125
2946		5.859375
2947		5.859375
2948		11.718750
2949		7.812500
2950		15.625000
2951		9.765625
2952		17.578125
2953		13.671875
2954		21.484375
2955		19.531250
2956		25.390625
2957		21.484375
2958		29.296875
2959		25.390625
2960		33.203125
2961		29.296875
2962		35.156250
2963		33.203125
2964		39.062500
2965		35.156250
2966		42.968750
2967		39.062500
2968		46.875000
2969		42.968750
2970		50.781250
2971		44.921875
2972		52.734375
2973		50.781250
2974		56.640625
2975		50.781250
2976		60.546875
2977		56.640625
2978		62.500000
2979		60.546875
2980		64.453125
2981		62.500000
2982		70.312500
2983		64.453125
2984		72.265625
2985		68.359375
2986		76.171875
2987		70.312500
2988		80.078125
2989		74.218750
2990		82.031250
2991		78.125000
2992		85.937500
2993		80.078125
2994		87.890625
2995		85.937500
2996		89.843750
2997		87.890625
2998		91.796875
2999		89.843750
3000		95.703125
3001		91.796875
3002		99.609375
3003		93.750000
3004		101.562500
3005		97.656250
3006		103.515625
3007		97.656250
3008		105.468750
3009		101.562500
3010		109.375000
3011		103.515625
3012		109.375000
3013		107.421875
3014		111.328125
3015		109.375000
3016		115.234375
3017		111.328125
3018		117.187500
3019		113.281250
3020		119.140625
3021		115.234375
3022		123.046875
3023		117.187500
3024		123.046875
3025		119.140625
3026		125.000000
3027		121.093750
3028		126.953125
3029		125.000000
3030		126.953125
3031		126.953125
3032		130.859375
3033		125.000000
3034		132.812500
3035		128.906250
3036		134.765625
3037		128.906250
3038		136.718750
3039		130.859375
3040		138.671875
3041		132.812500
3042		138.671875
3043		132.812500
3044		140.625000
3045		134.765625
3046		140.625000
3047		138.671875
3048		140.625000
3049		136.718750
3050		144.531250
3051		138.671875
3052		144.531250
3053		140.625000
3054		146.484375
3055		140.625000
3056		146.484375
3057		140.625000
3058		148.437500
3059		142.578125
3060		148.437500
3061		142.578125
3062		148.437500
3063		144.531250
3064		148.437500
3065		146.484375
3066		148.437500
3067		144.531250
3068		150.390625
3069		144.531250
3070		150.390625
3071		146.484375
3072		152.343750
3073		146.484375
3074		152.343750
3075		146.484375
3076		152.343750
3077		146.484375
3078		152.343750
3079		148.437500
3080		150.390625
3081		148.437500
3082		150.390625
3083		146.484375
3084		152.343750
3085		146.484375
3086		152.343750
3087		146.484375
3088		152.343750
3089		146.484375
3090		152.343750
3091		144.531250
3092		152.343750
3093		146.484375
3094		152.343750
3095		146.484375
3096		150.390625
3097		146.484375
3098		148.437500
3099		142.578125
3100		150.390625
3101		142.578125
3102		150.390625
3103		142.578125
3104		148.437500
3105		140.625000
3106		148.437500
3107		140.625000
3108		146.484375
3109		138.671875
3110		146.484375
3111		140.625000
3112		146.484375
3113		138.671875
3114		142.578125
3115		138.671875
3116		140.625000
3117		134.765625
3118		142.578125
3119		134.765625
3120		140.625000
3121		132.812500
3122		138.671875
3123		130.859375
3124		138.671875
3125		128.906250
3126		136.718750
3127		126.953125
3128		134.765625
3129		128.906250
3130		132.812500
3131		126.953125
3132		128.906250
3133		123.046875
3134		128.906250
3135		121.093750
3136		126.953125
3137		119.140625
3138		126.953125
3139		117.187500
3140		123.046875
3141		115.234375
3142		123.046875
3143		113.281250
3144		119.140625
3145		111.328125
3146		117.187500
3147		109.375000
3148		113.281250
3149		105.468750
3150		111.328125
3151		103.515625
3152		111.328125
3153		99.609375
3154		107.421875
3155		99.609375
3156		105.468750
3157		95.703125
3158		103.515625
3159		93.750000
3160		99.609375
3161		89.843750
3162		97.656250
3163		89.843750
3164		93.750000
3165		85.937500
3166		89.843750
3167		82.031250
3168		87.890625
3169		78.125000
3170		87.890625
3171		74.218750
3172		83.984375
3173		74.218750
3174		80.078125
3175		68.359375
3176		78.125000
3177		66.406250
3178		74.218750
3179		64.453125
3180		70.312500
3181		60.546875
3182		66.406250
3183		56.640625
3184		62.500000
3185		52.734375
3186		60.546875
3187		48.828125
3188		56.640625
3189		44.921875
3190		54.687500
3191		42.968750
3192		50.781250
3193		39.062500
3194		46.875000
3195		37.109375
3196		42.968750
3197		33.203125
3198		39.062500
3199		29.296875
3200		35.156250
3201		25.390625
3202		33.203125
3203		21.484375
3204		29.296875
3205		17.578125
3206		25.390625
3207		13.671875
3208		21.484375
3209		11.718750
3210		17.578125
3211		7.812500
3212		13.671875
3213		3.906250
3214		9.765625
3215		0.000000
3216		5.859375
3217		-3.906250
3218		1.953125
3219		-9.765625
3220		0.000000
3221		-11.718750
3222		-3.906250
3223		-15.625000
3224		-7.812500
3225		-19.531250
3226		-11.718750
3227		-23.437500
3228		-15.625000
3229		-25.390625
3230		-17.578125
3231		-29.296875
3232		-23.437500
3233		-33.203125
3234		-27.343750
3235		-37.109375
3236		-29.296875
3237		-41.015625
3238		-33.203125
3239		-44.921875
3240		-37.109375
3241		-48.828125
3242		-39.062500
3243		-52.734375
3244		-42.968750
3245		-54.687500
3246		-46.875000
3247		-56.640625
3248		-52.734375
3249		-60.546875
3250		-54.687500
3251		-66.406250
3252		-58.593750
3253		-68.359375
3254		-60.546875
3255		-72.265625
3256		-64.453125
3257		-76.171875
3258		-66.406250
3259		-78.125000
3260		-70.312500
3261		-82.031250
3262		-74.218750
3263		-83.984375
3264		-76.171875
3265		-85.937500
3266		-82.031250
3267		-91.796875
3268		-83.984375
3269		-93.750000
3270		-85.937500
3271		-97.656250
3272		-87.890625
3273		-99.609375
3274		-91.796875
3275		-101.562500
3276		-95.703125
3277		-105.468750
3278		-97.656250
3279		-107.421875
3280		-99.609375
3281		-107.421875
3282		-103.515625
3283		-111.328125
3284		-107.421875
3285		-115.234375
3286		-107.421875
3287		-117.187500
3288		-109.375000
3289		-119.140625
3290		-113.281250
3291		-121.093750
3292		-115.234375
3293		-125.000000
3294		-117.187500
3295		-126.953125
3296		-119.140625
3297		-125.000000
3298		-121.093750
3299		-126.953125
3300		-125.000000
3301		-130.859375
3302		-125.000000
3303		-132.812500
3304		-126.953125
3305		-134.765625
3306		-126.953125
3307		-136.718750
3308		-128.906250
3309		-138.671875
3310		-130.859375
3311		-138.671875
3312		-132.812500
3313		-138.671875
3314		-132.812500
3315		-138.671875
3316		-136.718750
3317		-140.625000
3318		-136.718750
3319		-142.578125
3320		-136.718750
3321		-142.578125
3322		-138.671875
3323		-144.531250
3324		-138.671875
3325		-144.531250
3326		-138.671875
3327		-146.484375
3328		-140.625000
3329		-146.484375
3330		-138.671875
3331		-144.531250
3332		-142.578125
3333		-144.531250
3334		-142.578125
3335		-146.484375
3336		-140.625000
3337		-146.484375
3338		-140.625000
3339		-146.484375
3340		-140.625000
3341		-146.484375
3342		-140.625000
3343		-146.484375
3344		-140.625000
3345		-146.484375
3346		-140.625000
3347		-146.484375
3348		-140.625000
3349		-142.578125
3350		-140.625000
3351		-142.578125
3352		-138.671875
3353		-144.531250
3354		-136.718750
3355		-142.578125
3356		-136.718750
3357		-142.578125
3358		-134.765625
3359		-140.625000
3360		-132.812500
3361		-140.625000
3362		-132.812500
3363		-138.671875
3364		-130.859375
3365		-134.765625
3366		-132.812500
3367		-134.765625
3368		-130.859375
3369		-132.812500
3370		-126.953125
3371		-132.812500
3372		-126.953125
3373		-130.859375
3374		-123.046875
3375		-128.906250
3376		-121.093750
3377		-126.953125
3378		-119.140625
3379		-125.000000
3380		-117.187500
3381		-123.046875
3382		-117.187500
3383		-119.140625
3384		-115.234375
3385		-117.187500
3386		-111.328125
3387		-117.187500
3388		-109.375000
3389		-113.281250
3390		-107.421875
3391		-111.328125
3392		-103.515625
3393		-107.421875
3394		-101.562500
3395		-105.468750
3396		-97.656250
3397		-103.515625
3398		-97.656250
3399		-99.609375
3400		-95.703125
3401		-95.703125
3402		-91.796875
3403		-95.703125
3404		-87.890625
3405		-91.796875
3406		-83.984375
3407		-87.890625
3408		-80.078125
3409		-85.937500
3410		-78.125000
3411		-83.984375
3412		-74.218750
3413		-80.078125
3414		-72.265625
3415		-74.218750
3416		-70.312500
3417		-70.312500
3418		-66.406250
3419		-68.359375
3420		-60.546875
3421		-64.453125
3422		-58.593750
3423		-64.453125
3424		-54.687500
3425		-58.593750
3426		-50.781250
3427		-56.640625
3428		-46.875000
3429		-52.734375
3430		-42.968750
3431		-48.828125
3432		-42.968750
3433		-42.968750
3434		-39.062500
3435		-39.062500
3436		-33.203125
3437		-37.109375
3438		-29.296875
3439		-35.156250
3440		-25.390625
3441		-29.296875
3442		-21.484375
3443		-27.343750
3444		-17.578125
3445		-23.437500
3446		-15.625000
3447		-19.531250
3448		-11.718750
3449		-13.671875
3450		-9.765625
3451		-9.765625
3452		-5.859375
3453		-7.812500
3454		0.000000
3455		-5.859375
3456		3.906250
3457		0.000000
3458		7.812500
3459		1.953125
3460		11.718750
3461		7.812500
3462		13.671875
3463		9.765625
3464		19.531250
3465		15.625000
3466		19.531250
3467		19.531250
3468		23.437500
3469		23.437500
3470		29.296875
3471		23.437500
3472		33.203125
3473		29.296875
3474		35.156250
3475		31.250000
3476		41.015625
3477		35.156250
3478		42.968750
3479		39.062500
3480		46.875000
3481		41.015625
3482		48.828125
3483		46.875000
3484		52.734375
3485		50.781250
3486		54.687500
3487		52.734375
3488		60.546875
3489		56.640625
3490		62.500000
3491		58.593750
3492		66.406250
3493		62.500000
3494		70.312500
3495		64.453125
3496		74.218750
3497		68.359375
3498		76.171875
3499		72.265625
3500		78.125000
3501		76.171875
3502		80.078125
3503		78.125000
3504		85.937500
3505		80.078125
3506		87.890625
3507		82.031250
3508		91.796875
3509		85.937500
3510		93.750000
3511		87.890625
3512		97.656250
3513		91.796875
3514		99.609375
3515		93.750000
3516		99.609375
3517		97.656250
3518		103.515625
3519		99.609375
3520		105.468750
3521		101.562500
3522		107.421875
3523		103.515625
3524		111.328125
3525		105.468750
3526		113.281250
3527		107.421875
3528		115.234375
3529		109.375000
3530		117.187500
3531		113.281250
3532		119.140625
3533		117.187500
3534		121.093750
3535		119.140625
3536		123.046875
3537		119.140625
3538		125.000000
3539		121.093750
3540		128.906250
3541		123.046875
3542		128.906250
3543		125.000000
3544		130.859375
3545		126.953125
3546		132.812500
3547		126.953125
3548		134.765625
3549		128.906250
3550		134.765625
3551		132.812500
3552		136.718750
3553		132.812500
3554		138.671875
3555		132.812500
3556		140.625000
3557		134.765625
3558		140.625000
3559		136.718750
3560		142.578125
3561		136.718750
3562		144.531250
3563		138.671875
3564		144.531250
3565		138.671875
3566		146.484375
3567		142.578125
3568		144.531250
3569		142.578125
3570		146.484375
3571		142.578125
3572		150.390625
3573		142.578125
3574		148.437500
3575		142.578125
3576		150.390625
3577		144.531250
3578		150.390625
3579		144.531250
3580		150.390625
3581		144.531250
3582		152.343750
3583		146.484375
3584		150.390625
3585		148.437500
3586		150.390625
3587		146.484375
3588		152.343750
3589		146.484375
3590		152.343750
3591		146.484375
3592		152.343750
3593		146.484375
3594		152.343750
3595		146.484375
3596		152.343750
3597		146.484375
3598		152.343750
3599		146.484375
3600		152.343750
3601		148.437500
3602		150.390625
3603		148.437500
3604		152.343750
3605		146.484375
3606		152.343750
3607		144.531250
3608		152.343750
3609		144.531250
3610		150.390625
3611		144.531250
3612		150.390625
3613		144.531250
3614		150.390625
3615		142.578125
3616		150.390625
3617		144.531250
3618		146.484375
3619		142.578125
3620		146.484375
3621		140.625000
3622		146.484375
3623		138.671875
3624		146.484375
3625		138.671875
3626		144.531250
3627		136.718750
3628		144.531250
3629		136.718750
3630		142.578125
3631		134.765625
3632		142.578125
3633		134.765625
3634		140.625000
3635		134.765625
3636		136.718750
3637		130.859375
3638		136.718750
3639		128.906250
3640		136.718750
3641		126.953125
3642		134.765625
3643		125.000000
3644		132.812500
3645		123.046875
3646		130.859375
3647		121.093750
3648		128.906250
3649		121.093750
3650		126.953125
3651		121.093750
3652		123.046875
3653		119.140625
3654		121.093750
3655		113.281250
3656		121.093750
3657		111.328125
3658		119.140625
3659		109.375000
3660		117.187500
3661		107.421875
3662		115.234375
3663		105.468750
3664		113.281250
3665		101.562500
3666		109.375000
3667		101.562500
3668		107.421875
3669		99.609375
3670		103.515625
3671		95.703125
3672		101.562500
3673		91.796875
3674		99.609375
3675		89.843750
3676		97.656250
3677		85.937500
3678		93.750000
3679		83.984375
3680		91.796875
3681		80.078125
3682		89.843750
3683		80.078125
3684		85.937500
3685		76.171875
3686		80.078125
3687		72.265625
3688		78.125000
3689		68.359375
3690		76.171875
3691		64.453125
3692		72.265625
3693		62.500000
3694		70.312500
3695		58.593750
3696		66.406250
3697		54.687500
3698		64.453125
3699		52.734375
3700		60.546875
3701		50.781250
3702		54.687500
3703		46.875000
3704		50.781250
3705		41.015625
3706		48.828125
3707		39.062500
3708		46.875000
3709		35.156250
3710		42.968750
3711		31.250000
3712		39.062500
3713		27.343750
3714		35.156250
3715		23.437500
3716		31.250000
3717		21.484375
3718		29.296875
3719		17.578125
3720		23.437500
3721		13.671875
3722		19.531250
3723		9.765625
3724		17.578125
3725		3.906250
3726		15.625000
3727		1.953125
3728		9.765625
3729		-1.953125
3730		7.812500
3731		-5.859375
3732		1.953125
3733		-7.812500
3734		0.000000
3735		-11.718750
3736		-5.859375
3737		-15.625000
3738		-9.765625
3739		-19.531250
3740		-11.718750
3741		-23.437500
3742		-15.625000
3743		-27.343750
3744		-19.531250
3745		-31.250000
3746		-23.437500
3747		-35.156250
3748		-25.390625
3749		-39.062500
3750		-31.250000
3751		-41.015625
3752		-33.203125
3753		-44.921875
3754		-39.062500
3755		-48.828125
3756		-42.968750
3757		-52.734375
3758		-44.921875
3759		-56.640625
3760		-46.875000
3761		-58.593750
3762		-50.781250
3763		-64.453125
3764		-54.687500
3765		-66.406250
3766		-58.593750
3767		-68.359375
3768		-62.500000
3769		-70.312500
3770		-66.406250
3771		-76.171875
3772		-70.312500
3773		-80.078125
3774		-70.312500
3775		-82.031250
3776		-74.218750
3777		-85.937500
3778		-78.125000
3779		-89.843750
3780		-82.031250
3781		-91.796875
3782		-83.984375
3783		-93.750000
3784		-85.937500
3785		-95.703125
3786		-91.796875
3787		-97.656250
3788		-93.750000
3789		-103.515625
3790		-95.703125
3791		-105.468750
3792		-97.656250
3793		-107.421875
3794		-99.609375
3795		-111.328125
3796		-103.515625
3797		-113.281250
3798		-105.468750
3799		-115.234375
3800		-107.421875
3801		-117.187500
3802		-109.375000
3803		-117.187500
3804		-115.234375
3805		-123.046875
3806		-115.234375
3807		-125.000000
3808		-117.187500
3809		-126.953125
3810		-119.140625
3811		-126.953125
3812		-121.093750
3813		-130.859375
3814		-123.046875
3815		-130.859375
3816		-125.000000
3817		-132.812500
3818		-126.953125
3819		-132.812500
3820		-128.906250
3821		-134.765625
3822		-130.859375
3823		-136.718750
3824		-130.859375
3825		-138.671875
3826		-132.812500
3827		-140.625000
3828		-132.812500
3829		-140.625000
3830		-134.765625
3831		-142.578125
3832		-134.765625
3833		-142.578125
3834		-136.718750
3835		-142.578125
3836		-138.671875
3837		-142.578125
3838		-140.625000
3839		-144.531250
3840		-138.671875
3841		-146.484375
3842		-138.671875
3843		-146.484375
3844		-140.625000
3845		-146.484375
3846		-140.625000
3847		-146.484375
3848		-140.625000
3849		-146.484375
3850		-140.625000
3851		-146.484375
3852		-140.625000
3853		-144.531250
3854		-142.578125
3855		-146.484375
3856		-140.625000
3857		-146.484375
3858		-140.625000
3859		-146.484375
3860		-140.625000
3861		-144.531250
3862		-138.671875
3863		-144.531250
3864		-138.671875
3865		-144.531250
3866		-136.718750
3867		-144.531250
3868		-136.718750
3869		-140.625000
3870		-138.671875
3871		-138.671875
3872		-136.718750
3873		-140.625000
3874		-132.812500
3875		-138.671875
3876		-132.812500
3877		-138.671875
3878		-130.859375
3879		-136.718750
3880		-128.906250
3881		-134.765625
3882		-128.906250
3883		-132.812500
3884		-126.953125
3885		-132.812500
3886		-125.000000
3887		-128.906250
3888		-125.000000
3889		-126.953125
3890		-121.093750
3891		-126.953125
3892		-119.140625
3893		-125.000000
3894		-117.187500
3895		-121.093750
3896		-115.234375
3897		-121.093750
3898		-113.281250
3899		-117.187500
3900		-111.328125
3901		-115.234375
3902		-109.375000
3903		-111.328125
3904		-107.421875
3905		-109.375000
3906		-105.468750
3907		-107.421875
3908		-99.609375
3909		-105.468750
3910		-97.656250
3911		-103.515625
3912		-95.703125
3913		-101.562500
3914		-91.796875
3915		-95.703125
3916		-89.843750
3917		-95.703125
3918		-85.937500
3919		-89.843750
3920		-83.984375
3921		-85.937500
3922		-82.031250
3923		-83.984375
3924		-76.171875
3925		-82.031250
3926		-74.218750
3927		-78.125000
3928		-70.312500
3929		-76.171875
3930		-66.406250
3931		-72.265625
3932		-64.453125
3933		-70.312500
3934		-60.546875
3935		-64.453125
3936		-58.593750
3937		-60.546875
3938		-54.687500
3939		-56.640625
3940		-50.781250
3941		-54.687500
3942		-46.875000
3943		-50.781250
3944		-42.968750
3945		-46.875000
3946		-39.062500
3947		-44.921875
3948		-35.156250
3949		-41.015625
3950		-33.203125
3951		-37.109375
3952		-27.343750
3953		-31.250000
3954		-25.390625
3955		-27.343750
3956		-23.437500
3957		-25.390625
3958		-17.578125
3959		-21.484375
3960		-13.671875
3961		-19.531250
3962		-9.765625
3963		-13.671875
3964		-5.859375
3965		-11.718750
3966		-1.953125
3967		-7.812500
3968		1.953125
3969		-3.906250
3970		3.906250
3971		1.953125
3972		7.812500
3973		5.859375
3974		11.718750
3975		7.812500
3976		15.625000
3977		9.765625
3978		19.531250
3979		15.625000
3980		23.437500
3981		17.578125
3982		27.343750
3983		23.437500
3984		29.296875
3985		25.390625
3986		33.203125
3987		31.250000
3988		37.109375
3989		35.156250
3990		39.062500
3991		37.109375
3992		42.968750
3993		39.062500
3994		48.828125
3995		42.968750
3996		50.781250
3997		46.875000
3998		54.687500
3999		50.781250
4000		58.593750
4001		52.734375
4002		62.500000
4003		58.593750
4004		62.500000
4005		62.500000
4006		66.406250
4007		64.453125
4008		70.312500
4009		66.406250
4010		74.218750
4011		70.312500
4012		76.171875
4013		72.265625
4014		80.078125
4015		76.171875
4016		82.031250
4017		78.125000
4018		85.937500
4019		82.031250
4020		87.890625
4021		85.937500
4022		89.843750
4023		87.890625
4024		93.750000
4025		89.843750
4026		97.656250
4027		91.796875
4028		99.609375
4029		95.703125
4030		103.515625
4031		97.656250
4032		105.468750
4033		99.609375
4034		107.421875
4035		103.515625
4036		109.375000
4037		107.421875
4038		111.328125
4039		109.375000
4040		113.281250
4041		111.328125
4042		117.187500
4043		113.281250
4044		119.140625
4045		115.234375
4046		121.093750
4047		117.187500
4048		123.046875
4049		119.140625
4050		125.000000
4051		121.093750
4052		126.953125
4053		123.046875
4054		126.953125
4055		125.000000
4056		128.906250
4057		126.953125
4058		132.812500
4059		126.953125
4060		134.765625
4061		128.906250
4062		134.765625
4063		130.859375
4064		136.718750
4065		130.859375
4066		138.671875
4067		134.765625
4068		140.625000
4069		134.765625
4070		140.625000
4071		138.671875
4072		140.625000
4073		138.671875
4074		142.578125
4075		138.671875
4076		144.531250
4077		138.671875
4078		146.484375
4079		140.625000
4080		146.484375
4081		142.578125
4082		148.437500
4083		142.578125
4084		148.437500
4085		144.531250
4086		150.390625
4087		144.531250
4088		150.390625
4089		146.484375
4090		148.437500
4091		144.531250
4092		152.343750
4093		146.484375
4094		152.343750
4095		146.484375
4096		152.343750
4097		146.484375
4098		154.296875
4099		146.484375
4100		154.296875
4101		148.437500
4102		154.296875
4103		148.437500
4104		154.296875
4105		150.390625
4106		152.343750
4107		150.390625
4108		152.343750
4109		148.437500
4110		154.296875
4111		148.437500
4112		154.296875
4113		148.437500
4114		154.296875
4115		146.484375
4116		154.296875
4117		146.484375
4118		154.296875
4119		146.484375
4120		152.343750
4121		148.437500
4122		150.390625
4123		148.437500
4124		150.390625
4125		144.531250
4126		152.343750
4127		144.531250
4128		150.390625
4129		144.531250
4130		150.390625
4131		142.578125
4132		150.390625
4133		142.578125
4134		150.390625
4135		140.625000
4136		148.437500
4137		140.625000
4138		146.484375
4139		140.625000
4140		144.531250
4141		138.671875
4142		144.531250
4143		136.718750
4144		144.531250
4145		134.765625
4146		142.578125
4147		134.765625
4148		140.625000
4149		130.859375
4150		140.625000
4151		132.812500
4152		138.671875
4153		128.906250
4154		136.718750
4155		130.859375
4156		132.812500
4157		128.906250
4158		130.859375
4159		125.000000
4160		132.812500
4161		123.046875
4162		130.859375
4163		121.093750
4164		128.906250
4165		119.140625
4166		125.000000
4167		117.187500
4168		125.000000
4169		115.234375
4170		123.046875
4171		113.281250
4172		119.140625
4173		111.328125
4174		115.234375
4175		107.421875
4176		115.234375
4177		105.468750
4178		113.281250
4179		103.515625
4180		111.328125
4181		99.609375
4182		107.421875
4183		99.609375
4184		105.468750
4185		95.703125
4186		103.515625
4187		93.750000
4188		99.609375
4189		91.796875
4190		95.703125
4191		87.890625
4192		93.750000
4193		83.984375
4194		91.796875
4195		82.031250
4196		89.843750
4197		78.125000
4198		85.937500
4199		76.171875
4200		82.031250
4201		72.265625
4202		80.078125
4203		68.359375
4204		76.171875
4205		68.359375
4206		72.265625
4207		64.453125
4208		68.359375
4209		58.593750
4210		66.406250
4211		54.687500
4212		62.500000
4213		54.687500
4214		60.546875
4215		48.828125
4216		56.640625
4217		44.921875
4218		54.687500
4219		42.968750
4220		50.781250
4221		41.015625
4222		46.875000
4223		37.109375
4224		41.015625
4225		31.250000
4226		37.109375
4227		29.296875
4228		37.109375
4229		23.437500
4230		33.203125
4231		21.484375
4232		29.296875
4233		17.578125
4234		25.390625
4235		13.671875
4236		23.437500
4237		9.765625
4238		17.578125
4239		7.812500
4240		13.671875
4241		3.906250
4242		9.765625
4243		-1.953125
4244		5.859375
4245		-5.859375
4246		3.906250
4247		-9.765625
4248		0.000000
4249		-11.718750
4250		-3.906250
4251		-15.625000
4252		-7.812500
4253		-19.531250
4254		-11.718750
4255		-21.484375
4256		-13.671875
4257		-25.390625
4258		-19.531250
4259		-31.250000
4260		-23.437500
4261		-35.156250
4262		-25.390625
4263		-37.109375
4264		-29.296875
4265		-41.015625
4266		-33.203125
4267		-42.968750
4268		-37.109375
4269		-48.828125
4270		-39.062500
4271		-50.781250
4272		-42.968750
4273		-52.734375
4274		-48.828125
4275		-56.640625
4276		-52.734375
4277		-62.500000
4278		-54.687500
4279		-66.406250
4280		-56.640625
4281		-68.359375
4282		-60.546875
4283		-72.265625
4284		-62.500000
4285		-74.218750
4286		-66.406250
4287		-78.125000
4288		-70.312500
4289		-80.078125
4290		-74.218750
4291		-82.031250
4292		-78.125000
4293		-85.937500
4294		-82.031250
4295		-91.796875
4296		-82.031250
4297		-93.750000
4298		-85.937500
4299		-95.703125
4300		-87.890625
4301		-99.609375
4302		-91.796875
4303		-99.609375
4304		-93.750000
4305		-101.562500
4306		-97.656250
4307		-105.468750
4308		-101.562500
4309		-109.375000
4310		-103.515625
4311		-111.328125
4312		-103.515625
4313		-115.234375
4314		-107.421875
4315		-115.234375
4316		-109.375000
4317		-119.140625
4318		-111.328125
4319		-121.093750
4320		-113.281250
4321		-121.093750
4322		-115.234375
4323		-123.046875
4324		-119.140625
4325		-125.000000
4326		-121.093750
4327		-128.906250
4328		-121.093750
4329		-128.906250
4330		-123.046875
4331		-132.812500
4332		-125.000000
4333		-132.812500
4334		-126.953125
4335		-134.765625
4336		-126.953125
4337		-136.718750
4338		-126.953125
4339		-136.718750
4340		-130.859375
4341		-136.718750
4342		-132.812500
4343		-138.671875
4344		-134.765625
4345		-140.625000
4346		-132.812500
4347		-140.625000
4348		-134.765625
4349		-142.578125
4350		-134.765625
4351		-142.578125
4352		-136.718750
4353		-142.578125
4354		-136.718750
4355		-144.531250
4356		-136.718750
4357		-142.578125
4358		-140.625000
4359		-142.578125
4360		-140.625000
4361		-144.531250
4362		-138.671875
4363		-144.531250
4364		-138.671875
4365		-144.531250
4366		-138.671875
4367		-144.531250
4368		-138.671875
4369		-144.531250
4370		-138.671875
4371		-144.531250
4372		-138.671875
4373		-144.531250
4374		-138.671875
4375		-140.625000
4376		-138.671875
4377		-142.578125
4378		-136.718750
4379		-140.625000
4380		-134.765625
4381		-142.578125
4382		-134.765625
4383		-140.625000
4384		-134.765625
4385		-138.671875
4386		-132.812500
4387		-138.671875
4388		-130.859375
4389		-136.718750
4390		-130.859375
4391		-134.765625
4392		-130.859375
4393		-132.812500
4394		-126.953125
4395		-132.812500
4396		-125.000000
4397		-130.859375
4398		-125.000000
4399		-130.859375
4400		-123.046875
4401		-126.953125
4402		-121.093750
4403		-126.953125
4404		-119.140625
4405		-125.000000
4406		-117.187500
4407		-121.093750
4408		-117.187500
4409		-117.187500
4410		-115.234375
4411		-117.187500
4412		-109.375000
4413		-115.234375
4414		-107.421875
4415		-111.328125
4416		-105.468750
4417		-111.328125
4418		-103.515625
4419		-107.421875
4420		-101.562500
4421		-105.468750
4422		-97.656250
4423		-103.515625
4424		-97.656250
4425		-97.656250
4426		-93.750000
4427		-95.703125
4428		-89.843750
4429		-93.750000
4430		-85.937500
4431		-91.796875
4432		-83.984375
4433		-87.890625
4434		-80.078125
4435		-85.937500
4436		-78.125000
4437		-82.031250
4438		-74.218750
4439		-78.125000
4440		-72.265625
4441		-74.218750
4442		-70.312500
4443		-70.312500
4444		-66.406250
4445		-70.312500
4446		-62.500000
4447		-66.406250
4448		-56.640625
4449		-62.500000
4450		-54.687500
4451		-60.546875
4452		-50.781250
4453		-54.687500
4454		-46.875000
4455		-52.734375
4456		-42.968750
4457		-46.875000
4458		-41.015625
4459		-42.968750
4460		-39.062500
4461		-41.015625
4462		-31.250000
4463		-39.062500
4464		-29.296875
4465		-33.203125
4466		-25.390625
4467		-31.250000
4468		-21.484375
4469		-27.343750
4470		-19.531250
4471		-23.437500
4472		-13.671875
4473		-19.531250
4474		-11.718750
4475		-13.671875
4476		-9.765625
4477		-9.765625
4478		-3.906250
4479		-7.812500
4480		0.000000
4481		-3.906250
4482		1.953125
4483		0.000000
4484		7.812500
4485		1.953125
4486		11.718750
4487		5.859375
4488		15.625000
4489		9.765625
4490		17.578125
4491		15.625000
4492		21.484375
4493		19.531250
4494		23.437500
4495		23.437500
4496		29.296875
4497		25.390625
4498		33.203125
4499		27.343750
4500		37.109375
4501		33.203125
4502		39.062500
4503		35.156250
4504		42.968750
4505		39.062500
4506		46.875000
4507		41.015625
4508		48.828125
4509		46.875000
4510		50.781250
4511		50.781250
4512		56.640625
4513		52.734375
4514		60.546875
4515		54.687500
4516		62.500000
4517		58.593750
4518		66.406250
4519		62.500000
4520		70.312500
4521		64.453125
4522		72.265625
4523		68.359375
4524		74.218750
4525		72.265625
4526		78.125000
4527		76.171875
4528		80.078125
4529		78.125000
4530		83.984375
4531		80.078125
4532		87.890625
4533		83.984375
4534		89.843750
4535		85.937500
4536		93.750000
4537		89.843750
4538		97.656250
4539		91.796875
4540		99.609375
4541		95.703125
4542		99.609375
4543		99.609375
4544		101.562500
4545		99.609375
4546		107.421875
4547		101.562500
4548		109.375000
4549		103.515625
4550		111.328125
4551		107.421875
4552		113.281250
4553		109.375000
4554		115.234375
4555		111.328125
4556		119.140625
4557		113.281250
4558		119.140625
4559		117.187500
4560		121.093750
4561		119.140625
4562		125.000000
4563		119.140625
4564		126.953125
4565		121.093750
4566		126.953125
4567		123.046875
4568		130.859375
4569		125.000000
4570		130.859375
4571		126.953125
4572		134.765625
4573		128.906250
4574		134.765625
4575		130.859375
4576		134.765625
4577		132.812500
4578		136.718750
4579		132.812500
4580		140.625000
4581		134.765625
4582		140.625000
4583		134.765625
4584		142.578125
4585		136.718750
4586		144.531250
4587		136.718750
4588		144.531250
4589		138.671875
4590		144.531250
4591		140.625000
4592		146.484375
4593		142.578125
4594		146.484375
4595		142.578125
4596		150.390625
4597		142.578125
4598		148.437500
4599		144.531250
4600		150.390625
4601		144.531250
4602		150.390625
4603		144.531250
4604		152.343750
4605		146.484375
4606		152.343750
4607		146.484375
4608		152.343750
4609		148.437500
4610		150.390625
4611		148.437500
4612		150.390625
4613		146.484375
4614		154.296875
4615		146.484375
4616		154.296875
4617		148.437500
4618		154.296875
4619		146.484375
4620		154.296875
4621		146.484375
4622		154.296875
4623		148.437500
4624		154.296875
4625		148.437500
4626		152.343750
4627		148.437500
4628		152.343750
4629		148.437500
4630		152.343750
4631		146.484375
4632		152.343750
4633		146.484375
4634		152.343750
4635		146.484375
4636		152.343750
4637		144.531250
4638		152.343750
4639		144.531250
4640		152.343750
4641		144.531250
4642		150.390625
4643		144.531250
4644		148.437500
4645		144.531250
4646		146.484375
4647		142.578125
4648		148.437500
4649		140.625000
4650		146.484375
4651		138.671875
4652		146.484375
4653		138.671875
4654		144.531250
4655		136.718750
4656		144.531250
4657		136.718750
4658		142.578125
4659		136.718750
4660		138.671875
4661		134.765625
4662		138.671875
4663		130.859375
4664		138.671875
4665		130.859375
4666		136.718750
4667		128.906250
4668		134.765625
4669		126.953125
4670		132.812500
4671		125.000000
4672		132.812500
4673		123.046875
4674		130.859375
4675		123.046875
4676		128.906250
4677		121.093750
4678		125.000000
4679		117.187500
4680		123.046875
4681		115.234375
4682		123.046875
4683		113.281250
4684		121.093750
4685		111.328125
4686		117.187500
4687		109.375000
4688		117.187500
4689		105.468750
4690		113.281250
4691		105.468750
4692		111.328125
4693		103.515625
4694		107.421875
4695		99.609375
4696		105.468750
4697		97.656250
4698		103.515625
4699		93.750000
4700		101.562500
4701		91.796875
4702		97.656250
4703		87.890625
4704		95.703125
4705		83.984375
4706		91.796875
4707		82.031250
4708		89.843750
4709		82.031250
4710		85.937500
4711		78.125000
4712		82.031250
4713		74.218750
4714		80.078125
4715		70.312500
4716		78.125000
4717		66.406250
4718		74.218750
4719		62.500000
4720		72.265625
4721		60.546875
4722		66.406250
4723		56.640625
4724		64.453125
4725		54.687500
4726		60.546875
4727		52.734375
4728		56.640625
4729		48.828125
4730		52.734375
4731		42.968750
4732		52.734375
4733		41.015625
4734		46.875000
4735		37.109375
4736		44.921875
4737		33.203125
4738		41.015625
4739		29.296875
4740		39.062500
4741		25.390625
4742		33.203125
4743		23.437500
4744		29.296875
4745		19.531250
4746		25.390625
4747		13.671875
4748		21.484375
4749		11.718750
4750		19.531250
4751		7.812500
4752		15.625000
4753		3.906250
4754		11.718750
4755		0.000000
4756		7.812500
4757		-3.906250
4758		3.906250
4759		-5.859375
4760		1.953125
4761		-9.765625
4762		-3.906250
4763		-15.625000
4764		-7.812500
4765		-17.578125
4766		-11.718750
4767		-21.484375
4768		-13.671875
4769		-25.390625
4770		-17.578125
4771		-29.296875
4772		-21.484375
4773		-33.203125
4774		-25.390625
4775		-35.156250
4776		-29.296875
4777		-39.062500
4778		-33.203125
4779		-41.015625
4780		-37.109375
4781		-46.875000
4782		-39.062500
4783		-50.781250
4784		-42.968750
4785		-52.734375
4786		-46.875000
4787		-58.593750
4788		-48.828125
4789		-60.546875
4790		-52.734375
4791		-64.453125
4792		-56.640625
4793		-66.406250
4794		-60.546875
4795		-68.359375
4796		-64.453125
4797		-74.218750
4798		-68.359375
4799		-78.125000
4800		-70.312500
4801		-80.078125
4802		-72.265625
4803		-83.984375
4804		-76.171875
4805		-85.937500
4806		-80.078125
4807		-89.843750
4808		-82.031250
4809		-91.796875
4810		-85.937500
4811		-93.750000
4812		-89.843750
4813		-95.703125
4814		-91.796875
4815		-101.562500
4816		-93.750000
4817		-103.515625
4818		-95.703125
4819		-105.468750
4820		-99.609375
4821		-109.375000
4822		-101.562500
4823		-111.328125
4824		-103.515625
4825		-113.281250
4826		-105.468750
4827		-113.281250
4828		-109.375000
4829		-117.187500
4830		-113.281250
4831		-119.140625
4832		-113.281250
4833		-121.093750
4834		-115.234375
4835		-125.000000
4836		-117.187500
4837		-125.000000
4838		-119.140625
4839		-126.953125
4840		-121.093750
4841		-128.906250
4842		-123.046875
4843		-130.859375
4844		-126.953125
4845		-130.859375
4846		-128.906250
4847		-134.765625
4848		-128.906250
4849		-136.718750
4850		-130.859375
4851		-136.718750
4852		-130.859375
4853		-138.671875
4854		-132.812500
4855		-138.671875
4856		-132.812500
4857		-140.625000
4858		-134.765625
4859		-140.625000
4860		-136.718750
4861		-140.625000
4862		-138.671875
4863		-142.578125
4864		-138.671875
4865		-142.578125
4866		-138.671875
4867		-144.531250
4868		-138.671875
4869		-144.531250
4870		-138.671875
4871		-144.531250
4872		-140.625000
4873		-144.531250
4874		-140.625000
4875		-146.484375
4876		-138.671875
4877		-144.531250
4878		-140.625000
4879		-144.531250
4880		-142.578125
4881		-144.531250
4882		-140.625000
4883		-144.531250
4884		-140.625000
4885		-144.531250
4886		-140.625000
4887		-142.578125
4888		-140.625000
4889		-142.578125
4890		-140.625000
4891		-142.578125
4892		-138.671875
4893		-140.625000
4894		-136.718750
4895		-140.625000
4896		-138.671875
4897		-140.625000
4898		-136.718750
4899		-140.625000
4900		-134.765625
4901		-138.671875
4902		-134.765625
4903		-136.718750
4904		-132.812500
4905		-134.765625
4906		-130.859375
4907		-134.765625
4908		-130.859375
4909		-132.812500
4910		-128.906250
4911		-132.812500
4912		-126.953125
4913		-128.906250
4914		-125.000000
4915		-126.953125
4916		-123.046875
4917		-126.953125
4918		-121.093750
4919		-123.046875
4920		-119.140625
4921		-121.093750
4922		-117.187500
4923		-119.140625
4924		-115.234375
4925		-117.187500
4926		-113.281250
4927		-115.234375
4928		-109.375000
4929		-111.328125
4930		-107.421875
4931		-109.375000
4932		-105.468750
4933		-107.421875
4934		-101.562500
4935		-105.468750
4936		-99.609375
4937		-101.562500
4938		-97.656250
4939		-99.609375
4940		-95.703125
4941		-97.656250
4942		-91.796875
4943		-93.750000
4944		-87.890625
4945		-89.843750
4946		-85.937500
4947		-87.890625
4948		-82.031250
4949		-83.984375
4950		-80.078125
4951		-80.078125
4952		-76.171875
4953		-78.125000
4954		-72.265625
4955		-74.218750
4956		-70.312500
4957		-72.265625
4958		-66.406250
4959		-68.359375
4960		-62.500000
4961		-64.453125
4962		-58.593750
4963		-60.546875
4964		-56.640625
4965		-56.640625
4966		-50.781250
4967		-54.687500
4968		-48.828125
4969		-50.781250
4970		-44.921875
4971		-46.875000
4972		-41.015625
4973		-42.968750
4974		-37.109375
4975		-39.062500
4976		-35.156250
4977		-37.109375
4978		-31.250000
4979		-33.203125
4980		-27.343750
4981		-29.296875
4982		-23.437500
4983		-25.390625
4984		-19.531250
4985		-21.484375
4986		-15.625000
4987		-17.578125
4988		-13.671875
4989		-13.671875
4990		-7.812500
4991		-9.765625
4992		-5.859375
4993		-7.812500
4994		-1.953125
4995		-3.906250
4996		1.953125
4997		0.000000
4998		5.859375
4999		3.906250
5000		9.765625
5001		7.812500
5002		13.671875
5003		11.718750
5004		17.578125
5005		13.671875
5006		21.484375
5007		19.531250
5008		23.437500
5009		21.484375
5010		27.343750
5011		25.390625
5012		31.250000
5013		29.296875
5014		35.156250
5015		33.203125
5016		39.062500
5017		37.109375
5018		42.968750
5019		41.015625
5020		44.921875
5021		42.968750
5022		48.828125
5023		46.875000
5024		52.734375
5025		50.781250
5026		54.687500
5027		54.687500
5028		60.546875
5029		56.640625
5030		60.546875
5031		60.546875
5032		64.453125
5033		62.500000
5034		68.359375
5035		66.406250
5036		70.312500
5037		70.312500
5038		74.218750
5039		72.265625
5040		78.125000
5041		76.171875
5042		80.078125
5043		80.078125
5044		83.984375
5045		82.031250
5046		85.937500
5047		83.984375
5048		89.843750
5049		87.890625
5050		91.796875
5051		89.843750
5052		95.703125
5053		93.750000
5054		97.656250
5055		95.703125
5056		101.562500
5057		97.656250
5058		103.515625
5059		101.562500
5060		105.468750
5061		103.515625
5062		107.421875
5063		105.468750
5064		109.375000
5065		107.421875
5066		111.328125
5067		111.328125
5068		115.234375
5069		111.328125
5070		117.187500
5071		115.234375
5072		119.140625
5073		117.187500
5074		121.093750
5075		119.140625
5076		123.046875
5077		121.093750
5078		125.000000
5079		123.046875
5080		126.953125
5081		125.000000
5082		128.906250
5083		126.953125
5084		130.859375
5085		126.953125
5086		132.812500
5087		128.906250
5088		132.812500
5089		130.859375
5090		134.765625
5091		132.812500
5092		136.718750
5093		134.765625
5094		138.671875
5095		134.765625
5096		138.671875
5097		136.718750
5098		140.625000
5099		138.671875
5100		142.578125
5101		138.671875
5102		142.578125
5103		140.625000
5104		144.531250
5105		140.625000
5106		144.531250
5107		142.578125
5108		146.484375
5109		142.578125
5110		146.484375
5111		144.531250
5112		148.437500
5113		144.531250
5114		148.437500
5115		146.484375
5116		148.437500
5117		146.484375
5118		150.390625
5119		146.484375
5120		150.390625
5121		148.437500
5122		150.390625
5123		148.437500
5124		150.390625
5125		148.437500
5126		152.343750
5127		148.437500
5128		152.343750
5129		148.437500
5130		152.343750
5131		148.437500
5132		152.343750
5133		148.437500
5134		152.343750
5135		148.437500
5136		152.343750
5137		148.437500
5138		152.343750
5139		148.437500
5140		152.343750
5141		148.437500
5142		152.343750
5143		148.437500
5144		150.390625
5145		146.484375
5146		152.343750
5147		148.437500
5148		150.390625
5149		148.437500
5150		150.390625
5151		146.484375
5152		150.390625
5153		146.484375
5154		148.437500
5155		144.531250
5156		148.437500
5157		144.531250
5158		146.484375
5159		144.531250
5160		146.484375
5161		142.578125
5162		146.484375
5163		142.578125
5164		146.484375
5165		140.625000
5166		144.531250
5167		138.671875
5168		142.578125
5169		138.671875
5170		142.578125
5171		136.718750
5172		140.625000
5173		134.765625
5174		138.671875
5175		134.765625
5176		138.671875
5177		132.812500
5178		136.718750
5179		130.859375
5180		134.765625
5181		130.859375
5182		132.812500
5183		126.953125
5184		130.859375
5185		125.000000
5186		130.859375
5187		123.046875
5188		128.906250
5189		123.046875
5190		125.000000
5191		121.093750
5192		125.000000
5193		119.140625
5194		123.046875
5195		115.234375
5196		119.140625
5197		113.281250
5198		117.187500
5199		111.328125
5200		115.234375
5201		109.375000
5202		113.281250
5203		107.421875
5204		111.328125
5205		103.515625
5206		109.375000
5207		101.562500
5208		105.468750
5209		99.609375
5210		103.515625
5211		97.656250
5212		101.562500
5213		93.750000
5214		99.609375
5215		91.796875
5216		95.703125
5217		87.890625
5218		91.796875
5219		85.937500
5220		89.843750
5221		82.031250
5222		85.937500
5223		80.078125
5224		83.984375
5225		76.171875
5226		82.031250
5227		74.218750
5228		78.125000
5229		70.312500
5230		74.218750
5231		66.406250
5232		72.265625
5233		64.453125
5234		68.359375
5235		60.546875
5236		66.406250
5237		56.640625
5238		62.500000
5239		54.687500
5240		58.593750
5241		50.781250
5242		54.687500
5243		46.875000
5244		52.734375
5245		42.968750
5246		48.828125
5247		39.062500
5248		44.921875
5249		37.109375
5250		41.015625
5251		33.203125
5252		37.109375
5253		29.296875
5254		33.203125
5255		25.390625
5256		31.250000
5257		21.484375
5258		27.343750
5259		17.578125
5260		23.437500
5261		13.671875
5262		19.531250
5263		11.718750
5264		15.625000
5265		7.812500
5266		11.718750
5267		3.906250
5268		9.765625
5269		0.000000
5270		5.859375
5271		-3.906250
5272		1.953125
5273		-7.812500
5274		-1.953125
5275		-11.718750
5276		-5.859375
5277		-15.625000
5278		-9.765625
5279		-19.531250
5280		-13.671875
5281		-21.484375
5282		-17.578125
5283		-25.390625
5284		-21.484375
5285		-29.296875
5286		-23.437500
5287		-33.203125
5288		-27.343750
5289		-37.109375
5290		-31.250000
5291		-41.015625
5292		-35.156250
5293		-42.968750
5294		-39.062500
5295		-46.875000
5296		-42.968750
5297		-50.781250
5298		-44.921875
5299		-54.687500
5300		-48.828125
5301		-58.593750
5302		-52.734375
5303		-60.546875
5304		-56.640625
5305		-64.453125
5306		-58.593750
5307		-68.359375
5308		-62.500000
5309		-72.265625
5310		-66.406250
5311		-74.218750
5312		-70.312500
5313		-78.125000
5314		-72.265625
5315		-80.078125
5316		-76.171875
5317		-83.984375
5318		-78.125000
5319		-87.890625
5320		-82.031250
5321		-89.843750
5322		-85.937500
5323		-91.796875
5324		-87.890625
5325		-95.703125
5326		-89.843750
5327		-97.656250
5328		-93.750000
5329		-101.562500
5330		-97.656250
5331		-103.515625
5332		-99.609375
5333		-105.468750
5334		-101.562500
5335		-109.375000
5336		-103.515625
5337		-111.328125
5338		-107.421875
5339		-113.281250
5340		-109.375000
5341		-115.234375
5342		-111.328125
5343		-117.187500
5344		-113.281250
5345		-119.140625
5346		-115.234375
5347		-123.046875
5348		-117.187500
5349		-123.046875
5350		-119.140625
5351		-125.000000
5352		-123.046875
5353		-126.953125
5354		-123.046875
5355		-128.906250
5356		-125.000000
5357		-130.859375
5358		-126.953125
5359		-132.812500
5360		-128.906250
5361		-134.765625
5362		-130.859375
5363		-134.765625
5364		-132.812500
5365		-136.718750
5366		-132.812500
5367		-138.671875
5368		-134.765625
5369		-138.671875
5370		-134.765625
5371		-140.625000
5372		-136.718750
5373		-140.625000
5374		-138.671875
5375		-142.578125
5376		-138.671875
5377		-142.578125
5378		-138.671875
5379		-144.531250
5380		-138.671875
5381		-142.578125
5382		-140.625000
5383		-144.531250
5384		-140.625000
5385		-144.531250
5386		-140.625000
5387		-144.531250
5388		-142.578125
5389		-144.531250
5390		-142.578125
5391		-144.531250
5392		-140.625000
5393		-144.531250
5394		-140.625000
5395		-144.531250
5396		-140.625000
5397		-144.531250
5398		-140.625000
5399		-144.531250
5400		-140.625000
5401		-142.578125
5402		-140.625000
5403		-142.578125
5404		-138.671875
5405		-142.578125
5406		-138.671875
5407		-142.578125
5408		-138.671875
5409		-140.625000
5410		-136.718750
5411		-138.671875
5412		-136.718750
5413		-138.671875
5414		-134.765625
5415		-138.671875
5416		-132.812500
5417		-134.765625
5418		-132.812500
5419		-134.765625
5420		-130.859375
5421		-132.812500
5422		-128.906250
5423		-130.859375
5424		-126.953125
5425		-128.906250
5426		-126.953125
5427		-128.906250
5428		-125.000000
5429		-126.953125
5430		-121.093750
5431		-125.000000
5432		-121.093750
5433		-123.046875
5434		-119.140625
5435		-121.093750
5436		-117.187500
5437		-119.140625
5438		-113.281250
5439		-115.234375
5440		-111.328125
5441		-113.281250
5442		-109.375000
5443		-111.328125
5444		-107.421875
5445		-109.375000
5446		-103.515625
5447		-105.468750
5448		-101.562500
5449		-103.515625
5450		-99.609375
5451		-99.609375
5452		-95.703125
5453		-97.656250
5454		-93.750000
5455		-93.750000
5456		-89.843750
5457		-91.796875
5458		-87.890625
5459		-87.890625
5460		-83.984375
5461		-85.937500
5462		-82.031250
5463		-83.984375
5464		-78.125000
5465		-80.078125
5466		-74.218750
5467		-76.171875
5468		-72.265625
5469		-72.265625
5470		-68.359375
5471		-70.312500
5472		-64.453125
5473		-66.406250
5474		-60.546875
5475		-62.500000
5476		-58.593750
5477		-58.593750
5478		-54.687500
5479		-56.640625
5480		-50.781250
5481		-52.734375
5482		-46.875000
5483		-48.828125
5484		-42.968750
5485		-44.921875
5486		-39.062500
5487		-41.015625
5488		-35.156250
5489		-39.062500
5490		-33.203125
5491		-35.156250
5492		-29.296875
5493		-31.250000
5494		-25.390625
5495		-27.343750
5496		-21.484375
5497		-23.437500
5498		-17.578125
5499		-19.531250
5500		-13.671875
5501		-15.625000
5502		-9.765625
5503		-11.718750
5504		-5.859375
5505		-7.812500
5506		-3.906250
5507		-5.859375
5508		0.000000
5509		0.000000
5510		3.906250
5511		1.953125
5512		7.812500
5513		5.859375
5514		11.718750
5515		9.765625
5516		15.625000
5517		13.671875
5518		19.531250
5519		17.578125
5520		21.484375
5521		19.531250
5522		25.390625
5523		23.437500
5524		29.296875
5525		27.343750
5526		33.203125
5527		31.250000
5528		37.109375
5529		35.156250
5530		39.062500
5531		39.062500
5532		42.968750
5533		41.015625
5534		46.875000
5535		44.921875
5536		50.781250
5537		48.828125
5538		52.734375
5539		52.734375
5540		56.640625
5541		54.687500
5542		60.546875
5543		58.593750
5544		64.453125
5545		62.500000
5546		66.406250
5547		64.453125
5548		70.312500
5549		68.359375
5550		72.265625
5551		72.265625
5552		76.171875
5553		74.218750
5554		80.078125
5555		78.125000
5556		82.031250
5557		80.078125
5558		83.984375
5559		83.984375
5560		87.890625
5561		85.937500
5562		89.843750
5563		89.843750
5564		93.750000
5565		91.796875
5566		97.656250
5567		93.750000
5568		99.609375
5569		97.656250
5570		101.562500
5571		99.609375
5572		103.515625
5573		101.562500
5574		107.421875
5575		105.468750
5576		109.375000
5577		107.421875
5578		111.328125
5579		109.375000
5580		113.281250
5581		111.328125
5582		115.234375
5583		113.281250
5584		117.187500
5585		117.187500
5586		119.140625
5587		117.187500
5588		123.046875
5589		121.093750
5590		123.046875
5591		121.093750
5592		126.953125
5593		125.000000
5594		126.953125
5595		125.000000
5596		130.859375
5597		126.953125
5598		130.859375
5599		128.906250
5600		132.812500
5601		130.859375
5602		134.765625
5603		132.812500
5604		134.765625
5605		132.812500
5606		138.671875
5607		134.765625
5608		140.625000
5609		136.718750
5610		140.625000
5611		136.718750
5612		142.578125
5613		138.671875
5614		142.578125
5615		138.671875
5616		144.531250
5617		140.625000
5618		144.531250
5619		142.578125
5620		144.531250
5621		142.578125
5622		146.484375
5623		144.531250
5624		148.437500
5625		144.531250
5626		148.437500
5627		144.531250
5628		150.390625
5629		146.484375
5630		150.390625
5631		146.484375
5632		150.390625
5633		148.437500
5634		150.390625
5635		148.437500
5636		150.390625
5637		148.437500
5638		152.343750
5639		148.437500
5640		152.343750
5641		148.437500
5642		152.343750
5643		148.437500
5644		152.343750
5645		148.437500
5646		152.343750
5647		148.437500
5648		152.343750
5649		148.437500
5650		152.343750
5651		148.437500
5652		152.343750
5653		148.437500
5654		152.343750
5655		148.437500
5656		152.343750
5657		148.437500
5658		152.343750
5659		146.484375
5660		152.343750
5661		146.484375
5662		152.343750
5663		146.484375
5664		150.390625
5665		146.484375
5666		150.390625
5667		144.531250
5668		150.390625
5669		144.531250
5670		148.437500
5671		144.531250
5672		148.437500
5673		142.578125
5674		148.437500
5675		140.625000
5676		146.484375
5677		140.625000
5678		144.531250
5679		140.625000
5680		144.531250
5681		138.671875
5682		144.531250
5683		136.718750
5684		142.578125
5685		136.718750
5686		140.625000
5687		136.718750
5688		138.671875
5689		132.812500
5690		138.671875
5691		132.812500
5692		136.718750
5693		130.859375
5694		134.765625
5695		128.906250
5696		134.765625
5697		126.953125
5698		132.812500
5699		125.000000
5700		130.859375
5701		123.046875
5702		128.906250
5703		123.046875
5704		125.000000
5705		119.140625
5706		123.046875
5707		117.187500
5708		123.046875
5709		115.234375
5710		121.093750
5711		113.281250
5712		119.140625
5713		111.328125
5714		117.187500
5715		107.421875
5716		113.281250
5717		107.421875
5718		111.328125
5719		103.515625
5720		107.421875
5721		99.609375
5722		105.468750
5723		99.609375
5724		103.515625
5725		95.703125
5726		99.609375
5727		93.750000
5728		97.656250
5729		89.843750
5730		95.703125
5731		87.890625
5732		91.796875
5733		83.984375
5734		89.843750
5735		82.031250
5736		85.937500
5737		78.125000
5738		83.984375
5739		76.171875
5740		80.078125
5741		72.265625
5742		76.171875
5743		70.312500
5744		74.218750
5745		66.406250
5746		70.312500
5747		62.500000
5748		68.359375
5749		60.546875
5750		64.453125
5751		56.640625
5752		60.546875
5753		52.734375
5754		58.593750
5755		48.828125
5756		54.687500
5757		46.875000
5758		50.781250
5759		42.968750
5760		48.828125
5761		39.062500
5762		44.921875
5763		35.156250
5764		41.015625
5765		31.250000
5766		37.109375
5767		29.296875
5768		33.203125
5769		23.437500
5770		29.296875
5771		21.484375
5772		25.390625
5773		17.578125
5774		23.437500
5775		13.671875
5776		19.531250
5777		9.765625
5778		15.625000
5779		5.859375
5780		11.718750
5781		1.953125
5782		7.812500
5783		0.000000
5784		3.906250
5785		-3.906250
5786		0.000000
5787		-7.812500
5788		-3.906250
5789		-11.718750
5790		-7.812500
5791		-15.625000
5792		-9.765625
5793		-19.531250
5794		-13.671875
5795		-23.437500
5796		-17.578125
5797		-27.343750
5798		-21.484375
5799		-29.296875
5800		-25.390625
5801		-33.203125
5802		-29.296875
5803		-37.109375
5804		-33.203125
5805		-41.015625
5806		-35.156250
5807		-44.921875
5808		-39.062500
5809		-48.828125
5810		-42.968750
5811		-50.781250
5812		-46.875000
5813		-54.687500
5814		-50.781250
5815		-58.593750
5816		-54.687500
5817		-62.500000
5818		-56.640625
5819		-64.453125
5820		-60.546875
5821		-68.359375
5822		-64.453125
5823		-74.218750
5824		-64.453125
5825		-78.125000
5826		-68.359375
5827		-80.078125
5828		-70.312500
5829		-82.031250
5830		-76.171875
5831		-83.984375
5832		-80.078125
5833		-85.937500
5834		-82.031250
5835		-89.843750
5836		-85.937500
5837		-93.750000
5838		-89.843750
5839		-97.656250
5840		-91.796875
5841		-101.562500
5842		-91.796875
5843		-105.468750
5844		-93.750000
5845		-105.468750
5846		-95.703125
5847		-105.468750
5848		-101.562500
5849		-109.375000
5850		-105.468750
5851		-111.328125
5852		-107.421875
5853		-113.281250
5854		-109.375000
5855		-115.234375
5856		-111.328125
5857		-121.093750
5858		-111.328125
5859		-123.046875
5860		-113.281250
5861		-125.000000
5862		-115.234375
5863		-123.046875
5864		-121.093750
5865		-125.000000
5866		-123.046875
5867		-126.953125
5868		-125.000000
5869		-128.906250
5870		-126.953125
5871		-130.859375
5872		-126.953125
5873		-136.718750
5874		-126.953125
5875		-136.718750
5876		-126.953125
5877		-138.671875
5878		-128.906250
5879		-138.671875
5880		-128.906250
5881		-136.718750
5882		-134.765625
5883		-138.671875
5884		-136.718750
5885		-138.671875
5886		-136.718750
5887		-140.625000
5888		-136.718750
5889		-140.625000
5890		-138.671875
5891		-144.531250
5892		-136.718750
5893		-146.484375
5894		-136.718750
5895		-146.484375
5896		-136.718750
5897		-142.578125
5898		-140.625000
5899		-142.578125
5900		-140.625000
5901		-142.578125
5902		-140.625000
5903		-142.578125
5904		-140.625000
5905		-144.531250
5906		-140.625000
5907		-146.484375
5908		-138.671875
5909		-146.484375
5910		-136.718750
5911		-146.484375
5912		-136.718750
5913		-142.578125
5914		-140.625000
5915		-142.578125
5916		-138.671875
5917		-140.625000
5918		-138.671875
5919		-140.625000
5920		-138.671875
5921		-140.625000
5922		-136.718750
5923		-140.625000
5924		-132.812500
5925		-140.625000
5926		-132.812500
5927		-140.625000
5928		-130.859375
5929		-138.671875
5930		-130.859375
5931		-134.765625
5932		-130.859375
5933		-132.812500
5934		-130.859375
5935		-130.859375
5936		-128.906250
5937		-130.859375
5938		-126.953125
5939		-128.906250
5940		-125.000000
5941		-128.906250
5942		-119.140625
5943		-126.953125
5944		-119.140625
5945		-126.953125
5946		-117.187500
5947		-121.093750
5948		-117.187500
5949		-119.140625
5950		-115.234375
5951		-117.187500
5952		-113.281250
5953		-115.234375
5954		-109.375000
5955		-111.328125
5956		-107.421875
5957		-111.328125
5958		-101.562500
5959		-109.375000
5960		-99.609375
5961		-107.421875
5962		-97.656250
5963		-105.468750
5964		-95.703125
5965		-99.609375
5966		-93.750000
5967		-95.703125
5968		-91.796875
5969		-93.750000
5970		-89.843750
5971		-89.843750
5972		-85.937500
5973		-87.890625
5974		-82.031250
5975		-87.890625
5976		-76.171875
5977		-83.984375
5978		-74.218750
5979		-82.031250
5980		-72.265625
5981		-74.218750
5982		-70.312500
5983		-72.265625
5984		-66.406250
5985		-68.359375
5986		-62.500000
5987		-64.453125
5988		-60.546875
5989		-60.546875
5990		-56.640625
5991		-58.593750
5992		-50.781250
5993		-54.687500
5994		-46.875000
5995		-52.734375
5996		-42.968750
5997		-46.875000
5998		-41.015625
5999		-42.968750
6000		-39.062500
6001		-39.062500
6002		-35.156250
6003		-37.109375
6004		-31.250000
6005		-33.203125
6006		-27.343750
6007		-29.296875
6008		-23.437500
6009		-25.390625
6010		-19.531250
6011		-23.437500
6012		-13.671875
6013		-17.578125
6014		-13.671875
6015		-13.671875
6016		-9.765625
6017		-9.765625
6018		-5.859375
6019		-5.859375
6020		-1.953125
6021		-3.906250
6022		1.953125
6023		0.000000
6024		5.859375
6025		3.906250
6026		9.765625
6027		5.859375
6028		15.625000
6029		9.765625
6030		17.578125
6031		15.625000
6032		19.531250
6033		19.531250
6034		23.437500
6035		23.437500
6036		27.343750
6037		25.390625
6038		31.250000
6039		29.296875
6040		35.156250
6041		33.203125
6042		37.109375
6043		37.109375
6044		41.015625
6045		39.062500
6046		44.921875
6047		42.968750
6048		48.828125
6049		46.875000
6050		50.781250
6051		50.781250
6052		54.687500
6053		52.734375
6054		58.593750
6055		56.640625
6056		62.500000
6057		60.546875
6058		64.453125
6059		62.500000
6060		68.359375
6061		66.406250
6062		72.265625
6063		70.312500
6064		74.218750
6065		72.265625
6066		78.125000
6067		76.171875
6068		80.078125
6069		78.125000
6070		83.984375
6071		82.031250
6072		85.937500
6073		83.984375
6074		89.843750
6075		87.890625
6076		91.796875
6077		89.843750
6078		95.703125
6079		93.750000
6080		97.656250
6081		95.703125
6082		99.609375
6083		97.656250
6084		103.515625
6085		101.562500
6086		105.468750
6087		103.515625
6088		107.421875
6089		105.468750
6090		109.375000
6091		107.421875
6092		111.328125
6093		111.328125
6094		113.281250
6095		113.281250
6096		117.187500
6097		115.234375
6098		119.140625
6099		117.187500
6100		121.093750
6101		119.140625
6102		123.046875
6103		121.093750
6104		125.000000
6105		123.046875
6106		126.953125
6107		125.000000
6108		128.906250
6109		126.953125
6110		130.859375
6111		128.906250
6112		130.859375
6113		130.859375
6114		132.812500
6115		130.859375
6116		134.765625
6117		132.812500
6118		136.718750
6119		134.765625
6120		136.718750
6121		136.718750
6122		138.671875
6123		136.718750
6124		140.625000
6125		138.671875
6126		142.578125
6127		138.671875
6128		142.578125
6129		140.625000
6130		144.531250
6131		142.578125
6132		146.484375
6133		142.578125
6134		146.484375
6135		144.531250
6136		146.484375
6137		144.531250
6138		148.437500
6139		146.484375
6140		148.437500
6141		146.484375
6142		148.437500
6143		146.484375
6144		150.390625
6145		146.484375
6146		150.390625
6147		148.437500
6148		150.390625
6149		148.437500
6150		152.343750
6151		148.437500
6152		152.343750
6153		148.437500
6154		152.343750
6155		150.390625
6156		152.343750
6157		150.390625
6158		152.343750
6159		148.437500
6160		154.296875
6161		148.437500
6162		152.343750
6163		150.390625
6164		152.343750
6165		148.437500
6166		152.343750
6167		148.437500
6168		152.343750
6169		150.390625
6170		152.343750
6171		148.437500
6172		152.343750
6173		148.437500
6174		150.390625
6175		146.484375
6176		150.390625
6177		146.484375
6178		150.390625
6179		146.484375
6180		150.390625
6181		146.484375
6182		148.437500
6183		144.531250
6184		148.437500
6185		144.531250
6186		148.437500
6187		144.531250
6188		146.484375
6189		142.578125
6190		146.484375
6191		142.578125
6192		144.531250
6193		138.671875
6194		144.531250
6195		138.671875
6196		142.578125
6197		138.671875
6198		140.625000
6199		136.718750
6200		140.625000
6201		134.765625
6202		138.671875
6203		134.765625
6204		136.718750
6205		132.812500
6206		134.765625
6207		130.859375
6208		134.765625
6209		126.953125
6210		132.812500
6211		126.953125
6212		130.859375
6213		125.000000
6214		128.906250
6215		123.046875
6216		126.953125
6217		121.093750
6218		126.953125
6219		119.140625
6220		123.046875
6221		117.187500
6222		121.093750
6223		115.234375
6224		119.140625
6225		113.281250
6226		117.187500
6227		109.375000
6228		115.234375
6229		109.375000
6230		113.281250
6231		105.468750
6232		109.375000
6233		101.562500
6234		107.421875
6235		101.562500
6236		105.468750
6237		97.656250
6238		101.562500
6239		95.703125
6240		99.609375
6241		91.796875
6242		97.656250
6243		89.843750
6244		93.750000
6245		85.937500
6246		91.796875
6247		83.984375
6248		87.890625
6249		80.078125
6250		85.937500
6251		78.125000
6252		83.984375
6253		74.218750
6254		80.078125
6255		72.265625
6256		76.171875
6257		68.359375
6258		74.218750
6259		64.453125
6260		70.312500
6261		62.500000
6262		68.359375
6263		58.593750
6264		64.453125
6265		54.687500
6266		60.546875
6267		50.781250
6268		56.640625
6269		48.828125
6270		54.687500
6271		44.921875
6272		48.828125
6273		41.015625
6274		46.875000
6275		39.062500
6276		42.968750
6277		35.156250
6278		41.015625
6279		31.250000
6280		37.109375
6281		27.343750
6282		33.203125
6283		23.437500
6284		29.296875
6285		19.531250
6286		25.390625
6287		15.625000
6288		21.484375
6289		11.718750
6290		17.578125
6291		9.765625
6292		13.671875
6293		5.859375
6294		11.718750
6295		1.953125
6296		5.859375
6297		-1.953125
6298		3.906250
6299		-5.859375
6300		0.000000
6301		-9.765625
6302		-3.906250
6303		-13.671875
6304		-7.812500
6305		-17.578125
6306		-11.718750
6307		-19.531250
6308		-15.625000
6309		-23.437500
6310		-19.531250
6311		-27.343750
6312		-23.437500
6313		-31.250000
6314		-25.390625
6315		-35.156250
6316		-29.296875
6317		-39.062500
6318		-33.203125
6319		-42.968750
6320		-37.109375
6321		-44.921875
6322		-41.015625
6323		-48.828125
6324		-44.921875
6325		-52.734375
6326		-46.875000
6327		-56.640625
6328		-50.781250
6329		-58.593750
6330		-54.687500
6331		-62.500000
6332		-58.593750
6333		-66.406250
6334		-60.546875
6335		-70.312500
6336		-64.453125
6337		-72.265625
6338		-68.359375
6339		-76.171875
6340		-72.265625
6341		-80.078125
6342		-74.218750
6343		-82.031250
6344		-78.125000
6345		-85.937500
6346		-80.078125
6347		-87.890625
6348		-83.984375
6349		-91.796875
6350		-85.937500
6351		-93.750000
6352		-89.843750
6353		-97.656250
6354		-91.796875
6355		-99.609375
6356		-95.703125
6357		-101.562500
6358		-97.656250
6359		-105.468750
6360		-99.609375
6361		-107.421875
6362		-103.515625
6363		-109.375000
6364		-105.468750
6365		-111.328125
6366		-107.421875
6367		-113.281250
6368		-111.328125
6369		-117.187500
6370		-113.281250
6371		-119.140625
6372		-115.234375
6373		-121.093750
6374		-117.187500
6375		-123.046875
6376		-119.140625
6377		-125.000000
6378		-121.093750
6379		-126.953125
6380		-123.046875
6381		-128.906250
6382		-125.000000
6383		-130.859375
6384		-126.953125
6385		-130.859375
6386		-128.906250
6387		-132.812500
6388		-128.906250
6389		-134.765625
6390		-130.859375
6391		-136.718750
6392		-132.812500
6393		-136.718750
6394		-134.765625
6395		-138.671875
6396		-134.765625
6397		-138.671875
6398		-136.718750
6399		-140.625000
6400		-136.718750
6401		-140.625000
6402		-138.671875
6403		-142.578125
6404		-138.671875
6405		-142.578125
6406		-138.671875
6407		-142.578125
6408		-140.625000
6409		-142.578125
6410		-140.625000
6411		-144.531250
6412		-140.625000
6413		-144.531250
6414		-142.578125
6415		-144.531250
6416		-142.578125
6417		-144.531250
6418		-142.578125
6419		-144.531250
6420		-142.578125
6421		-144.531250
6422		-142.578125
6423		-144.531250
6424		-140.625000
6425		-142.578125
6426		-140.625000
6427		-144.531250
6428		-140.625000
6429		-142.578125
6430		-140.625000
6431		-142.578125
6432		-138.671875
6433		-140.625000
6434		-138.671875
6435		-140.625000
6436		-138.671875
6437		-138.671875
6438		-136.718750
6439		-138.671875
6440		-134.765625
6441		-136.718750
6442		-134.765625
6443		-136.718750
6444		-132.812500
6445		-136.718750
6446		-130.859375
6447		-134.765625
6448		-128.906250
6449		-132.812500
6450		-128.906250
6451		-130.859375
6452		-126.953125
6453		-128.906250
6454		-125.000000
6455		-126.953125
6456		-123.046875
6457		-125.000000
6458		-121.093750
6459		-123.046875
6460		-119.140625
6461		-121.093750
6462		-115.234375
6463		-119.140625
6464		-113.281250
6465		-117.187500
6466		-113.281250
6467		-115.234375
6468		-111.328125
6469		-111.328125
6470		-107.421875
6471		-109.375000
6472		-105.468750
6473		-107.421875
6474		-103.515625
6475		-103.515625
6476		-99.609375
6477		-101.562500
6478		-97.656250
6479		-99.609375
6480		-93.750000
6481		-97.656250
6482		-91.796875
6483		-93.750000
6484		-87.890625
6485		-89.843750
6486		-85.937500
6487		-87.890625
6488		-82.031250
6489		-83.984375
6490		-80.078125
6491		-82.031250
6492		-76.171875
6493		-78.125000
6494		-72.265625
6495		-74.218750
6496		-68.359375
6497		-72.265625
6498		-66.406250
6499		-68.359375
6500		-62.500000
6501		-64.453125
6502		-58.593750
6503		-60.546875
6504		-56.640625
6505		-56.640625
6506		-52.734375
6507		-54.687500
6508		-48.828125
6509		-50.781250
6510		-44.921875
6511		-46.875000
6512		-39.062500
6513		-44.921875
6514		-37.109375
6515		-41.015625
6516		-35.156250
6517		-35.156250
6518		-31.250000
6519		-31.250000
6520		-27.343750
6521		-29.296875
6522		-23.437500
6523		-25.390625
6524		-19.531250
6525		-21.484375
6526		-15.625000
6527		-17.578125
6528		-11.718750
6529		-13.671875
6530		-7.812500
6531		-9.765625
6532		-5.859375
6533		-7.812500
6534		-1.953125
6535		-1.953125
6536		1.953125
6537		1.953125
6538		5.859375
6539		3.906250
6540		9.765625
6541		7.812500
6542		13.671875
6543		11.718750
6544		17.578125
6545		15.625000
6546		21.484375
6547		17.578125
6548		25.390625
6549		23.437500
6550		27.343750
6551		25.390625
6552		31.250000
6553		29.296875
6554		35.156250
6555		33.203125
6556		39.062500
6557		37.109375
6558		41.015625
6559		41.015625
6560		44.921875
6561		42.968750
6562		48.828125
6563		44.921875
6564		52.734375
6565		48.828125
6566		54.687500
6567		54.687500
6568		58.593750
6569		56.640625
6570		60.546875
6571		60.546875
6572		64.453125
6573		64.453125
6574		68.359375
6575		66.406250
6576		72.265625
6577		70.312500
6578		74.218750
6579		72.265625
6580		80.078125
6581		74.218750
6582		82.031250
6583		78.125000
6584		83.984375
6585		82.031250
6586		85.937500
6587		83.984375
6588		89.843750
6589		87.890625
6590		91.796875
6591		89.843750
6592		93.750000
6593		93.750000
6594		97.656250
6595		95.703125
6596		101.562500
6597		95.703125
6598		103.515625
6599		99.609375
6600		105.468750
6601		103.515625
6602		107.421875
6603		105.468750
6604		109.375000
6605		107.421875
6606		111.328125
6607		111.328125
6608		113.281250
6609		113.281250
6610		115.234375
6611		115.234375
6612		119.140625
6613		115.234375
6614		121.093750
6615		117.187500
6616		123.046875
6617		121.093750
6618		125.000000
6619		123.046875
6620		126.953125
6621		125.000000
6622		128.906250
6623		126.953125
6624		130.859375
6625		128.906250
6626		130.859375
6627		128.906250
6628		132.812500
6629		130.859375
6630		136.718750
6631		132.812500
6632		136.718750
6633		134.765625
6634		136.718750
6635		134.765625
6636		138.671875
6637		136.718750
6638		140.625000
6639		138.671875
6640		140.625000
6641		138.671875
6642		142.578125
6643		140.625000
6644		142.578125
6645		140.625000
6646		144.531250
6647		140.625000
6648		146.484375
6649		142.578125
6650		146.484375
6651		144.531250
6652		146.484375
6653		144.531250
6654		148.437500
6655		146.484375
6656		148.437500
6657		146.484375
6658		148.437500
6659		146.484375
6660		150.390625
6661		146.484375
6662		150.390625
6663		146.484375
6664		150.390625
6665		148.437500
6666		150.390625
6667		148.437500
6668		152.343750
6669		148.437500
6670		150.390625
6671		148.437500
6672		152.343750
6673		148.437500
6674		150.390625
6675		148.437500
6676		152.343750
6677		148.437500
6678		150.390625
6679		148.437500
6680		150.390625
6681		148.437500
6682		150.390625
6683		148.437500
6684		150.390625
6685		146.484375
6686		150.390625
6687		146.484375
6688		150.390625
6689		146.484375
6690		150.390625
6691		146.484375
6692		148.437500
6693		144.531250
6694		148.437500
6695		144.531250
6696		148.437500
6697		144.531250
6698		146.484375
6699		142.578125
6700		146.484375
6701		142.578125
6702		144.531250
6703		140.625000
6704		144.531250
6705		140.625000
6706		142.578125
6707		138.671875
6708		142.578125
6709		138.671875
6710		140.625000
6711		136.718750
6712		140.625000
6713		134.765625
6714		138.671875
6715		132.812500
6716		136.718750
6717		132.812500
6718		134.765625
6719		130.859375
6720		134.765625
6721		128.906250
6722		132.812500
6723		126.953125
6724		130.859375
6725		125.000000
6726		128.906250
6727		123.046875
6728		126.953125
6729		121.093750
6730		125.000000
6731		119.140625
6732		123.046875
6733		117.187500
6734		121.093750
6735		115.234375
6736		119.140625
6737		113.281250
6738		117.187500
6739		111.328125
6740		115.234375
6741		109.375000
6742		113.281250
6743		105.468750
6744		111.328125
6745		103.515625
6746		107.421875
6747		101.562500
6748		105.468750
6749		99.609375
6750		103.515625
6751		95.703125
6752		99.609375
6753		93.750000
6754		97.656250
6755		89.843750
6756		95.703125
6757		87.890625
6758		91.796875
6759		85.937500
6760		89.843750
6761		82.031250
6762		87.890625
6763		78.125000
6764		83.984375
6765		76.171875
6766		80.078125
6767		72.265625
6768		78.125000
6769		70.312500
6770		74.218750
6771		66.406250
6772		70.312500
6773		62.500000
6774		68.359375
6775		60.546875
6776		64.453125
6777		56.640625
6778		60.546875
6779		52.734375
6780		58.593750
6781		50.781250
6782		54.687500
6783		46.875000
6784		50.781250
6785		42.968750
6786		46.875000
6787		39.062500
6788		44.921875
6789		35.156250
6790		41.015625
6791		31.250000
6792		37.109375
6793		29.296875
6794		33.203125
6795		25.390625
6796		29.296875
6797		21.484375
6798		25.390625
6799		17.578125
6800		23.437500
6801		13.671875
6802		19.531250
6803		9.765625
6804		15.625000
6805		5.859375
6806		11.718750
6807		3.906250
6808		7.812500
6809		0.000000
6810		3.906250
6811		-3.906250
6812		0.000000
6813		-7.812500
6814		-3.906250
6815		-11.718750
6816		-7.812500
6817		-15.625000
6818		-9.765625
6819		-19.531250
6820		-13.671875
6821		-23.437500
6822		-17.578125
6823		-27.343750
6824		-21.484375
6825		-29.296875
6826		-25.390625
6827		-35.156250
6828		-29.296875
6829		-37.109375
6830		-33.203125
6831		-42.968750
6832		-37.109375
6833		-44.921875
6834		-39.062500
6835		-48.828125
6836		-42.968750
6837		-52.734375
6838		-46.875000
6839		-54.687500
6840		-50.781250
6841		-58.593750
6842		-54.687500
6843		-62.500000
6844		-56.640625
6845		-64.453125
6846		-60.546875
6847		-68.359375
6848		-64.453125
6849		-72.265625
6850		-68.359375
6851		-76.171875
6852		-70.312500
6853		-78.125000
6854		-74.218750
6855		-82.031250
6856		-78.125000
6857		-83.984375
6858		-80.078125
6859		-87.890625
6860		-83.984375
6861		-89.843750
6862		-85.937500
6863		-93.750000
6864		-89.843750
6865		-95.703125
6866		-91.796875
6867		-99.609375
6868		-95.703125
6869		-101.562500
6870		-97.656250
6871		-103.515625
6872		-99.609375
6873		-107.421875
6874		-103.515625
6875		-109.375000
6876		-105.468750
6877		-111.328125
6878		-107.421875
6879		-113.281250
6880		-109.375000
6881		-117.187500
6882		-113.281250
6883		-119.140625
6884		-115.234375
6885		-121.093750
6886		-117.187500
6887		-123.046875
6888		-119.140625
6889		-125.000000
6890		-121.093750
6891		-126.953125
6892		-123.046875
6893		-128.906250
6894		-125.000000
6895		-130.859375
6896		-126.953125
6897		-130.859375
6898		-128.906250
6899		-132.812500
6900		-130.859375
6901		-134.765625
6902		-130.859375
6903		-136.718750
6904		-132.812500
6905		-136.718750
6906		-134.765625
6907		-138.671875
6908		-134.765625
6909		-138.671875
6910		-136.718750
6911		-140.625000
6912		-138.671875
6913		-140.625000
6914		-138.671875
6915		-142.578125
6916		-140.625000
6917		-142.578125
6918		-140.625000
6919		-142.578125
6920		-140.625000
6921		-144.531250
6922		-142.578125
6923		-144.531250
6924		-142.578125
6925		-144.531250
6926		-142.578125
6927		-144.531250
6928		-142.578125
6929		-144.531250
6930		-142.578125
6931		-144.531250
6932		-142.578125
6933		-144.531250
6934		-142.578125
6935		-144.531250
6936		-142.578125
6937		-144.531250
6938		-142.578125
6939		-144.531250
6940		-142.578125
6941		-144.531250
6942		-140.625000
6943		-142.578125
6944		-140.625000
6945		-142.578125
6946		-140.625000
6947		-142.578125
6948		-138.671875
6949		-140.625000
6950		-138.671875
6951		-140.625000
6952		-136.718750
6953		-138.671875
6954		-134.765625
6955		-136.718750
6956		-134.765625
6957		-136.718750
6958		-132.812500
6959		-134.765625
6960		-132.812500
6961		-132.812500
6962		-130.859375
6963		-132.812500
6964		-128.906250
6965		-130.859375
6966		-126.953125
6967		-128.906250
6968		-125.000000
6969		-126.953125
6970		-123.046875
6971		-125.000000
6972		-121.093750
6973		-123.046875
6974		-119.140625
6975		-121.093750
6976		-117.187500
6977		-119.140625
6978		-115.234375
6979		-117.187500
6980		-113.281250
6981		-115.234375
6982		-111.328125
6983		-111.328125
6984		-107.421875
6985		-109.375000
6986		-105.468750
6987		-107.421875
6988		-103.515625
6989		-103.515625
6990		-99.609375
6991		-101.562500
6992		-97.656250
6993		-97.656250
6994		-93.750000
6995		-95.703125
6996		-91.796875
6997		-91.796875
6998		-87.890625
6999		-89.843750
7000		-85.937500
7001		-87.890625
7002		-82.031250
7003		-83.984375
7004		-78.125000
7005		-80.078125
7006		-76.171875
7007		-76.171875
7008		-72.265625
7009		-74.218750
7010		-68.359375
7011		-70.312500
7012		-66.406250
7013		-66.406250
7014		-62.500000
7015		-64.453125
7016		-58.593750
7017		-60.546875
7018		-54.687500
7019		-56.640625
7020		-52.734375
7021		-52.734375
7022		-48.828125
7023		-48.828125
7024		-44.921875
7025		-46.875000
7026		-41.015625
7027		-42.968750
7028		-37.109375
7029		-39.062500
7030		-33.203125
7031		-35.156250
7032		-29.296875
7033		-31.250000
7034		-27.343750
7035		-27.343750
7036		-23.437500
7037		-23.437500
7038		-19.531250
7039		-19.531250
7040		-15.625000
7041		-17.578125
7042		-11.718750
7043		-13.671875
7044		-7.812500
7045		-9.765625
7046		-3.906250
7047		-5.859375
7048		0.000000
7049		-1.953125
7050		3.906250
7051		1.953125
7052		5.859375
7053		5.859375
7054		11.718750
7055		9.765625
7056		13.671875
7057		13.671875
7058		17.578125
7059		15.625000
7060		21.484375
7061		19.531250
7062		25.390625
7063		23.437500
7064		27.343750
7065		27.343750
7066		31.250000
7067		31.250000
7068		35.156250
7069		33.203125
7070		39.062500
7071		37.109375
7072		42.968750
7073		41.015625
7074		46.875000
7075		44.921875
7076		48.828125
7077		48.828125
7078		52.734375
7079		50.781250
7080		54.687500
7081		54.687500
7082		58.593750
7083		58.593750
7084		62.500000
7085		60.546875
7086		66.406250
7087		64.453125
7088		68.359375
7089		66.406250
7090		72.265625
7091		70.312500
7092		74.218750
7093		74.218750
7094		78.125000
7095		76.171875
7096		82.031250
7097		78.125000
7098		83.984375
7099		82.031250
7100		85.937500
7101		85.937500
7102		89.843750
7103		87.890625
7104		91.796875
7105		89.843750
7106		95.703125
7107		93.750000
7108		97.656250
7109		95.703125
7110		99.609375
7111		97.656250
7112		101.562500
7113		101.562500
7114		105.468750
7115		103.515625
7116		107.421875
7117		105.468750
7118		109.375000
7119		107.421875
7120		111.328125
7121		111.328125
7122		115.234375
7123		113.281250
7124		117.187500
7125		115.234375
7126		119.140625
7127		117.187500
7128		121.093750
7129		119.140625
7130		123.046875
7131		121.093750
7132		125.000000
7133		123.046875
7134		126.953125
7135		125.000000
7136		126.953125
7137		126.953125
7138		130.859375
7139		126.953125
7140		130.859375
7141		130.859375
7142		132.812500
7143		130.859375
7144		134.765625
7145		132.812500
7146		136.718750
7147		134.765625
7148		136.718750
7149		134.765625
7150		138.671875
7151		136.718750
7152		140.625000
7153		138.671875
7154		140.625000
7155		138.671875
7156		142.578125
7157		140.625000
7158		142.578125
7159		140.625000
7160		144.531250
7161		142.578125
7162		144.531250
7163		142.578125
7164		146.484375
7165		144.531250
7166		146.484375
7167		144.531250
7168		146.484375
7169		144.531250
7170		148.437500
7171		146.484375
7172		148.437500
7173		146.484375
7174		148.437500
7175		146.484375
7176		148.437500
7177		146.484375
7178		150.390625
7179		148.437500
7180		150.390625
7181		148.437500
7182		150.390625
7183		148.437500
7184		150.390625
7185		148.437500
7186		150.390625
7187		148.437500
7188		150.390625
7189		148.437500
7190		150.390625
7191		148.437500
7192		150.390625
7193		148.437500
7194		150.390625
7195		146.484375
7196		150.390625
7197		146.484375
7198		150.390625
7199		146.484375
7200		150.390625
7201		146.484375
7202		148.437500
7203		146.484375
7204		148.437500
7205		144.531250
7206		148.437500
7207		144.531250
7208		146.484375
7209		144.531250
7210		146.484375
7211		142.578125
7212		146.484375
7213		142.578125
7214		144.531250
7215		140.625000
7216		144.531250
7217		140.625000
7218		142.578125
7219		138.671875
7220		142.578125
7221		138.671875
7222		140.625000
7223		136.718750
7224		140.625000
7225		134.765625
7226		138.671875
7227		134.765625
7228		136.718750
7229		132.812500
7230		136.718750
7231		130.859375
7232		134.765625
7233		128.906250
7234		132.812500
7235		128.906250
7236		130.859375
7237		126.953125
7238		128.906250
7239		125.000000
7240		126.953125
7241		123.046875
7242		125.000000
7243		119.140625
7244		123.046875
7245		119.140625
7246		121.093750
7247		115.234375
7248		119.140625
7249		113.281250
7250		117.187500
7251		111.328125
7252		115.234375
7253		109.375000
7254		113.281250
7255		107.421875
7256		111.328125
7257		105.468750
7258		109.375000
7259		101.562500
7260		105.468750
7261		99.609375
7262		103.515625
7263		97.656250
7264		101.562500
7265		93.750000
7266		97.656250
7267		91.796875
7268		95.703125
7269		87.890625
7270		93.750000
7271		85.937500
7272		89.843750
7273		83.984375
7274		87.890625
7275		80.078125
7276		83.984375
7277		76.171875
7278		82.031250
7279		74.218750
7280		78.125000
7281		70.312500
7282		76.171875
7283		68.359375
7284		72.265625
7285		64.453125
7286		68.359375
7287		60.546875
7288		66.406250
7289		58.593750
7290		62.500000
7291		54.687500
7292		58.593750
7293		50.781250
7294		56.640625
7295		48.828125
7296		52.734375
7297		44.921875
7298		48.828125
7299		41.015625
7300		44.921875
7301		37.109375
7302		42.968750
7303		33.203125
7304		39.062500
7305		31.250000
7306		35.156250
7307		27.343750
7308		31.250000
7309		23.437500
7310		27.343750
7311		19.531250
7312		25.390625
7313		15.625000
7314		21.484375
7315		11.718750
7316		17.578125
7317		7.812500
7318		13.671875
7319		3.906250
7320		9.765625
7321		1.953125
7322		5.859375
7323		-1.953125
7324		1.953125
7325		-5.859375
7326		-1.953125
7327		-9.765625
7328		-5.859375
7329		-13.671875
7330		-7.812500
7331		-17.578125
7332		-11.718750
7333		-21.484375
7334		-15.625000
7335		-25.390625
7336		-19.531250
7337		-27.343750
7338		-23.437500
7339		-31.250000
7340		-27.343750
7341		-35.156250
7342		-31.250000
7343		-39.062500
7344		-33.203125
7345		-42.968750
7346		-37.109375
7347		-46.875000
7348		-41.015625
7349		-48.828125
7350		-44.921875
7351		-52.734375
7352		-48.828125
7353		-56.640625
7354		-52.734375
7355		-60.546875
7356		-54.687500
7357		-62.500000
7358		-58.593750
7359		-66.406250
7360		-62.500000
7361		-70.312500
7362		-64.453125
7363		-74.218750
7364		-68.359375
7365		-76.171875
7366		-72.265625
7367		-80.078125
7368		-76.171875
7369		-82.031250
7370		-78.125000
7371		-85.937500
7372		-82.031250
7373		-89.843750
7374		-83.984375
7375		-91.796875
7376		-87.890625
7377		-95.703125
7378		-89.843750
7379		-97.656250
7380		-93.750000
7381		-99.609375
7382		-95.703125
7383		-103.515625
7384		-99.609375
7385		-105.468750
7386		-101.562500
7387		-107.421875
7388		-103.515625
7389		-111.328125
7390		-107.421875
7391		-113.281250
7392		-109.375000
7393		-115.234375
7394		-111.328125
7395		-117.187500
7396		-113.281250
7397		-119.140625
7398		-115.234375
7399		-121.093750
7400		-119.140625
7401		-125.000000
7402		-121.093750
7403		-126.953125
7404		-123.046875
7405		-128.906250
7406		-125.000000
7407		-130.859375
7408		-126.953125
7409		-130.859375
7410		-128.906250
7411		-132.812500
7412		-130.859375
7413		-134.765625
7414		-130.859375
7415		-136.718750
7416		-132.812500
7417		-138.671875
7418		-134.765625
7419		-138.671875
7420		-136.718750
7421		-140.625000
7422		-136.718750
7423		-140.625000
7424		-138.671875
7425		-142.578125
7426		-138.671875
7427		-142.578125
7428		-140.625000
7429		-144.531250
7430		-140.625000
7431		-144.531250
7432		-142.578125
7433		-144.531250
7434		-142.578125
7435		-144.531250
7436		-142.578125
7437		-146.484375
7438		-142.578125
7439		-146.484375
7440		-144.531250
7441		-146.484375
7442		-144.531250
7443		-146.484375
7444		-144.531250
7445		-146.484375
7446		-144.531250
7447		-146.484375
7448		-144.531250
7449		-146.484375
7450		-144.531250
7451		-146.484375
7452		-142.578125
7453		-144.531250
7454		-142.578125
7455		-144.531250
7456		-142.578125
7457		-144.531250
7458		-142.578125
7459		-144.531250
7460		-140.625000
7461		-142.578125
7462		-140.625000
7463		-142.578125
7464		-138.671875
7465		-140.625000
7466		-136.718750
7467		-140.625000
7468		-136.718750
7469		-138.671875
7470		-134.765625
7471		-138.671875
7472		-134.765625
7473		-136.718750
7474		-130.859375
7475		-136.718750
7476		-130.859375
7477		-132.812500
7478		-128.906250
7479		-132.812500
7480		-126.953125
7481		-128.906250
7482		-126.953125
7483		-128.906250
7484		-125.000000
7485		-125.000000
7486		-123.046875
7487		-123.046875
7488		-121.093750
7489		-121.093750
7490		-117.187500
7491		-119.140625
7492		-115.234375
7493		-117.187500
7494		-113.281250
7495		-115.234375
7496		-109.375000
7497		-113.281250
7498		-109.375000
7499		-111.328125
7500		-105.468750
7501		-107.421875
7502		-103.515625
7503		-103.515625
7504		-99.609375
7505		-101.562500
7506		-97.656250
7507		-99.609375
7508		-93.750000
7509		-95.703125
7510		-89.843750
7511		-93.750000
7512		-87.890625
7513		-91.796875
7514		-85.937500
7515		-87.890625
7516		-80.078125
7517		-83.984375
7518		-80.078125
7519		-80.078125
7520		-76.171875
7521		-78.125000
7522		-72.265625
7523		-74.218750
7524		-70.312500
7525		-72.265625
7526		-66.406250
7527		-68.359375
7528		-62.500000
7529		-64.453125
7530		-58.593750
7531		-60.546875
7532		-54.687500
7533		-58.593750
7534		-52.734375
7535		-54.687500
7536		-48.828125
7537		-50.781250
7538		-42.968750
7539		-46.875000
7540		-39.062500
7541		-44.921875
7542		-37.109375
7543		-39.062500
7544		-33.203125
7545		-35.156250
7546		-27.343750
7547		-31.250000
7548		-27.343750
7549		-29.296875
7550		-21.484375
7551		-25.390625
7552		-19.531250
7553		-19.531250
7554		-15.625000
7555		-17.578125
7556		-9.765625
7557		-15.625000
7558		-5.859375
7559		-9.765625
7560		-3.906250
7561		-5.859375
7562		-1.953125
7563		-3.906250
7564		3.906250
7565		1.953125
7566		9.765625
7567		1.953125
7568		9.765625
7569		7.812500
7570		13.671875
7571		11.718750
7572		19.531250
7573		15.625000
7574		21.484375
7575		19.531250
7576		25.390625
7577		23.437500
7578		27.343750
7579		27.343750
7580		35.156250
7581		27.343750
7582		35.156250
7583		31.250000
7584		39.062500
7585		37.109375
7586		42.968750
7587		41.015625
7588		46.875000
7589		42.968750
7590		52.734375
7591		42.968750
7592		52.734375
7593		50.781250
7594		56.640625
7595		54.687500
7596		58.593750
7597		54.687500
7598		64.453125
7599		60.546875
7600		68.359375
7601		64.453125
7602		68.359375
7603		66.406250
7604		72.265625
7605		70.312500
7606		76.171875
7607		70.312500
7608		78.125000
7609		74.218750
7610		80.078125
7611		80.078125
7612		83.984375
7613		80.078125
7614		89.843750
7615		82.031250
7616		89.843750
7617		85.937500
7618		93.750000
7619		89.843750
7620		95.703125
7621		93.750000
7622		99.609375
7623		93.750000
7624		103.515625
7625		97.656250
7626		103.515625
7627		101.562500
7628		105.468750
7629		103.515625
7630		109.375000
7631		103.515625
7632		113.281250
7633		105.468750
7634		115.234375
7635		111.328125
7636		113.281250
7637		113.281250
7638		117.187500
7639		113.281250
7640		121.093750
7641		115.234375
7642		123.046875
7643		117.187500
7644		123.046875
7645		121.093750
7646		125.000000
7647		121.093750
7648		128.906250
7649		125.000000
7650		130.859375
7651		123.046875
7652		130.859375
7653		128.906250
7654		130.859375
7655		128.906250
7656		134.765625
7657		128.906250
7658		136.718750
7659		130.859375
7660		136.718750
7661		134.765625
7662		136.718750
7663		132.812500
7664		142.578125
7665		132.812500
7666		142.578125
7667		134.765625
7668		142.578125
7669		138.671875
7670		142.578125
7671		140.625000
7672		142.578125
7673		140.625000
7674		144.531250
7675		138.671875
7676		146.484375
7677		142.578125
7678		144.531250
7679		144.531250
7680		146.484375
7681		140.625000
7682		150.390625
7683		142.578125
7684		150.390625
7685		146.484375
7686		148.437500
7687		146.484375
7688		148.437500
7689		146.484375
7690		150.390625
7691		144.531250
7692		152.343750
7693		146.484375
7694		150.390625
7695		146.484375
7696		150.390625
7697		144.531250
7698		152.343750
7699		144.531250
7700		152.343750
7701		146.484375
7702		152.343750
7703		148.437500
7704		150.390625
7705		146.484375
7706		150.390625
7707		144.531250
7708		152.343750
7709		144.531250
7710		152.343750
7711		146.484375
7712		148.437500
7713		144.531250
7714		150.390625
7715		142.578125
7716		152.343750
7717		144.531250
7718		148.437500
7719		144.531250
7720		146.484375
7721		144.531250
7722		146.484375
7723		142.578125
7724		146.484375
7725		140.625000
7726		148.437500
7727		140.625000
7728		146.484375
7729		140.625000
7730		142.578125
7731		136.718750
7732		144.531250
7733		138.671875
7734		140.625000
7735		134.765625
7736		142.578125
7737		136.718750
7738		138.671875
7739		134.765625
7740		136.718750
7741		130.859375
7742		138.671875
7743		130.859375
7744		136.718750
7745		130.859375
7746		132.812500
7747		126.953125
7748		132.812500
7749		126.953125
7750		130.859375
7751		123.046875
7752		130.859375
7753		123.046875
7754		126.953125
7755		121.093750
7756		125.000000
7757		119.140625
7758		123.046875
7759		115.234375
7760		123.046875
7761		115.234375
7762		119.140625
7763		111.328125
7764		117.187500
7765		111.328125
7766		117.187500
7767		107.421875
7768		111.328125
7769		105.468750
7770		109.375000
7771		103.515625
7772		107.421875
7773		101.562500
7774		105.468750
7775		97.656250
7776		101.562500
7777		95.703125
7778		99.609375
7779		93.750000
7780		97.656250
7781		89.843750
7782		95.703125
7783		87.890625
7784		91.796875
7785		83.984375
7786		87.890625
7787		82.031250
7788		85.937500
7789		78.125000
7790		82.031250
7791		76.171875
7792		80.078125
7793		72.265625
7794		76.171875
7795		68.359375
7796		74.218750
7797		66.406250
7798		70.312500
7799		62.500000
7800		68.359375
7801		58.593750
7802		64.453125
7803		56.640625
7804		60.546875
7805		52.734375
7806		56.640625
7807		48.828125
7808		54.687500
7809		46.875000
7810		50.781250
7811		42.968750
7812		46.875000
7813		39.062500
7814		44.921875
7815		35.156250
7816		41.015625
7817		31.250000
7818		37.109375
7819		29.296875
7820		33.203125
7821		25.390625
7822		29.296875
7823		19.531250
7824		25.390625
7825		17.578125
7826		23.437500
7827		13.671875
7828		19.531250
7829		9.765625
7830		15.625000
7831		5.859375
7832		13.671875
7833		1.953125
7834		9.765625
7835		-1.953125
7836		3.906250
7837		-3.906250
7838		0.000000
7839		-7.812500
7840		-3.906250
7841		-13.671875
7842		-5.859375
7843		-15.625000
7844		-9.765625
7845		-21.484375
7846		-13.671875
7847		-25.390625
7848		-15.625000
7849		-27.343750
7850		-19.531250
7851		-31.250000
7852		-23.437500
7853		-33.203125
7854		-27.343750
7855		-37.109375
7856		-33.203125
7857		-42.968750
7858		-35.156250
7859		-46.875000
7860		-39.062500
7861		-48.828125
7862		-42.968750
7863		-52.734375
7864		-44.921875
7865		-56.640625
7866		-48.828125
7867		-58.593750
7868		-52.734375
7869		-62.500000
7870		-56.640625
7871		-66.406250
7872		-60.546875
7873		-70.312500
7874		-64.453125
7875		-72.265625
7876		-66.406250
7877		-76.171875
7878		-70.312500
7879		-80.078125
7880		-72.265625
7881		-82.031250
7882		-76.171875
7883		-85.937500
7884		-78.125000
7885		-87.890625
7886		-82.031250
7887		-91.796875
7888		-85.937500
7889		-93.750000
7890		-89.843750
7891		-97.656250
7892		-91.796875
7893		-99.609375
7894		-93.750000
7895		-103.515625
7896		-97.656250
7897		-105.468750
7898		-99.609375
7899		-107.421875
7900		-101.562500
7901		-109.375000
7902		-105.468750
7903		-111.328125
7904		-107.421875
7905		-115.234375
7906		-111.328125
7907		-117.187500
7908		-113.281250
7909		-119.140625
7910		-115.234375
7911		-121.093750
7912		-117.187500
7913		-125.000000
7914		-119.140625
7915		-126.953125
7916		-121.093750
7917		-126.953125
7918		-123.046875
7919		-128.906250
7920		-125.000000
7921		-130.859375
7922		-126.953125
7923		-132.812500
7924		-128.906250
7925		-134.765625
7926		-128.906250
7927		-136.718750
7928		-130.859375
7929		-136.718750
7930		-132.812500
7931		-140.625000
7932		-132.812500
7933		-140.625000
7934		-136.718750
7935		-142.578125
7936		-136.718750
7937		-142.578125
7938		-138.671875
7939		-142.578125
7940		-140.625000
7941		-144.531250
7942		-140.625000
7943		-144.531250
7944		-142.578125
7945		-146.484375
7946		-142.578125
7947		-148.437500
7948		-140.625000
7949		-146.484375
7950		-142.578125
7951		-146.484375
7952		-142.578125
7953		-148.437500
7954		-142.578125
7955		-146.484375
7956		-144.531250
7957		-146.484375
7958		-144.531250
7959		-148.437500
7960		-144.531250
7961		-146.484375
7962		-144.531250
7963		-148.437500
7964		-142.578125
7965		-146.484375
7966		-142.578125
7967		-146.484375
7968		-142.578125
7969		-146.484375
7970		-140.625000
7971		-144.531250
7972		-142.578125
7973		-144.531250
7974		-140.625000
7975		-144.531250
7976		-140.625000
7977		-142.578125
7978		-138.671875
7979		-142.578125
7980		-138.671875
7981		-142.578125
7982		-136.718750
7983		-138.671875
7984		-136.718750
7985		-138.671875
7986		-134.765625
7987		-136.718750
7988		-132.812500
7989		-134.765625
7990		-130.859375
7991		-132.812500
7992		-128.906250
7993		-130.859375
7994		-126.953125
7995		-130.859375
7996		-125.000000
7997		-128.906250
7998		-121.093750
7999		-125.000000
8000		-121.093750
8001		-123.046875
8002		-119.140625
8003		-123.046875
8004		-117.187500
8005		-119.140625
8006		-115.234375
8007		-117.187500
8008		-113.281250
8009		-115.234375
8010		-109.375000
8011		-111.328125
8012		-107.421875
8013		-109.375000
8014		-105.468750
8015		-107.421875
8016		-103.515625
8017		-103.515625
8018		-99.609375
8019		-101.562500
8020		-97.656250
8021		-99.609375
8022		-93.750000
8023		-95.703125
8024		-91.796875
8025		-91.796875
8026		-87.890625
8027		-89.843750
8028		-83.984375
8029		-85.937500
8030		-82.031250
8031		-83.984375
8032		-78.125000
8033		-80.078125
8034		-76.171875
8035		-78.125000
8036		-72.265625
8037		-74.218750
8038		-68.359375
8039		-70.312500
8040		-64.453125
8041		-66.406250
8042		-60.546875
8043		-62.500000
8044		-56.640625
8045		-58.593750
8046		-54.687500
8047		-56.640625
8048		-50.781250
8049		-52.734375
8050		-46.875000
8051		-48.828125
8052		-42.968750
8053		-44.921875
8054		-39.062500
8055		-41.015625
8056		-37.109375
8057		-37.109375
8058		-33.203125
8059		-35.156250
8060		-29.296875
8061		-31.250000
8062		-25.390625
8063		-27.343750
8064		-21.484375
8065		-23.437500
8066		-17.578125
8067		-19.531250
8068		-13.671875
8069		-15.625000
8070		-9.765625
8071		-11.718750
8072		-5.859375
8073		-7.812500
8074		-3.906250
8075		-5.859375
8076		1.953125
8077		-1.953125
8078		3.906250
8079		1.953125
8080		7.812500
8081		5.859375
8082		11.718750
8083		9.765625
8084		15.625000
8085		13.671875
8086		19.531250
8087		17.578125
8088		21.484375
8089		21.484375
8090		25.390625
8091		25.390625
8092		29.296875
8093		27.343750
8094		33.203125
8095		31.250000
8096		37.109375
8097		35.156250
8098		41.015625
8099		39.062500
8100		42.968750
8101		42.968750
8102		46.875000
8103		44.921875
8104		50.781250
8105		46.875000
8106		54.687500
8107		52.734375
8108		56.640625
8109		56.640625
8110		60.546875
8111		58.593750
8112		64.453125
8113		62.500000
8114		66.406250
8115		64.453125
8116		70.312500
8117		68.359375
8118		72.265625
8119		72.265625
8120		76.171875
8121		74.218750
8122		80.078125
8123		78.125000
8124		82.031250
8125		80.078125
8126		85.937500
8127		83.984375
8128		87.890625
8129		85.937500
8130		89.843750
8131		87.890625
8132		93.750000
8133		91.796875
8134		95.703125
8135		93.750000
8136		99.609375
8137		95.703125
8138		101.562500
8139		99.609375
8140		103.515625
8141		101.562500
8142		105.468750
8143		103.515625
8144		107.421875
8145		105.468750
8146		111.328125
8147		109.375000
8148		113.281250
8149		111.328125
8150		115.234375
8151		113.281250
8152		117.187500
8153		115.234375
8154		119.140625
8155		117.187500
8156		121.093750
8157		119.140625
8158		123.046875
8159		121.093750
8160		125.000000
8161		123.046875
8162		126.953125
8163		125.000000
8164		128.906250
8165		126.953125
8166		130.859375
8167		128.906250
8168		132.812500
8169		130.859375
8170		134.765625
8171		130.859375
8172		134.765625
8173		132.812500
8174		136.718750
8175		132.812500
8176		136.718750
8177		134.765625
8178		138.671875
8179		136.718750
8180		140.625000
8181		138.671875
8182		140.625000
8183		138.671875
8184		142.578125
8185		140.625000
8186		142.578125
8187		140.625000
8188		144.531250
8189		142.578125
8190		144.531250
8191		142.578125
8192		146.484375
8193		142.578125
8194		146.484375
8195		144.531250
8196		148.437500
8197		144.531250
8198		148.437500
8199		144.531250
8200		148.437500
8201		146.484375
8202		148.437500
8203		146.484375
8204		150.390625
8205		146.484375
8206		150.390625
8207		146.484375
8208		150.390625
8209		146.484375
8210		150.390625
8211		146.484375
8212		150.390625
8213		146.484375
8214		150.390625
8215		146.484375
8216		150.390625
8217		146.484375
8218		150.390625
8219		146.484375
8220		150.390625
8221		146.484375
8222		150.390625
8223		146.484375
8224		148.437500
8225		146.484375
8226		148.437500
8227		146.484375
8228		150.390625
8229		144.531250
8230		148.437500
8231		144.531250
8232		148.437500
8233		144.531250
8234		146.484375
8235		142.578125
8236		146.484375
8237		142.578125
8238		144.531250
8239		140.625000
8240		144.531250
8241		140.625000
8242		142.578125
8243		138.671875
8244		142.578125
8245		136.718750
8246		142.578125
8247		136.718750
8248		140.625000
8249		136.718750
8250		138.671875
8251		134.765625
8252		138.671875
8253		132.812500
8254		136.718750
8255		130.859375
8256		134.765625
8257		130.859375
8258		134.765625
8259		128.906250
8260		132.812500
8261		126.953125
8262		130.859375
8263		125.000000
8264		128.906250
8265		123.046875
8266		126.953125
8267		121.093750
8268		125.000000
8269		119.140625
8270		123.046875
8271		117.187500
8272		121.093750
8273		115.234375
8274		119.140625
8275		113.281250
8276		117.187500
8277		111.328125
8278		115.234375
8279		109.375000
8280		113.281250
8281		107.421875
8282		111.328125
8283		103.515625
8284		109.375000
8285		101.562500
8286		105.468750
8287		99.609375
8288		103.515625
8289		95.703125
8290		101.562500
8291		93.750000
8292		97.656250
8293		91.796875
8294		95.703125
8295		87.890625
8296		93.750000
8297		85.937500
8298		89.843750
8299		82.031250
8300		87.890625
8301		80.078125
8302		83.984375
8303		76.171875
8304		82.031250
8305		72.265625
8306		78.125000
8307		70.312500
8308		74.218750
8309		66.406250
8310		72.265625
8311		64.453125
8312		68.359375
8313		60.546875
8314		66.406250
8315		56.640625
8316		62.500000
8317		54.687500
8318		58.593750
8319		50.781250
8320		54.687500
8321		46.875000
8322		52.734375
8323		44.921875
8324		48.828125
8325		41.015625
8326		44.921875
8327		35.156250
8328		42.968750
8329		33.203125
8330		39.062500
8331		29.296875
8332		35.156250
8333		25.390625
8334		31.250000
8335		21.484375
8336		27.343750
8337		17.578125
8338		23.437500
8339		15.625000
8340		19.531250
8341		11.718750
8342		15.625000
8343		7.812500
8344		13.671875
8345		3.906250
8346		9.765625
8347		0.000000
8348		5.859375
8349		-3.906250
8350		1.953125
8351		-7.812500
8352		-1.953125
8353		-9.765625
8354		-5.859375
8355		-15.625000
8356		-9.765625
8357		-17.578125
8358		-13.671875
8359		-21.484375
8360		-17.578125
8361		-25.390625
8362		-19.531250
8363		-29.296875
8364		-23.437500
8365		-33.203125
8366		-27.343750
8367		-37.109375
8368		-31.250000
8369		-39.062500
8370		-35.156250
8371		-42.968750
8372		-39.062500
8373		-46.875000
8374		-41.015625
8375		-50.781250
8376		-44.921875
8377		-54.687500
8378		-48.828125
8379		-58.593750
8380		-50.781250
8381		-60.546875
8382		-56.640625
8383		-64.453125
8384		-58.593750
8385		-68.359375
8386		-62.500000
8387		-72.265625
8388		-66.406250
8389		-74.218750
8390		-70.312500
8391		-78.125000
8392		-72.265625
8393		-80.078125
8394		-76.171875
8395		-83.984375
8396		-80.078125
8397		-87.890625
8398		-82.031250
8399		-89.843750
8400		-85.937500
8401		-91.796875
8402		-87.890625
8403		-95.703125
8404		-91.796875
8405		-97.656250
8406		-93.750000
8407		-101.562500
8408		-97.656250
8409		-103.515625
8410		-99.609375
8411		-107.421875
8412		-103.515625
8413		-109.375000
8414		-105.468750
8415		-111.328125
8416		-107.421875
8417		-115.234375
8418		-111.328125
8419		-117.187500
8420		-113.281250
8421		-119.140625
8422		-113.281250
8423		-121.093750
8424		-117.187500
8425		-123.046875
8426		-119.140625
8427		-125.000000
8428		-121.093750
8429		-126.953125
8430		-123.046875
8431		-128.906250
8432		-125.000000
8433		-130.859375
8434		-126.953125
8435		-132.812500
8436		-128.906250
8437		-134.765625
8438		-130.859375
8439		-136.718750
8440		-132.812500
8441		-136.718750
8442		-132.812500
8443		-138.671875
8444		-134.765625
8445		-140.625000
8446		-136.718750
8447		-142.578125
8448		-138.671875
8449		-142.578125
8450		-138.671875
8451		-142.578125
8452		-140.625000
8453		-144.531250
8454		-140.625000
8455		-144.531250
8456		-140.625000
8457		-146.484375
8458		-142.578125
8459		-146.484375
8460		-144.531250
8461		-146.484375
8462		-144.531250
8463		-148.437500
8464		-142.578125
8465		-148.437500
8466		-144.531250
8467		-148.437500
8468		-144.531250
8469		-148.437500
8470		-144.531250
8471		-148.437500
8472		-144.531250
8473		-148.437500
8474		-144.531250
8475		-146.484375
8476		-144.531250
8477		-146.484375
8478		-144.531250
8479		-148.437500
8480		-142.578125
8481		-146.484375
8482		-142.578125
8483		-146.484375
8484		-142.578125
8485		-144.531250
8486		-142.578125
8487		-144.531250
8488		-140.625000
8489		-144.531250
8490		-140.625000
8491		-142.578125
8492		-140.625000
8493		-142.578125
8494		-138.671875
8495		-140.625000
8496		-136.718750
8497		-140.625000
8498		-136.718750
8499		-138.671875
8500		-134.765625
8501		-136.718750
8502		-132.812500
8503		-134.765625
8504		-130.859375
8505		-134.765625
8506		-128.906250
8507		-132.812500
8508		-126.953125
8509		-128.906250
8510		-126.953125
8511		-126.953125
8512		-125.000000
8513		-125.000000
8514		-121.093750
8515		-123.046875
8516		-119.140625
8517		-123.046875
8518		-117.187500
8519		-119.140625
8520		-115.234375
8521		-117.187500
8522		-113.281250
8523		-115.234375
8524		-109.375000
8525		-111.328125
8526		-107.421875
8527		-109.375000
8528		-105.468750
8529		-107.421875
8530		-101.562500
8531		-103.515625
8532		-99.609375
8533		-101.562500
8534		-95.703125
8535		-97.656250
8536		-93.750000
8537		-95.703125
8538		-91.796875
8539		-91.796875
8540		-87.890625
8541		-89.843750
8542		-83.984375
8543		-85.937500
8544		-82.031250
8545		-82.031250
8546		-78.125000
8547		-80.078125
8548		-76.171875
8549		-76.171875
8550		-72.265625
8551		-72.265625
8552		-68.359375
8553		-70.312500
8554		-64.453125
8555		-66.406250
8556		-62.500000
8557		-62.500000
8558		-58.593750
8559		-60.546875
8560		-54.687500
8561		-56.640625
8562		-50.781250
8563		-52.734375
8564		-46.875000
8565		-48.828125
8566		-42.968750
8567		-44.921875
8568		-41.015625
8569		-42.968750
8570		-35.156250
8571		-37.109375
8572		-33.203125
8573		-35.156250
8574		-29.296875
8575		-31.250000
8576		-25.390625
8577		-27.343750
8578		-21.484375
8579		-23.437500
8580		-17.578125
8581		-19.531250
8582		-13.671875
8583		-15.625000
8584		-9.765625
8585		-11.718750
8586		-5.859375
8587		-9.765625
8588		-1.953125
8589		-3.906250
8590		0.000000
8591		0.000000
8592		3.906250
8593		1.953125
8594		7.812500
8595		5.859375
8596		11.718750
8597		9.765625
8598		17.578125
8599		13.671875
8600		19.531250
8601		17.578125
8602		23.437500
8603		21.484375
8604		25.390625
8605		23.437500
8606		29.296875
8607		27.343750
8608		33.203125
8609		31.250000
8610		37.109375
8611		35.156250
8612		39.062500
8613		39.062500
8614		46.875000
8615		41.015625
8616		48.828125
8617		42.968750
8618		52.734375
8619		46.875000
8620		54.687500
8621		50.781250
8622		58.593750
8623		54.687500
8624		62.500000
8625		56.640625
8626		62.500000
8627		62.500000
8628		66.406250
8629		64.453125
8630		70.312500
8631		68.359375
8632		74.218750
8633		70.312500
8634		78.125000
8635		74.218750
8636		80.078125
8637		76.171875
8638		82.031250
8639		78.125000
8640		83.984375
8641		82.031250
8642		87.890625
8643		83.984375
8644		89.843750
8645		87.890625
8646		93.750000
8647		91.796875
8648		97.656250
8649		93.750000
8650		99.609375
8651		93.750000
8652		101.562500
8653		97.656250
8654		105.468750
8655		99.609375
8656		107.421875
8657		103.515625
8658		109.375000
8659		105.468750
8660		111.328125
8661		109.375000
8662		113.281250
8663		111.328125
8664		115.234375
8665		111.328125
8666		117.187500
8667		113.281250
8668		119.140625
8669		117.187500
8670		121.093750
8671		117.187500
8672		123.046875
8673		121.093750
8674		125.000000
8675		121.093750
8676		126.953125
8677		125.000000
8678		128.906250
8679		126.953125
8680		128.906250
8681		126.953125
8682		132.812500
8683		126.953125
8684		134.765625
8685		130.859375
8686		136.718750
8687		130.859375
8688		136.718750
8689		132.812500
8690		138.671875
8691		132.812500
8692		140.625000
8693		134.765625
8694		140.625000
8695		136.718750
8696		140.625000
8697		138.671875
8698		142.578125
8699		138.671875
8700		144.531250
8701		138.671875
8702		144.531250
8703		140.625000
8704		146.484375
8705		140.625000
8706		146.484375
8707		140.625000
8708		148.437500
8709		142.578125
8710		148.437500
8711		144.531250
8712		146.484375
8713		144.531250
8714		146.484375
8715		142.578125
8716		150.390625
8717		144.531250
8718		150.390625
8719		144.531250
8720		150.390625
8721		144.531250
8722		150.390625
8723		144.531250
8724		150.390625
8725		144.531250
8726		150.390625
8727		144.531250
8728		150.390625
8729		146.484375
8730		148.437500
8731		144.531250
8732		150.390625
8733		144.531250
8734		152.343750
8735		144.531250
8736		150.390625
8737		144.531250
8738		150.390625
8739		142.578125
8740		150.390625
8741		142.578125
8742		150.390625
8743		142.578125
8744		148.437500
8745		144.531250
8746		146.484375
8747		142.578125
8748		146.484375
8749		140.625000
8750		144.531250
8751		140.625000
8752		146.484375
8753		138.671875
8754		144.531250
8755		138.671875
8756		144.531250
8757		136.718750
8758		142.578125
8759		136.718750
8760		142.578125
8761		136.718750
8762		138.671875
8763		134.765625
8764		138.671875
8765		132.812500
8766		138.671875
8767		130.859375
8768		136.718750
8769		128.906250
8770		136.718750
8771		126.953125
8772		134.765625
8773		125.000000
8774		132.812500
8775		125.000000
8776		130.859375
8777		123.046875
8778		128.906250
8779		123.046875
8780		125.000000
8781		121.093750
8782		125.000000
8783		117.187500
8784		125.000000
8785		115.234375
8786		123.046875
8787		113.281250
8788		121.093750
8789		111.328125
8790		117.187500
8791		107.421875
8792		115.234375
8793		107.421875
8794		113.281250
8795		105.468750
8796		109.375000
8797		103.515625
8798		107.421875
8799		97.656250
8800		105.468750
8801		95.703125
8802		103.515625
8803		93.750000
8804		101.562500
8805		89.843750
8806		97.656250
8807		87.890625
8808		95.703125
8809		85.937500
8810		93.750000
8811		83.984375
8812		91.796875
8813		82.031250
8814		85.937500
8815		76.171875
8816		82.031250
8817		74.218750
8818		80.078125
8819		70.312500
8820		78.125000
8821		66.406250
8822		74.218750
8823		62.500000
8824		72.265625
8825		60.546875
8826		68.359375
8827		58.593750
8828		66.406250
8829		56.640625
8830		60.546875
8831		50.781250
8832		56.640625
8833		48.828125
8834		54.687500
8835		42.968750
8836		52.734375
8837		41.015625
8838		48.828125
8839		37.109375
8840		44.921875
8841		33.203125
8842		41.015625
8843		29.296875
8844		37.109375
8845		27.343750
8846		33.203125
8847		23.437500
8848		29.296875
8849		19.531250
8850		25.390625
8851		15.625000
8852		23.437500
8853		11.718750
8854		19.531250
8855		7.812500
8856		15.625000
8857		3.906250
8858		11.718750
8859		0.000000
8860		9.765625
8861		-1.953125
8862		3.906250
8863		-5.859375
8864		0.000000
8865		-9.765625
8866		-3.906250
8867		-15.625000
8868		-5.859375
8869		-17.578125
8870		-9.765625
8871		-21.484375
8872		-13.671875
8873		-25.390625
8874		-17.578125
8875		-29.296875
8876		-21.484375
8877		-33.203125
8878		-25.390625
8879		-35.156250
8880		-29.296875
8881		-39.062500
8882		-33.203125
8883		-42.968750
8884		-35.156250
8885		-46.875000
8886		-39.062500
8887		-50.781250
8888		-42.968750
8889		-54.687500
8890		-46.875000
8891		-58.593750
8892		-48.828125
8893		-60.546875
8894		-52.734375
8895		-62.500000
8896		-56.640625
8897		-66.406250
8898		-62.500000
8899		-72.265625
8900		-64.453125
8901		-74.218750
8902		-66.406250
8903		-78.125000
8904		-70.312500
8905		-80.078125
8906		-74.218750
8907		-83.984375
8908		-76.171875
8909		-87.890625
8910		-80.078125
8911		-89.843750
8912		-82.031250
8913		-91.796875
8914		-87.890625
8915		-95.703125
8916		-89.843750
8917		-99.609375
8918		-91.796875
8919		-101.562500
8920		-93.750000
8921		-105.468750
8922		-97.656250
8923		-107.421875
8924		-99.609375
8925		-109.375000
8926		-101.562500
8927		-111.328125
8928		-105.468750
8929		-113.281250
8930		-109.375000
8931		-115.234375
8932		-111.328125
8933		-119.140625
8934		-113.281250
8935		-121.093750
8936		-115.234375
8937		-123.046875
8938		-117.187500
8939		-126.953125
8940		-119.140625
8941		-126.953125
8942		-121.093750
8943		-130.859375
8944		-123.046875
8945		-130.859375
8946		-125.000000
8947		-132.812500
8948		-128.906250
8949		-134.765625
8950		-130.859375
8951		-136.718750
8952		-130.859375
8953		-138.671875
8954		-132.812500
8955		-140.625000
8956		-132.812500
8957		-140.625000
8958		-134.765625
8959		-142.578125
8960		-136.718750
8961		-144.531250
8962		-136.718750
8963		-142.578125
8964		-140.625000
8965		-144.531250
8966		-140.625000
8967		-146.484375
8968		-140.625000
8969		-146.484375
8970		-140.625000
8971		-148.437500
8972		-140.625000
8973		-148.437500
8974		-142.578125
8975		-148.437500
8976		-142.578125
8977		-148.437500
8978		-142.578125
8979		-148.437500
8980		-142.578125
8981		-148.437500
8982		-144.531250
8983		-150.390625
8984		-142.578125
8985		-150.390625
8986		-142.578125
8987		-150.390625
8988		-142.578125
8989		-150.390625
8990		-142.578125
8991		-148.437500
8992		-142.578125
8993		-148.437500
8994		-142.578125
8995		-148.437500
8996		-142.578125
8997		-146.484375
8998		-142.578125
8999		-144.531250
9000		-142.578125
9001		-146.484375
9002		-138.671875
9003		-146.484375
9004		-138.671875
9005		-142.578125
9006		-138.671875
9007		-144.531250
9008		-136.718750
9009		-142.578125
9010		-134.765625
9011		-140.625000
9012		-132.812500
9013		-138.671875
9014		-134.765625
9015		-136.718750
9016		-132.812500
9017		-134.765625
9018		-128.906250
9019		-134.765625
9020		-126.953125
9021		-132.812500
9022		-125.000000
9023		-130.859375
9024		-123.046875
9025		-128.906250
9026		-121.093750
9027		-125.000000
9028		-119.140625
9029		-125.000000
9030		-117.187500
9031		-121.093750
9032		-117.187500
9033		-119.140625
9034		-113.281250
9035		-117.187500
9036		-109.375000
9037		-115.234375
9038		-107.421875
9039		-113.281250
9040		-105.468750
9041		-109.375000
9042		-103.515625
9043		-107.421875
9044		-97.656250
9045		-103.515625
9046		-97.656250
9047		-99.609375
9048		-95.703125
9049		-97.656250
9050		-93.750000
9051		-95.703125
9052		-87.890625
9053		-91.796875
9054		-85.937500
9055		-89.843750
9056		-82.031250
9057		-85.937500
9058		-78.125000
9059		-82.031250
9060		-74.218750
9061		-80.078125
9062		-72.265625
9063		-76.171875
9064		-70.312500
9065		-72.265625
9066		-66.406250
9067		-68.359375
9068		-62.500000
9069		-66.406250
9070		-58.593750
9071		-64.453125
9072		-54.687500
9073		-58.593750
9074		-50.781250
9075		-56.640625
9076		-46.875000
9077		-50.781250
9078		-44.921875
9079		-48.828125
9080		-41.015625
9081		-42.968750
9082		-39.062500
9083		-41.015625
9084		-35.156250
9085		-37.109375
9086		-29.296875
9087		-35.156250
9088		-25.390625
9089		-29.296875
9090		-23.437500
9091		-27.343750
9092		-19.531250
9093		-23.437500
9094		-15.625000
9095		-19.531250
9096		-11.718750
9097		-15.625000
9098		-9.765625
9099		-9.765625
9100		-3.906250
9101		-7.812500
9102		0.000000
9103		-3.906250
9104		3.906250
9105		-1.953125
9106		7.812500
9107		1.953125
9108		11.718750
9109		5.859375
9110		15.625000
9111		9.765625
9112		17.578125
9113		13.671875
9114		19.531250
9115		19.531250
9116		23.437500
9117		23.437500
9118		27.343750
9119		23.437500
9120		33.203125
9121		29.296875
9122		35.156250
9123		29.296875
9124		39.062500
9125		33.203125
9126		42.968750
9127		39.062500
9128		46.875000
9129		41.015625
9130		48.828125
9131		46.875000
9132		50.781250
9133		50.781250
9134		54.687500
9135		52.734375
9136		60.546875
9137		54.687500
9138		62.500000
9139		60.546875
9140		66.406250
9141		60.546875
9142		68.359375
9143		64.453125
9144		72.265625
9145		68.359375
9146		76.171875
9147		70.312500
9148		76.171875
9149		76.171875
9150		80.078125
9151		78.125000
9152		83.984375
9153		80.078125
9154		87.890625
9155		82.031250
9156		89.843750
9157		85.937500
9158		91.796875
9159		87.890625
9160		95.703125
9161		89.843750
9162		97.656250
9163		93.750000
9164		101.562500
9165		97.656250
9166		101.562500
9167		99.609375
9168		103.515625
9169		101.562500
9170		109.375000
9171		103.515625
9172		109.375000
9173		105.468750
9174		113.281250
9175		109.375000
9176		115.234375
9177		109.375000
9178		117.187500
9179		111.328125
9180		121.093750
9181		115.234375
9182		119.140625
9183		117.187500
9184		121.093750
9185		117.187500
9186		125.000000
9187		119.140625
9188		126.953125
9189		121.093750
9190		128.906250
9191		123.046875
9192		130.859375
9193		125.000000
9194		132.812500
9195		126.953125
9196		134.765625
9197		128.906250
9198		134.765625
9199		130.859375
9200		134.765625
9201		132.812500
9202		136.718750
9203		132.812500
9204		138.671875
9205		132.812500
9206		140.625000
9207		134.765625
9208		142.578125
9209		136.718750
9210		142.578125
9211		136.718750
9212		144.531250
9213		138.671875
9214		146.484375
9215		140.625000
9216		144.531250
9217		142.578125
9218		144.531250
9219		140.625000
9220		146.484375
9221		140.625000
9222		148.437500
9223		142.578125
9224		148.437500
9225		142.578125
9226		150.390625
9227		142.578125
9228		150.390625
9229		144.531250
9230		150.390625
9231		144.531250
9232		150.390625
9233		146.484375
9234		150.390625
9235		146.484375
9236		150.390625
9237		144.531250
9238		152.343750
9239		144.531250
9240		152.343750
9241		144.531250
9242		150.390625
9243		144.531250
9244		150.390625
9245		144.531250
9246		150.390625
9247		144.531250
9248		150.390625
9249		146.484375
9250		148.437500
9251		146.484375
9252		148.437500
9253		142.578125
9254		150.390625
9255		142.578125
9256		150.390625
9257		142.578125
9258		150.390625
9259		142.578125
9260		148.437500
9261		140.625000
9262		148.437500
9263		140.625000
9264		146.484375
9265		140.625000
9266		146.484375
9267		140.625000
9268		142.578125
9269		138.671875
9270		144.531250
9271		136.718750
9272		142.578125
9273		136.718750
9274		142.578125
9275		134.765625
9276		140.625000
9277		132.812500
9278		140.625000
9279		130.859375
9280		138.671875
9281		130.859375
9282		136.718750
9283		130.859375
9284		134.765625
9285		128.906250
9286		132.812500
9287		125.000000
9288		132.812500
9289		125.000000
9290		130.859375
9291		121.093750
9292		128.906250
9293		119.140625
9294		126.953125
9295		117.187500
9296		125.000000
9297		115.234375
9298		125.000000
9299		115.234375
9300		119.140625
9301		113.281250
9302		117.187500
9303		109.375000
9304		115.234375
9305		107.421875
9306		115.234375
9307		105.468750
9308		113.281250
9309		103.515625
9310		109.375000
9311		99.609375
9312		107.421875
9313		97.656250
9314		105.468750
9315		97.656250
9316		103.515625
9317		93.750000
9318		97.656250
9319		89.843750
9320		95.703125
9321		85.937500
9322		95.703125
9323		83.984375
9324		91.796875
9325		82.031250
9326		89.843750
9327		78.125000
9328		85.937500
9329		74.218750
9330		83.984375
9331		72.265625
9332		80.078125
9333		70.312500
9334		76.171875
9335		68.359375
9336		72.265625
9337		62.500000
9338		70.312500
9339		58.593750
9340		66.406250
9341		54.687500
9342		64.453125
9343		52.734375
9344		60.546875
9345		48.828125
9346		56.640625
9347		46.875000
9348		54.687500
9349		44.921875
9350		50.781250
9351		41.015625
9352		44.921875
9353		35.156250
9354		42.968750
9355		31.250000
9356		41.015625
9357		29.296875
9358		37.109375
9359		23.437500
9360		33.203125
9361		21.484375
9362		29.296875
9363		17.578125
9364		25.390625
9365		15.625000
9366		21.484375
9367		11.718750
9368		17.578125
9369		5.859375
9370		13.671875
9371		1.953125
9372		11.718750
9373		-1.953125
9374		7.812500
9375		-5.859375
9376		3.906250
9377		-7.812500
9378		0.000000
9379		-11.718750
9380		-3.906250
9381		-17.578125
9382		-7.812500
9383		-17.578125
9384		-13.671875
9385		-21.484375
9386		-17.578125
9387		-27.343750
9388		-19.531250
9389		-31.250000
9390		-21.484375
9391		-33.203125
9392		-27.343750
9393		-37.109375
9394		-29.296875
9395		-41.015625
9396		-33.203125
9397		-44.921875
9398		-37.109375
9399		-46.875000
9400		-41.015625
9401		-50.781250
9402		-44.921875
9403		-56.640625
9404		-48.828125
9405		-58.593750
9406		-50.781250
9407		-62.500000
9408		-54.687500
9409		-66.406250
9410		-56.640625
9411		-68.359375
9412		-62.500000
9413		-72.265625
9414		-64.453125
9415		-76.171875
9416		-68.359375
9417		-78.125000
9418		-72.265625
9419		-80.078125
9420		-76.171875
9421		-85.937500
9422		-78.125000
9423		-87.890625
9424		-82.031250
9425		-93.750000
9426		-83.984375
9427		-95.703125
9428		-87.890625
9429		-97.656250
9430		-89.843750
9431		-99.609375
9432		-93.750000
9433		-101.562500
9434		-95.703125
9435		-103.515625
9436		-99.609375
9437		-109.375000
9438		-103.515625
9439		-111.328125
9440		-103.515625
9441		-113.281250
9442		-105.468750
9443		-115.234375
9444		-109.375000
9445		-119.140625
9446		-111.328125
9447		-121.093750
9448		-113.281250
9449		-123.046875
9450		-115.234375
9451		-123.046875
9452		-119.140625
9453		-126.953125
9454		-123.046875
9455		-128.906250
9456		-123.046875
9457		-130.859375
9458		-125.000000
9459		-132.812500
9460		-125.000000
9461		-134.765625
9462		-126.953125
9463		-136.718750
9464		-128.906250
9465		-138.671875
9466		-130.859375
9467		-138.671875
9468		-134.765625
9469		-138.671875
9470		-136.718750
9471		-142.578125
9472		-136.718750
9473		-144.531250
9474		-136.718750
9475		-144.531250
9476		-138.671875
9477		-146.484375
9478		-138.671875
9479		-146.484375
9480		-140.625000
9481		-148.437500
9482		-140.625000
9483		-146.484375
9484		-140.625000
9485		-148.437500
9486		-144.531250
9487		-148.437500
9488		-144.531250
9489		-150.390625
9490		-142.578125
9491		-150.390625
9492		-144.531250
9493		-150.390625
9494		-144.531250
9495		-150.390625
9496		-144.531250
9497		-150.390625
9498		-144.531250
9499		-150.390625
9500		-144.531250
9501		-148.437500
9502		-146.484375
9503		-148.437500
9504		-146.484375
9505		-148.437500
9506		-144.531250
9507		-148.437500
9508		-142.578125
9509		-148.437500
9510		-142.578125
9511		-146.484375
9512		-142.578125
9513		-146.484375
9514		-140.625000
9515		-144.531250
9516		-140.625000
9517		-144.531250
9518		-140.625000
9519		-142.578125
9520		-138.671875
9521		-142.578125
9522		-136.718750
9523		-140.625000
9524		-134.765625
9525		-140.625000
9526		-132.812500
9527		-138.671875
9528		-132.812500
9529		-138.671875
9530		-130.859375
9531		-134.765625
9532		-128.906250
9533		-134.765625
9534		-126.953125
9535		-130.859375
9536		-126.953125
9537		-128.906250
9538		-125.000000
9539		-128.906250
9540		-121.093750
9541		-126.953125
9542		-119.140625
9543		-125.000000
9544		-117.187500
9545		-121.093750
9546		-113.281250
9547		-119.140625
9548		-111.328125
9549		-117.187500
9550		-109.375000
9551		-113.281250
9552		-109.375000
9553		-109.375000
9554		-105.468750
9555		-107.421875
9556		-101.562500
9557		-107.421875
9558		-97.656250
9559		-103.515625
9560		-95.703125
9561		-101.562500
9562		-91.796875
9563		-97.656250
9564		-89.843750
9565		-95.703125
9566		-85.937500
9567		-91.796875
9568		-85.937500
9569		-85.937500
9570		-82.031250
9571		-83.984375
9572		-78.125000
9573		-82.031250
9574		-74.218750
9575		-80.078125
9576		-72.265625
9577		-76.171875
9578		-66.406250
9579		-72.265625
9580		-64.453125
9581		-68.359375
9582		-60.546875
9583		-64.453125
9584		-58.593750
9585		-60.546875
9586		-54.687500
9587		-56.640625
9588		-52.734375
9589		-52.734375
9590		-46.875000
9591		-50.781250
9592		-42.968750
9593		-48.828125
9594		-39.062500
9595		-44.921875
9596		-37.109375
9597		-41.015625
9598		-31.250000
9599		-35.156250
9600		-29.296875
9601		-33.203125
9602		-25.390625
9603		-27.343750
9604		-21.484375
9605		-23.437500
9606		-17.578125
9607		-21.484375
9608		-13.671875
9609		-19.531250
9610		-9.765625
9611		-13.671875
9612		-7.812500
9613		-11.718750
9614		-1.953125
9615		-7.812500
9616		1.953125
9617		-3.906250
9618		3.906250
9619		1.953125
9620		5.859375
9621		5.859375
9622		9.765625
9623		7.812500
9624		17.578125
9625		11.718750
9626		19.531250
9627		15.625000
9628		23.437500
9629		17.578125
9630		27.343750
9631		21.484375
9632		29.296875
9633		25.390625
9634		33.203125
9635		29.296875
9636		37.109375
9637		33.203125
9638		39.062500
9639		37.109375
9640		42.968750
9641		39.062500
9642		48.828125
9643		42.968750
9644		50.781250
9645		46.875000
9646		54.687500
9647		48.828125
9648		58.593750
9649		52.734375
9650		60.546875
9651		56.640625
9652		62.500000
9653		60.546875
9654		66.406250
9655		64.453125
9656		70.312500
9657		66.406250
9658		74.218750
9659		68.359375
9660		76.171875
9661		72.265625
9662		80.078125
9663		74.218750
9664		82.031250
9665		76.171875
9666		85.937500
9667		80.078125
9668		87.890625
9669		85.937500
9670		89.843750
9671		87.890625
9672		91.796875
9673		89.843750
9674		95.703125
9675		91.796875
9676		99.609375
9677		93.750000
9678		101.562500
9679		95.703125
9680		103.515625
9681		99.609375
9682		107.421875
9683		101.562500
9684		109.375000
9685		105.468750
9686		109.375000
9687		107.421875
9688		111.328125
9689		109.375000
9690		115.234375
9691		111.328125
9692		117.187500
9693		113.281250
9694		119.140625
9695		113.281250
9696		123.046875
9697		117.187500
9698		123.046875
9699		117.187500
9700		125.000000
9701		121.093750
9702		126.953125
9703		125.000000
9704		126.953125
9705		125.000000
9706		128.906250
9707		125.000000
9708		132.812500
9709		126.953125
9710		134.765625
9711		128.906250
9712		134.765625
9713		128.906250
9714		136.718750
9715		130.859375
9716		138.671875
9717		132.812500
9718		138.671875
9719		134.765625
9720		138.671875
9721		136.718750
9722		140.625000
9723		136.718750
9724		142.578125
9725		136.718750
9726		144.531250
9727		138.671875
9728		144.531250
9729		138.671875
9730		146.484375
9731		140.625000
9732		146.484375
9733		140.625000
9734		148.437500
9735		140.625000
9736		148.437500
9737		144.531250
9738		146.484375
9739		144.531250
9740		148.437500
9741		142.578125
9742		150.390625
9743		144.531250
9744		150.390625
9745		144.531250
9746		150.390625
9747		144.531250
9748		150.390625
9749		144.531250
9750		150.390625
9751		144.531250
9752		150.390625
9753		146.484375
9754		150.390625
9755		146.484375
9756		148.437500
9757		144.531250
9758		150.390625
9759		144.531250
9760		150.390625
9761		144.531250
9762		150.390625
9763		144.531250
9764		150.390625
9765		142.578125
9766		150.390625
9767		142.578125
9768		148.437500
9769		142.578125
9770		148.437500
9771		144.531250
9772		146.484375
9773		140.625000
9774		146.484375
9775		138.671875
9776		146.484375
9777		140.625000
9778		146.484375
9779		138.671875
9780		144.531250
9781		138.671875
9782		144.531250
9783		136.718750
9784		144.531250
9785		136.718750
9786		142.578125
9787		136.718750
9788		138.671875
9789		134.765625
9790		138.671875
9791		132.812500
9792		138.671875
9793		130.859375
9794		138.671875
9795		128.906250
9796		136.718750
9797		126.953125
9798		134.765625
9799		126.953125
9800		132.812500
9801		125.000000
9802		130.859375
9803		125.000000
9804		128.906250
9805		123.046875
9806		126.953125
9807		119.140625
9808		125.000000
9809		117.187500
9810		125.000000
9811		115.234375
9812		123.046875
9813		113.281250
9814		121.093750
9815		111.328125
9816		119.140625
9817		109.375000
9818		117.187500
9819		107.421875
9820		113.281250
9821		105.468750
9822		109.375000
9823		103.515625
9824		107.421875
9825		99.609375
9826		107.421875
9827		95.703125
9828		103.515625
9829		93.750000
9830		101.562500
9831		89.843750
9832		99.609375
9833		87.890625
9834		95.703125
9835		85.937500
9836		93.750000
9837		83.984375
9838		89.843750
9839		82.031250
9840		85.937500
9841		76.171875
9842		83.984375
9843		74.218750
9844		82.031250
9845		70.312500
9846		80.078125
9847		68.359375
9848		76.171875
9849		64.453125
9850		72.265625
9851		62.500000
9852		70.312500
9853		60.546875
9854		66.406250
9855		56.640625
9856		60.546875
9857		52.734375
9858		58.593750
9859		48.828125
9860		56.640625
9861		46.875000
9862		52.734375
9863		41.015625
9864		48.828125
9865		39.062500
9866		44.921875
9867		33.203125
9868		42.968750
9869		31.250000
9870		39.062500
9871		27.343750
9872		33.203125
9873		25.390625
9874		29.296875
9875		19.531250
9876		27.343750
9877		15.625000
9878		25.390625
9879		11.718750
9880		21.484375
9881		7.812500
9882		17.578125
9883		5.859375
9884		13.671875
9885		1.953125
9886		9.765625
9887		0.000000
9888		5.859375
9889		-3.906250
9890		0.000000
9891		-9.765625
9892		-3.906250
9893		-13.671875
9894		-5.859375
9895		-17.578125
9896		-9.765625
9897		-19.531250
9898		-11.718750
9899		-25.390625
9900		-15.625000
9901		-27.343750
9902		-19.531250
9903		-31.250000
9904		-23.437500
9905		-33.203125
9906		-29.296875
9907		-39.062500
9908		-33.203125
9909		-42.968750
9910		-35.156250
9911		-46.875000
9912		-39.062500
9913		-50.781250
9914		-41.015625
9915		-54.687500
9916		-44.921875
9917		-56.640625
9918		-48.828125
9919		-60.546875
9920		-52.734375
9921		-62.500000
9922		-56.640625
9923		-66.406250
9924		-60.546875
9925		-72.265625
9926		-64.453125
9927		-74.218750
9928		-66.406250
9929		-78.125000
9930		-68.359375
9931		-80.078125
9932		-72.265625
9933		-82.031250
9934		-76.171875
9935		-87.890625
9936		-80.078125
9937		-87.890625
9938		-82.031250
9939		-91.796875
9940		-85.937500
9941		-95.703125
9942		-89.843750
9943		-99.609375
9944		-91.796875
9945		-101.562500
9946		-93.750000
9947		-105.468750
9948		-97.656250
9949		-107.421875
9950		-99.609375
9951		-109.375000
9952		-101.562500
9953		-111.328125
9954		-105.468750
9955		-113.281250
9956		-109.375000
9957		-115.234375
9958		-111.328125
9959		-119.140625
9960		-113.281250
9961		-123.046875
9962		-115.234375
9963		-125.000000
9964		-117.187500
9965		-126.953125
9966		-119.140625
9967		-128.906250
9968		-121.093750
9969		-128.906250
9970		-123.046875
9971		-130.859375
9972		-126.953125
9973		-132.812500
9974		-128.906250
9975		-136.718750
9976		-130.859375
9977		-136.718750
9978		-130.859375
9979		-138.671875
9980		-132.812500
9981		-140.625000
9982		-132.812500
9983		-142.578125
9984		-134.765625
9985		-142.578125
9986		-136.718750
9987		-142.578125
9988		-138.671875
9989		-142.578125
9990		-140.625000
9991		-144.531250
9992		-142.578125
9993		-146.484375
9994		-140.625000
9995		-148.437500
9996		-140.625000
9997		-148.437500
9998		-142.578125
9999		-148.437500
10000		-142.578125
