Channel              :		CH1
Frequency            :		1.973kHz
Period               :		0.507ms
PK-PK                :		171.9mV
Probe attenuation    :		1X
Voltage per ADC value:		0.122070mV
Time interval        :		2.00000us

index		CH1_Voltage(mV)
1		87.890625
2		87.890625
3		83.984375
4		87.890625
5		83.984375
6		87.890625
7		82.031250
8		85.937500
9		82.031250
10		85.937500
11		80.078125
12		85.937500
13		80.078125
14		83.984375
15		78.125000
16		82.031250
17		76.171875
18		82.031250
19		76.171875
20		78.125000
21		74.218750
22		76.171875
23		70.312500
24		76.171875
25		70.312500
26		72.265625
27		66.406250
28		70.312500
29		64.453125
30		68.359375
31		60.546875
32		66.406250
33		58.593750
34		64.453125
35		54.687500
36		60.546875
37		52.734375
38		56.640625
39		48.828125
40		54.687500
41		44.921875
42		50.781250
43		42.968750
44		48.828125
45		39.062500
46		44.921875
47		35.156250
48		41.015625
49		31.250000
50		37.109375
51		27.343750
52		33.203125
53		23.437500
54		29.296875
55		19.531250
56		25.390625
57		15.625000
58		21.484375
59		11.718750
60		17.578125
61		5.859375
62		13.671875
63		3.906250
64		9.765625
65		0.000000
66		5.859375
67		-3.906250
68		1.953125
69		-7.812500
70		-1.953125
71		-11.718750
72		-5.859375
73		-15.625000
74		-11.718750
75		-19.531250
76		-13.671875
77		-23.437500
78		-17.578125
79		-27.343750
80		-23.437500
81		-31.250000
82		-25.390625
83		-37.109375
84		-31.250000
85		-39.062500
86		-33.203125
87		-42.968750
88		-37.109375
89		-44.921875
90		-41.015625
91		-48.828125
92		-44.921875
93		-52.734375
94		-46.875000
95		-54.687500
96		-50.781250
97		-58.593750
98		-52.734375
99		-60.546875
100		-56.640625
101		-62.500000
102		-58.593750
103		-66.406250
104		-60.546875
105		-68.359375
106		-64.453125
107		-70.312500
108		-66.406250
109		-72.265625
110		-68.359375
111		-74.218750
112		-68.359375
113		-74.218750
114		-70.312500
115		-76.171875
116		-72.265625
117		-76.171875
118		-72.265625
119		-76.171875
120		-74.218750
121		-78.125000
122		-74.218750
123		-78.125000
124		-74.218750
125		-78.125000
126		-74.218750
127		-78.125000
128		-74.218750
129		-78.125000
130		-74.218750
131		-76.171875
132		-74.218750
133		-76.171875
134		-72.265625
135		-76.171875
136		-72.265625
137		-74.218750
138		-70.312500
139		-74.218750
140		-70.312500
141		-72.265625
142		-68.359375
143		-70.312500
144		-66.406250
145		-68.359375
146		-62.500000
147		-66.406250
148		-62.500000
149		-64.453125
150		-60.546875
151		-62.500000
152		-56.640625
153		-58.593750
154		-54.687500
155		-56.640625
156		-50.781250
157		-52.734375
158		-48.828125
159		-50.781250
160		-44.921875
161		-46.875000
162		-41.015625
163		-42.968750
164		-37.109375
165		-39.062500
166		-35.156250
167		-35.156250
168		-31.250000
169		-33.203125
170		-27.343750
171		-29.296875
172		-23.437500
173		-25.390625
174		-19.531250
175		-21.484375
176		-13.671875
177		-17.578125
178		-11.718750
179		-13.671875
180		-7.812500
181		-7.812500
182		-3.906250
183		-3.906250
184		0.000000
185		0.000000
186		3.906250
187		3.906250
188		9.765625
189		7.812500
190		13.671875
191		9.765625
192		17.578125
193		15.625000
194		21.484375
195		19.531250
196		25.390625
197		23.437500
198		29.296875
199		27.343750
200		33.203125
201		31.250000
202		37.109375
203		35.156250
204		41.015625
205		39.062500
206		42.968750
207		41.015625
208		46.875000
209		44.921875
210		50.781250
211		48.828125
212		52.734375
213		52.734375
214		56.640625
215		54.687500
216		58.593750
217		58.593750
218		62.500000
219		60.546875
220		66.406250
221		64.453125
222		68.359375
223		66.406250
224		70.312500
225		68.359375
226		72.265625
227		70.312500
228		74.218750
229		72.265625
230		78.125000
231		74.218750
232		78.125000
233		76.171875
234		80.078125
235		78.125000
236		82.031250
237		80.078125
238		83.984375
239		80.078125
240		83.984375
241		82.031250
242		83.984375
243		82.031250
244		85.937500
245		83.984375
246		85.937500
247		82.031250
248		87.890625
249		83.984375
250		85.937500
251		83.984375
252		87.890625
253		83.984375
254		87.890625
255		83.984375
256		87.890625
257		83.984375
258		85.937500
259		82.031250
260		85.937500
261		82.031250
262		85.937500
263		80.078125
264		85.937500
265		80.078125
266		83.984375
267		80.078125
268		82.031250
269		78.125000
270		82.031250
271		76.171875
272		80.078125
273		74.218750
274		78.125000
275		72.265625
276		76.171875
277		70.312500
278		74.218750
279		68.359375
280		72.265625
281		64.453125
282		70.312500
283		62.500000
284		66.406250
285		60.546875
286		64.453125
287		56.640625
288		62.500000
289		54.687500
290		58.593750
291		50.781250
292		56.640625
293		48.828125
294		52.734375
295		42.968750
296		50.781250
297		41.015625
298		46.875000
299		37.109375
300		42.968750
301		33.203125
302		39.062500
303		29.296875
304		35.156250
305		27.343750
306		31.250000
307		23.437500
308		27.343750
309		19.531250
310		23.437500
311		13.671875
312		19.531250
313		9.765625
314		15.625000
315		5.859375
316		11.718750
317		1.953125
318		7.812500
319		-1.953125
320		3.906250
321		-5.859375
322		0.000000
323		-9.765625
324		-3.906250
325		-13.671875
326		-7.812500
327		-17.578125
328		-11.718750
329		-21.484375
330		-15.625000
331		-25.390625
332		-19.531250
333		-29.296875
334		-23.437500
335		-33.203125
336		-27.343750
337		-37.109375
338		-31.250000
339		-41.015625
340		-35.156250
341		-44.921875
342		-39.062500
343		-46.875000
344		-42.968750
345		-50.781250
346		-44.921875
347		-52.734375
348		-48.828125
349		-56.640625
350		-52.734375
351		-58.593750
352		-54.687500
353		-62.500000
354		-56.640625
355		-64.453125
356		-58.593750
357		-66.406250
358		-62.500000
359		-68.359375
360		-64.453125
361		-70.312500
362		-66.406250
363		-72.265625
364		-68.359375
365		-74.218750
366		-68.359375
367		-74.218750
368		-72.265625
369		-76.171875
370		-72.265625
371		-78.125000
372		-74.218750
373		-78.125000
374		-74.218750
375		-78.125000
376		-74.218750
377		-78.125000
378		-76.171875
379		-78.125000
380		-74.218750
381		-78.125000
382		-74.218750
383		-78.125000
384		-76.171875
385		-78.125000
386		-74.218750
387		-76.171875
388		-72.265625
389		-76.171875
390		-72.265625
391		-74.218750
392		-70.312500
393		-72.265625
394		-70.312500
395		-72.265625
396		-66.406250
397		-70.312500
398		-64.453125
399		-66.406250
400		-64.453125
401		-64.453125
402		-60.546875
403		-62.500000
404		-58.593750
405		-60.546875
406		-56.640625
407		-58.593750
408		-52.734375
409		-54.687500
410		-50.781250
411		-52.734375
412		-46.875000
413		-48.828125
414		-42.968750
415		-44.921875
416		-41.015625
417		-42.968750
418		-37.109375
419		-39.062500
420		-33.203125
421		-35.156250
422		-29.296875
423		-31.250000
424		-25.390625
425		-27.343750
426		-21.484375
427		-23.437500
428		-17.578125
429		-19.531250
430		-13.671875
431		-15.625000
432		-9.765625
433		-11.718750
434		-5.859375
435		-7.812500
436		-1.953125
437		-3.906250
438		1.953125
439		0.000000
440		7.812500
441		5.859375
442		9.765625
443		9.765625
444		13.671875
445		11.718750
446		17.578125
447		17.578125
448		23.437500
449		19.531250
450		27.343750
451		25.390625
452		29.296875
453		29.296875
454		35.156250
455		33.203125
456		37.109375
457		35.156250
458		41.015625
459		39.062500
460		44.921875
461		42.968750
462		48.828125
463		46.875000
464		52.734375
465		50.781250
466		54.687500
467		52.734375
468		56.640625
469		56.640625
470		62.500000
471		58.593750
472		62.500000
473		60.546875
474		66.406250
475		64.453125
476		68.359375
477		66.406250
478		72.265625
479		68.359375
480		74.218750
481		72.265625
482		76.171875
483		74.218750
484		76.171875
485		76.171875
486		78.125000
487		76.171875
488		80.078125
489		78.125000
490		82.031250
491		80.078125
492		83.984375
493		82.031250
494		83.984375
495		82.031250
496		85.937500
497		83.984375
498		85.937500
499		83.984375
500		87.890625
501		83.984375
502		85.937500
503		83.984375
504		87.890625
505		83.984375
506		87.890625
507		83.984375
508		87.890625
509		83.984375
510		87.890625
511		83.984375
512		85.937500
513		83.984375
514		85.937500
515		82.031250
516		85.937500
517		82.031250
518		83.984375
519		80.078125
520		83.984375
521		78.125000
522		83.984375
523		78.125000
524		80.078125
525		76.171875
526		80.078125
527		74.218750
528		78.125000
529		72.265625
530		76.171875
531		68.359375
532		74.218750
533		68.359375
534		72.265625
535		64.453125
536		68.359375
537		62.500000
538		66.406250
539		58.593750
540		64.453125
541		56.640625
542		60.546875
543		52.734375
544		58.593750
545		50.781250
546		54.687500
547		46.875000
548		52.734375
549		42.968750
550		48.828125
551		39.062500
552		44.921875
553		37.109375
554		41.015625
555		33.203125
556		39.062500
557		29.296875
558		35.156250
559		25.390625
560		31.250000
561		21.484375
562		27.343750
563		15.625000
564		23.437500
565		11.718750
566		19.531250
567		9.765625
568		13.671875
569		5.859375
570		9.765625
571		0.000000
572		7.812500
573		-3.906250
574		1.953125
575		-7.812500
576		-1.953125
577		-11.718750
578		-5.859375
579		-15.625000
580		-9.765625
581		-19.531250
582		-13.671875
583		-23.437500
584		-17.578125
585		-27.343750
586		-21.484375
587		-31.250000
588		-25.390625
589		-35.156250
590		-29.296875
591		-39.062500
592		-33.203125
593		-41.015625
594		-37.109375
595		-46.875000
596		-41.015625
597		-48.828125
598		-42.968750
599		-52.734375
600		-46.875000
601		-54.687500
602		-50.781250
603		-58.593750
604		-52.734375
605		-60.546875
606		-54.687500
607		-62.500000
608		-58.593750
609		-66.406250
610		-60.546875
611		-68.359375
612		-64.453125
613		-70.312500
614		-64.453125
615		-72.265625
616		-66.406250
617		-72.265625
618		-68.359375
619		-74.218750
620		-70.312500
621		-76.171875
622		-72.265625
623		-76.171875
624		-74.218750
625		-78.125000
626		-74.218750
627		-78.125000
628		-74.218750
629		-78.125000
630		-74.218750
631		-78.125000
632		-76.171875
633		-78.125000
634		-76.171875
635		-78.125000
636		-76.171875
637		-78.125000
638		-74.218750
639		-78.125000
640		-74.218750
641		-76.171875
642		-72.265625
643		-74.218750
644		-72.265625
645		-74.218750
646		-70.312500
647		-72.265625
648		-68.359375
649		-70.312500
650		-66.406250
651		-70.312500
652		-64.453125
653		-66.406250
654		-62.500000
655		-64.453125
656		-60.546875
657		-62.500000
658		-56.640625
659		-60.546875
660		-54.687500
661		-56.640625
662		-52.734375
663		-54.687500
664		-48.828125
665		-50.781250
666		-46.875000
667		-48.828125
668		-42.968750
669		-44.921875
670		-41.015625
671		-41.015625
672		-35.156250
673		-39.062500
674		-31.250000
675		-33.203125
676		-29.296875
677		-31.250000
678		-25.390625
679		-27.343750
680		-21.484375
681		-23.437500
682		-17.578125
683		-17.578125
684		-11.718750
685		-15.625000
686		-9.765625
687		-9.765625
688		-5.859375
689		-5.859375
690		0.000000
691		-1.953125
692		3.906250
693		1.953125
694		7.812500
695		5.859375
696		11.718750
697		9.765625
698		15.625000
699		13.671875
700		19.531250
701		17.578125
702		23.437500
703		21.484375
704		27.343750
705		25.390625
706		31.250000
707		29.296875
708		35.156250
709		33.203125
710		39.062500
711		37.109375
712		42.968750
713		41.015625
714		44.921875
715		42.968750
716		50.781250
717		46.875000
718		52.734375
719		50.781250
720		54.687500
721		52.734375
722		58.593750
723		56.640625
724		60.546875
725		60.546875
726		64.453125
727		62.500000
728		66.406250
729		64.453125
730		68.359375
731		66.406250
732		72.265625
733		70.312500
734		74.218750
735		70.312500
736		76.171875
737		74.218750
738		78.125000
739		76.171875
740		80.078125
741		76.171875
742		80.078125
743		78.125000
744		82.031250
745		80.078125
746		83.984375
747		82.031250
748		83.984375
749		82.031250
750		85.937500
751		82.031250
752		85.937500
753		83.984375
754		85.937500
755		83.984375
756		87.890625
757		83.984375
758		87.890625
759		83.984375
760		87.890625
761		83.984375
762		87.890625
763		83.984375
764		87.890625
765		83.984375
766		85.937500
767		82.031250
768		85.937500
769		82.031250
770		83.984375
771		82.031250
772		83.984375
773		80.078125
774		83.984375
775		78.125000
776		82.031250
777		76.171875
778		80.078125
779		74.218750
780		78.125000
781		72.265625
782		78.125000
783		72.265625
784		74.218750
785		68.359375
786		74.218750
787		66.406250
788		70.312500
789		62.500000
790		68.359375
791		60.546875
792		64.453125
793		58.593750
794		64.453125
795		54.687500
796		60.546875
797		52.734375
798		58.593750
799		48.828125
800		54.687500
801		44.921875
802		50.781250
803		42.968750
804		46.875000
805		39.062500
806		44.921875
807		35.156250
808		41.015625
809		31.250000
810		37.109375
811		27.343750
812		33.203125
813		23.437500
814		29.296875
815		19.531250
816		25.390625
817		15.625000
818		21.484375
819		11.718750
820		19.531250
821		7.812500
822		13.671875
823		3.906250
824		9.765625
825		0.000000
826		5.859375
827		-3.906250
828		1.953125
829		-7.812500
830		-1.953125
831		-11.718750
832		-7.812500
833		-17.578125
834		-9.765625
835		-19.531250
836		-15.625000
837		-23.437500
838		-19.531250
839		-29.296875
840		-23.437500
841		-33.203125
842		-27.343750
843		-35.156250
844		-31.250000
845		-39.062500
846		-33.203125
847		-42.968750
848		-37.109375
849		-46.875000
850		-41.015625
851		-48.828125
852		-44.921875
853		-52.734375
854		-48.828125
855		-54.687500
856		-50.781250
857		-58.593750
858		-52.734375
859		-60.546875
860		-56.640625
861		-62.500000
862		-58.593750
863		-66.406250
864		-62.500000
865		-68.359375
866		-64.453125
867		-70.312500
868		-66.406250
869		-72.265625
870		-68.359375
871		-72.265625
872		-68.359375
873		-74.218750
874		-70.312500
875		-76.171875
876		-72.265625
877		-76.171875
878		-74.218750
879		-76.171875
880		-74.218750
881		-78.125000
882		-74.218750
883		-78.125000
884		-74.218750
885		-78.125000
886		-74.218750
887		-78.125000
888		-76.171875
889		-76.171875
890		-74.218750
891		-78.125000
892		-74.218750
893		-76.171875
894		-72.265625
895		-76.171875
896		-72.265625
897		-74.218750
898		-70.312500
899		-72.265625
900		-70.312500
901		-72.265625
902		-68.359375
903		-70.312500
904		-66.406250
905		-68.359375
906		-64.453125
907		-66.406250
908		-60.546875
909		-62.500000
910		-58.593750
911		-60.546875
912		-56.640625
913		-58.593750
914		-52.734375
915		-54.687500
916		-50.781250
917		-52.734375
918		-46.875000
919		-48.828125
920		-44.921875
921		-46.875000
922		-41.015625
923		-42.968750
924		-37.109375
925		-39.062500
926		-33.203125
927		-35.156250
928		-31.250000
929		-31.250000
930		-27.343750
931		-27.343750
932		-21.484375
933		-25.390625
934		-17.578125
935		-19.531250
936		-13.671875
937		-15.625000
938		-9.765625
939		-11.718750
940		-5.859375
941		-7.812500
942		-1.953125
943		-3.906250
944		1.953125
945		0.000000
946		5.859375
947		3.906250
948		9.765625
949		7.812500
950		13.671875
951		11.718750
952		17.578125
953		15.625000
954		21.484375
955		19.531250
956		25.390625
957		23.437500
958		29.296875
959		27.343750
960		33.203125
961		31.250000
962		37.109375
963		35.156250
964		41.015625
965		39.062500
966		42.968750
967		42.968750
968		46.875000
969		44.921875
970		50.781250
971		48.828125
972		54.687500
973		52.734375
974		56.640625
975		54.687500
976		60.546875
977		58.593750
978		62.500000
979		60.546875
980		66.406250
981		64.453125
982		68.359375
983		66.406250
984		70.312500
985		68.359375
986		72.265625
987		70.312500
988		74.218750
989		72.265625
990		76.171875
991		74.218750
992		80.078125
993		76.171875
994		82.031250
995		76.171875
996		83.984375
997		80.078125
998		83.984375
999		80.078125
1000		85.937500
1001		82.031250
1002		85.937500
1003		82.031250
1004		85.937500
1005		83.984375
1006		85.937500
1007		83.984375
1008		87.890625
1009		82.031250
1010		89.843750
1011		82.031250
1012		89.843750
1013		83.984375
1014		87.890625
1015		83.984375
1016		87.890625
1017		83.984375
1018		87.890625
1019		82.031250
1020		87.890625
1021		83.984375
1022		85.937500
1023		82.031250
1024		83.984375
1025		78.125000
1026		85.937500
1027		78.125000
1028		83.984375
1029		76.171875
1030		83.984375
1031		76.171875
1032		80.078125
1033		74.218750
1034		78.125000
1035		70.312500
1036		78.125000
1037		70.312500
1038		74.218750
1039		68.359375
1040		72.265625
1041		64.453125
1042		70.312500
1043		60.546875
1044		70.312500
1045		58.593750
1046		66.406250
1047		56.640625
1048		64.453125
1049		52.734375
1050		58.593750
1051		48.828125
1052		56.640625
1053		46.875000
1054		54.687500
1055		44.921875
1056		48.828125
1057		41.015625
1058		46.875000
1059		35.156250
1060		44.921875
1061		31.250000
1062		41.015625
1063		29.296875
1064		39.062500
1065		25.390625
1066		33.203125
1067		19.531250
1068		29.296875
1069		15.625000
1070		27.343750
1071		15.625000
1072		19.531250
1073		9.765625
1074		15.625000
1075		3.906250
1076		11.718750
1077		0.000000
1078		9.765625
1079		-3.906250
1080		5.859375
1081		-7.812500
1082		1.953125
1083		-11.718750
1084		-1.953125
1085		-17.578125
1086		-7.812500
1087		-17.578125
1088		-11.718750
1089		-21.484375
1090		-17.578125
1091		-27.343750
1092		-19.531250
1093		-31.250000
1094		-21.484375
1095		-35.156250
1096		-25.390625
1097		-39.062500
1098		-29.296875
1099		-41.015625
1100		-33.203125
1101		-46.875000
1102		-37.109375
1103		-50.781250
1104		-41.015625
1105		-50.781250
1106		-44.921875
1107		-52.734375
1108		-48.828125
1109		-58.593750
1110		-50.781250
1111		-60.546875
1112		-52.734375
1113		-64.453125
1114		-54.687500
1115		-66.406250
1116		-58.593750
1117		-68.359375
1118		-60.546875
1119		-70.312500
1120		-62.500000
1121		-70.312500
1122		-64.453125
1123		-72.265625
1124		-68.359375
1125		-74.218750
1126		-70.312500
1127		-76.171875
1128		-70.312500
1129		-78.125000
1130		-70.312500
1131		-78.125000
1132		-72.265625
1133		-80.078125
1134		-72.265625
1135		-80.078125
1136		-72.265625
1137		-80.078125
1138		-72.265625
1139		-78.125000
1140		-76.171875
1141		-78.125000
1142		-74.218750
1143		-80.078125
1144		-72.265625
1145		-78.125000
1146		-72.265625
1147		-78.125000
1148		-70.312500
1149		-78.125000
1150		-70.312500
1151		-76.171875
1152		-68.359375
1153		-74.218750
1154		-66.406250
1155		-74.218750
1156		-66.406250
1157		-70.312500
1158		-66.406250
1159		-68.359375
1160		-62.500000
1161		-68.359375
1162		-58.593750
1163		-64.453125
1164		-56.640625
1165		-62.500000
1166		-54.687500
1167		-58.593750
1168		-50.781250
1169		-56.640625
1170		-48.828125
1171		-54.687500
1172		-46.875000
1173		-48.828125
1174		-42.968750
1175		-44.921875
1176		-41.015625
1177		-42.968750
1178		-35.156250
1179		-41.015625
1180		-31.250000
1181		-37.109375
1182		-27.343750
1183		-35.156250
1184		-23.437500
1185		-29.296875
1186		-19.531250
1187		-27.343750
1188		-15.625000
1189		-19.531250
1190		-13.671875
1191		-15.625000
1192		-9.765625
1193		-11.718750
1194		-3.906250
1195		-9.765625
1196		0.000000
1197		-5.859375
1198		3.906250
1199		0.000000
1200		7.812500
1201		3.906250
1202		11.718750
1203		5.859375
1204		15.625000
1205		9.765625
1206		19.531250
1207		17.578125
1208		21.484375
1209		21.484375
1210		29.296875
1211		23.437500
1212		33.203125
1213		25.390625
1214		37.109375
1215		29.296875
1216		41.015625
1217		35.156250
1218		42.968750
1219		37.109375
1220		46.875000
1221		41.015625
1222		48.828125
1223		46.875000
1224		52.734375
1225		50.781250
1226		54.687500
1227		50.781250
1228		60.546875
1229		54.687500
1230		62.500000
1231		56.640625
1232		66.406250
1233		60.546875
1234		68.359375
1235		62.500000
1236		70.312500
1237		64.453125
1238		74.218750
1239		66.406250
1240		74.218750
1241		72.265625
1242		76.171875
1243		72.265625
1244		80.078125
1245		74.218750
1246		82.031250
1247		74.218750
1248		82.031250
1249		76.171875
1250		83.984375
1251		78.125000
1252		85.937500
1253		80.078125
1254		85.937500
1255		80.078125
1256		85.937500
1257		83.984375
1258		85.937500
1259		83.984375
1260		85.937500
1261		82.031250
1262		89.843750
1263		82.031250
1264		89.843750
1265		83.984375
1266		89.843750
1267		82.031250
1268		89.843750
1269		82.031250
1270		89.843750
1271		82.031250
1272		87.890625
1273		83.984375
1274		85.937500
1275		82.031250
1276		85.937500
1277		80.078125
1278		85.937500
1279		78.125000
1280		85.937500
1281		78.125000
1282		83.984375
1283		76.171875
1284		82.031250
1285		74.218750
1286		82.031250
1287		72.265625
1288		80.078125
1289		70.312500
1290		78.125000
1291		70.312500
1292		74.218750
1293		64.453125
1294		72.265625
1295		62.500000
1296		70.312500
1297		60.546875
1298		68.359375
1299		58.593750
1300		66.406250
1301		54.687500
1302		62.500000
1303		50.781250
1304		60.546875
1305		48.828125
1306		56.640625
1307		46.875000
1308		52.734375
1309		44.921875
1310		48.828125
1311		39.062500
1312		46.875000
1313		35.156250
1314		42.968750
1315		29.296875
1316		39.062500
1317		27.343750
1318		37.109375
1319		23.437500
1320		31.250000
1321		19.531250
1322		29.296875
1323		17.578125
1324		25.390625
1325		13.671875
1326		19.531250
1327		7.812500
1328		15.625000
1329		3.906250
1330		11.718750
1331		0.000000
1332		7.812500
1333		-3.906250
1334		3.906250
1335		-9.765625
1336		0.000000
1337		-13.671875
1338		-1.953125
1339		-15.625000
1340		-7.812500
1341		-19.531250
1342		-13.671875
1343		-23.437500
1344		-17.578125
1345		-29.296875
1346		-19.531250
1347		-31.250000
1348		-23.437500
1349		-37.109375
1350		-27.343750
1351		-41.015625
1352		-31.250000
1353		-42.968750
1354		-33.203125
1355		-46.875000
1356		-37.109375
1357		-46.875000
1358		-42.968750
1359		-50.781250
1360		-46.875000
1361		-56.640625
1362		-48.828125
1363		-58.593750
1364		-50.781250
1365		-62.500000
1366		-54.687500
1367		-64.453125
1368		-54.687500
1369		-66.406250
1370		-58.593750
1371		-68.359375
1372		-60.546875
1373		-68.359375
1374		-62.500000
1375		-70.312500
1376		-66.406250
1377		-74.218750
1378		-68.359375
1379		-76.171875
1380		-68.359375
1381		-76.171875
1382		-68.359375
1383		-78.125000
1384		-70.312500
1385		-78.125000
1386		-70.312500
1387		-80.078125
1388		-72.265625
1389		-80.078125
1390		-72.265625
1391		-78.125000
1392		-74.218750
1393		-78.125000
1394		-74.218750
1395		-80.078125
1396		-72.265625
1397		-80.078125
1398		-72.265625
1399		-78.125000
1400		-70.312500
1401		-78.125000
1402		-70.312500
1403		-78.125000
1404		-68.359375
1405		-76.171875
1406		-66.406250
1407		-74.218750
1408		-66.406250
1409		-70.312500
1410		-66.406250
1411		-68.359375
1412		-62.500000
1413		-68.359375
1414		-60.546875
1415		-66.406250
1416		-56.640625
1417		-64.453125
1418		-54.687500
1419		-60.546875
1420		-52.734375
1421		-58.593750
1422		-48.828125
1423		-54.687500
1424		-46.875000
1425		-50.781250
1426		-44.921875
1427		-46.875000
1428		-41.015625
1429		-44.921875
1430		-35.156250
1431		-42.968750
1432		-33.203125
1433		-39.062500
1434		-29.296875
1435		-35.156250
1436		-25.390625
1437		-31.250000
1438		-21.484375
1439		-27.343750
1440		-17.578125
1441		-21.484375
1442		-15.625000
1443		-17.578125
1444		-11.718750
1445		-13.671875
1446		-5.859375
1447		-11.718750
1448		-1.953125
1449		-7.812500
1450		1.953125
1451		-3.906250
1452		5.859375
1453		0.000000
1454		9.765625
1455		3.906250
1456		13.671875
1457		7.812500
1458		15.625000
1459		15.625000
1460		21.484375
1461		19.531250
1462		25.390625
1463		21.484375
1464		31.250000
1465		25.390625
1466		35.156250
1467		29.296875
1468		37.109375
1469		31.250000
1470		41.015625
1471		35.156250
1472		44.921875
1473		39.062500
1474		48.828125
1475		44.921875
1476		50.781250
1477		48.828125
1478		52.734375
1479		50.781250
1480		58.593750
1481		52.734375
1482		62.500000
1483		54.687500
1484		64.453125
1485		58.593750
1486		68.359375
1487		60.546875
1488		70.312500
1489		64.453125
1490		72.265625
1491		66.406250
1492		72.265625
1493		70.312500
1494		74.218750
1495		72.265625
1496		78.125000
1497		72.265625
1498		80.078125
1499		74.218750
1500		82.031250
1501		76.171875
1502		83.984375
1503		78.125000
1504		83.984375
1505		78.125000
1506		85.937500
1507		80.078125
1508		85.937500
1509		83.984375
1510		85.937500
1511		83.984375
1512		85.937500
1513		82.031250
1514		89.843750
1515		82.031250
1516		89.843750
1517		83.984375
1518		89.843750
1519		83.984375
1520		89.843750
1521		82.031250
1522		89.843750
1523		82.031250
1524		89.843750
1525		83.984375
1526		87.890625
1527		83.984375
1528		85.937500
1529		80.078125
1530		87.890625
1531		80.078125
1532		85.937500
1533		78.125000
1534		85.937500
1535		76.171875
1536		83.984375
1537		76.171875
1538		83.984375
1539		72.265625
1540		80.078125
1541		72.265625
1542		80.078125
1543		72.265625
1544		76.171875
1545		68.359375
1546		74.218750
1547		64.453125
1548		74.218750
1549		62.500000
1550		70.312500
1551		58.593750
1552		68.359375
1553		56.640625
1554		64.453125
1555		52.734375
1556		62.500000
1557		50.781250
1558		60.546875
1559		48.828125
1560		54.687500
1561		46.875000
1562		50.781250
1563		41.015625
1564		48.828125
1565		37.109375
1566		46.875000
1567		33.203125
1568		42.968750
1569		29.296875
1570		39.062500
1571		25.390625
1572		35.156250
1573		21.484375
1574		31.250000
1575		21.484375
1576		27.343750
1577		15.625000
1578		21.484375
1579		9.765625
1580		17.578125
1581		5.859375
1582		15.625000
1583		1.953125
1584		11.718750
1585		-1.953125
1586		7.812500
1587		-5.859375
1588		3.906250
1589		-9.765625
1590		0.000000
1591		-11.718750
1592		-3.906250
1593		-15.625000
1594		-9.765625
1595		-19.531250
1596		-13.671875
1597		-25.390625
1598		-17.578125
1599		-29.296875
1600		-21.484375
1601		-33.203125
1602		-23.437500
1603		-37.109375
1604		-27.343750
1605		-41.015625
1606		-31.250000
1607		-44.921875
1608		-35.156250
1609		-44.921875
1610		-39.062500
1611		-48.828125
1612		-42.968750
1613		-54.687500
1614		-46.875000
1615		-56.640625
1616		-48.828125
1617		-60.546875
1618		-50.781250
1619		-62.500000
1620		-54.687500
1621		-66.406250
1622		-56.640625
1623		-66.406250
1624		-60.546875
1625		-68.359375
1626		-62.500000
1627		-70.312500
1628		-66.406250
1629		-72.265625
1630		-68.359375
1631		-74.218750
1632		-66.406250
1633		-76.171875
1634		-68.359375
1635		-76.171875
1636		-70.312500
1637		-78.125000
1638		-70.312500
1639		-80.078125
1640		-72.265625
1641		-80.078125
1642		-72.265625
1643		-78.125000
1644		-74.218750
1645		-78.125000
1646		-76.171875
1647		-80.078125
1648		-72.265625
1649		-80.078125
1650		-72.265625
1651		-78.125000
1652		-72.265625
1653		-78.125000
1654		-72.265625
1655		-78.125000
1656		-70.312500
1657		-76.171875
1658		-68.359375
1659		-76.171875
1660		-68.359375
1661		-70.312500
1662		-68.359375
1663		-70.312500
1664		-64.453125
1665		-70.312500
1666		-60.546875
1667		-68.359375
1668		-60.546875
1669		-66.406250
1670		-56.640625
1671		-62.500000
1672		-54.687500
1673		-60.546875
1674		-50.781250
1675		-58.593750
1676		-50.781250
1677		-52.734375
1678		-48.828125
1679		-48.828125
1680		-44.921875
1681		-48.828125
1682		-39.062500
1683		-44.921875
1684		-37.109375
1685		-41.015625
1686		-33.203125
1687		-37.109375
1688		-29.296875
1689		-33.203125
1690		-23.437500
1691		-29.296875
1692		-21.484375
1693		-27.343750
1694		-19.531250
1695		-19.531250
1696		-13.671875
1697		-17.578125
1698		-9.765625
1699		-13.671875
1700		-5.859375
1701		-9.765625
1702		-1.953125
1703		-5.859375
1704		1.953125
1705		-1.953125
1706		5.859375
1707		1.953125
1708		9.765625
1709		7.812500
1710		13.671875
1711		11.718750
1712		17.578125
1713		15.625000
1714		23.437500
1715		17.578125
1716		27.343750
1717		21.484375
1718		31.250000
1719		25.390625
1720		35.156250
1721		29.296875
1722		39.062500
1723		33.203125
1724		42.968750
1725		37.109375
1726		44.921875
1727		42.968750
1728		46.875000
1729		44.921875
1730		50.781250
1731		46.875000
1732		54.687500
1733		48.828125
1734		58.593750
1735		52.734375
1736		62.500000
1737		56.640625
1738		64.453125
1739		58.593750
1740		66.406250
1741		60.546875
1742		70.312500
1743		64.453125
1744		70.312500
1745		68.359375
1746		72.265625
1747		70.312500
1748		76.171875
1749		70.312500
1750		78.125000
1751		74.218750
1752		80.078125
1753		74.218750
1754		82.031250
1755		76.171875
1756		83.984375
1757		78.125000
1758		85.937500
1759		78.125000
1760		85.937500
1761		82.031250
1762		85.937500
1763		82.031250
1764		85.937500
1765		82.031250
1766		87.890625
1767		82.031250
1768		89.843750
1769		82.031250
1770		89.843750
1771		82.031250
1772		89.843750
1773		82.031250
1774		89.843750
1775		82.031250
1776		89.843750
1777		83.984375
1778		89.843750
1779		83.984375
1780		85.937500
1781		80.078125
1782		87.890625
1783		80.078125
1784		87.890625
1785		78.125000
1786		85.937500
1787		78.125000
1788		85.937500
1789		76.171875
1790		83.984375
1791		74.218750
1792		82.031250
1793		74.218750
1794		80.078125
1795		72.265625
1796		76.171875
1797		70.312500
1798		74.218750
1799		66.406250
1800		74.218750
1801		64.453125
1802		72.265625
1803		60.546875
1804		70.312500
1805		58.593750
1806		66.406250
1807		54.687500
1808		64.453125
1809		52.734375
1810		62.500000
1811		52.734375
1812		56.640625
1813		48.828125
1814		52.734375
1815		42.968750
1816		50.781250
1817		39.062500
1818		48.828125
1819		37.109375
1820		44.921875
1821		33.203125
1822		41.015625
1823		29.296875
1824		39.062500
1825		23.437500
1826		33.203125
1827		23.437500
1828		31.250000
1829		19.531250
1830		23.437500
1831		13.671875
1832		21.484375
1833		9.765625
1834		17.578125
1835		3.906250
1836		13.671875
1837		0.000000
1838		9.765625
1839		-1.953125
1840		5.859375
1841		-7.812500
1842		1.953125
1843		-9.765625
1844		-1.953125
1845		-13.671875
1846		-7.812500
1847		-17.578125
1848		-11.718750
1849		-23.437500
1850		-15.625000
1851		-27.343750
1852		-17.578125
1853		-31.250000
1854		-21.484375
1855		-33.203125
1856		-25.390625
1857		-37.109375
1858		-29.296875
1859		-42.968750
1860		-33.203125
1861		-42.968750
1862		-37.109375
1863		-46.875000
1864		-41.015625
1865		-52.734375
1866		-44.921875
1867		-56.640625
1868		-46.875000
1869		-58.593750
1870		-50.781250
1871		-60.546875
1872		-50.781250
1873		-64.453125
1874		-54.687500
1875		-66.406250
1876		-56.640625
1877		-66.406250
1878		-58.593750
1879		-68.359375
1880		-64.453125
1881		-70.312500
1882		-66.406250
1883		-74.218750
1884		-66.406250
1885		-74.218750
1886		-68.359375
1887		-76.171875
1888		-68.359375
1889		-78.125000
1890		-70.312500
1891		-78.125000
1892		-70.312500
1893		-78.125000
1894		-72.265625
1895		-78.125000
1896		-74.218750
1897		-78.125000
1898		-74.218750
1899		-80.078125
1900		-72.265625
1901		-80.078125
1902		-72.265625
1903		-80.078125
1904		-72.265625
1905		-78.125000
1906		-72.265625
1907		-78.125000
1908		-70.312500
1909		-78.125000
1910		-70.312500
1911		-76.171875
1912		-68.359375
1913		-72.265625
1914		-68.359375
1915		-70.312500
1916		-64.453125
1917		-72.265625
1918		-62.500000
1919		-68.359375
1920		-60.546875
1921		-66.406250
1922		-58.593750
1923		-64.453125
1924		-56.640625
1925		-62.500000
1926		-52.734375
1927		-58.593750
1928		-50.781250
1929		-54.687500
1930		-50.781250
1931		-50.781250
1932		-46.875000
1933		-48.828125
1934		-41.015625
1935		-46.875000
1936		-39.062500
1937		-42.968750
1938		-35.156250
1939		-41.015625
1940		-31.250000
1941		-37.109375
1942		-27.343750
1943		-33.203125
1944		-23.437500
1945		-29.296875
1946		-21.484375
1947		-23.437500
1948		-17.578125
1949		-19.531250
1950		-11.718750
1951		-17.578125
1952		-7.812500
1953		-11.718750
1954		-3.906250
1955		-7.812500
1956		1.953125
1957		-3.906250
1958		3.906250
1959		0.000000
1960		7.812500
1961		3.906250
1962		11.718750
1963		7.812500
1964		15.625000
1965		13.671875
1966		19.531250
1967		15.625000
1968		25.390625
1969		19.531250
1970		29.296875
1971		23.437500
1972		33.203125
1973		27.343750
1974		35.156250
1975		31.250000
1976		41.015625
1977		33.203125
1978		42.968750
1979		39.062500
1980		44.921875
1981		42.968750
1982		48.828125
1983		46.875000
1984		54.687500
1985		48.828125
1986		56.640625
1987		50.781250
1988		60.546875
1989		54.687500
1990		62.500000
1991		56.640625
1992		66.406250
1993		60.546875
1994		68.359375
1995		62.500000
1996		70.312500
1997		68.359375
1998		70.312500
1999		70.312500
2000		76.171875
2001		70.312500
2002		78.125000
2003		72.265625
2004		80.078125
2005		74.218750
2006		82.031250
2007		74.218750
2008		82.031250
2009		76.171875
2010		83.984375
2011		78.125000
2012		85.937500
2013		82.031250
2014		83.984375
2015		82.031250
2016		85.937500
2017		80.078125
2018		87.890625
2019		82.031250
2020		89.843750
2021		82.031250
2022		89.843750
2023		82.031250
2024		89.843750
2025		82.031250
2026		89.843750
2027		82.031250
2028		89.843750
2029		82.031250
2030		89.843750
2031		83.984375
2032		85.937500
2033		82.031250
2034		87.890625
2035		80.078125
2036		87.890625
2037		80.078125
2038		85.937500
2039		78.125000
2040		85.937500
2041		76.171875
2042		83.984375
2043		76.171875
2044		83.984375
2045		74.218750
2046		82.031250
2047		74.218750
2048		78.125000
2049		70.312500
2050		76.171875
2051		68.359375
2052		76.171875
2053		66.406250
2054		74.218750
2055		62.500000
2056		72.265625
2057		60.546875
2058		68.359375
2059		58.593750
2060		66.406250
2061		54.687500
2062		62.500000
2063		54.687500
2064		58.593750
2065		50.781250
2066		54.687500
2067		44.921875
2068		52.734375
2069		42.968750
2070		50.781250
2071		39.062500
2072		46.875000
2073		35.156250
2074		44.921875
2075		31.250000
2076		41.015625
2077		27.343750
2078		37.109375
2079		25.390625
2080		33.203125
2081		21.484375
2082		27.343750
2083		15.625000
2084		23.437500
2085		11.718750
2086		21.484375
2087		7.812500
2088		17.578125
2089		3.906250
2090		13.671875
2091		0.000000
2092		9.765625
2093		-3.906250
2094		5.859375
2095		-7.812500
2096		0.000000
2097		-11.718750
2098		-3.906250
2099		-15.625000
2100		-9.765625
2101		-21.484375
2102		-11.718750
2103		-25.390625
2104		-15.625000
2105		-29.296875
2106		-19.531250
2107		-33.203125
2108		-21.484375
2109		-37.109375
2110		-27.343750
2111		-41.015625
2112		-31.250000
2113		-41.015625
2114		-33.203125
2115		-44.921875
2116		-39.062500
2117		-50.781250
2118		-42.968750
2119		-52.734375
2120		-44.921875
2121		-56.640625
2122		-46.875000
2123		-58.593750
2124		-50.781250
2125		-62.500000
2126		-52.734375
2127		-64.453125
2128		-56.640625
2129		-66.406250
2130		-58.593750
2131		-66.406250
2132		-62.500000
2133		-68.359375
2134		-64.453125
2135		-74.218750
2136		-64.453125
2137		-74.218750
2138		-66.406250
2139		-76.171875
2140		-68.359375
2141		-76.171875
2142		-68.359375
2143		-78.125000
2144		-70.312500
2145		-78.125000
2146		-72.265625
2147		-78.125000
2148		-74.218750
2149		-78.125000
2150		-76.171875
2151		-80.078125
2152		-72.265625
2153		-80.078125
2154		-72.265625
2155		-80.078125
2156		-72.265625
2157		-80.078125
2158		-72.265625
2159		-78.125000
2160		-72.265625
2161		-78.125000
2162		-70.312500
2163		-76.171875
2164		-70.312500
2165		-72.265625
2166		-70.312500
2167		-72.265625
2168		-66.406250
2169		-72.265625
2170		-64.453125
2171		-70.312500
2172		-62.500000
2173		-68.359375
2174		-60.546875
2175		-66.406250
2176		-58.593750
2177		-64.453125
2178		-56.640625
2179		-62.500000
2180		-52.734375
2181		-56.640625
2182		-52.734375
2183		-52.734375
2184		-48.828125
2185		-50.781250
2186		-42.968750
2187		-48.828125
2188		-39.062500
2189		-44.921875
2190		-37.109375
2191		-42.968750
2192		-33.203125
2193		-39.062500
2194		-29.296875
2195		-35.156250
2196		-25.390625
2197		-31.250000
2198		-25.390625
2199		-25.390625
2200		-19.531250
2201		-21.484375
2202		-13.671875
2203		-19.531250
2204		-9.765625
2205		-15.625000
2206		-7.812500
2207		-11.718750
2208		-1.953125
2209		-7.812500
2210		1.953125
2211		-3.906250
2212		5.859375
2213		0.000000
2214		7.812500
2215		5.859375
2216		11.718750
2217		9.765625
2218		15.625000
2219		11.718750
2220		21.484375
2221		17.578125
2222		25.390625
2223		21.484375
2224		29.296875
2225		23.437500
2226		33.203125
2227		27.343750
2228		37.109375
2229		31.250000
2230		41.015625
2231		35.156250
2232		42.968750
2233		41.015625
2234		46.875000
2235		44.921875
2236		50.781250
2237		44.921875
2238		54.687500
2239		48.828125
2240		58.593750
2241		52.734375
2242		60.546875
2243		54.687500
2244		64.453125
2245		56.640625
2246		66.406250
2247		60.546875
2248		68.359375
2249		66.406250
2250		70.312500
2251		68.359375
2252		72.265625
2253		68.359375
2254		76.171875
2255		70.312500
2256		78.125000
2257		72.265625
2258		80.078125
2259		74.218750
2260		82.031250
2261		76.171875
2262		83.984375
2263		76.171875
2264		83.984375
2265		80.078125
2266		83.984375
2267		82.031250
2268		83.984375
2269		82.031250
2270		87.890625
2271		82.031250
2272		87.890625
2273		82.031250
2274		89.843750
2275		82.031250
2276		89.843750
2277		82.031250
2278		89.843750
2279		82.031250
2280		89.843750
2281		82.031250
2282		89.843750
2283		83.984375
2284		85.937500
2285		82.031250
2286		87.890625
2287		80.078125
2288		87.890625
2289		80.078125
2290		87.890625
2291		78.125000
2292		85.937500
2293		78.125000
2294		85.937500
2295		76.171875
2296		83.984375
2297		76.171875
2298		82.031250
2299		76.171875
2300		78.125000
2301		74.218750
2302		76.171875
2303		70.312500
2304		78.125000
2305		66.406250
2306		74.218750
2307		64.453125
2308		72.265625
2309		62.500000
2310		70.312500
2311		58.593750
2312		68.359375
2313		56.640625
2314		66.406250
2315		56.640625
2316		62.500000
2317		52.734375
2318		56.640625
2319		48.828125
2320		54.687500
2321		44.921875
2322		52.734375
2323		41.015625
2324		50.781250
2325		37.109375
2326		46.875000
2327		33.203125
2328		42.968750
2329		31.250000
2330		39.062500
2331		27.343750
2332		35.156250
2333		23.437500
2334		29.296875
2335		19.531250
2336		25.390625
2337		13.671875
2338		23.437500
2339		9.765625
2340		19.531250
2341		5.859375
2342		15.625000
2343		1.953125
2344		11.718750
2345		-1.953125
2346		7.812500
2347		-5.859375
2348		3.906250
2349		-7.812500
2350		-1.953125
2351		-11.718750
2352		-5.859375
2353		-17.578125
2354		-9.765625
2355		-23.437500
2356		-11.718750
2357		-25.390625
2358		-15.625000
2359		-29.296875
2360		-19.531250
2361		-33.203125
2362		-25.390625
2363		-37.109375
2364		-29.296875
2365		-39.062500
2366		-31.250000
2367		-42.968750
2368		-37.109375
2369		-48.828125
2370		-41.015625
2371		-50.781250
2372		-42.968750
2373		-54.687500
2374		-44.921875
2375		-56.640625
2376		-48.828125
2377		-60.546875
2378		-50.781250
2379		-62.500000
2380		-54.687500
2381		-64.453125
2382		-56.640625
2383		-64.453125
2384		-62.500000
2385		-66.406250
2386		-64.453125
2387		-72.265625
2388		-64.453125
2389		-74.218750
2390		-66.406250
2391		-76.171875
2392		-66.406250
2393		-76.171875
2394		-68.359375
2395		-78.125000
2396		-70.312500
2397		-78.125000
2398		-70.312500
2399		-78.125000
2400		-72.265625
2401		-78.125000
2402		-74.218750
2403		-80.078125
2404		-74.218750
2405		-80.078125
2406		-74.218750
2407		-80.078125
2408		-72.265625
2409		-80.078125
2410		-72.265625
2411		-80.078125
2412		-72.265625
2413		-78.125000
2414		-70.312500
2415		-76.171875
2416		-70.312500
2417		-74.218750
2418		-72.265625
2419		-72.265625
2420		-70.312500
2421		-74.218750
2422		-66.406250
2423		-72.265625
2424		-64.453125
2425		-70.312500
2426		-62.500000
2427		-68.359375
2428		-58.593750
2429		-64.453125
2430		-56.640625
2431		-62.500000
2432		-54.687500
2433		-58.593750
2434		-54.687500
2435		-56.640625
2436		-50.781250
2437		-52.734375
2438		-46.875000
2439		-52.734375
2440		-42.968750
2441		-48.828125
2442		-39.062500
2443		-44.921875
2444		-35.156250
2445		-42.968750
2446		-31.250000
2447		-39.062500
2448		-29.296875
2449		-35.156250
2450		-27.343750
2451		-29.296875
2452		-23.437500
2453		-23.437500
2454		-17.578125
2455		-23.437500
2456		-13.671875
2457		-17.578125
2458		-9.765625
2459		-13.671875
2460		-5.859375
2461		-9.765625
2462		-1.953125
2463		-5.859375
2464		3.906250
2465		-1.953125
2466		5.859375
2467		3.906250
2468		9.765625
2469		7.812500
2470		13.671875
2471		11.718750
2472		19.531250
2473		13.671875
2474		23.437500
2475		17.578125
2476		27.343750
2477		21.484375
2478		31.250000
2479		25.390625
2480		35.156250
2481		29.296875
2482		39.062500
2483		33.203125
2484		39.062500
2485		39.062500
2486		42.968750
2487		42.968750
2488		48.828125
2489		42.968750
2490		52.734375
2491		46.875000
2492		56.640625
2493		50.781250
2494		58.593750
2495		52.734375
2496		62.500000
2497		56.640625
2498		64.453125
2499		58.593750
2500		66.406250
2501		64.453125
2502		68.359375
2503		66.406250
2504		70.312500
2505		66.406250
2506		74.218750
2507		68.359375
2508		76.171875
2509		70.312500
2510		78.125000
2511		72.265625
2512		80.078125
2513		74.218750
2514		82.031250
2515		76.171875
2516		83.984375
2517		78.125000
2518		82.031250
2519		82.031250
2520		83.984375
2521		80.078125
2522		87.890625
2523		80.078125
2524		87.890625
2525		80.078125
2526		87.890625
2527		82.031250
2528		89.843750
2529		82.031250
2530		89.843750
2531		82.031250
2532		89.843750
2533		82.031250
2534		89.843750
2535		85.937500
2536		87.890625
2537		83.984375
2538		87.890625
2539		82.031250
2540		89.843750
2541		80.078125
2542		87.890625
2543		80.078125
2544		87.890625
2545		78.125000
2546		85.937500
2547		78.125000
2548		83.984375
2549		76.171875
2550		83.984375
2551		76.171875
2552		80.078125
2553		76.171875
2554		78.125000
2555		70.312500
2556		78.125000
2557		68.359375
2558		76.171875
2559		66.406250
2560		74.218750
2561		64.453125
2562		72.265625
2563		62.500000
2564		70.312500
2565		58.593750
2566		66.406250
2567		58.593750
2568		64.453125
2569		54.687500
2570		60.546875
2571		50.781250
2572		56.640625
2573		46.875000
2574		54.687500
2575		42.968750
2576		52.734375
2577		41.015625
2578		48.828125
2579		37.109375
2580		44.921875
2581		33.203125
2582		42.968750
2583		31.250000
2584		39.062500
2585		27.343750
2586		33.203125
2587		23.437500
2588		29.296875
2589		17.578125
2590		27.343750
2591		13.671875
2592		23.437500
2593		9.765625
2594		17.578125
2595		5.859375
2596		15.625000
2597		1.953125
2598		9.765625
2599		-1.953125
2600		5.859375
2601		-3.906250
2602		1.953125
2603		-9.765625
2604		-3.906250
2605		-15.625000
2606		-7.812500
2607		-19.531250
2608		-9.765625
2609		-23.437500
2610		-13.671875
2611		-27.343750
2612		-17.578125
2613		-31.250000
2614		-21.484375
2615		-33.203125
2616		-25.390625
2617		-37.109375
2618		-29.296875
2619		-39.062500
2620		-35.156250
2621		-42.968750
2622		-39.062500
2623		-48.828125
2624		-39.062500
2625		-52.734375
2626		-42.968750
2627		-54.687500
2628		-46.875000
2629		-58.593750
2630		-48.828125
2631		-60.546875
2632		-52.734375
2633		-62.500000
2634		-54.687500
2635		-64.453125
2636		-58.593750
2637		-66.406250
2638		-60.546875
2639		-70.312500
2640		-62.500000
2641		-72.265625
2642		-62.500000
2643		-74.218750
2644		-66.406250
2645		-74.218750
2646		-68.359375
2647		-76.171875
2648		-68.359375
2649		-78.125000
2650		-70.312500
2651		-78.125000
2652		-70.312500
2653		-76.171875
2654		-74.218750
2655		-78.125000
2656		-72.265625
2657		-80.078125
2658		-72.265625
2659		-80.078125
2660		-72.265625
2661		-80.078125
2662		-72.265625
2663		-78.125000
2664		-72.265625
2665		-78.125000
2666		-72.265625
2667		-78.125000
2668		-70.312500
2669		-76.171875
2670		-72.265625
2671		-74.218750
2672		-70.312500
2673		-74.218750
2674		-66.406250
2675		-72.265625
2676		-64.453125
2677		-72.265625
2678		-62.500000
2679		-68.359375
2680		-60.546875
2681		-68.359375
2682		-58.593750
2683		-64.453125
2684		-54.687500
2685		-62.500000
2686		-56.640625
2687		-56.640625
2688		-52.734375
2689		-54.687500
2690		-48.828125
2691		-54.687500
2692		-44.921875
2693		-50.781250
2694		-41.015625
2695		-46.875000
2696		-37.109375
2697		-42.968750
2698		-35.156250
2699		-41.015625
2700		-31.250000
2701		-35.156250
2702		-29.296875
2703		-31.250000
2704		-25.390625
2705		-27.343750
2706		-21.484375
2707		-25.390625
2708		-15.625000
2709		-21.484375
2710		-11.718750
2711		-17.578125
2712		-7.812500
2713		-13.671875
2714		-3.906250
2715		-9.765625
2716		0.000000
2717		-3.906250
2718		3.906250
2719		1.953125
2720		5.859375
2721		5.859375
2722		11.718750
2723		9.765625
2724		17.578125
2725		11.718750
2726		21.484375
2727		15.625000
2728		25.390625
2729		19.531250
2730		27.343750
2731		23.437500
2732		33.203125
2733		27.343750
2734		37.109375
2735		31.250000
2736		39.062500
2737		37.109375
2738		41.015625
2739		41.015625
2740		46.875000
2741		41.015625
2742		50.781250
2743		44.921875
2744		52.734375
2745		48.828125
2746		56.640625
2747		50.781250
2748		60.546875
2749		54.687500
2750		62.500000
2751		56.640625
2752		64.453125
2753		62.500000
2754		66.406250
2755		64.453125
2756		68.359375
2757		66.406250
2758		72.265625
2759		68.359375
2760		76.171875
2761		70.312500
2762		78.125000
2763		72.265625
2764		80.078125
2765		74.218750
2766		82.031250
2767		76.171875
2768		82.031250
2769		78.125000
2770		82.031250
2771		80.078125
2772		83.984375
2773		80.078125
2774		85.937500
2775		80.078125
2776		87.890625
2777		82.031250
2778		87.890625
2779		82.031250
2780		89.843750
2781		82.031250
2782		89.843750
2783		82.031250
2784		89.843750
2785		82.031250
2786		89.843750
2787		85.937500
2788		87.890625
2789		83.984375
2790		87.890625
2791		82.031250
2792		89.843750
2793		82.031250
2794		87.890625
2795		82.031250
2796		87.890625
2797		80.078125
2798		87.890625
2799		78.125000
2800		85.937500
2801		78.125000
2802		85.937500
2803		78.125000
2804		82.031250
2805		76.171875
2806		80.078125
2807		72.265625
2808		80.078125
2809		70.312500
2810		78.125000
2811		68.359375
2812		76.171875
2813		66.406250
2814		74.218750
2815		64.453125
2816		72.265625
2817		60.546875
2818		70.312500
2819		60.546875
2820		68.359375
2821		56.640625
2822		62.500000
2823		50.781250
2824		58.593750
2825		48.828125
2826		56.640625
2827		46.875000
2828		54.687500
2829		42.968750
2830		52.734375
2831		39.062500
2832		48.828125
2833		35.156250
2834		44.921875
2835		33.203125
2836		41.015625
2837		29.296875
2838		35.156250
2839		25.390625
2840		31.250000
2841		19.531250
2842		29.296875
2843		15.625000
2844		25.390625
2845		11.718750
2846		21.484375
2847		7.812500
2848		17.578125
2849		3.906250
2850		13.671875
2851		0.000000
2852		9.765625
2853		-1.953125
2854		5.859375
2855		-5.859375
2856		0.000000
2857		-11.718750
2858		-3.906250
2859		-15.625000
2860		-5.859375
2861		-19.531250
2862		-9.765625
2863		-23.437500
2864		-15.625000
2865		-29.296875
2866		-19.531250
2867		-33.203125
2868		-23.437500
2869		-33.203125
2870		-25.390625
2871		-37.109375
2872		-31.250000
2873		-41.015625
2874		-35.156250
2875		-46.875000
2876		-37.109375
2877		-50.781250
2878		-41.015625
2879		-52.734375
2880		-42.968750
2881		-56.640625
2882		-46.875000
2883		-58.593750
2884		-50.781250
2885		-60.546875
2886		-52.734375
2887		-60.546875
2888		-58.593750
2889		-64.453125
2890		-60.546875
2891		-68.359375
2892		-60.546875
2893		-70.312500
2894		-62.500000
2895		-72.265625
2896		-64.453125
2897		-74.218750
2898		-66.406250
2899		-76.171875
2900		-68.359375
2901		-76.171875
2902		-68.359375
2903		-76.171875
2904		-70.312500
2905		-76.171875
2906		-74.218750
2907		-78.125000
2908		-72.265625
2909		-80.078125
2910		-72.265625
2911		-80.078125
2912		-72.265625
2913		-78.125000
2914		-72.265625
2915		-78.125000
2916		-72.265625
2917		-78.125000
2918		-72.265625
2919		-78.125000
2920		-70.312500
2921		-74.218750
2922		-72.265625
2923		-74.218750
2924		-70.312500
2925		-74.218750
2926		-68.359375
2927		-74.218750
2928		-66.406250
2929		-72.265625
2930		-64.453125
2931		-70.312500
2932		-62.500000
2933		-68.359375
2934		-60.546875
2935		-66.406250
2936		-58.593750
2937		-62.500000
2938		-56.640625
2939		-58.593750
2940		-54.687500
2941		-56.640625
2942		-48.828125
2943		-54.687500
2944		-46.875000
2945		-52.734375
2946		-42.968750
2947		-48.828125
2948		-41.015625
2949		-46.875000
2950		-37.109375
2951		-42.968750
2952		-33.203125
2953		-39.062500
2954		-31.250000
2955		-33.203125
2956		-27.343750
2957		-29.296875
2958		-23.437500
2959		-27.343750
2960		-17.578125
2961		-23.437500
2962		-13.671875
2963		-19.531250
2964		-9.765625
2965		-15.625000
2966		-5.859375
2967		-11.718750
2968		-1.953125
2969		-7.812500
2970		1.953125
2971		-1.953125
2972		3.906250
2973		3.906250
2974		7.812500
2975		5.859375
2976		13.671875
2977		7.812500
2978		17.578125
2979		11.718750
2980		21.484375
2981		17.578125
2982		25.390625
2983		21.484375
2984		31.250000
2985		23.437500
2986		35.156250
2987		29.296875
2988		35.156250
2989		35.156250
2990		39.062500
2991		37.109375
2992		44.921875
2993		39.062500
2994		48.828125
2995		42.968750
2996		52.734375
2997		46.875000
2998		54.687500
2999		50.781250
3000		58.593750
3001		52.734375
3002		60.546875
3003		56.640625
3004		64.453125
3005		60.546875
3006		64.453125
3007		62.500000
3008		68.359375
3009		64.453125
3010		72.265625
3011		66.406250
3012		74.218750
3013		68.359375
3014		76.171875
3015		70.312500
3016		78.125000
3017		72.265625
3018		80.078125
3019		74.218750
3020		82.031250
3021		76.171875
3022		82.031250
3023		80.078125
3024		82.031250
3025		80.078125
3026		85.937500
3027		80.078125
3028		87.890625
3029		80.078125
3030		87.890625
3031		82.031250
3032		87.890625
3033		82.031250
3034		89.843750
3035		82.031250
3036		89.843750
3037		83.984375
3038		89.843750
3039		85.937500
3040		87.890625
3041		83.984375
3042		87.890625
3043		82.031250
3044		89.843750
3045		82.031250
3046		89.843750
3047		80.078125
3048		89.843750
3049		80.078125
3050		87.890625
3051		80.078125
3052		85.937500
3053		78.125000
3054		85.937500
3055		80.078125
3056		82.031250
3057		78.125000
3058		80.078125
3059		74.218750
3060		80.078125
3061		72.265625
3062		80.078125
3063		70.312500
3064		78.125000
3065		68.359375
3066		74.218750
3067		64.453125
3068		74.218750
3069		62.500000
3070		70.312500
3071		60.546875
3072		68.359375
3073		58.593750
3074		64.453125
3075		54.687500
3076		60.546875
3077		50.781250
3078		60.546875
3079		48.828125
3080		56.640625
3081		44.921875
3082		52.734375
3083		41.015625
3084		50.781250
3085		37.109375
3086		46.875000
3087		35.156250
3088		42.968750
3089		31.250000
3090		37.109375
3091		29.296875
3092		33.203125
3093		21.484375
3094		31.250000
3095		19.531250
3096		27.343750
3097		13.671875
3098		25.390625
3099		9.765625
3100		19.531250
3101		5.859375
3102		15.625000
3103		1.953125
3104		11.718750
3105		0.000000
3106		7.812500
3107		-3.906250
3108		1.953125
3109		-9.765625
3110		-1.953125
3111		-13.671875
3112		-3.906250
3113		-17.578125
3114		-7.812500
3115		-21.484375
3116		-11.718750
3117		-25.390625
3118		-15.625000
3119		-29.296875
3120		-19.531250
3121		-31.250000
3122		-23.437500
3123		-35.156250
3124		-29.296875
3125		-39.062500
3126		-33.203125
3127		-44.921875
3128		-35.156250
3129		-46.875000
3130		-39.062500
3131		-50.781250
3132		-41.015625
3133		-52.734375
3134		-44.921875
3135		-56.640625
3136		-46.875000
3137		-60.546875
3138		-50.781250
3139		-60.546875
3140		-54.687500
3141		-62.500000
3142		-58.593750
3143		-66.406250
3144		-60.546875
3145		-70.312500
3146		-60.546875
3147		-72.265625
3148		-62.500000
3149		-72.265625
3150		-64.453125
3151		-74.218750
3152		-66.406250
3153		-76.171875
3154		-68.359375
3155		-76.171875
3156		-68.359375
3157		-76.171875
3158		-72.265625
3159		-78.125000
3160		-72.265625
3161		-80.078125
3162		-72.265625
3163		-80.078125
3164		-72.265625
3165		-80.078125
3166		-72.265625
3167		-80.078125
3168		-72.265625
3169		-78.125000
3170		-72.265625
3171		-80.078125
3172		-72.265625
3173		-76.171875
3174		-72.265625
3175		-74.218750
3176		-72.265625
3177		-76.171875
3178		-68.359375
3179		-74.218750
3180		-66.406250
3181		-72.265625
3182		-64.453125
3183		-72.265625
3184		-64.453125
3185		-70.312500
3186		-60.546875
3187		-68.359375
3188		-58.593750
3189		-64.453125
3190		-58.593750
3191		-60.546875
3192		-56.640625
3193		-58.593750
3194		-50.781250
3195		-56.640625
3196		-48.828125
3197		-54.687500
3198		-44.921875
3199		-50.781250
3200		-42.968750
3201		-48.828125
3202		-39.062500
3203		-44.921875
3204		-35.156250
3205		-41.015625
3206		-33.203125
3207		-35.156250
3208		-29.296875
3209		-31.250000
3210		-23.437500
3211		-29.296875
3212		-21.484375
3213		-27.343750
3214		-15.625000
3215		-23.437500
3216		-13.671875
3217		-17.578125
3218		-9.765625
3219		-13.671875
3220		-3.906250
3221		-9.765625
3222		0.000000
3223		-5.859375
3224		1.953125
3225		0.000000
3226		5.859375
3227		3.906250
3228		11.718750
3229		5.859375
3230		15.625000
3231		9.765625
3232		19.531250
3233		13.671875
3234		23.437500
3235		17.578125
3236		27.343750
3237		21.484375
3238		31.250000
3239		25.390625
3240		33.203125
3241		31.250000
3242		37.109375
3243		35.156250
3244		41.015625
3245		37.109375
3246		46.875000
3247		39.062500
3248		48.828125
3249		42.968750
3250		52.734375
3251		46.875000
3252		56.640625
3253		50.781250
3254		58.593750
3255		52.734375
3256		62.500000
3257		58.593750
3258		62.500000
3259		62.500000
3260		66.406250
3261		62.500000
3262		70.312500
3263		64.453125
3264		72.265625
3265		66.406250
3266		74.218750
3267		68.359375
3268		78.125000
3269		70.312500
3270		80.078125
3271		72.265625
3272		82.031250
3273		74.218750
3274		82.031250
3275		80.078125
3276		82.031250
3277		80.078125
3278		85.937500
3279		78.125000
3280		87.890625
3281		80.078125
3282		87.890625
3283		82.031250
3284		89.843750
3285		82.031250
3286		89.843750
3287		82.031250
3288		89.843750
3289		82.031250
3290		89.843750
3291		85.937500
3292		87.890625
3293		85.937500
3294		87.890625
3295		83.984375
3296		89.843750
3297		82.031250
3298		89.843750
3299		82.031250
3300		89.843750
3301		82.031250
3302		89.843750
3303		80.078125
3304		87.890625
3305		80.078125
3306		85.937500
3307		80.078125
3308		85.937500
3309		78.125000
3310		82.031250
3311		74.218750
3312		82.031250
3313		72.265625
3314		80.078125
3315		70.312500
3316		80.078125
3317		68.359375
3318		78.125000
3319		66.406250
3320		76.171875
3321		64.453125
3322		74.218750
3323		62.500000
3324		70.312500
3325		62.500000
3326		66.406250
3327		58.593750
3328		62.500000
3329		54.687500
3330		62.500000
3331		50.781250
3332		58.593750
3333		46.875000
3334		56.640625
3335		44.921875
3336		54.687500
3337		41.015625
3338		48.828125
3339		37.109375
3340		46.875000
3341		35.156250
3342		41.015625
3343		31.250000
3344		37.109375
3345		25.390625
3346		33.203125
3347		21.484375
3348		31.250000
3349		17.578125
3350		27.343750
3351		13.671875
3352		23.437500
3353		9.765625
3354		19.531250
3355		5.859375
3356		15.625000
3357		3.906250
3358		11.718750
3359		0.000000
3360		5.859375
3361		-5.859375
3362		1.953125
3363		-9.765625
3364		0.000000
3365		-13.671875
3366		-3.906250
3367		-19.531250
3368		-9.765625
3369		-21.484375
3370		-13.671875
3371		-27.343750
3372		-17.578125
3373		-29.296875
3374		-21.484375
3375		-31.250000
3376		-27.343750
3377		-35.156250
3378		-29.296875
3379		-41.015625
3380		-33.203125
3381		-42.968750
3382		-37.109375
3383		-46.875000
3384		-39.062500
3385		-50.781250
3386		-42.968750
3387		-52.734375
3388		-46.875000
3389		-56.640625
3390		-48.828125
3391		-58.593750
3392		-52.734375
3393		-60.546875
3394		-56.640625
3395		-66.406250
3396		-58.593750
3397		-68.359375
3398		-58.593750
3399		-68.359375
3400		-60.546875
3401		-70.312500
3402		-64.453125
3403		-74.218750
3404		-64.453125
3405		-74.218750
3406		-66.406250
3407		-74.218750
3408		-68.359375
3409		-74.218750
3410		-72.265625
3411		-76.171875
3412		-72.265625
3413		-78.125000
3414		-70.312500
3415		-78.125000
3416		-72.265625
3417		-80.078125
3418		-72.265625
3419		-80.078125
3420		-72.265625
3421		-80.078125
3422		-72.265625
3423		-78.125000
3424		-72.265625
3425		-76.171875
3426		-74.218750
3427		-74.218750
3428		-72.265625
3429		-76.171875
3430		-68.359375
3431		-76.171875
3432		-68.359375
3433		-74.218750
3434		-66.406250
3435		-72.265625
3436		-64.453125
3437		-70.312500
3438		-62.500000
3439		-68.359375
3440		-60.546875
3441		-66.406250
3442		-60.546875
3443		-62.500000
3444		-58.593750
3445		-60.546875
3446		-52.734375
3447		-58.593750
3448		-48.828125
3449		-56.640625
3450		-46.875000
3451		-52.734375
3452		-42.968750
3453		-50.781250
3454		-41.015625
3455		-46.875000
3456		-37.109375
3457		-42.968750
3458		-35.156250
3459		-37.109375
3460		-33.203125
3461		-33.203125
3462		-29.296875
3463		-31.250000
3464		-23.437500
3465		-29.296875
3466		-19.531250
3467		-25.390625
3468		-15.625000
3469		-19.531250
3470		-11.718750
3471		-17.578125
3472		-7.812500
3473		-13.671875
3474		-3.906250
3475		-7.812500
3476		-1.953125
3477		-1.953125
3478		3.906250
3479		1.953125
3480		9.765625
3481		3.906250
3482		13.671875
3483		7.812500
3484		17.578125
3485		11.718750
3486		21.484375
3487		15.625000
3488		25.390625
3489		19.531250
3490		29.296875
3491		23.437500
3492		31.250000
3493		29.296875
3494		35.156250
3495		33.203125
3496		39.062500
3497		35.156250
3498		44.921875
3499		39.062500
3500		46.875000
3501		41.015625
3502		50.781250
3503		44.921875
3504		54.687500
3505		48.828125
3506		56.640625
3507		50.781250
3508		60.546875
3509		56.640625
3510		60.546875
3511		60.546875
3512		64.453125
3513		62.500000
3514		68.359375
3515		62.500000
3516		72.265625
3517		64.453125
3518		74.218750
3519		68.359375
3520		76.171875
3521		70.312500
3522		78.125000
3523		72.265625
3524		80.078125
3525		74.218750
3526		82.031250
3527		78.125000
3528		80.078125
3529		78.125000
3530		83.984375
3531		78.125000
3532		85.937500
3533		80.078125
3534		87.890625
3535		80.078125
3536		87.890625
3537		82.031250
3538		89.843750
3539		82.031250
3540		89.843750
3541		82.031250
3542		89.843750
3543		85.937500
3544		87.890625
3545		85.937500
3546		87.890625
3547		83.984375
3548		89.843750
3549		82.031250
3550		89.843750
3551		82.031250
3552		89.843750
3553		82.031250
3554		89.843750
3555		82.031250
3556		87.890625
3557		80.078125
3558		87.890625
3559		80.078125
3560		85.937500
3561		80.078125
3562		83.984375
3563		76.171875
3564		82.031250
3565		74.218750
3566		82.031250
3567		72.265625
3568		80.078125
3569		70.312500
3570		78.125000
3571		68.359375
3572		76.171875
3573		66.406250
3574		74.218750
3575		64.453125
3576		72.265625
3577		64.453125
3578		66.406250
3579		60.546875
3580		64.453125
3581		54.687500
3582		64.453125
3583		52.734375
3584		60.546875
3585		48.828125
3586		58.593750
3587		46.875000
3588		54.687500
3589		42.968750
3590		52.734375
3591		39.062500
3592		48.828125
3593		37.109375
3594		42.968750
3595		35.156250
3596		39.062500
3597		29.296875
3598		35.156250
3599		23.437500
3600		33.203125
3601		19.531250
3602		29.296875
3603		15.625000
3604		25.390625
3605		13.671875
3606		21.484375
3607		7.812500
3608		17.578125
3609		5.859375
3610		13.671875
3611		1.953125
3612		7.812500
3613		-3.906250
3614		3.906250
3615		-7.812500
3616		1.953125
3617		-11.718750
3618		-1.953125
3619		-15.625000
3620		-5.859375
3621		-19.531250
3622		-9.765625
3623		-23.437500
3624		-15.625000
3625		-27.343750
3626		-17.578125
3627		-29.296875
3628		-25.390625
3629		-33.203125
3630		-27.343750
3631		-39.062500
3632		-31.250000
3633		-42.968750
3634		-33.203125
3635		-46.875000
3636		-37.109375
3637		-48.828125
3638		-41.015625
3639		-52.734375
3640		-42.968750
3641		-54.687500
3642		-46.875000
3643		-56.640625
3644		-50.781250
3645		-58.593750
3646		-54.687500
3647		-64.453125
3648		-56.640625
3649		-66.406250
3650		-56.640625
3651		-68.359375
3652		-60.546875
3653		-70.312500
3654		-62.500000
3655		-72.265625
3656		-64.453125
3657		-74.218750
3658		-66.406250
3659		-74.218750
3660		-66.406250
3661		-74.218750
3662		-70.312500
3663		-74.218750
3664		-72.265625
3665		-78.125000
3666		-70.312500
3667		-78.125000
3668		-72.265625
3669		-80.078125
3670		-72.265625
3671		-80.078125
3672		-72.265625
3673		-78.125000
3674		-72.265625
3675		-78.125000
3676		-72.265625
3677		-78.125000
3678		-74.218750
3679		-76.171875
3680		-72.265625
3681		-76.171875
3682		-70.312500
3683		-76.171875
3684		-68.359375
3685		-74.218750
3686		-68.359375
3687		-72.265625
3688		-64.453125
3689		-72.265625
3690		-62.500000
3691		-70.312500
3692		-62.500000
3693		-68.359375
3694		-60.546875
3695		-64.453125
3696		-58.593750
3697		-60.546875
3698		-54.687500
3699		-60.546875
3700		-52.734375
3701		-58.593750
3702		-48.828125
3703		-54.687500
3704		-46.875000
3705		-52.734375
3706		-42.968750
3707		-48.828125
3708		-39.062500
3709		-44.921875
3710		-37.109375
3711		-41.015625
3712		-35.156250
3713		-37.109375
3714		-31.250000
3715		-33.203125
3716		-25.390625
3717		-31.250000
3718		-21.484375
3719		-27.343750
3720		-17.578125
3721		-23.437500
3722		-13.671875
3723		-19.531250
3724		-9.765625
3725		-15.625000
3726		-5.859375
3727		-11.718750
3728		-3.906250
3729		-5.859375
3730		0.000000
3731		-1.953125
3732		5.859375
3733		1.953125
3734		9.765625
3735		5.859375
3736		13.671875
3737		9.765625
3738		19.531250
3739		13.671875
3740		23.437500
3741		15.625000
3742		27.343750
3743		21.484375
3744		29.296875
3745		27.343750
3746		33.203125
3747		31.250000
3748		35.156250
3749		33.203125
3750		41.015625
3751		35.156250
3752		44.921875
3753		39.062500
3754		48.828125
3755		41.015625
3756		50.781250
3757		44.921875
3758		54.687500
3759		48.828125
3760		58.593750
3761		54.687500
3762		58.593750
3763		58.593750
3764		62.500000
3765		60.546875
3766		66.406250
3767		60.546875
3768		68.359375
3769		64.453125
3770		72.265625
3771		66.406250
3772		74.218750
3773		68.359375
3774		76.171875
3775		70.312500
3776		78.125000
3777		72.265625
3778		80.078125
3779		76.171875
3780		80.078125
3781		78.125000
3782		82.031250
3783		78.125000
3784		85.937500
3785		80.078125
3786		85.937500
3787		80.078125
3788		87.890625
3789		82.031250
3790		87.890625
3791		82.031250
3792		89.843750
3793		83.984375
3794		89.843750
3795		85.937500
3796		87.890625
3797		85.937500
3798		87.890625
3799		83.984375
3800		89.843750
3801		83.984375
3802		89.843750
3803		83.984375
3804		89.843750
3805		82.031250
3806		89.843750
3807		82.031250
3808		87.890625
3809		80.078125
3810		87.890625
3811		80.078125
3812		87.890625
3813		80.078125
3814		83.984375
3815		78.125000
3816		83.984375
3817		76.171875
3818		83.984375
3819		74.218750
3820		82.031250
3821		72.265625
3822		80.078125
3823		70.312500
3824		78.125000
3825		68.359375
3826		76.171875
3827		66.406250
3828		74.218750
3829		64.453125
3830		70.312500
3831		62.500000
3832		66.406250
3833		58.593750
3834		66.406250
3835		54.687500
3836		62.500000
3837		52.734375
3838		60.546875
3839		48.828125
3840		56.640625
3841		46.875000
3842		54.687500
3843		41.015625
3844		50.781250
3845		41.015625
3846		46.875000
3847		37.109375
3848		41.015625
3849		31.250000
3850		39.062500
3851		27.343750
3852		37.109375
3853		23.437500
3854		33.203125
3855		19.531250
3856		29.296875
3857		15.625000
3858		25.390625
3859		11.718750
3860		19.531250
3861		9.765625
3862		17.578125
3863		5.859375
3864		9.765625
3865		0.000000
3866		5.859375
3867		-3.906250
3868		1.953125
3869		-9.765625
3870		-1.953125
3871		-9.765625
3872		-5.859375
3873		-15.625000
3874		-9.765625
3875		-19.531250
3876		-13.671875
3877		-23.437500
3878		-15.625000
3879		-27.343750
3880		-21.484375
3881		-31.250000
3882		-25.390625
3883		-35.156250
3884		-29.296875
3885		-37.109375
3886		-33.203125
3887		-42.968750
3888		-35.156250
3889		-46.875000
3890		-39.062500
3891		-46.875000
3892		-41.015625
3893		-52.734375
3894		-44.921875
3895		-54.687500
3896		-48.828125
3897		-56.640625
3898		-52.734375
3899		-60.546875
3900		-54.687500
3901		-62.500000
3902		-58.593750
3903		-64.453125
3904		-60.546875
3905		-66.406250
3906		-62.500000
3907		-68.359375
3908		-64.453125
3909		-70.312500
3910		-66.406250
3911		-72.265625
3912		-68.359375
3913		-72.265625
3914		-70.312500
3915		-74.218750
3916		-72.265625
3917		-76.171875
3918		-72.265625
3919		-76.171875
3920		-72.265625
3921		-78.125000
3922		-74.218750
3923		-76.171875
3924		-74.218750
3925		-78.125000
3926		-74.218750
3927		-78.125000
3928		-74.218750
3929		-78.125000
3930		-72.265625
3931		-76.171875
3932		-72.265625
3933		-76.171875
3934		-72.265625
3935		-74.218750
3936		-72.265625
3937		-74.218750
3938		-70.312500
3939		-72.265625
3940		-68.359375
3941		-70.312500
3942		-68.359375
3943		-70.312500
3944		-64.453125
3945		-66.406250
3946		-62.500000
3947		-64.453125
3948		-60.546875
3949		-62.500000
3950		-58.593750
3951		-60.546875
3952		-56.640625
3953		-56.640625
3954		-52.734375
3955		-54.687500
3956		-50.781250
3957		-52.734375
3958		-46.875000
3959		-48.828125
3960		-42.968750
3961		-46.875000
3962		-39.062500
3963		-42.968750
3964		-37.109375
3965		-39.062500
3966		-33.203125
3967		-35.156250
3968		-29.296875
3969		-31.250000
3970		-27.343750
3971		-27.343750
3972		-21.484375
3973		-23.437500
3974		-19.531250
3975		-21.484375
3976		-13.671875
3977		-15.625000
3978		-9.765625
3979		-13.671875
3980		-5.859375
3981		-7.812500
3982		-1.953125
3983		-3.906250
3984		1.953125
3985		0.000000
3986		5.859375
3987		3.906250
3988		9.765625
3989		7.812500
3990		13.671875
3991		11.718750
3992		17.578125
3993		15.625000
3994		21.484375
3995		19.531250
3996		25.390625
3997		23.437500
3998		29.296875
3999		27.343750
4000		33.203125
4001		31.250000
4002		37.109375
4003		35.156250
4004		41.015625
4005		39.062500
4006		44.921875
4007		42.968750
4008		48.828125
4009		46.875000
4010		50.781250
4011		48.828125
4012		54.687500
4013		50.781250
4014		56.640625
4015		56.640625
4016		60.546875
4017		58.593750
4018		62.500000
4019		62.500000
4020		66.406250
4021		64.453125
4022		68.359375
4023		66.406250
4024		70.312500
4025		68.359375
4026		72.265625
4027		72.265625
4028		76.171875
4029		74.218750
4030		78.125000
4031		76.171875
4032		78.125000
4033		78.125000
4034		82.031250
4035		78.125000
4036		83.984375
4037		80.078125
4038		83.984375
4039		82.031250
4040		83.984375
4041		82.031250
4042		85.937500
4043		83.984375
4044		87.890625
4045		83.984375
4046		87.890625
4047		85.937500
4048		87.890625
4049		85.937500
4050		87.890625
4051		85.937500
4052		89.843750
4053		85.937500
4054		87.890625
4055		83.984375
4056		87.890625
4057		83.984375
4058		87.890625
4059		83.984375
4060		87.890625
4061		83.984375
4062		85.937500
4063		82.031250
4064		85.937500
4065		82.031250
4066		83.984375
4067		80.078125
4068		83.984375
4069		78.125000
4070		82.031250
4071		76.171875
4072		82.031250
4073		76.171875
4074		80.078125
4075		74.218750
4076		78.125000
4077		72.265625
4078		76.171875
4079		68.359375
4080		74.218750
4081		66.406250
4082		70.312500
4083		64.453125
4084		68.359375
4085		62.500000
4086		66.406250
4087		58.593750
4088		62.500000
4089		56.640625
4090		60.546875
4091		52.734375
4092		56.640625
4093		48.828125
4094		54.687500
4095		46.875000
4096		50.781250
4097		42.968750
4098		48.828125
4099		39.062500
4100		44.921875
4101		35.156250
4102		41.015625
4103		31.250000
4104		37.109375
4105		27.343750
4106		33.203125
4107		23.437500
4108		29.296875
4109		19.531250
4110		25.390625
4111		15.625000
4112		21.484375
4113		11.718750
4114		17.578125
4115		7.812500
4116		13.671875
4117		1.953125
4118		9.765625
4119		0.000000
4120		5.859375
4121		-3.906250
4122		1.953125
4123		-7.812500
4124		-1.953125
4125		-11.718750
4126		-7.812500
4127		-17.578125
4128		-9.765625
4129		-21.484375
4130		-15.625000
4131		-25.390625
4132		-19.531250
4133		-27.343750
4134		-23.437500
4135		-31.250000
4136		-27.343750
4137		-35.156250
4138		-29.296875
4139		-39.062500
4140		-33.203125
4141		-42.968750
4142		-37.109375
4143		-46.875000
4144		-41.015625
4145		-48.828125
4146		-44.921875
4147		-52.734375
4148		-46.875000
4149		-54.687500
4150		-50.781250
4151		-58.593750
4152		-54.687500
4153		-60.546875
4154		-56.640625
4155		-62.500000
4156		-58.593750
4157		-64.453125
4158		-60.546875
4159		-68.359375
4160		-62.500000
4161		-70.312500
4162		-66.406250
4163		-72.265625
4164		-66.406250
4165		-72.265625
4166		-68.359375
4167		-74.218750
4168		-70.312500
4169		-76.171875
4170		-70.312500
4171		-76.171875
4172		-72.265625
4173		-76.171875
4174		-74.218750
4175		-76.171875
4176		-74.218750
4177		-78.125000
4178		-74.218750
4179		-78.125000
4180		-74.218750
4181		-76.171875
4182		-74.218750
4183		-76.171875
4184		-74.218750
4185		-76.171875
4186		-72.265625
4187		-76.171875
4188		-72.265625
4189		-74.218750
4190		-70.312500
4191		-74.218750
4192		-70.312500
4193		-72.265625
4194		-68.359375
4195		-70.312500
4196		-66.406250
4197		-68.359375
4198		-64.453125
4199		-66.406250
4200		-62.500000
4201		-64.453125
4202		-60.546875
4203		-62.500000
4204		-58.593750
4205		-60.546875
4206		-54.687500
4207		-56.640625
4208		-52.734375
4209		-54.687500
4210		-48.828125
4211		-50.781250
4212		-44.921875
4213		-46.875000
4214		-41.015625
4215		-44.921875
4216		-39.062500
4217		-41.015625
4218		-35.156250
4219		-37.109375
4220		-33.203125
4221		-33.203125
4222		-29.296875
4223		-31.250000
4224		-25.390625
4225		-27.343750
4226		-21.484375
4227		-21.484375
4228		-17.578125
4229		-19.531250
4230		-13.671875
4231		-13.671875
4232		-9.765625
4233		-9.765625
4234		-5.859375
4235		-5.859375
4236		0.000000
4237		-3.906250
4238		3.906250
4239		1.953125
4240		7.812500
4241		5.859375
4242		11.718750
4243		9.765625
4244		15.625000
4245		13.671875
4246		19.531250
4247		17.578125
4248		23.437500
4249		21.484375
4250		27.343750
4251		25.390625
4252		31.250000
4253		29.296875
4254		35.156250
4255		33.203125
4256		37.109375
4257		37.109375
4258		42.968750
4259		41.015625
4260		46.875000
4261		42.968750
4262		48.828125
4263		46.875000
4264		52.734375
4265		48.828125
4266		54.687500
4267		52.734375
4268		58.593750
4269		56.640625
4270		60.546875
4271		58.593750
4272		64.453125
4273		62.500000
4274		66.406250
4275		64.453125
4276		68.359375
4277		66.406250
4278		72.265625
4279		68.359375
4280		74.218750
4281		72.265625
4282		76.171875
4283		74.218750
4284		78.125000
4285		76.171875
4286		80.078125
4287		78.125000
4288		82.031250
4289		78.125000
4290		82.031250
4291		80.078125
4292		83.984375
4293		82.031250
4294		85.937500
4295		82.031250
4296		85.937500
4297		83.984375
4298		87.890625
4299		83.984375
4300		87.890625
4301		85.937500
4302		87.890625
4303		83.984375
4304		87.890625
4305		85.937500
4306		89.843750
4307		85.937500
4308		87.890625
4309		85.937500
4310		87.890625
4311		83.984375
4312		87.890625
4313		83.984375
4314		87.890625
4315		83.984375
4316		85.937500
4317		82.031250
4318		85.937500
4319		80.078125
4320		83.984375
4321		80.078125
4322		83.984375
4323		78.125000
4324		82.031250
4325		76.171875
4326		82.031250
4327		74.218750
4328		78.125000
4329		72.265625
4330		78.125000
4331		70.312500
4332		76.171875
4333		68.359375
4334		72.265625
4335		66.406250
4336		70.312500
4337		62.500000
4338		68.359375
4339		60.546875
4340		64.453125
4341		56.640625
4342		62.500000
4343		54.687500
4344		58.593750
4345		50.781250
4346		56.640625
4347		46.875000
4348		52.734375
4349		44.921875
4350		50.781250
4351		41.015625
4352		46.875000
4353		37.109375
4354		42.968750
4355		35.156250
4356		39.062500
4357		29.296875
4358		35.156250
4359		27.343750
4360		31.250000
4361		23.437500
4362		29.296875
4363		17.578125
4364		23.437500
4365		13.671875
4366		19.531250
4367		9.765625
4368		15.625000
4369		5.859375
4370		11.718750
4371		1.953125
4372		7.812500
4373		-1.953125
4374		3.906250
4375		-5.859375
4376		0.000000
4377		-9.765625
4378		-3.906250
4379		-13.671875
4380		-7.812500
4381		-17.578125
4382		-11.718750
4383		-21.484375
4384		-15.625000
4385		-25.390625
4386		-19.531250
4387		-29.296875
4388		-23.437500
4389		-33.203125
4390		-27.343750
4391		-37.109375
4392		-31.250000
4393		-41.015625
4394		-35.156250
4395		-42.968750
4396		-39.062500
4397		-46.875000
4398		-41.015625
4399		-50.781250
4400		-44.921875
4401		-52.734375
4402		-46.875000
4403		-56.640625
4404		-50.781250
4405		-58.593750
4406		-54.687500
4407		-60.546875
4408		-56.640625
4409		-62.500000
4410		-58.593750
4411		-66.406250
4412		-60.546875
4413		-68.359375
4414		-64.453125
4415		-70.312500
4416		-66.406250
4417		-70.312500
4418		-68.359375
4419		-72.265625
4420		-68.359375
4421		-74.218750
4422		-70.312500
4423		-74.218750
4424		-72.265625
4425		-76.171875
4426		-72.265625
4427		-76.171875
4428		-74.218750
4429		-76.171875
4430		-74.218750
4431		-76.171875
4432		-74.218750
4433		-78.125000
4434		-74.218750
4435		-76.171875
4436		-74.218750
4437		-78.125000
4438		-72.265625
4439		-76.171875
4440		-72.265625
4441		-76.171875
4442		-72.265625
4443		-74.218750
4444		-70.312500
4445		-72.265625
4446		-68.359375
4447		-70.312500
4448		-68.359375
4449		-70.312500
4450		-66.406250
4451		-68.359375
4452		-64.453125
4453		-64.453125
4454		-62.500000
4455		-64.453125
4456		-58.593750
4457		-60.546875
4458		-56.640625
4459		-58.593750
4460		-54.687500
4461		-54.687500
4462		-50.781250
4463		-52.734375
4464		-48.828125
4465		-50.781250
4466		-44.921875
4467		-48.828125
4468		-41.015625
4469		-42.968750
4470		-39.062500
4471		-39.062500
4472		-35.156250
4473		-37.109375
4474		-31.250000
4475		-33.203125
4476		-27.343750
4477		-29.296875
4478		-23.437500
4479		-25.390625
4480		-19.531250
4481		-21.484375
4482		-15.625000
4483		-17.578125
4484		-11.718750
4485		-13.671875
4486		-7.812500
4487		-9.765625
4488		-1.953125
4489		-5.859375
4490		0.000000
4491		-1.953125
4492		3.906250
4493		1.953125
4494		7.812500
4495		7.812500
4496		11.718750
4497		11.718750
4498		17.578125
4499		15.625000
4500		21.484375
4501		19.531250
4502		25.390625
4503		23.437500
4504		29.296875
4505		27.343750
4506		33.203125
4507		31.250000
4508		37.109375
4509		35.156250
4510		39.062500
4511		39.062500
4512		42.968750
4513		41.015625
4514		46.875000
4515		44.921875
4516		50.781250
4517		48.828125
4518		52.734375
4519		52.734375
4520		56.640625
4521		54.687500
4522		60.546875
4523		58.593750
4524		62.500000
4525		60.546875
4526		64.453125
4527		64.453125
4528		68.359375
4529		66.406250
4530		70.312500
4531		68.359375
4532		72.265625
4533		70.312500
4534		74.218750
4535		72.265625
4536		76.171875
4537		74.218750
4538		78.125000
4539		76.171875
4540		80.078125
4541		78.125000
4542		82.031250
4543		80.078125
4544		83.984375
4545		82.031250
4546		83.984375
4547		82.031250
4548		85.937500
4549		83.984375
4550		85.937500
4551		82.031250
4552		87.890625
4553		85.937500
4554		87.890625
4555		83.984375
4556		87.890625
4557		85.937500
4558		87.890625
4559		85.937500
4560		87.890625
4561		85.937500
4562		89.843750
4563		85.937500
4564		87.890625
4565		83.984375
4566		87.890625
4567		83.984375
4568		87.890625
4569		83.984375
4570		85.937500
4571		80.078125
4572		85.937500
4573		80.078125
4574		83.984375
4575		80.078125
4576		82.031250
4577		78.125000
4578		82.031250
4579		76.171875
4580		80.078125
4581		74.218750
4582		78.125000
4583		72.265625
4584		76.171875
4585		70.312500
4586		74.218750
4587		68.359375
4588		72.265625
4589		64.453125
4590		70.312500
4591		62.500000
4592		66.406250
4593		58.593750
4594		64.453125
4595		56.640625
4596		60.546875
4597		52.734375
4598		58.593750
4599		50.781250
4600		54.687500
4601		46.875000
4602		52.734375
4603		42.968750
4604		48.828125
4605		39.062500
4606		44.921875
4607		37.109375
4608		42.968750
4609		33.203125
4610		37.109375
4611		29.296875
4612		35.156250
4613		25.390625
4614		31.250000
4615		21.484375
4616		27.343750
4617		17.578125
4618		23.437500
4619		13.671875
4620		19.531250
4621		9.765625
4622		13.671875
4623		5.859375
4624		11.718750
4625		0.000000
4626		7.812500
4627		-1.953125
4628		1.953125
4629		-7.812500
4630		-1.953125
4631		-11.718750
4632		-5.859375
4633		-15.625000
4634		-9.765625
4635		-19.531250
4636		-11.718750
4637		-23.437500
4638		-17.578125
4639		-27.343750
4640		-21.484375
4641		-31.250000
4642		-25.390625
4643		-35.156250
4644		-29.296875
4645		-39.062500
4646		-33.203125
4647		-41.015625
4648		-37.109375
4649		-44.921875
4650		-39.062500
4651		-46.875000
4652		-42.968750
4653		-50.781250
4654		-46.875000
4655		-54.687500
4656		-48.828125
4657		-56.640625
4658		-52.734375
4659		-58.593750
4660		-54.687500
4661		-62.500000
4662		-58.593750
4663		-64.453125
4664		-60.546875
4665		-66.406250
4666		-62.500000
4667		-68.359375
4668		-64.453125
4669		-70.312500
4670		-66.406250
4671		-72.265625
4672		-68.359375
4673		-74.218750
4674		-68.359375
4675		-74.218750
4676		-70.312500
4677		-74.218750
4678		-72.265625
4679		-76.171875
4680		-72.265625
4681		-76.171875
4682		-74.218750
4683		-76.171875
4684		-74.218750
4685		-78.125000
4686		-74.218750
4687		-76.171875
4688		-74.218750
4689		-76.171875
4690		-72.265625
4691		-76.171875
4692		-72.265625
4693		-74.218750
4694		-72.265625
4695		-74.218750
4696		-72.265625
4697		-74.218750
4698		-70.312500
4699		-72.265625
4700		-68.359375
4701		-70.312500
4702		-66.406250
4703		-68.359375
4704		-64.453125
4705		-66.406250
4706		-62.500000
4707		-64.453125
4708		-60.546875
4709		-62.500000
4710		-58.593750
4711		-60.546875
4712		-56.640625
4713		-56.640625
4714		-52.734375
4715		-54.687500
4716		-50.781250
4717		-52.734375
4718		-46.875000
4719		-48.828125
4720		-42.968750
4721		-44.921875
4722		-41.015625
4723		-41.015625
4724		-37.109375
4725		-39.062500
4726		-33.203125
4727		-35.156250
4728		-29.296875
4729		-31.250000
4730		-25.390625
4731		-27.343750
4732		-21.484375
4733		-23.437500
4734		-17.578125
4735		-19.531250
4736		-13.671875
4737		-15.625000
4738		-9.765625
4739		-11.718750
4740		-3.906250
4741		-9.765625
4742		-1.953125
4743		-3.906250
4744		1.953125
4745		0.000000
4746		5.859375
4747		3.906250
4748		9.765625
4749		7.812500
4750		13.671875
4751		11.718750
4752		19.531250
4753		17.578125
4754		21.484375
4755		21.484375
4756		25.390625
4757		25.390625
4758		29.296875
4759		27.343750
4760		33.203125
4761		31.250000
4762		37.109375
4763		35.156250
4764		41.015625
4765		39.062500
4766		44.921875
4767		42.968750
4768		48.828125
4769		46.875000
4770		50.781250
4771		48.828125
4772		54.687500
4773		52.734375
4774		58.593750
4775		56.640625
4776		60.546875
4777		58.593750
4778		64.453125
4779		60.546875
4780		66.406250
4781		64.453125
4782		68.359375
4783		66.406250
4784		70.312500
4785		68.359375
4786		74.218750
4787		72.265625
4788		76.171875
4789		74.218750
4790		78.125000
4791		74.218750
4792		80.078125
4793		78.125000
4794		80.078125
4795		78.125000
4796		83.984375
4797		80.078125
4798		83.984375
4799		82.031250
4800		83.984375
4801		82.031250
4802		85.937500
4803		82.031250
4804		87.890625
4805		83.984375
4806		87.890625
4807		85.937500
4808		87.890625
4809		85.937500
4810		89.843750
4811		85.937500
4812		87.890625
4813		85.937500
4814		89.843750
4815		83.984375
4816		87.890625
4817		85.937500
4818		87.890625
4819		83.984375
4820		87.890625
4821		83.984375
4822		85.937500
4823		83.984375
4824		85.937500
4825		82.031250
4826		85.937500
4827		80.078125
4828		83.984375
4829		80.078125
4830		82.031250
4831		78.125000
4832		82.031250
4833		76.171875
4834		80.078125
4835		72.265625
4836		78.125000
4837		72.265625
4838		76.171875
4839		70.312500
4840		74.218750
4841		68.359375
4842		72.265625
4843		64.453125
4844		70.312500
4845		62.500000
4846		66.406250
4847		58.593750
4848		64.453125
4849		54.687500
4850		60.546875
4851		52.734375
4852		58.593750
4853		50.781250
4854		54.687500
4855		46.875000
4856		50.781250
4857		41.015625
4858		46.875000
4859		39.062500
4860		44.921875
4861		35.156250
4862		41.015625
4863		31.250000
4864		37.109375
4865		27.343750
4866		33.203125
4867		23.437500
4868		29.296875
4869		19.531250
4870		25.390625
4871		15.625000
4872		21.484375
4873		11.718750
4874		17.578125
4875		7.812500
4876		13.671875
4877		3.906250
4878		9.765625
4879		0.000000
4880		5.859375
4881		-3.906250
4882		1.953125
4883		-7.812500
4884		-1.953125
4885		-11.718750
4886		-5.859375
4887		-15.625000
4888		-9.765625
4889		-19.531250
4890		-13.671875
4891		-23.437500
4892		-17.578125
4893		-27.343750
4894		-21.484375
4895		-31.250000
4896		-25.390625
4897		-35.156250
4898		-29.296875
4899		-39.062500
4900		-33.203125
4901		-42.968750
4902		-37.109375
4903		-44.921875
4904		-41.015625
4905		-48.828125
4906		-42.968750
4907		-50.781250
4908		-46.875000
4909		-54.687500
4910		-48.828125
4911		-56.640625
4912		-52.734375
4913		-60.546875
4914		-54.687500
4915		-62.500000
4916		-58.593750
4917		-64.453125
4918		-60.546875
4919		-68.359375
4920		-62.500000
4921		-68.359375
4922		-64.453125
4923		-70.312500
4924		-66.406250
4925		-72.265625
4926		-68.359375
4927		-74.218750
4928		-68.359375
4929		-74.218750
4930		-70.312500
4931		-74.218750
4932		-72.265625
4933		-76.171875
4934		-72.265625
4935		-76.171875
4936		-72.265625
4937		-76.171875
4938		-74.218750
4939		-76.171875
4940		-74.218750
4941		-78.125000
4942		-72.265625
4943		-76.171875
4944		-72.265625
4945		-76.171875
4946		-72.265625
4947		-74.218750
4948		-72.265625
4949		-74.218750
4950		-70.312500
4951		-74.218750
4952		-70.312500
4953		-72.265625
4954		-66.406250
4955		-70.312500
4956		-66.406250
4957		-68.359375
4958		-64.453125
4959		-66.406250
4960		-62.500000
4961		-64.453125
4962		-60.546875
4963		-60.546875
4964		-56.640625
4965		-58.593750
4966		-54.687500
4967		-56.640625
4968		-50.781250
4969		-52.734375
4970		-48.828125
4971		-50.781250
4972		-44.921875
4973		-46.875000
4974		-42.968750
4975		-44.921875
4976		-39.062500
4977		-41.015625
4978		-35.156250
4979		-37.109375
4980		-31.250000
4981		-33.203125
4982		-27.343750
4983		-31.250000
4984		-25.390625
4985		-25.390625
4986		-21.484375
4987		-21.484375
4988		-17.578125
4989		-17.578125
4990		-13.671875
4991		-13.671875
4992		-7.812500
4993		-9.765625
4994		-3.906250
4995		-5.859375
4996		0.000000
4997		-1.953125
4998		3.906250
4999		1.953125
5000		7.812500
5001		5.859375
5002		11.718750
5003		9.765625
5004		15.625000
5005		13.671875
5006		19.531250
5007		17.578125
5008		23.437500
5009		21.484375
5010		27.343750
5011		25.390625
5012		31.250000
5013		29.296875
5014		35.156250
5015		33.203125
5016		39.062500
5017		37.109375
5018		42.968750
5019		39.062500
5020		44.921875
5021		44.921875
5022		48.828125
5023		46.875000
5024		52.734375
5025		50.781250
5026		56.640625
5027		54.687500
5028		58.593750
5029		56.640625
5030		60.546875
5031		60.546875
5032		64.453125
5033		62.500000
5034		66.406250
5035		64.453125
5036		70.312500
5037		68.359375
5038		72.265625
5039		70.312500
5040		74.218750
5041		72.265625
5042		76.171875
5043		74.218750
5044		80.078125
5045		76.171875
5046		80.078125
5047		78.125000
5048		82.031250
5049		80.078125
5050		82.031250
5051		80.078125
5052		85.937500
5053		82.031250
5054		85.937500
5055		82.031250
5056		85.937500
5057		83.984375
5058		87.890625
5059		85.937500
5060		87.890625
5061		85.937500
5062		87.890625
5063		85.937500
5064		87.890625
5065		85.937500
5066		89.843750
5067		85.937500
5068		87.890625
5069		85.937500
5070		87.890625
5071		85.937500
5072		87.890625
5073		83.984375
5074		87.890625
5075		83.984375
5076		85.937500
5077		82.031250
5078		85.937500
5079		82.031250
5080		85.937500
5081		80.078125
5082		83.984375
5083		78.125000
5084		82.031250
5085		76.171875
5086		82.031250
5087		76.171875
5088		80.078125
5089		74.218750
5090		78.125000
5091		72.265625
5092		74.218750
5093		68.359375
5094		74.218750
5095		66.406250
5096		72.265625
5097		64.453125
5098		68.359375
5099		60.546875
5100		66.406250
5101		58.593750
5102		62.500000
5103		54.687500
5104		60.546875
5105		52.734375
5106		56.640625
5107		48.828125
5108		52.734375
5109		44.921875
5110		50.781250
5111		41.015625
5112		46.875000
5113		39.062500
5114		42.968750
5115		35.156250
5116		41.015625
5117		31.250000
5118		35.156250
5119		27.343750
5120		33.203125
5121		21.484375
5122		29.296875
5123		19.531250
5124		25.390625
5125		15.625000
5126		21.484375
5127		9.765625
5128		17.578125
5129		7.812500
5130		11.718750
5131		1.953125
5132		9.765625
5133		0.000000
5134		3.906250
5135		-5.859375
5136		1.953125
5137		-9.765625
5138		-3.906250
5139		-13.671875
5140		-7.812500
5141		-17.578125
5142		-11.718750
5143		-21.484375
5144		-15.625000
5145		-25.390625
5146		-19.531250
5147		-29.296875
5148		-23.437500
5149		-33.203125
5150		-27.343750
5151		-37.109375
5152		-31.250000
5153		-39.062500
5154		-35.156250
5155		-42.968750
5156		-37.109375
5157		-46.875000
5158		-41.015625
5159		-48.828125
5160		-44.921875
5161		-52.734375
5162		-46.875000
5163		-56.640625
5164		-50.781250
5165		-58.593750
5166		-54.687500
5167		-60.546875
5168		-56.640625
5169		-64.453125
5170		-58.593750
5171		-66.406250
5172		-60.546875
5173		-68.359375
5174		-62.500000
5175		-68.359375
5176		-66.406250
5177		-70.312500
5178		-66.406250
5179		-72.265625
5180		-68.359375
5181		-74.218750
5182		-70.312500
5183		-74.218750
5184		-70.312500
5185		-76.171875
5186		-72.265625
5187		-76.171875
5188		-72.265625
5189		-76.171875
5190		-72.265625
5191		-76.171875
5192		-74.218750
5193		-78.125000
5194		-74.218750
5195		-76.171875
5196		-72.265625
5197		-76.171875
5198		-72.265625
5199		-74.218750
5200		-72.265625
5201		-74.218750
5202		-70.312500
5203		-72.265625
5204		-70.312500
5205		-72.265625
5206		-68.359375
5207		-70.312500
5208		-66.406250
5209		-68.359375
5210		-64.453125
5211		-68.359375
5212		-62.500000
5213		-64.453125
5214		-60.546875
5215		-62.500000
5216		-58.593750
5217		-60.546875
5218		-56.640625
5219		-58.593750
5220		-52.734375
5221		-54.687500
5222		-50.781250
5223		-52.734375
5224		-46.875000
5225		-48.828125
5226		-44.921875
5227		-46.875000
5228		-41.015625
5229		-42.968750
5230		-37.109375
5231		-39.062500
5232		-33.203125
5233		-35.156250
5234		-31.250000
5235		-33.203125
5236		-25.390625
5237		-29.296875
5238		-23.437500
5239		-25.390625
5240		-19.531250
5241		-21.484375
5242		-15.625000
5243		-17.578125
5244		-11.718750
5245		-13.671875
5246		-7.812500
5247		-7.812500
5248		-1.953125
5249		-3.906250
5250		0.000000
5251		0.000000
5252		5.859375
5253		3.906250
5254		7.812500
5255		7.812500
5256		13.671875
5257		9.765625
5258		17.578125
5259		15.625000
5260		21.484375
5261		19.531250
5262		25.390625
5263		23.437500
5264		29.296875
5265		27.343750
5266		33.203125
5267		31.250000
5268		37.109375
5269		35.156250
5270		41.015625
5271		39.062500
5272		44.921875
5273		42.968750
5274		46.875000
5275		44.921875
5276		50.781250
5277		48.828125
5278		54.687500
5279		52.734375
5280		58.593750
5281		54.687500
5282		60.546875
5283		58.593750
5284		62.500000
5285		60.546875
5286		66.406250
5287		64.453125
5288		68.359375
5289		66.406250
5290		70.312500
5291		68.359375
5292		72.265625
5293		72.265625
5294		76.171875
5295		72.265625
5296		78.125000
5297		74.218750
5298		80.078125
5299		78.125000
5300		80.078125
5301		80.078125
5302		82.031250
5303		80.078125
5304		83.984375
5305		82.031250
5306		85.937500
5307		82.031250
5308		85.937500
5309		83.984375
5310		85.937500
5311		83.984375
5312		87.890625
5313		85.937500
5314		87.890625
5315		85.937500
5316		87.890625
5317		85.937500
5318		87.890625
5319		85.937500
5320		89.843750
5321		85.937500
5322		89.843750
5323		83.984375
5324		87.890625
5325		85.937500
5326		87.890625
5327		83.984375
5328		87.890625
5329		82.031250
5330		85.937500
5331		82.031250
5332		85.937500
5333		80.078125
5334		83.984375
5335		80.078125
5336		82.031250
5337		78.125000
5338		82.031250
5339		76.171875
5340		80.078125
5341		74.218750
5342		78.125000
5343		72.265625
5344		76.171875
5345		70.312500
5346		74.218750
5347		68.359375
5348		72.265625
5349		64.453125
5350		70.312500
5351		62.500000
5352		66.406250
5353		58.593750
5354		64.453125
5355		56.640625
5356		60.546875
5357		54.687500
5358		58.593750
5359		50.781250
5360		54.687500
5361		46.875000
5362		52.734375
5363		44.921875
5364		48.828125
5365		41.015625
5366		44.921875
5367		37.109375
5368		41.015625
5369		33.203125
5370		37.109375
5371		29.296875
5372		35.156250
5373		23.437500
5374		31.250000
5375		21.484375
5376		27.343750
5377		17.578125
5378		23.437500
5379		13.671875
5380		19.531250
5381		9.765625
5382		15.625000
5383		3.906250
5384		9.765625
5385		1.953125
5386		7.812500
5387		-3.906250
5388		1.953125
5389		-7.812500
5390		-1.953125
5391		-9.765625
5392		-5.859375
5393		-15.625000
5394		-9.765625
5395		-19.531250
5396		-13.671875
5397		-23.437500
5398		-17.578125
5399		-27.343750
5400		-21.484375
5401		-31.250000
5402		-23.437500
5403		-35.156250
5404		-29.296875
5405		-37.109375
5406		-33.203125
5407		-41.015625
5408		-35.156250
5409		-44.921875
5410		-39.062500
5411		-46.875000
5412		-42.968750
5413		-50.781250
5414		-46.875000
5415		-54.687500
5416		-48.828125
5417		-56.640625
5418		-52.734375
5419		-60.546875
5420		-54.687500
5421		-62.500000
5422		-58.593750
5423		-64.453125
5424		-60.546875
5425		-66.406250
5426		-62.500000
5427		-68.359375
5428		-64.453125
5429		-72.265625
5430		-66.406250
5431		-72.265625
5432		-68.359375
5433		-74.218750
5434		-70.312500
5435		-74.218750
5436		-70.312500
5437		-76.171875
5438		-72.265625
5439		-76.171875
5440		-72.265625
5441		-78.125000
5442		-74.218750
5443		-76.171875
5444		-74.218750
5445		-76.171875
5446		-74.218750
5447		-78.125000
5448		-74.218750
5449		-76.171875
5450		-74.218750
5451		-76.171875
5452		-72.265625
5453		-76.171875
5454		-72.265625
5455		-76.171875
5456		-70.312500
5457		-74.218750
5458		-70.312500
5459		-72.265625
5460		-68.359375
5461		-70.312500
5462		-68.359375
5463		-68.359375
5464		-64.453125
5465		-68.359375
5466		-64.453125
5467		-64.453125
5468		-60.546875
5469		-62.500000
5470		-58.593750
5471		-60.546875
5472		-54.687500
5473		-58.593750
5474		-52.734375
5475		-54.687500
5476		-50.781250
5477		-52.734375
5478		-46.875000
5479		-48.828125
5480		-42.968750
5481		-46.875000
5482		-41.015625
5483		-42.968750
5484		-37.109375
5485		-39.062500
5486		-33.203125
5487		-35.156250
5488		-29.296875
5489		-31.250000
5490		-25.390625
5491		-27.343750
5492		-23.437500
5493		-23.437500
5494		-19.531250
5495		-19.531250
5496		-15.625000
5497		-15.625000
5498		-9.765625
5499		-11.718750
5500		-7.812500
5501		-7.812500
5502		-1.953125
5503		-3.906250
5504		1.953125
5505		0.000000
5506		5.859375
5507		3.906250
5508		9.765625
5509		7.812500
5510		13.671875
5511		11.718750
5512		17.578125
5513		15.625000
5514		21.484375
5515		19.531250
5516		25.390625
5517		23.437500
5518		29.296875
5519		27.343750
5520		33.203125
5521		31.250000
5522		37.109375
5523		35.156250
5524		41.015625
5525		39.062500
5526		42.968750
5527		42.968750
5528		46.875000
5529		46.875000
5530		50.781250
5531		48.828125
5532		54.687500
5533		50.781250
5534		58.593750
5535		54.687500
5536		60.546875
5537		58.593750
5538		62.500000
5539		62.500000
5540		66.406250
5541		64.453125
5542		68.359375
5543		64.453125
5544		70.312500
5545		68.359375
5546		72.265625
5547		70.312500
5548		74.218750
5549		74.218750
5550		78.125000
5551		74.218750
5552		78.125000
5553		76.171875
5554		80.078125
5555		78.125000
5556		82.031250
5557		80.078125
5558		83.984375
5559		82.031250
5560		85.937500
5561		82.031250
5562		85.937500
5563		83.984375
5564		85.937500
5565		83.984375
5566		87.890625
5567		83.984375
5568		87.890625
5569		83.984375
5570		87.890625
5571		85.937500
5572		87.890625
5573		85.937500
5574		87.890625
5575		83.984375
5576		87.890625
5577		85.937500
5578		87.890625
5579		83.984375
5580		85.937500
5581		83.984375
5582		87.890625
5583		82.031250
5584		85.937500
5585		82.031250
5586		85.937500
5587		80.078125
5588		83.984375
5589		78.125000
5590		82.031250
5591		76.171875
5592		80.078125
5593		76.171875
5594		80.078125
5595		74.218750
5596		76.171875
5597		72.265625
5598		74.218750
5599		68.359375
5600		72.265625
5601		66.406250
5602		70.312500
5603		64.453125
5604		68.359375
5605		62.500000
5606		66.406250
5607		58.593750
5608		62.500000
5609		54.687500
5610		60.546875
5611		52.734375
5612		56.640625
5613		48.828125
5614		54.687500
5615		44.921875
5616		50.781250
5617		42.968750
5618		46.875000
5619		39.062500
5620		44.921875
5621		35.156250
5622		41.015625
5623		31.250000
5624		37.109375
5625		27.343750
5626		33.203125
5627		23.437500
5628		31.250000
5629		19.531250
5630		25.390625
5631		15.625000
5632		21.484375
5633		11.718750
5634		17.578125
5635		7.812500
5636		13.671875
5637		3.906250
5638		9.765625
5639		0.000000
5640		3.906250
5641		-3.906250
5642		1.953125
5643		-7.812500
5644		-3.906250
5645		-13.671875
5646		-7.812500
5647		-17.578125
5648		-11.718750
5649		-21.484375
5650		-15.625000
5651		-25.390625
5652		-19.531250
5653		-29.296875
5654		-21.484375
5655		-31.250000
5656		-27.343750
5657		-35.156250
5658		-29.296875
5659		-41.015625
5660		-33.203125
5661		-42.968750
5662		-37.109375
5663		-46.875000
5664		-41.015625
5665		-48.828125
5666		-44.921875
5667		-52.734375
5668		-46.875000
5669		-56.640625
5670		-50.781250
5671		-58.593750
5672		-54.687500
5673		-60.546875
5674		-54.687500
5675		-62.500000
5676		-58.593750
5677		-64.453125
5678		-60.546875
5679		-66.406250
5680		-64.453125
5681		-68.359375
5682		-66.406250
5683		-70.312500
5684		-68.359375
5685		-74.218750
5686		-68.359375
5687		-74.218750
5688		-70.312500
5689		-74.218750
5690		-70.312500
5691		-76.171875
5692		-72.265625
5693		-76.171875
5694		-72.265625
5695		-76.171875
5696		-74.218750
5697		-76.171875
5698		-74.218750
5699		-78.125000
5700		-72.265625
5701		-76.171875
5702		-74.218750
5703		-76.171875
5704		-74.218750
5705		-76.171875
5706		-72.265625
5707		-76.171875
5708		-72.265625
5709		-74.218750
5710		-70.312500
5711		-74.218750
5712		-70.312500
5713		-72.265625
5714		-68.359375
5715		-70.312500
5716		-66.406250
5717		-68.359375
5718		-64.453125
5719		-66.406250
5720		-62.500000
5721		-64.453125
5722		-60.546875
5723		-62.500000
5724		-58.593750
5725		-60.546875
5726		-54.687500
5727		-56.640625
5728		-52.734375
5729		-54.687500
5730		-48.828125
5731		-50.781250
5732		-44.921875
5733		-46.875000
5734		-42.968750
5735		-44.921875
5736		-39.062500
5737		-41.015625
5738		-35.156250
5739		-37.109375
5740		-33.203125
5741		-33.203125
5742		-29.296875
5743		-29.296875
5744		-23.437500
5745		-25.390625
5746		-19.531250
5747		-23.437500
5748		-17.578125
5749		-19.531250
5750		-13.671875
5751		-13.671875
5752		-9.765625
5753		-9.765625
5754		-3.906250
5755		-5.859375
5756		0.000000
5757		-1.953125
5758		3.906250
5759		1.953125
5760		7.812500
5761		5.859375
5762		11.718750
5763		9.765625
5764		15.625000
5765		13.671875
5766		19.531250
5767		17.578125
5768		23.437500
5769		21.484375
5770		27.343750
5771		25.390625
5772		31.250000
5773		29.296875
5774		35.156250
5775		33.203125
5776		39.062500
5777		35.156250
5778		42.968750
5779		41.015625
5780		44.921875
5781		44.921875
5782		48.828125
5783		46.875000
5784		52.734375
5785		50.781250
5786		56.640625
5787		54.687500
5788		58.593750
5789		56.640625
5790		62.500000
5791		60.546875
5792		64.453125
5793		62.500000
5794		68.359375
5795		64.453125
5796		70.312500
5797		68.359375
5798		72.265625
5799		70.312500
5800		74.218750
5801		72.265625
5802		76.171875
5803		74.218750
5804		78.125000
5805		76.171875
5806		80.078125
5807		78.125000
5808		82.031250
5809		78.125000
5810		83.984375
5811		80.078125
5812		83.984375
5813		82.031250
5814		83.984375
5815		83.984375
5816		85.937500
5817		83.984375
5818		87.890625
5819		83.984375
5820		87.890625
5821		83.984375
5822		87.890625
5823		83.984375
5824		89.843750
5825		85.937500
5826		89.843750
5827		83.984375
5828		89.843750
5829		85.937500
5830		87.890625
5831		85.937500
5832		87.890625
5833		82.031250
5834		87.890625
5835		82.031250
5836		87.890625
5837		82.031250
5838		85.937500
5839		80.078125
5840		85.937500
5841		80.078125
5842		85.937500
5843		78.125000
5844		83.984375
5845		76.171875
5846		82.031250
5847		74.218750
5848		78.125000
5849		72.265625
5850		76.171875
5851		70.312500
5852		76.171875
5853		66.406250
5854		74.218750
5855		64.453125
5856		72.265625
5857		62.500000
5858		68.359375
5859		60.546875
5860		66.406250
5861		56.640625
5862		64.453125
5863		54.687500
5864		58.593750
5865		52.734375
5866		56.640625
5867		46.875000
5868		54.687500
5869		42.968750
5870		50.781250
5871		41.015625
5872		48.828125
5873		37.109375
5874		44.921875
5875		33.203125
5876		41.015625
5877		29.296875
5878		37.109375
5879		27.343750
5880		33.203125
5881		23.437500
5882		27.343750
5883		17.578125
5884		25.390625
5885		13.671875
5886		21.484375
5887		9.765625
5888		17.578125
5889		5.859375
5890		13.671875
5891		1.953125
5892		9.765625
5893		-1.953125
5894		5.859375
5895		-5.859375
5896		0.000000
5897		-9.765625
5898		-3.906250
5899		-13.671875
5900		-7.812500
5901		-17.578125
5902		-11.718750
5903		-21.484375
5904		-15.625000
5905		-25.390625
5906		-19.531250
5907		-29.296875
5908		-23.437500
5909		-33.203125
5910		-27.343750
5911		-37.109375
5912		-31.250000
5913		-41.015625
5914		-35.156250
5915		-42.968750
5916		-39.062500
5917		-46.875000
5918		-41.015625
5919		-50.781250
5920		-44.921875
5921		-52.734375
5922		-48.828125
5923		-54.687500
5924		-50.781250
5925		-58.593750
5926		-54.687500
5927		-60.546875
5928		-56.640625
5929		-62.500000
5930		-58.593750
5931		-66.406250
5932		-62.500000
5933		-68.359375
5934		-64.453125
5935		-70.312500
5936		-66.406250
5937		-70.312500
5938		-68.359375
5939		-72.265625
5940		-70.312500
5941		-74.218750
5942		-70.312500
5943		-74.218750
5944		-72.265625
5945		-76.171875
5946		-72.265625
5947		-76.171875
5948		-74.218750
5949		-76.171875
5950		-74.218750
5951		-76.171875
5952		-74.218750
5953		-76.171875
5954		-74.218750
5955		-76.171875
5956		-74.218750
5957		-76.171875
5958		-74.218750
5959		-76.171875
5960		-72.265625
5961		-74.218750
5962		-72.265625
5963		-74.218750
5964		-70.312500
5965		-72.265625
5966		-70.312500
5967		-72.265625
5968		-68.359375
5969		-70.312500
5970		-66.406250
5971		-68.359375
5972		-64.453125
5973		-66.406250
5974		-62.500000
5975		-64.453125
5976		-60.546875
5977		-60.546875
5978		-56.640625
5979		-58.593750
5980		-54.687500
5981		-56.640625
5982		-50.781250
5983		-52.734375
5984		-48.828125
5985		-50.781250
5986		-44.921875
5987		-46.875000
5988		-42.968750
5989		-42.968750
5990		-39.062500
5991		-39.062500
5992		-35.156250
5993		-37.109375
5994		-31.250000
5995		-33.203125
5996		-27.343750
5997		-29.296875
5998		-23.437500
5999		-25.390625
6000		-19.531250
6001		-23.437500
6002		-13.671875
6003		-19.531250
6004		-9.765625
6005		-15.625000
6006		-5.859375
6007		-9.765625
6008		-3.906250
6009		-5.859375
6010		0.000000
6011		-1.953125
6012		3.906250
6013		1.953125
6014		7.812500
6015		7.812500
6016		11.718750
6017		9.765625
6018		19.531250
6019		11.718750
6020		23.437500
6021		15.625000
6022		27.343750
6023		19.531250
6024		27.343750
6025		27.343750
6026		31.250000
6027		31.250000
6028		35.156250
6029		33.203125
6030		39.062500
6031		37.109375
6032		42.968750
6033		41.015625
6034		46.875000
6035		41.015625
6036		50.781250
6037		46.875000
6038		54.687500
6039		48.828125
6040		58.593750
6041		54.687500
6042		58.593750
6043		56.640625
6044		62.500000
6045		60.546875
6046		64.453125
6047		62.500000
6048		66.406250
6049		66.406250
6050		70.312500
6051		66.406250
6052		76.171875
6053		66.406250
6054		78.125000
6055		70.312500
6056		80.078125
6057		72.265625
6058		80.078125
6059		76.171875
6060		80.078125
6061		78.125000
6062		82.031250
6063		80.078125
6064		82.031250
6065		80.078125
6066		83.984375
6067		82.031250
6068		85.937500
6069		80.078125
6070		89.843750
6071		80.078125
6072		89.843750
6073		82.031250
6074		89.843750
6075		85.937500
6076		87.890625
6077		85.937500
6078		87.890625
6079		85.937500
6080		87.890625
6081		85.937500
6082		87.890625
6083		83.984375
6084		87.890625
6085		80.078125
6086		89.843750
6087		80.078125
6088		89.843750
6089		78.125000
6090		89.843750
6091		82.031250
6092		83.984375
6093		80.078125
6094		83.984375
6095		78.125000
6096		82.031250
6097		78.125000
6098		80.078125
6099		76.171875
6100		80.078125
6101		70.312500
6102		80.078125
6103		68.359375
6104		80.078125
6105		66.406250
6106		76.171875
6107		64.453125
6108		74.218750
6109		64.453125
6110		68.359375
6111		62.500000
6112		66.406250
6113		58.593750
6114		64.453125
6115		56.640625
6116		60.546875
6117		52.734375
6118		58.593750
6119		46.875000
6120		58.593750
6121		44.921875
6122		54.687500
6123		41.015625
6124		50.781250
6125		39.062500
6126		44.921875
6127		37.109375
6128		41.015625
6129		31.250000
6130		37.109375
6131		29.296875
6132		35.156250
6133		25.390625
6134		31.250000
6135		17.578125
6136		27.343750
6137		13.671875
6138		25.390625
6139		9.765625
6140		21.484375
6141		7.812500
6142		17.578125
6143		5.859375
6144		11.718750
6145		1.953125
6146		5.859375
6147		-3.906250
6148		1.953125
6149		-7.812500
6150		-1.953125
6151		-11.718750
6152		-5.859375
6153		-17.578125
6154		-5.859375
6155		-21.484375
6156		-9.765625
6157		-25.390625
6158		-13.671875
6159		-27.343750
6160		-21.484375
6161		-31.250000
6162		-25.390625
6163		-35.156250
6164		-29.296875
6165		-39.062500
6166		-33.203125
6167		-41.015625
6168		-37.109375
6169		-48.828125
6170		-39.062500
6171		-52.734375
6172		-41.015625
6173		-54.687500
6174		-44.921875
6175		-54.687500
6176		-50.781250
6177		-56.640625
6178		-52.734375
6179		-60.546875
6180		-56.640625
6181		-62.500000
6182		-58.593750
6183		-64.453125
6184		-60.546875
6185		-66.406250
6186		-62.500000
6187		-70.312500
6188		-64.453125
6189		-72.265625
6190		-64.453125
6191		-72.265625
6192		-68.359375
6193		-72.265625
6194		-70.312500
6195		-74.218750
6196		-72.265625
6197		-76.171875
6198		-72.265625
6199		-76.171875
6200		-74.218750
6201		-76.171875
6202		-74.218750
6203		-76.171875
6204		-74.218750
6205		-80.078125
6206		-72.265625
6207		-78.125000
6208		-72.265625
6209		-76.171875
6210		-74.218750
6211		-76.171875
6212		-74.218750
6213		-76.171875
6214		-72.265625
6215		-74.218750
6216		-72.265625
6217		-74.218750
6218		-70.312500
6219		-72.265625
6220		-70.312500
6221		-72.265625
6222		-66.406250
6223		-70.312500
6224		-64.453125
6225		-66.406250
6226		-64.453125
6227		-64.453125
6228		-62.500000
6229		-62.500000
6230		-58.593750
6231		-60.546875
6232		-56.640625
6233		-58.593750
6234		-54.687500
6235		-54.687500
6236		-50.781250
6237		-52.734375
6238		-46.875000
6239		-48.828125
6240		-44.921875
6241		-44.921875
6242		-41.015625
6243		-42.968750
6244		-37.109375
6245		-39.062500
6246		-33.203125
6247		-35.156250
6248		-29.296875
6249		-31.250000
6250		-27.343750
6251		-27.343750
6252		-23.437500
6253		-23.437500
6254		-19.531250
6255		-19.531250
6256		-15.625000
6257		-15.625000
6258		-11.718750
6259		-11.718750
6260		-5.859375
6261		-7.812500
6262		-1.953125
6263		-3.906250
6264		1.953125
6265		0.000000
6266		5.859375
6267		3.906250
6268		9.765625
6269		7.812500
6270		13.671875
6271		11.718750
6272		17.578125
6273		15.625000
6274		21.484375
6275		19.531250
6276		25.390625
6277		23.437500
6278		29.296875
6279		27.343750
6280		33.203125
6281		31.250000
6282		37.109375
6283		35.156250
6284		41.015625
6285		39.062500
6286		44.921875
6287		42.968750
6288		46.875000
6289		46.875000
6290		50.781250
6291		48.828125
6292		54.687500
6293		52.734375
6294		56.640625
6295		54.687500
6296		60.546875
6297		58.593750
6298		62.500000
6299		60.546875
6300		66.406250
6301		64.453125
6302		68.359375
6303		66.406250
6304		70.312500
6305		68.359375
6306		74.218750
6307		72.265625
6308		74.218750
6309		74.218750
6310		78.125000
6311		74.218750
6312		80.078125
6313		78.125000
6314		80.078125
6315		78.125000
6316		82.031250
6317		80.078125
6318		83.984375
6319		80.078125
6320		83.984375
6321		82.031250
6322		85.937500
6323		83.984375
6324		85.937500
6325		83.984375
6326		85.937500
6327		83.984375
6328		87.890625
6329		83.984375
6330		87.890625
6331		85.937500
6332		87.890625
6333		85.937500
6334		87.890625
6335		85.937500
6336		87.890625
6337		83.984375
6338		87.890625
6339		83.984375
6340		87.890625
6341		83.984375
6342		85.937500
6343		82.031250
6344		85.937500
6345		80.078125
6346		85.937500
6347		80.078125
6348		83.984375
6349		80.078125
6350		82.031250
6351		78.125000
6352		80.078125
6353		72.265625
6354		78.125000
6355		72.265625
6356		78.125000
6357		72.265625
6358		76.171875
6359		68.359375
6360		72.265625
6361		66.406250
6362		72.265625
6363		64.453125
6364		68.359375
6365		60.546875
6366		66.406250
6367		58.593750
6368		62.500000
6369		56.640625
6370		60.546875
6371		52.734375
6372		58.593750
6373		48.828125
6374		54.687500
6375		46.875000
6376		50.781250
6377		42.968750
6378		46.875000
6379		39.062500
6380		44.921875
6381		35.156250
6382		41.015625
6383		31.250000
6384		37.109375
6385		27.343750
6386		33.203125
6387		23.437500
6388		29.296875
6389		19.531250
6390		27.343750
6391		15.625000
6392		21.484375
6393		11.718750
6394		17.578125
6395		5.859375
6396		13.671875
6397		3.906250
6398		9.765625
6399		0.000000
6400		5.859375
6401		-3.906250
6402		0.000000
6403		-9.765625
6404		-3.906250
6405		-13.671875
6406		-5.859375
6407		-15.625000
6408		-9.765625
6409		-19.531250
6410		-15.625000
6411		-25.390625
6412		-19.531250
6413		-27.343750
6414		-21.484375
6415		-31.250000
6416		-27.343750
6417		-35.156250
6418		-31.250000
6419		-39.062500
6420		-35.156250
6421		-44.921875
6422		-37.109375
6423		-46.875000
6424		-41.015625
6425		-48.828125
6426		-44.921875
6427		-52.734375
6428		-46.875000
6429		-54.687500
6430		-50.781250
6431		-58.593750
6432		-54.687500
6433		-60.546875
6434		-56.640625
6435		-62.500000
6436		-58.593750
6437		-66.406250
6438		-62.500000
6439		-68.359375
6440		-62.500000
6441		-68.359375
6442		-64.453125
6443		-70.312500
6444		-68.359375
6445		-74.218750
6446		-68.359375
6447		-74.218750
6448		-70.312500
6449		-74.218750
6450		-72.265625
6451		-76.171875
6452		-72.265625
6453		-76.171875
6454		-74.218750
6455		-78.125000
6456		-72.265625
6457		-78.125000
6458		-74.218750
6459		-76.171875
6460		-74.218750
6461		-76.171875
6462		-74.218750
6463		-76.171875
6464		-74.218750
6465		-76.171875
6466		-74.218750
6467		-74.218750
6468		-72.265625
6469		-74.218750
6470		-72.265625
6471		-72.265625
6472		-70.312500
6473		-72.265625
6474		-68.359375
6475		-70.312500
6476		-66.406250
6477		-68.359375
6478		-64.453125
6479		-66.406250
6480		-62.500000
6481		-64.453125
6482		-60.546875
6483		-62.500000
6484		-58.593750
6485		-60.546875
6486		-54.687500
6487		-56.640625
6488		-52.734375
6489		-54.687500
6490		-50.781250
6491		-50.781250
6492		-46.875000
6493		-48.828125
6494		-42.968750
6495		-44.921875
6496		-39.062500
6497		-41.015625
6498		-37.109375
6499		-37.109375
6500		-33.203125
6501		-35.156250
6502		-29.296875
6503		-31.250000
6504		-25.390625
6505		-27.343750
6506		-21.484375
6507		-23.437500
6508		-17.578125
6509		-19.531250
6510		-13.671875
6511		-15.625000
6512		-9.765625
6513		-11.718750
6514		-5.859375
6515		-7.812500
6516		-1.953125
6517		-3.906250
6518		1.953125
6519		1.953125
6520		5.859375
6521		5.859375
6522		11.718750
6523		9.765625
6524		15.625000
6525		13.671875
6526		19.531250
6527		17.578125
6528		23.437500
6529		21.484375
6530		27.343750
6531		25.390625
6532		31.250000
6533		29.296875
6534		35.156250
6535		31.250000
6536		37.109375
6537		37.109375
6538		41.015625
6539		41.015625
6540		44.921875
6541		42.968750
6542		48.828125
6543		46.875000
6544		50.781250
6545		50.781250
6546		54.687500
6547		52.734375
6548		58.593750
6549		56.640625
6550		60.546875
6551		58.593750
6552		62.500000
6553		62.500000
6554		66.406250
6555		64.453125
6556		68.359375
6557		68.359375
6558		70.312500
6559		70.312500
6560		74.218750
6561		72.265625
6562		76.171875
6563		74.218750
6564		78.125000
6565		76.171875
6566		80.078125
6567		78.125000
6568		80.078125
6569		80.078125
6570		82.031250
6571		80.078125
6572		83.984375
6573		82.031250
6574		83.984375
6575		82.031250
6576		85.937500
6577		83.984375
6578		85.937500
6579		83.984375
6580		85.937500
6581		83.984375
6582		87.890625
6583		85.937500
6584		87.890625
6585		85.937500
6586		87.890625
6587		85.937500
6588		87.890625
6589		83.984375
6590		87.890625
6591		83.984375
6592		87.890625
6593		83.984375
6594		85.937500
6595		83.984375
6596		85.937500
6597		82.031250
6598		85.937500
6599		82.031250
6600		83.984375
6601		80.078125
6602		82.031250
6603		78.125000
6604		82.031250
6605		74.218750
6606		80.078125
6607		74.218750
6608		78.125000
6609		72.265625
6610		76.171875
6611		70.312500
6612		74.218750
6613		68.359375
6614		72.265625
6615		66.406250
6616		70.312500
6617		62.500000
6618		68.359375
6619		60.546875
6620		64.453125
6621		58.593750
6622		62.500000
6623		54.687500
6624		58.593750
6625		50.781250
6626		56.640625
6627		48.828125
6628		52.734375
6629		44.921875
6630		48.828125
6631		41.015625
6632		46.875000
6633		37.109375
6634		42.968750
6635		33.203125
6636		39.062500
6637		29.296875
6638		35.156250
6639		25.390625
6640		31.250000
6641		19.531250
6642		29.296875
6643		17.578125
6644		23.437500
6645		13.671875
6646		19.531250
6647		9.765625
6648		15.625000
6649		5.859375
6650		11.718750
6651		1.953125
6652		7.812500
6653		-1.953125
6654		3.906250
6655		-5.859375
6656		0.000000
6657		-11.718750
6658		-1.953125
6659		-13.671875
6660		-5.859375
6661		-17.578125
6662		-11.718750
6663		-21.484375
6664		-15.625000
6665		-25.390625
6666		-21.484375
6667		-29.296875
6668		-23.437500
6669		-33.203125
6670		-27.343750
6671		-37.109375
6672		-31.250000
6673		-41.015625
6674		-35.156250
6675		-44.921875
6676		-39.062500
6677		-46.875000
6678		-41.015625
6679		-50.781250
6680		-44.921875
6681		-52.734375
6682		-48.828125
6683		-56.640625
6684		-50.781250
6685		-58.593750
6686		-54.687500
6687		-60.546875
6688		-58.593750
6689		-66.406250
6690		-58.593750
6691		-68.359375
6692		-58.593750
6693		-68.359375
6694		-62.500000
6695		-70.312500
6696		-66.406250
6697		-72.265625
6698		-68.359375
6699		-72.265625
6700		-70.312500
6701		-74.218750
6702		-70.312500
6703		-74.218750
6704		-72.265625
6705		-76.171875
6706		-72.265625
6707		-78.125000
6708		-72.265625
6709		-78.125000
6710		-72.265625
6711		-76.171875
6712		-74.218750
6713		-76.171875
6714		-74.218750
6715		-76.171875
6716		-74.218750
6717		-76.171875
6718		-74.218750
6719		-76.171875
6720		-72.265625
6721		-74.218750
6722		-72.265625
6723		-74.218750
6724		-70.312500
6725		-74.218750
6726		-68.359375
6727		-72.265625
6728		-68.359375
6729		-70.312500
6730		-66.406250
6731		-68.359375
6732		-64.453125
6733		-66.406250
6734		-62.500000
6735		-64.453125
6736		-60.546875
6737		-60.546875
6738		-56.640625
6739		-58.593750
6740		-54.687500
6741		-56.640625
6742		-50.781250
6743		-54.687500
6744		-48.828125
6745		-50.781250
6746		-44.921875
6747		-46.875000
6748		-42.968750
6749		-42.968750
6750		-39.062500
6751		-41.015625
6752		-35.156250
6753		-37.109375
6754		-31.250000
6755		-33.203125
6756		-27.343750
6757		-31.250000
6758		-21.484375
6759		-25.390625
6760		-19.531250
6761		-21.484375
6762		-15.625000
6763		-17.578125
6764		-11.718750
6765		-13.671875
6766		-7.812500
6767		-9.765625
6768		-3.906250
6769		-5.859375
6770		0.000000
6771		-1.953125
6772		3.906250
6773		1.953125
6774		9.765625
6775		3.906250
6776		13.671875
6777		9.765625
6778		15.625000
6779		13.671875
6780		19.531250
6781		19.531250
6782		23.437500
6783		23.437500
6784		27.343750
6785		27.343750
6786		31.250000
6787		31.250000
6788		35.156250
6789		33.203125
6790		39.062500
6791		37.109375
6792		44.921875
6793		41.015625
6794		46.875000
6795		44.921875
6796		48.828125
6797		48.828125
6798		52.734375
6799		50.781250
6800		56.640625
6801		54.687500
6802		58.593750
6803		58.593750
6804		62.500000
6805		60.546875
6806		64.453125
6807		62.500000
6808		68.359375
6809		66.406250
6810		70.312500
6811		68.359375
6812		72.265625
6813		70.312500
6814		74.218750
6815		72.265625
6816		76.171875
6817		74.218750
6818		78.125000
6819		76.171875
6820		80.078125
6821		78.125000
6822		82.031250
6823		80.078125
6824		82.031250
6825		80.078125
6826		83.984375
6827		82.031250
6828		85.937500
6829		83.984375
6830		85.937500
6831		83.984375
6832		85.937500
6833		85.937500
6834		87.890625
6835		85.937500
6836		87.890625
6837		85.937500
6838		87.890625
6839		85.937500
6840		87.890625
6841		83.984375
6842		87.890625
6843		85.937500
6844		87.890625
6845		83.984375
6846		87.890625
6847		83.984375
6848		85.937500
6849		83.984375
6850		85.937500
6851		82.031250
6852		85.937500
6853		80.078125
6854		83.984375
6855		80.078125
6856		82.031250
6857		78.125000
6858		82.031250
6859		76.171875
6860		80.078125
6861		74.218750
6862		78.125000
6863		72.265625
6864		76.171875
6865		70.312500
6866		74.218750
6867		68.359375
6868		72.265625
6869		64.453125
6870		68.359375
6871		62.500000
6872		66.406250
6873		60.546875
6874		64.453125
6875		56.640625
6876		60.546875
6877		54.687500
6878		58.593750
6879		50.781250
6880		54.687500
6881		46.875000
6882		52.734375
6883		42.968750
6884		48.828125
6885		41.015625
6886		44.921875
6887		37.109375
6888		41.015625
6889		31.250000
6890		37.109375
6891		29.296875
6892		33.203125
6893		25.390625
6894		31.250000
6895		21.484375
6896		27.343750
6897		17.578125
6898		21.484375
6899		13.671875
6900		19.531250
6901		9.765625
6902		13.671875
6903		5.859375
6904		9.765625
6905		1.953125
6906		5.859375
6907		-1.953125
6908		1.953125
6909		-7.812500
6910		-1.953125
6911		-11.718750
6912		-5.859375
6913		-15.625000
6914		-9.765625
6915		-19.531250
6916		-13.671875
6917		-23.437500
6918		-17.578125
6919		-27.343750
6920		-21.484375
6921		-31.250000
6922		-25.390625
6923		-35.156250
6924		-29.296875
6925		-37.109375
6926		-33.203125
6927		-41.015625
6928		-37.109375
6929		-44.921875
6930		-41.015625
6931		-48.828125
6932		-42.968750
6933		-50.781250
6934		-46.875000
6935		-54.687500
6936		-48.828125
6937		-56.640625
6938		-52.734375
6939		-60.546875
6940		-54.687500
6941		-62.500000
6942		-58.593750
6943		-64.453125
6944		-60.546875
6945		-66.406250
6946		-62.500000
6947		-68.359375
6948		-64.453125
6949		-70.312500
6950		-66.406250
6951		-72.265625
6952		-68.359375
6953		-72.265625
6954		-70.312500
6955		-74.218750
6956		-72.265625
6957		-76.171875
6958		-72.265625
6959		-76.171875
6960		-74.218750
6961		-76.171875
6962		-74.218750
6963		-78.125000
6964		-74.218750
6965		-78.125000
6966		-74.218750
6967		-76.171875
6968		-74.218750
6969		-76.171875
6970		-74.218750
6971		-76.171875
6972		-74.218750
6973		-76.171875
6974		-72.265625
6975		-74.218750
6976		-72.265625
6977		-74.218750
6978		-70.312500
6979		-72.265625
6980		-68.359375
6981		-70.312500
6982		-68.359375
6983		-68.359375
6984		-66.406250
6985		-68.359375
6986		-64.453125
6987		-64.453125
6988		-60.546875
6989		-62.500000
6990		-58.593750
6991		-60.546875
6992		-56.640625
6993		-58.593750
6994		-54.687500
6995		-54.687500
6996		-50.781250
6997		-52.734375
6998		-48.828125
6999		-48.828125
7000		-44.921875
7001		-46.875000
7002		-41.015625
7003		-42.968750
7004		-37.109375
7005		-39.062500
7006		-35.156250
7007		-35.156250
7008		-31.250000
7009		-31.250000
7010		-27.343750
7011		-27.343750
7012		-23.437500
7013		-25.390625
7014		-19.531250
7015		-19.531250
7016		-15.625000
7017		-17.578125
7018		-11.718750
7019		-13.671875
7020		-7.812500
7021		-7.812500
7022		-3.906250
7023		-3.906250
7024		0.000000
7025		0.000000
7026		3.906250
7027		3.906250
7028		9.765625
7029		7.812500
7030		13.671875
7031		11.718750
7032		17.578125
7033		15.625000
7034		21.484375
7035		19.531250
7036		25.390625
7037		23.437500
7038		29.296875
7039		27.343750
7040		33.203125
7041		31.250000
7042		37.109375
7043		35.156250
7044		41.015625
7045		39.062500
7046		42.968750
7047		41.015625
7048		46.875000
7049		44.921875
7050		50.781250
7051		48.828125
7052		54.687500
7053		52.734375
7054		56.640625
7055		54.687500
7056		58.593750
7057		58.593750
7058		62.500000
7059		60.546875
7060		64.453125
7061		64.453125
7062		68.359375
7063		66.406250
7064		70.312500
7065		68.359375
7066		72.265625
7067		70.312500
7068		74.218750
7069		72.265625
7070		76.171875
7071		76.171875
7072		78.125000
7073		76.171875
7074		80.078125
7075		78.125000
7076		82.031250
7077		80.078125
7078		82.031250
7079		82.031250
7080		83.984375
7081		82.031250
7082		85.937500
7083		83.984375
7084		85.937500
7085		83.984375
7086		85.937500
7087		85.937500
7088		87.890625
7089		85.937500
7090		87.890625
7091		85.937500
7092		87.890625
7093		83.984375
7094		87.890625
7095		85.937500
7096		87.890625
7097		83.984375
7098		87.890625
7099		83.984375
7100		85.937500
7101		83.984375
7102		85.937500
7103		82.031250
7104		85.937500
7105		82.031250
7106		83.984375
7107		80.078125
7108		83.984375
7109		78.125000
7110		82.031250
7111		78.125000
7112		80.078125
7113		76.171875
7114		78.125000
7115		74.218750
7116		76.171875
7117		70.312500
7118		74.218750
7119		68.359375
7120		72.265625
7121		66.406250
7122		70.312500
7123		64.453125
7124		68.359375
7125		60.546875
7126		66.406250
7127		58.593750
7128		62.500000
7129		54.687500
7130		60.546875
7131		52.734375
7132		56.640625
7133		48.828125
7134		52.734375
7135		44.921875
7136		50.781250
7137		42.968750
7138		46.875000
7139		39.062500
7140		44.921875
7141		35.156250
7142		39.062500
7143		31.250000
7144		37.109375
7145		27.343750
7146		33.203125
7147		23.437500
7148		29.296875
7149		19.531250
7150		25.390625
7151		15.625000
7152		21.484375
7153		11.718750
7154		17.578125
7155		7.812500
7156		13.671875
7157		3.906250
7158		9.765625
7159		0.000000
7160		5.859375
7161		-3.906250
7162		0.000000
7163		-7.812500
7164		-3.906250
7165		-11.718750
7166		-7.812500
7167		-17.578125
7168		-11.718750
7169		-21.484375
7170		-15.625000
7171		-23.437500
7172		-19.531250
7173		-27.343750
7174		-23.437500
7175		-31.250000
7176		-27.343750
7177		-37.109375
7178		-31.250000
7179		-39.062500
7180		-35.156250
7181		-42.968750
7182		-37.109375
7183		-46.875000
7184		-41.015625
7185		-48.828125
7186		-44.921875
7187		-52.734375
7188		-46.875000
7189		-54.687500
7190		-50.781250
7191		-58.593750
7192		-54.687500
7193		-60.546875
7194		-56.640625
7195		-64.453125
7196		-58.593750
7197		-64.453125
7198		-62.500000
7199		-66.406250
7200		-64.453125
7201		-70.312500
7202		-66.406250
7203		-70.312500
7204		-68.359375
7205		-72.265625
7206		-70.312500
7207		-74.218750
7208		-70.312500
7209		-74.218750
7210		-72.265625
7211		-76.171875
7212		-72.265625
7213		-76.171875
7214		-74.218750
7215		-76.171875
7216		-74.218750
7217		-76.171875
7218		-74.218750
7219		-78.125000
7220		-74.218750
7221		-76.171875
7222		-74.218750
7223		-76.171875
7224		-74.218750
7225		-76.171875
7226		-74.218750
7227		-76.171875
7228		-72.265625
7229		-74.218750
7230		-70.312500
7231		-74.218750
7232		-70.312500
7233		-72.265625
7234		-68.359375
7235		-70.312500
7236		-66.406250
7237		-68.359375
7238		-64.453125
7239		-66.406250
7240		-62.500000
7241		-64.453125
7242		-60.546875
7243		-62.500000
7244		-58.593750
7245		-58.593750
7246		-56.640625
7247		-56.640625
7248		-52.734375
7249		-54.687500
7250		-50.781250
7251		-50.781250
7252		-46.875000
7253		-48.828125
7254		-42.968750
7255		-44.921875
7256		-41.015625
7257		-41.015625
7258		-37.109375
7259		-37.109375
7260		-33.203125
7261		-35.156250
7262		-29.296875
7263		-31.250000
7264		-25.390625
7265		-27.343750
7266		-21.484375
7267		-23.437500
7268		-17.578125
7269		-19.531250
7270		-13.671875
7271		-15.625000
7272		-9.765625
7273		-11.718750
7274		-5.859375
7275		-7.812500
7276		-1.953125
7277		-1.953125
7278		1.953125
7279		0.000000
7280		5.859375
7281		5.859375
7282		9.765625
7283		9.765625
7284		13.671875
7285		13.671875
7286		19.531250
7287		17.578125
7288		23.437500
7289		21.484375
7290		27.343750
7291		25.390625
7292		31.250000
7293		29.296875
7294		35.156250
7295		33.203125
7296		37.109375
7297		37.109375
7298		41.015625
7299		41.015625
7300		44.921875
7301		42.968750
7302		48.828125
7303		46.875000
7304		50.781250
7305		50.781250
7306		54.687500
7307		52.734375
7308		58.593750
7309		56.640625
7310		60.546875
7311		58.593750
7312		64.453125
7313		62.500000
7314		66.406250
7315		64.453125
7316		68.359375
7317		68.359375
7318		72.265625
7319		70.312500
7320		74.218750
7321		72.265625
7322		76.171875
7323		74.218750
7324		78.125000
7325		76.171875
7326		80.078125
7327		78.125000
7328		80.078125
7329		80.078125
7330		82.031250
7331		80.078125
7332		83.984375
7333		82.031250
7334		83.984375
7335		83.984375
7336		85.937500
7337		83.984375
7338		85.937500
7339		83.984375
7340		87.890625
7341		85.937500
7342		87.890625
7343		83.984375
7344		87.890625
7345		85.937500
7346		87.890625
7347		85.937500
7348		87.890625
7349		85.937500
7350		87.890625
7351		85.937500
7352		87.890625
7353		83.984375
7354		87.890625
7355		83.984375
7356		85.937500
7357		82.031250
7358		83.984375
7359		82.031250
7360		83.984375
7361		80.078125
7362		83.984375
7363		78.125000
7364		82.031250
7365		76.171875
7366		80.078125
7367		74.218750
7368		78.125000
7369		74.218750
7370		76.171875
7371		70.312500
7372		74.218750
7373		68.359375
7374		72.265625
7375		64.453125
7376		70.312500
7377		64.453125
7378		68.359375
7379		60.546875
7380		64.453125
7381		58.593750
7382		62.500000
7383		54.687500
7384		58.593750
7385		50.781250
7386		56.640625
7387		48.828125
7388		52.734375
7389		44.921875
7390		48.828125
7391		41.015625
7392		46.875000
7393		37.109375
7394		42.968750
7395		33.203125
7396		39.062500
7397		31.250000
7398		35.156250
7399		27.343750
7400		31.250000
7401		23.437500
7402		27.343750
7403		19.531250
7404		23.437500
7405		15.625000
7406		19.531250
7407		9.765625
7408		15.625000
7409		5.859375
7410		11.718750
7411		1.953125
7412		7.812500
7413		-1.953125
7414		3.906250
7415		-5.859375
7416		0.000000
7417		-9.765625
7418		-3.906250
7419		-13.671875
7420		-7.812500
7421		-17.578125
7422		-11.718750
7423		-21.484375
7424		-15.625000
7425		-25.390625
7426		-19.531250
7427		-29.296875
7428		-23.437500
7429		-33.203125
7430		-27.343750
7431		-37.109375
7432		-31.250000
7433		-41.015625
7434		-35.156250
7435		-42.968750
7436		-39.062500
7437		-46.875000
7438		-42.968750
7439		-50.781250
7440		-44.921875
7441		-52.734375
7442		-48.828125
7443		-56.640625
7444		-52.734375
7445		-58.593750
7446		-54.687500
7447		-60.546875
7448		-56.640625
7449		-64.453125
7450		-60.546875
7451		-66.406250
7452		-62.500000
7453		-68.359375
7454		-64.453125
7455		-70.312500
7456		-66.406250
7457		-72.265625
7458		-68.359375
7459		-72.265625
7460		-70.312500
7461		-74.218750
7462		-72.265625
7463		-74.218750
7464		-72.265625
7465		-76.171875
7466		-72.265625
7467		-76.171875
7468		-74.218750
7469		-76.171875
7470		-74.218750
7471		-76.171875
7472		-74.218750
7473		-76.171875
7474		-74.218750
7475		-76.171875
7476		-74.218750
7477		-78.125000
7478		-74.218750
7479		-76.171875
7480		-74.218750
7481		-74.218750
7482		-72.265625
7483		-74.218750
7484		-70.312500
7485		-72.265625
7486		-70.312500
7487		-72.265625
7488		-68.359375
7489		-70.312500
7490		-66.406250
7491		-68.359375
7492		-64.453125
7493		-66.406250
7494		-62.500000
7495		-64.453125
7496		-60.546875
7497		-62.500000
7498		-56.640625
7499		-58.593750
7500		-54.687500
7501		-56.640625
7502		-50.781250
7503		-52.734375
7504		-48.828125
7505		-50.781250
7506		-44.921875
7507		-46.875000
7508		-42.968750
7509		-42.968750
7510		-39.062500
7511		-41.015625
7512		-35.156250
7513		-37.109375
7514		-31.250000
7515		-33.203125
7516		-27.343750
7517		-29.296875
7518		-23.437500
7519		-25.390625
7520		-19.531250
7521		-21.484375
7522		-15.625000
7523		-17.578125
7524		-11.718750
7525		-13.671875
7526		-7.812500
7527		-9.765625
7528		-3.906250
7529		-5.859375
7530		0.000000
7531		-1.953125
7532		3.906250
7533		1.953125
7534		7.812500
7535		5.859375
7536		11.718750
7537		9.765625
7538		15.625000
7539		13.671875
7540		19.531250
7541		19.531250
7542		23.437500
7543		23.437500
7544		27.343750
7545		25.390625
7546		31.250000
7547		29.296875
7548		35.156250
7549		33.203125
7550		39.062500
7551		37.109375
7552		42.968750
7553		41.015625
7554		46.875000
7555		44.921875
7556		48.828125
7557		48.828125
7558		52.734375
7559		50.781250
7560		54.687500
7561		54.687500
7562		58.593750
7563		56.640625
7564		62.500000
7565		60.546875
7566		64.453125
7567		62.500000
7568		66.406250
7569		66.406250
7570		70.312500
7571		68.359375
7572		72.265625
7573		70.312500
7574		74.218750
7575		72.265625
7576		76.171875
7577		74.218750
7578		78.125000
7579		76.171875
7580		80.078125
7581		78.125000
7582		82.031250
7583		80.078125
7584		82.031250
7585		80.078125
7586		83.984375
7587		82.031250
7588		83.984375
7589		82.031250
7590		85.937500
7591		83.984375
7592		85.937500
7593		83.984375
7594		87.890625
7595		85.937500
7596		87.890625
7597		85.937500
7598		87.890625
7599		85.937500
7600		87.890625
7601		85.937500
7602		87.890625
7603		85.937500
7604		87.890625
7605		83.984375
7606		85.937500
7607		83.984375
7608		85.937500
7609		83.984375
7610		85.937500
7611		82.031250
7612		85.937500
7613		80.078125
7614		83.984375
7615		80.078125
7616		82.031250
7617		78.125000
7618		82.031250
7619		76.171875
7620		80.078125
7621		74.218750
7622		78.125000
7623		72.265625
7624		76.171875
7625		70.312500
7626		74.218750
7627		68.359375
7628		72.265625
7629		64.453125
7630		68.359375
7631		62.500000
7632		66.406250
7633		60.546875
7634		64.453125
7635		56.640625
7636		60.546875
7637		52.734375
7638		58.593750
7639		50.781250
7640		54.687500
7641		46.875000
7642		50.781250
7643		42.968750
7644		48.828125
7645		41.015625
7646		44.921875
7647		35.156250
7648		42.968750
7649		31.250000
7650		37.109375
7651		27.343750
7652		33.203125
7653		25.390625
7654		31.250000
7655		19.531250
7656		27.343750
7657		17.578125
7658		23.437500
7659		13.671875
7660		19.531250
7661		9.765625
7662		13.671875
7663		5.859375
7664		9.765625
7665		0.000000
7666		5.859375
7667		-3.906250
7668		1.953125
7669		-7.812500
7670		0.000000
7671		-11.718750
7672		-5.859375
7673		-15.625000
7674		-9.765625
7675		-19.531250
7676		-13.671875
7677		-23.437500
7678		-15.625000
7679		-27.343750
7680		-21.484375
7681		-31.250000
7682		-25.390625
7683		-35.156250
7684		-29.296875
7685		-39.062500
7686		-33.203125
7687		-42.968750
7688		-35.156250
7689		-44.921875
7690		-39.062500
7691		-48.828125
7692		-41.015625
7693		-52.734375
7694		-46.875000
7695		-54.687500
7696		-48.828125
7697		-56.640625
7698		-52.734375
7699		-60.546875
7700		-54.687500
7701		-62.500000
7702		-56.640625
7703		-64.453125
7704		-58.593750
7705		-66.406250
7706		-62.500000
7707		-68.359375
7708		-64.453125
7709		-70.312500
7710		-66.406250
7711		-72.265625
7712		-66.406250
7713		-72.265625
7714		-70.312500
7715		-76.171875
7716		-72.265625
7717		-78.125000
7718		-70.312500
7719		-78.125000
7720		-72.265625
7721		-78.125000
7722		-74.218750
7723		-80.078125
7724		-72.265625
7725		-76.171875
7726		-74.218750
7727		-80.078125
7728		-72.265625
7729		-76.171875
7730		-74.218750
7731		-76.171875
7732		-74.218750
7733		-76.171875
7734		-72.265625
7735		-76.171875
7736		-68.359375
7737		-74.218750
7738		-70.312500
7739		-72.265625
7740		-68.359375
7741		-74.218750
7742		-64.453125
7743		-70.312500
7744		-62.500000
7745		-70.312500
7746		-62.500000
7747		-64.453125
7748		-60.546875
7749		-62.500000
7750		-58.593750
7751		-62.500000
7752		-54.687500
7753		-58.593750
7754		-52.734375
7755		-54.687500
7756		-50.781250
7757		-52.734375
7758		-44.921875
7759		-50.781250
7760		-44.921875
7761		-46.875000
7762		-39.062500
7763		-42.968750
7764		-37.109375
7765		-39.062500
7766		-33.203125
7767		-37.109375
7768		-27.343750
7769		-35.156250
7770		-25.390625
7771		-27.343750
7772		-23.437500
7773		-25.390625
7774		-17.578125
7775		-21.484375
7776		-13.671875
7777		-17.578125
7778		-7.812500
7779		-11.718750
7780		-5.859375
7781		-7.812500
7782		-1.953125
7783		-3.906250
7784		1.953125
7785		-1.953125
7786		7.812500
7787		1.953125
7788		9.765625
7789		7.812500
7790		13.671875
7791		11.718750
7792		21.484375
7793		11.718750
7794		21.484375
7795		17.578125
7796		27.343750
7797		23.437500
7798		29.296875
7799		27.343750
7800		33.203125
7801		31.250000
7802		41.015625
7803		35.156250
7804		41.015625
7805		39.062500
7806		42.968750
7807		42.968750
7808		48.828125
7809		42.968750
7810		52.734375
7811		48.828125
7812		54.687500
7813		52.734375
7814		56.640625
7815		54.687500
7816		60.546875
7817		56.640625
7818		64.453125
7819		58.593750
7820		68.359375
7821		62.500000
7822		68.359375
7823		66.406250
7824		70.312500
7825		66.406250
7826		76.171875
7827		70.312500
7828		78.125000
7829		70.312500
7830		78.125000
7831		74.218750
7832		78.125000
7833		78.125000
7834		82.031250
7835		76.171875
7836		85.937500
7837		78.125000
7838		83.984375
7839		82.031250
7840		83.984375
7841		80.078125
7842		87.890625
7843		80.078125
7844		87.890625
7845		82.031250
7846		89.843750
7847		85.937500
7848		87.890625
7849		85.937500
7850		87.890625
7851		83.984375
7852		89.843750
7853		82.031250
7854		91.796875
7855		85.937500
7856		87.890625
7857		83.984375
7858		87.890625
7859		80.078125
7860		89.843750
7861		80.078125
7862		87.890625
7863		83.984375
7864		85.937500
7865		82.031250
7866		83.984375
7867		80.078125
7868		83.984375
7869		76.171875
7870		83.984375
7871		76.171875
7872		83.984375
7873		76.171875
7874		80.078125
7875		70.312500
7876		80.078125
7877		70.312500
7878		78.125000
7879		68.359375
7880		76.171875
7881		66.406250
7882		70.312500
7883		62.500000
7884		68.359375
7885		58.593750
7886		66.406250
7887		56.640625
7888		66.406250
7889		56.640625
7890		60.546875
7891		50.781250
7892		58.593750
7893		46.875000
7894		56.640625
7895		44.921875
7896		50.781250
7897		42.968750
7898		46.875000
7899		39.062500
7900		44.921875
7901		35.156250
7902		41.015625
7903		31.250000
7904		39.062500
7905		27.343750
7906		35.156250
7907		23.437500
7908		29.296875
7909		17.578125
7910		27.343750
7911		15.625000
7912		21.484375
7913		11.718750
7914		19.531250
7915		7.812500
7916		13.671875
7917		3.906250
7918		9.765625
7919		-1.953125
7920		5.859375
7921		-3.906250
7922		1.953125
7923		-7.812500
7924		-1.953125
7925		-13.671875
7926		-5.859375
7927		-15.625000
7928		-11.718750
7929		-21.484375
7930		-13.671875
7931		-23.437500
7932		-19.531250
7933		-27.343750
7934		-23.437500
7935		-31.250000
7936		-27.343750
7937		-37.109375
7938		-27.343750
7939		-39.062500
7940		-33.203125
7941		-42.968750
7942		-37.109375
7943		-44.921875
7944		-41.015625
7945		-48.828125
7946		-44.921875
7947		-52.734375
7948		-48.828125
7949		-54.687500
7950		-50.781250
7951		-58.593750
7952		-52.734375
7953		-60.546875
7954		-56.640625
7955		-64.453125
7956		-58.593750
7957		-64.453125
7958		-60.546875
7959		-68.359375
7960		-62.500000
7961		-68.359375
7962		-64.453125
7963		-70.312500
7964		-68.359375
7965		-72.265625
7966		-68.359375
7967		-74.218750
7968		-70.312500
7969		-74.218750
7970		-72.265625
7971		-76.171875
7972		-72.265625
7973		-76.171875
7974		-74.218750
7975		-76.171875
7976		-74.218750
7977		-76.171875
7978		-74.218750
7979		-76.171875
7980		-74.218750
7981		-78.125000
7982		-74.218750
7983		-76.171875
7984		-74.218750
7985		-76.171875
7986		-72.265625
7987		-76.171875
7988		-72.265625
7989		-74.218750
7990		-72.265625
7991		-72.265625
7992		-70.312500
7993		-72.265625
7994		-68.359375
7995		-70.312500
7996		-66.406250
7997		-70.312500
7998		-64.453125
7999		-66.406250
8000		-62.500000
8001		-64.453125
8002		-60.546875
8003		-62.500000
8004		-56.640625
8005		-60.546875
8006		-54.687500
8007		-56.640625
8008		-50.781250
8009		-54.687500
8010		-48.828125
8011		-52.734375
8012		-44.921875
8013		-48.828125
8014		-42.968750
8015		-44.921875
8016		-41.015625
8017		-41.015625
8018		-37.109375
8019		-39.062500
8020		-31.250000
8021		-35.156250
8022		-27.343750
8023		-31.250000
8024		-23.437500
8025		-29.296875
8026		-19.531250
8027		-23.437500
8028		-15.625000
8029		-19.531250
8030		-11.718750
8031		-15.625000
8032		-9.765625
8033		-11.718750
8034		-5.859375
8035		-7.812500
8036		-1.953125
8037		-3.906250
8038		3.906250
8039		0.000000
8040		7.812500
8041		3.906250
8042		11.718750
8043		7.812500
8044		15.625000
8045		11.718750
8046		19.531250
8047		17.578125
8048		23.437500
8049		21.484375
8050		27.343750
8051		25.390625
8052		31.250000
8053		27.343750
8054		35.156250
8055		31.250000
8056		39.062500
8057		35.156250
8058		42.968750
8059		39.062500
8060		46.875000
8061		42.968750
8062		48.828125
8063		44.921875
8064		52.734375
8065		50.781250
8066		54.687500
8067		52.734375
8068		58.593750
8069		56.640625
8070		62.500000
8071		58.593750
8072		64.453125
8073		60.546875
8074		68.359375
8075		62.500000
8076		70.312500
8077		66.406250
8078		72.265625
8079		70.312500
8080		74.218750
8081		70.312500
8082		76.171875
8083		74.218750
8084		78.125000
8085		76.171875
8086		80.078125
8087		78.125000
8088		82.031250
8089		78.125000
8090		83.984375
8091		80.078125
8092		85.937500
8093		80.078125
8094		85.937500
8095		82.031250
8096		85.937500
8097		83.984375
8098		87.890625
8099		83.984375
8100		87.890625
8101		85.937500
8102		87.890625
8103		83.984375
8104		87.890625
8105		83.984375
8106		89.843750
8107		83.984375
8108		87.890625
8109		83.984375
8110		89.843750
8111		83.984375
8112		87.890625
8113		83.984375
8114		87.890625
8115		83.984375
8116		87.890625
8117		82.031250
8118		85.937500
8119		80.078125
8120		83.984375
8121		80.078125
8122		83.984375
8123		78.125000
8124		82.031250
8125		74.218750
8126		82.031250
8127		74.218750
8128		80.078125
8129		72.265625
8130		76.171875
8131		70.312500
8132		74.218750
8133		68.359375
8134		72.265625
8135		64.453125
8136		70.312500
8137		64.453125
8138		68.359375
8139		60.546875
8140		64.453125
8141		56.640625
8142		62.500000
8143		54.687500
8144		58.593750
8145		50.781250
8146		56.640625
8147		46.875000
8148		52.734375
8149		44.921875
8150		48.828125
8151		41.015625
8152		46.875000
8153		37.109375
8154		42.968750
8155		33.203125
8156		39.062500
8157		31.250000
8158		35.156250
8159		25.390625
8160		33.203125
8161		23.437500
8162		29.296875
8163		19.531250
8164		23.437500
8165		15.625000
8166		21.484375
8167		11.718750
8168		15.625000
8169		5.859375
8170		11.718750
8171		1.953125
8172		7.812500
8173		-1.953125
8174		3.906250
8175		-7.812500
8176		0.000000
8177		-9.765625
8178		-3.906250
8179		-13.671875
8180		-7.812500
8181		-17.578125
8182		-11.718750
8183		-21.484375
8184		-15.625000
8185		-25.390625
8186		-19.531250
8187		-29.296875
8188		-23.437500
8189		-33.203125
8190		-27.343750
8191		-37.109375
8192		-31.250000
8193		-41.015625
8194		-35.156250
8195		-42.968750
8196		-39.062500
8197		-46.875000
8198		-41.015625
8199		-48.828125
8200		-44.921875
8201		-52.734375
8202		-48.828125
8203		-56.640625
8204		-50.781250
8205		-58.593750
8206		-54.687500
8207		-60.546875
8208		-56.640625
8209		-64.453125
8210		-58.593750
8211		-66.406250
8212		-62.500000
8213		-68.359375
8214		-64.453125
8215		-70.312500
8216		-64.453125
8217		-72.265625
8218		-68.359375
8219		-72.265625
8220		-68.359375
8221		-74.218750
8222		-70.312500
8223		-74.218750
8224		-72.265625
8225		-76.171875
8226		-72.265625
8227		-76.171875
8228		-74.218750
8229		-78.125000
8230		-72.265625
8231		-78.125000
8232		-74.218750
8233		-76.171875
8234		-74.218750
8235		-76.171875
8236		-74.218750
8237		-78.125000
8238		-72.265625
8239		-76.171875
8240		-72.265625
8241		-74.218750
8242		-72.265625
8243		-74.218750
8244		-70.312500
8245		-72.265625
8246		-68.359375
8247		-72.265625
8248		-68.359375
8249		-70.312500
8250		-66.406250
8251		-68.359375
8252		-64.453125
8253		-66.406250
8254		-60.546875
8255		-64.453125
8256		-58.593750
8257		-60.546875
8258		-56.640625
8259		-58.593750
8260		-54.687500
8261		-56.640625
8262		-50.781250
8263		-52.734375
8264		-48.828125
8265		-50.781250
8266		-44.921875
8267		-46.875000
8268		-41.015625
8269		-42.968750
8270		-39.062500
8271		-41.015625
8272		-35.156250
8273		-37.109375
8274		-31.250000
8275		-33.203125
8276		-27.343750
8277		-29.296875
8278		-23.437500
8279		-25.390625
8280		-19.531250
8281		-21.484375
8282		-15.625000
8283		-19.531250
8284		-11.718750
8285		-13.671875
8286		-7.812500
8287		-9.765625
8288		-3.906250
8289		-5.859375
8290		1.953125
8291		-1.953125
8292		3.906250
8293		3.906250
8294		7.812500
8295		7.812500
8296		11.718750
8297		9.765625
8298		17.578125
8299		13.671875
8300		21.484375
8301		19.531250
8302		25.390625
8303		23.437500
8304		29.296875
8305		27.343750
8306		33.203125
8307		31.250000
8308		35.156250
8309		33.203125
8310		39.062500
8311		37.109375
8312		42.968750
8313		41.015625
8314		46.875000
8315		44.921875
8316		50.781250
8317		48.828125
8318		52.734375
8319		52.734375
8320		56.640625
8321		54.687500
8322		58.593750
8323		56.640625
8324		62.500000
8325		60.546875
8326		64.453125
8327		62.500000
8328		68.359375
8329		66.406250
8330		70.312500
8331		68.359375
8332		72.265625
8333		70.312500
8334		74.218750
8335		72.265625
8336		76.171875
8337		74.218750
8338		78.125000
8339		76.171875
8340		80.078125
8341		78.125000
8342		82.031250
8343		80.078125
8344		83.984375
8345		80.078125
8346		83.984375
8347		82.031250
8348		85.937500
8349		82.031250
8350		87.890625
8351		83.984375
8352		85.937500
8353		85.937500
8354		87.890625
8355		85.937500
8356		87.890625
8357		85.937500
8358		87.890625
8359		85.937500
8360		87.890625
8361		85.937500
8362		87.890625
8363		85.937500
8364		87.890625
8365		83.984375
8366		87.890625
8367		83.984375
8368		87.890625
8369		83.984375
8370		85.937500
8371		82.031250
8372		85.937500
8373		80.078125
8374		83.984375
8375		80.078125
8376		83.984375
8377		78.125000
8378		82.031250
8379		76.171875
8380		80.078125
8381		74.218750
8382		78.125000
8383		72.265625
8384		76.171875
8385		70.312500
8386		74.218750
8387		66.406250
8388		72.265625
8389		64.453125
8390		70.312500
8391		62.500000
8392		68.359375
8393		60.546875
8394		64.453125
8395		56.640625
8396		62.500000
8397		52.734375
8398		58.593750
8399		50.781250
8400		54.687500
8401		46.875000
8402		52.734375
8403		42.968750
8404		48.828125
8405		41.015625
8406		44.921875
8407		37.109375
8408		42.968750
8409		31.250000
8410		39.062500
8411		29.296875
8412		35.156250
8413		25.390625
8414		31.250000
8415		21.484375
8416		27.343750
8417		17.578125
8418		23.437500
8419		13.671875
8420		19.531250
8421		9.765625
8422		15.625000
8423		5.859375
8424		11.718750
8425		1.953125
8426		7.812500
8427		-1.953125
8428		3.906250
8429		-7.812500
8430		-1.953125
8431		-9.765625
8432		-5.859375
8433		-15.625000
8434		-9.765625
8435		-19.531250
8436		-13.671875
8437		-23.437500
8438		-17.578125
8439		-27.343750
8440		-21.484375
8441		-31.250000
8442		-25.390625
8443		-35.156250
8444		-27.343750
8445		-39.062500
8446		-33.203125
8447		-41.015625
8448		-35.156250
8449		-44.921875
8450		-39.062500
8451		-46.875000
8452		-42.968750
8453		-50.781250
8454		-46.875000
8455		-54.687500
8456		-48.828125
8457		-56.640625
8458		-52.734375
8459		-60.546875
8460		-54.687500
8461		-62.500000
8462		-56.640625
8463		-64.453125
8464		-60.546875
8465		-66.406250
8466		-62.500000
8467		-68.359375
8468		-64.453125
8469		-70.312500
8470		-66.406250
8471		-72.265625
8472		-68.359375
8473		-72.265625
8474		-68.359375
8475		-74.218750
8476		-70.312500
8477		-76.171875
8478		-72.265625
8479		-76.171875
8480		-72.265625
8481		-76.171875
8482		-74.218750
8483		-78.125000
8484		-72.265625
8485		-76.171875
8486		-74.218750
8487		-76.171875
8488		-74.218750
8489		-78.125000
8490		-72.265625
8491		-76.171875
8492		-72.265625
8493		-76.171875
8494		-72.265625
8495		-74.218750
8496		-72.265625
8497		-74.218750
8498		-70.312500
8499		-72.265625
8500		-68.359375
8501		-72.265625
8502		-68.359375
8503		-70.312500
8504		-66.406250
8505		-68.359375
8506		-62.500000
8507		-66.406250
8508		-60.546875
8509		-62.500000
8510		-58.593750
8511		-60.546875
8512		-54.687500
8513		-58.593750
8514		-52.734375
8515		-54.687500
8516		-50.781250
8517		-52.734375
8518		-46.875000
8519		-48.828125
8520		-44.921875
8521		-46.875000
8522		-41.015625
8523		-42.968750
8524		-37.109375
8525		-39.062500
8526		-33.203125
8527		-35.156250
8528		-29.296875
8529		-31.250000
8530		-25.390625
8531		-29.296875
8532		-23.437500
8533		-25.390625
8534		-17.578125
8535		-19.531250
8536		-15.625000
8537		-17.578125
8538		-11.718750
8539		-11.718750
8540		-5.859375
8541		-7.812500
8542		-1.953125
8543		-5.859375
8544		1.953125
8545		0.000000
8546		5.859375
8547		3.906250
8548		9.765625
8549		7.812500
8550		13.671875
8551		11.718750
8552		17.578125
8553		15.625000
8554		21.484375
8555		19.531250
8556		25.390625
8557		21.484375
8558		29.296875
8559		27.343750
8560		33.203125
8561		31.250000
8562		37.109375
8563		35.156250
8564		41.015625
8565		39.062500
8566		44.921875
8567		41.015625
8568		48.828125
8569		44.921875
8570		50.781250
8571		48.828125
8572		54.687500
8573		52.734375
8574		56.640625
8575		54.687500
8576		60.546875
8577		58.593750
8578		62.500000
8579		60.546875
8580		66.406250
8581		64.453125
8582		68.359375
8583		66.406250
8584		70.312500
8585		68.359375
8586		72.265625
8587		72.265625
8588		74.218750
8589		74.218750
8590		78.125000
8591		74.218750
8592		78.125000
8593		76.171875
8594		80.078125
8595		78.125000
8596		82.031250
8597		80.078125
8598		83.984375
8599		80.078125
8600		83.984375
8601		82.031250
8602		85.937500
8603		83.984375
8604		85.937500
8605		83.984375
8606		85.937500
8607		83.984375
8608		87.890625
8609		83.984375
8610		87.890625
8611		85.937500
8612		87.890625
8613		85.937500
8614		87.890625
8615		85.937500
8616		87.890625
8617		83.984375
8618		87.890625
8619		83.984375
8620		87.890625
8621		83.984375
8622		85.937500
8623		82.031250
8624		85.937500
8625		82.031250
8626		85.937500
8627		80.078125
8628		83.984375
8629		80.078125
8630		82.031250
8631		78.125000
8632		82.031250
8633		74.218750
8634		80.078125
8635		74.218750
8636		78.125000
8637		72.265625
8638		76.171875
8639		70.312500
8640		74.218750
8641		66.406250
8642		72.265625
8643		64.453125
8644		68.359375
8645		62.500000
8646		66.406250
8647		58.593750
8648		62.500000
8649		56.640625
8650		60.546875
8651		52.734375
8652		58.593750
8653		48.828125
8654		54.687500
8655		46.875000
8656		50.781250
8657		42.968750
8658		46.875000
8659		39.062500
8660		44.921875
8661		35.156250
8662		41.015625
8663		31.250000
8664		37.109375
8665		27.343750
8666		33.203125
8667		23.437500
8668		29.296875
8669		19.531250
8670		25.390625
8671		15.625000
8672		21.484375
8673		11.718750
8674		17.578125
8675		5.859375
8676		13.671875
8677		3.906250
8678		9.765625
8679		-1.953125
8680		5.859375
8681		-3.906250
8682		1.953125
8683		-7.812500
8684		-1.953125
8685		-11.718750
8686		-5.859375
8687		-17.578125
8688		-11.718750
8689		-19.531250
8690		-15.625000
8691		-23.437500
8692		-19.531250
8693		-27.343750
8694		-23.437500
8695		-31.250000
8696		-25.390625
8697		-35.156250
8698		-29.296875
8699		-39.062500
8700		-33.203125
8701		-42.968750
8702		-37.109375
8703		-46.875000
8704		-39.062500
8705		-48.828125
8706		-42.968750
8707		-52.734375
8708		-46.875000
8709		-54.687500
8710		-50.781250
8711		-58.593750
8712		-52.734375
8713		-60.546875
8714		-56.640625
8715		-62.500000
8716		-58.593750
8717		-64.453125
8718		-60.546875
8719		-68.359375
8720		-62.500000
8721		-68.359375
8722		-66.406250
8723		-70.312500
8724		-66.406250
8725		-72.265625
8726		-68.359375
8727		-74.218750
8728		-70.312500
8729		-76.171875
8730		-72.265625
8731		-76.171875
8732		-72.265625
8733		-76.171875
8734		-74.218750
8735		-76.171875
8736		-74.218750
8737		-76.171875
8738		-74.218750
8739		-76.171875
8740		-74.218750
8741		-78.125000
8742		-74.218750
8743		-76.171875
8744		-72.265625
8745		-76.171875
8746		-72.265625
8747		-76.171875
8748		-72.265625
8749		-74.218750
8750		-70.312500
8751		-74.218750
8752		-70.312500
8753		-72.265625
8754		-68.359375
8755		-70.312500
8756		-66.406250
8757		-68.359375
8758		-64.453125
8759		-66.406250
8760		-62.500000
8761		-64.453125
8762		-60.546875
8763		-62.500000
8764		-58.593750
8765		-60.546875
8766		-54.687500
8767		-56.640625
8768		-52.734375
8769		-54.687500
8770		-48.828125
8771		-50.781250
8772		-46.875000
8773		-48.828125
8774		-42.968750
8775		-44.921875
8776		-39.062500
8777		-41.015625
8778		-37.109375
8779		-39.062500
8780		-33.203125
8781		-35.156250
8782		-29.296875
8783		-31.250000
8784		-25.390625
8785		-27.343750
8786		-21.484375
8787		-23.437500
8788		-17.578125
8789		-19.531250
8790		-13.671875
8791		-15.625000
8792		-9.765625
8793		-11.718750
8794		-5.859375
8795		-7.812500
8796		0.000000
8797		-3.906250
8798		1.953125
8799		0.000000
8800		7.812500
8801		5.859375
8802		9.765625
8803		9.765625
8804		13.671875
8805		13.671875
8806		19.531250
8807		17.578125
8808		23.437500
8809		19.531250
8810		27.343750
8811		25.390625
8812		31.250000
8813		29.296875
8814		35.156250
8815		33.203125
8816		37.109375
8817		37.109375
8818		41.015625
8819		39.062500
8820		44.921875
8821		42.968750
8822		48.828125
8823		46.875000
8824		50.781250
8825		50.781250
8826		54.687500
8827		52.734375
8828		58.593750
8829		56.640625
8830		60.546875
8831		58.593750
8832		64.453125
8833		62.500000
8834		66.406250
8835		64.453125
8836		70.312500
8837		66.406250
8838		72.265625
8839		70.312500
8840		74.218750
8841		72.265625
8842		76.171875
8843		74.218750
8844		78.125000
8845		76.171875
8846		80.078125
8847		78.125000
8848		82.031250
8849		80.078125
8850		82.031250
8851		80.078125
8852		83.984375
8853		82.031250
8854		85.937500
8855		83.984375
8856		85.937500
8857		83.984375
8858		85.937500
8859		83.984375
8860		87.890625
8861		83.984375
8862		87.890625
8863		85.937500
8864		87.890625
8865		85.937500
8866		87.890625
8867		83.984375
8868		87.890625
8869		83.984375
8870		87.890625
8871		83.984375
8872		87.890625
8873		83.984375
8874		87.890625
8875		82.031250
8876		85.937500
8877		82.031250
8878		85.937500
8879		82.031250
8880		83.984375
8881		80.078125
8882		83.984375
8883		78.125000
8884		82.031250
8885		76.171875
8886		80.078125
8887		74.218750
8888		80.078125
8889		72.265625
8890		76.171875
8891		70.312500
8892		74.218750
8893		68.359375
8894		74.218750
8895		64.453125
8896		70.312500
8897		64.453125
8898		68.359375
8899		60.546875
8900		64.453125
8901		58.593750
8902		62.500000
8903		54.687500
8904		58.593750
8905		50.781250
8906		56.640625
8907		48.828125
8908		52.734375
8909		44.921875
8910		50.781250
8911		41.015625
8912		46.875000
8913		37.109375
8914		42.968750
8915		33.203125
8916		39.062500
8917		29.296875
8918		35.156250
8919		27.343750
8920		31.250000
8921		23.437500
8922		27.343750
8923		19.531250
8924		23.437500
8925		13.671875
8926		19.531250
8927		9.765625
8928		15.625000
8929		5.859375
8930		13.671875
8931		1.953125
8932		7.812500
8933		-1.953125
8934		3.906250
8935		-5.859375
8936		0.000000
8937		-9.765625
8938		-3.906250
8939		-13.671875
8940		-7.812500
8941		-17.578125
8942		-11.718750
8943		-21.484375
8944		-15.625000
8945		-25.390625
8946		-19.531250
8947		-31.250000
8948		-23.437500
8949		-33.203125
8950		-27.343750
8951		-37.109375
8952		-31.250000
8953		-41.015625
8954		-35.156250
8955		-42.968750
8956		-39.062500
8957		-46.875000
8958		-42.968750
8959		-50.781250
8960		-44.921875
8961		-52.734375
8962		-46.875000
8963		-56.640625
8964		-50.781250
8965		-58.593750
8966		-54.687500
8967		-62.500000
8968		-56.640625
8969		-64.453125
8970		-60.546875
8971		-66.406250
8972		-60.546875
8973		-68.359375
8974		-64.453125
8975		-70.312500
8976		-66.406250
8977		-72.265625
8978		-68.359375
8979		-74.218750
8980		-70.312500
8981		-74.218750
8982		-70.312500
8983		-76.171875
8984		-72.265625
8985		-76.171875
8986		-72.265625
8987		-78.125000
8988		-74.218750
8989		-78.125000
8990		-74.218750
8991		-78.125000
8992		-74.218750
8993		-78.125000
8994		-74.218750
8995		-78.125000
8996		-74.218750
8997		-76.171875
8998		-74.218750
8999		-76.171875
9000		-72.265625
9001		-76.171875
9002		-72.265625
9003		-76.171875
9004		-72.265625
9005		-74.218750
9006		-68.359375
9007		-72.265625
9008		-68.359375
9009		-70.312500
9010		-66.406250
9011		-70.312500
9012		-64.453125
9013		-66.406250
9014		-62.500000
9015		-64.453125
9016		-58.593750
9017		-62.500000
9018		-56.640625
9019		-58.593750
9020		-54.687500
9021		-56.640625
9022		-50.781250
9023		-54.687500
9024		-48.828125
9025		-50.781250
9026		-46.875000
9027		-46.875000
9028		-42.968750
9029		-44.921875
9030		-39.062500
9031		-41.015625
9032		-35.156250
9033		-37.109375
9034		-31.250000
9035		-33.203125
9036		-27.343750
9037		-29.296875
9038		-25.390625
9039		-25.390625
9040		-21.484375
9041		-23.437500
9042		-17.578125
9043		-17.578125
9044		-13.671875
9045		-15.625000
9046		-7.812500
9047		-9.765625
9048		-3.906250
9049		-5.859375
9050		0.000000
9051		-1.953125
9052		3.906250
9053		1.953125
9054		7.812500
9055		5.859375
9056		11.718750
9057		9.765625
9058		15.625000
9059		13.671875
9060		19.531250
9061		17.578125
9062		23.437500
9063		21.484375
9064		27.343750
9065		25.390625
9066		31.250000
9067		29.296875
9068		35.156250
9069		33.203125
9070		39.062500
9071		37.109375
9072		42.968750
9073		41.015625
9074		46.875000
9075		44.921875
9076		48.828125
9077		48.828125
9078		52.734375
9079		50.781250
9080		54.687500
9081		52.734375
9082		58.593750
9083		56.640625
9084		62.500000
9085		60.546875
9086		64.453125
9087		62.500000
9088		68.359375
9089		66.406250
9090		68.359375
9091		68.359375
9092		72.265625
9093		70.312500
9094		74.218750
9095		70.312500
9096		76.171875
9097		74.218750
9098		78.125000
9099		76.171875
9100		80.078125
9101		78.125000
9102		82.031250
9103		80.078125
9104		82.031250
9105		80.078125
9106		85.937500
9107		82.031250
9108		85.937500
9109		82.031250
9110		85.937500
9111		83.984375
9112		87.890625
9113		83.984375
9114		87.890625
9115		83.984375
9116		87.890625
9117		85.937500
9118		87.890625
9119		83.984375
9120		87.890625
9121		83.984375
9122		87.890625
9123		83.984375
9124		87.890625
9125		83.984375
9126		87.890625
9127		83.984375
9128		87.890625
9129		82.031250
9130		85.937500
9131		82.031250
9132		85.937500
9133		80.078125
9134		83.984375
9135		80.078125
9136		83.984375
9137		78.125000
9138		82.031250
9139		76.171875
9140		80.078125
9141		74.218750
9142		78.125000
9143		72.265625
9144		76.171875
9145		70.312500
9146		74.218750
9147		68.359375
9148		72.265625
9149		64.453125
9150		70.312500
9151		62.500000
9152		66.406250
9153		60.546875
9154		64.453125
9155		56.640625
9156		62.500000
9157		54.687500
9158		58.593750
9159		50.781250
9160		54.687500
9161		46.875000
9162		52.734375
9163		44.921875
9164		48.828125
9165		41.015625
9166		46.875000
9167		37.109375
9168		42.968750
9169		31.250000
9170		39.062500
9171		27.343750
9172		35.156250
9173		25.390625
9174		31.250000
9175		21.484375
9176		27.343750
9177		17.578125
9178		23.437500
9179		13.671875
9180		19.531250
9181		9.765625
9182		15.625000
9183		5.859375
9184		11.718750
9185		1.953125
9186		7.812500
9187		-1.953125
9188		3.906250
9189		-7.812500
9190		-1.953125
9191		-9.765625
9192		-3.906250
9193		-15.625000
9194		-9.765625
9195		-19.531250
9196		-13.671875
9197		-23.437500
9198		-17.578125
9199		-27.343750
9200		-21.484375
9201		-31.250000
9202		-25.390625
9203		-35.156250
9204		-29.296875
9205		-37.109375
9206		-33.203125
9207		-41.015625
9208		-37.109375
9209		-44.921875
9210		-39.062500
9211		-48.828125
9212		-42.968750
9213		-52.734375
9214		-44.921875
9215		-54.687500
9216		-48.828125
9217		-56.640625
9218		-52.734375
9219		-58.593750
9220		-54.687500
9221		-62.500000
9222		-56.640625
9223		-64.453125
9224		-60.546875
9225		-66.406250
9226		-62.500000
9227		-68.359375
9228		-64.453125
9229		-70.312500
9230		-66.406250
9231		-72.265625
9232		-68.359375
9233		-72.265625
9234		-70.312500
9235		-74.218750
9236		-70.312500
9237		-76.171875
9238		-70.312500
9239		-76.171875
9240		-72.265625
9241		-76.171875
9242		-74.218750
9243		-78.125000
9244		-74.218750
9245		-78.125000
9246		-72.265625
9247		-78.125000
9248		-74.218750
9249		-76.171875
9250		-74.218750
9251		-76.171875
9252		-72.265625
9253		-76.171875
9254		-72.265625
9255		-76.171875
9256		-70.312500
9257		-74.218750
9258		-70.312500
9259		-72.265625
9260		-68.359375
9261		-70.312500
9262		-66.406250
9263		-68.359375
9264		-64.453125
9265		-68.359375
9266		-62.500000
9267		-64.453125
9268		-60.546875
9269		-62.500000
9270		-58.593750
9271		-60.546875
9272		-56.640625
9273		-58.593750
9274		-52.734375
9275		-56.640625
9276		-50.781250
9277		-52.734375
9278		-46.875000
9279		-48.828125
9280		-42.968750
9281		-46.875000
9282		-41.015625
9283		-42.968750
9284		-37.109375
9285		-39.062500
9286		-33.203125
9287		-35.156250
9288		-29.296875
9289		-31.250000
9290		-25.390625
9291		-27.343750
9292		-23.437500
9293		-23.437500
9294		-17.578125
9295		-19.531250
9296		-13.671875
9297		-15.625000
9298		-9.765625
9299		-11.718750
9300		-5.859375
9301		-7.812500
9302		-1.953125
9303		-3.906250
9304		1.953125
9305		0.000000
9306		5.859375
9307		3.906250
9308		9.765625
9309		7.812500
9310		13.671875
9311		11.718750
9312		17.578125
9313		15.625000
9314		21.484375
9315		19.531250
9316		25.390625
9317		23.437500
9318		29.296875
9319		27.343750
9320		33.203125
9321		31.250000
9322		37.109375
9323		35.156250
9324		41.015625
9325		39.062500
9326		44.921875
9327		42.968750
9328		46.875000
9329		44.921875
9330		50.781250
9331		48.828125
9332		54.687500
9333		52.734375
9334		58.593750
9335		56.640625
9336		60.546875
9337		58.593750
9338		64.453125
9339		62.500000
9340		66.406250
9341		64.453125
9342		70.312500
9343		66.406250
9344		70.312500
9345		68.359375
9346		72.265625
9347		70.312500
9348		76.171875
9349		72.265625
9350		78.125000
9351		76.171875
9352		80.078125
9353		76.171875
9354		82.031250
9355		80.078125
9356		82.031250
9357		80.078125
9358		83.984375
9359		80.078125
9360		83.984375
9361		82.031250
9362		85.937500
9363		82.031250
9364		85.937500
9365		83.984375
9366		87.890625
9367		85.937500
9368		87.890625
9369		85.937500
9370		87.890625
9371		83.984375
9372		89.843750
9373		85.937500
9374		89.843750
9375		85.937500
9376		87.890625
9377		85.937500
9378		87.890625
9379		83.984375
9380		87.890625
9381		83.984375
9382		87.890625
9383		82.031250
9384		85.937500
9385		82.031250
9386		85.937500
9387		80.078125
9388		83.984375
9389		78.125000
9390		83.984375
9391		76.171875
9392		80.078125
9393		76.171875
9394		80.078125
9395		74.218750
9396		78.125000
9397		70.312500
9398		76.171875
9399		68.359375
9400		74.218750
9401		66.406250
9402		72.265625
9403		64.453125
9404		68.359375
9405		60.546875
9406		66.406250
9407		58.593750
9408		62.500000
9409		56.640625
9410		60.546875
9411		52.734375
9412		56.640625
9413		48.828125
9414		54.687500
9415		46.875000
9416		50.781250
9417		41.015625
9418		46.875000
9419		39.062500
9420		44.921875
9421		35.156250
9422		41.015625
9423		31.250000
9424		37.109375
9425		27.343750
9426		35.156250
9427		23.437500
9428		29.296875
9429		19.531250
9430		25.390625
9431		15.625000
9432		21.484375
9433		11.718750
9434		17.578125
9435		7.812500
9436		13.671875
9437		3.906250
9438		9.765625
9439		0.000000
9440		5.859375
9441		-3.906250
9442		1.953125
9443		-7.812500
9444		-1.953125
9445		-11.718750
9446		-7.812500
9447		-15.625000
9448		-9.765625
9449		-21.484375
9450		-13.671875
9451		-23.437500
9452		-17.578125
9453		-29.296875
9454		-21.484375
9455		-31.250000
9456		-27.343750
9457		-35.156250
9458		-29.296875
9459		-39.062500
9460		-33.203125
9461		-42.968750
9462		-37.109375
9463		-46.875000
9464		-41.015625
9465		-48.828125
9466		-42.968750
9467		-50.781250
9468		-46.875000
9469		-54.687500
9470		-50.781250
9471		-58.593750
9472		-52.734375
9473		-60.546875
9474		-56.640625
9475		-64.453125
9476		-58.593750
9477		-64.453125
9478		-60.546875
9479		-66.406250
9480		-62.500000
9481		-70.312500
9482		-64.453125
9483		-70.312500
9484		-66.406250
9485		-72.265625
9486		-68.359375
9487		-74.218750
9488		-70.312500
9489		-74.218750
9490		-70.312500
9491		-76.171875
9492		-72.265625
9493		-76.171875
9494		-72.265625
9495		-76.171875
9496		-74.218750
9497		-78.125000
9498		-74.218750
9499		-76.171875
9500		-74.218750
9501		-76.171875
9502		-74.218750
9503		-78.125000
9504		-74.218750
9505		-76.171875
9506		-72.265625
9507		-76.171875
9508		-72.265625
9509		-74.218750
9510		-70.312500
9511		-72.265625
9512		-70.312500
9513		-72.265625
9514		-68.359375
9515		-70.312500
9516		-66.406250
9517		-68.359375
9518		-64.453125
9519		-66.406250
9520		-62.500000
9521		-64.453125
9522		-60.546875
9523		-62.500000
9524		-58.593750
9525		-60.546875
9526		-54.687500
9527		-58.593750
9528		-52.734375
9529		-54.687500
9530		-48.828125
9531		-50.781250
9532		-46.875000
9533		-48.828125
9534		-42.968750
9535		-44.921875
9536		-39.062500
9537		-41.015625
9538		-35.156250
9539		-37.109375
9540		-33.203125
9541		-35.156250
9542		-29.296875
9543		-31.250000
9544		-25.390625
9545		-27.343750
9546		-21.484375
9547		-23.437500
9548		-15.625000
9549		-19.531250
9550		-13.671875
9551		-15.625000
9552		-9.765625
9553		-11.718750
9554		-5.859375
9555		-7.812500
9556		-1.953125
9557		-3.906250
9558		3.906250
9559		1.953125
9560		7.812500
9561		5.859375
9562		11.718750
9563		9.765625
9564		15.625000
9565		13.671875
9566		19.531250
9567		17.578125
9568		23.437500
9569		21.484375
9570		27.343750
9571		25.390625
9572		31.250000
9573		29.296875
9574		35.156250
9575		33.203125
9576		39.062500
9577		37.109375
9578		41.015625
9579		41.015625
9580		44.921875
9581		44.921875
9582		48.828125
9583		46.875000
9584		52.734375
9585		50.781250
9586		54.687500
9587		52.734375
9588		58.593750
9589		56.640625
9590		62.500000
9591		60.546875
9592		64.453125
9593		62.500000
9594		66.406250
9595		64.453125
9596		68.359375
9597		68.359375
9598		72.265625
9599		70.312500
9600		74.218750
9601		72.265625
9602		76.171875
9603		74.218750
9604		78.125000
9605		76.171875
9606		80.078125
9607		78.125000
9608		82.031250
9609		78.125000
9610		82.031250
9611		80.078125
9612		83.984375
9613		82.031250
9614		85.937500
9615		83.984375
9616		85.937500
9617		83.984375
9618		87.890625
9619		83.984375
9620		87.890625
9621		83.984375
9622		87.890625
9623		85.937500
9624		87.890625
9625		85.937500
9626		87.890625
9627		85.937500
9628		89.843750
9629		85.937500
9630		87.890625
9631		83.984375
9632		87.890625
9633		83.984375
9634		87.890625
9635		83.984375
9636		87.890625
9637		82.031250
9638		85.937500
9639		82.031250
9640		83.984375
9641		80.078125
9642		83.984375
9643		78.125000
9644		82.031250
9645		76.171875
9646		80.078125
9647		76.171875
9648		78.125000
9649		72.265625
9650		78.125000
9651		70.312500
9652		76.171875
9653		68.359375
9654		72.265625
9655		66.406250
9656		70.312500
9657		62.500000
9658		68.359375
9659		60.546875
9660		64.453125
9661		58.593750
9662		62.500000
9663		54.687500
9664		58.593750
9665		52.734375
9666		56.640625
9667		48.828125
9668		54.687500
9669		44.921875
9670		50.781250
9671		41.015625
9672		46.875000
9673		37.109375
9674		42.968750
9675		35.156250
9676		39.062500
9677		29.296875
9678		37.109375
9679		27.343750
9680		33.203125
9681		23.437500
9682		29.296875
9683		19.531250
9684		23.437500
9685		15.625000
9686		19.531250
9687		11.718750
9688		15.625000
9689		7.812500
9690		11.718750
9691		3.906250
9692		7.812500
9693		-1.953125
9694		3.906250
9695		-5.859375
9696		0.000000
9697		-9.765625
9698		-3.906250
9699		-13.671875
9700		-7.812500
9701		-17.578125
9702		-11.718750
9703		-21.484375
9704		-15.625000
9705		-25.390625
9706		-19.531250
9707		-29.296875
9708		-23.437500
9709		-33.203125
9710		-27.343750
9711		-37.109375
9712		-31.250000
9713		-39.062500
9714		-35.156250
9715		-42.968750
9716		-39.062500
9717		-46.875000
9718		-41.015625
9719		-48.828125
9720		-44.921875
9721		-52.734375
9722		-48.828125
9723		-54.687500
9724		-50.781250
9725		-58.593750
9726		-52.734375
9727		-60.546875
9728		-56.640625
9729		-62.500000
9730		-58.593750
9731		-64.453125
9732		-62.500000
9733		-68.359375
9734		-62.500000
9735		-68.359375
9736		-64.453125
9737		-70.312500
9738		-66.406250
9739		-72.265625
9740		-68.359375
9741		-74.218750
9742		-70.312500
9743		-74.218750
9744		-72.265625
9745		-76.171875
9746		-72.265625
9747		-76.171875
9748		-72.265625
9749		-76.171875
9750		-74.218750
9751		-76.171875
9752		-74.218750
9753		-76.171875
9754		-74.218750
9755		-76.171875
9756		-74.218750
9757		-76.171875
9758		-72.265625
9759		-76.171875
9760		-72.265625
9761		-74.218750
9762		-70.312500
9763		-74.218750
9764		-70.312500
9765		-72.265625
9766		-68.359375
9767		-72.265625
9768		-66.406250
9769		-68.359375
9770		-64.453125
9771		-66.406250
9772		-62.500000
9773		-64.453125
9774		-60.546875
9775		-64.453125
9776		-58.593750
9777		-60.546875
9778		-56.640625
9779		-58.593750
9780		-54.687500
9781		-54.687500
9782		-50.781250
9783		-52.734375
9784		-46.875000
9785		-48.828125
9786		-44.921875
9787		-46.875000
9788		-41.015625
9789		-42.968750
9790		-39.062500
9791		-39.062500
9792		-35.156250
9793		-35.156250
9794		-29.296875
9795		-33.203125
9796		-27.343750
9797		-29.296875
9798		-23.437500
9799		-25.390625
9800		-19.531250
9801		-21.484375
9802		-15.625000
9803		-17.578125
9804		-11.718750
9805		-13.671875
9806		-7.812500
9807		-9.765625
9808		-3.906250
9809		-5.859375
9810		1.953125
9811		0.000000
9812		5.859375
9813		1.953125
9814		7.812500
9815		7.812500
9816		11.718750
9817		11.718750
9818		19.531250
9819		13.671875
9820		23.437500
9821		17.578125
9822		25.390625
9823		23.437500
9824		29.296875
9825		27.343750
9826		33.203125
9827		31.250000
9828		35.156250
9829		33.203125
9830		39.062500
9831		37.109375
9832		42.968750
9833		41.015625
9834		48.828125
9835		42.968750
9836		52.734375
9837		46.875000
9838		54.687500
9839		50.781250
9840		56.640625
9841		54.687500
9842		60.546875
9843		58.593750
9844		62.500000
9845		60.546875
9846		66.406250
9847		62.500000
9848		68.359375
9849		66.406250
9850		70.312500
9851		68.359375
9852		74.218750
9853		68.359375
9854		76.171875
9855		70.312500
9856		78.125000
9857		74.218750
9858		78.125000
9859		76.171875
9860		82.031250
9861		76.171875
9862		83.984375
9863		80.078125
9864		83.984375
9865		82.031250
9866		83.984375
9867		82.031250
9868		87.890625
9869		82.031250
9870		89.843750
9871		82.031250
9872		89.843750
9873		83.984375
9874		89.843750
9875		83.984375
9876		89.843750
9877		83.984375
9878		89.843750
9879		85.937500
9880		89.843750
9881		85.937500
9882		87.890625
9883		85.937500
9884		87.890625
9885		83.984375
9886		89.843750
9887		82.031250
9888		89.843750
9889		82.031250
9890		87.890625
9891		80.078125
9892		87.890625
9893		78.125000
9894		85.937500
9895		78.125000
9896		83.984375
9897		78.125000
9898		82.031250
9899		76.171875
9900		80.078125
9901		72.265625
9902		80.078125
9903		70.312500
9904		78.125000
9905		68.359375
9906		76.171875
9907		66.406250
9908		74.218750
9909		64.453125
9910		72.265625
9911		60.546875
9912		68.359375
9913		60.546875
9914		66.406250
9915		56.640625
9916		62.500000
9917		52.734375
9918		58.593750
9919		50.781250
9920		56.640625
9921		44.921875
9922		54.687500
9923		41.015625
9924		50.781250
9925		39.062500
9926		46.875000
9927		35.156250
9928		44.921875
9929		31.250000
9930		41.015625
9931		29.296875
9932		35.156250
9933		25.390625
9934		31.250000
9935		19.531250
9936		27.343750
9937		15.625000
9938		25.390625
9939		11.718750
9940		21.484375
9941		7.812500
9942		17.578125
9943		3.906250
9944		13.671875
9945		0.000000
9946		9.765625
9947		-1.953125
9948		5.859375
9949		-5.859375
9950		-1.953125
9951		-11.718750
9952		-3.906250
9953		-15.625000
9954		-7.812500
9955		-19.531250
9956		-11.718750
9957		-25.390625
9958		-15.625000
9959		-29.296875
9960		-19.531250
9961		-31.250000
9962		-23.437500
9963		-35.156250
9964		-27.343750
9965		-37.109375
9966		-31.250000
9967		-41.015625
9968		-35.156250
9969		-44.921875
9970		-37.109375
9971		-48.828125
9972		-41.015625
9973		-52.734375
9974		-44.921875
9975		-54.687500
9976		-46.875000
9977		-58.593750
9978		-48.828125
9979		-60.546875
9980		-52.734375
9981		-60.546875
9982		-56.640625
9983		-64.453125
9984		-60.546875
9985		-68.359375
9986		-60.546875
9987		-70.312500
9988		-62.500000
9989		-72.265625
9990		-64.453125
9991		-74.218750
9992		-64.453125
9993		-74.218750
9994		-66.406250
9995		-76.171875
9996		-68.359375
9997		-76.171875
9998		-68.359375
9999		-74.218750
10000		-72.265625
