Channel              :		CH1
Frequency            :		1.973kHz
Period               :		0.507ms
PK-PK                :		140.6mV
Probe attenuation    :		1X
Voltage per ADC value:		0.122070mV
Time interval        :		2.00000us

index		CH1_Voltage(mV)
1		50.781250
2		50.781250
3		58.593750
4		52.734375
5		56.640625
6		50.781250
7		56.640625
8		48.828125
9		56.640625
10		48.828125
11		56.640625
12		46.875000
13		54.687500
14		46.875000
15		54.687500
16		44.921875
17		52.734375
18		42.968750
19		50.781250
20		44.921875
21		46.875000
22		42.968750
23		46.875000
24		39.062500
25		46.875000
26		37.109375
27		44.921875
28		35.156250
29		42.968750
30		33.203125
31		41.015625
32		33.203125
33		39.062500
34		29.296875
35		37.109375
36		31.250000
37		37.109375
38		27.343750
39		31.250000
40		21.484375
41		29.296875
42		21.484375
43		29.296875
44		19.531250
45		27.343750
46		15.625000
47		25.390625
48		13.671875
49		23.437500
50		11.718750
51		19.531250
52		9.765625
53		17.578125
54		9.765625
55		13.671875
56		7.812500
57		11.718750
58		1.953125
59		9.765625
60		0.000000
61		7.812500
62		-3.906250
63		5.859375
64		-3.906250
65		3.906250
66		-7.812500
67		0.000000
68		-11.718750
69		-1.953125
70		-9.765625
71		-5.859375
72		-11.718750
73		-7.812500
74		-15.625000
75		-9.765625
76		-19.531250
77		-11.718750
78		-21.484375
79		-13.671875
80		-21.484375
81		-15.625000
82		-25.390625
83		-19.531250
84		-27.343750
85		-21.484375
86		-27.343750
87		-21.484375
88		-29.296875
89		-25.390625
90		-35.156250
91		-27.343750
92		-35.156250
93		-27.343750
94		-37.109375
95		-29.296875
96		-39.062500
97		-31.250000
98		-39.062500
99		-31.250000
100		-39.062500
101		-33.203125
102		-41.015625
103		-35.156250
104		-39.062500
105		-37.109375
106		-41.015625
107		-39.062500
108		-42.968750
109		-37.109375
110		-44.921875
111		-37.109375
112		-44.921875
113		-39.062500
114		-44.921875
115		-39.062500
116		-46.875000
117		-39.062500
118		-46.875000
119		-39.062500
120		-44.921875
121		-39.062500
122		-42.968750
123		-41.015625
124		-46.875000
125		-39.062500
126		-44.921875
127		-39.062500
128		-44.921875
129		-39.062500
130		-44.921875
131		-37.109375
132		-42.968750
133		-37.109375
134		-42.968750
135		-35.156250
136		-42.968750
137		-35.156250
138		-39.062500
139		-37.109375
140		-37.109375
141		-35.156250
142		-39.062500
143		-31.250000
144		-39.062500
145		-29.296875
146		-37.109375
147		-27.343750
148		-35.156250
149		-27.343750
150		-33.203125
151		-23.437500
152		-31.250000
153		-23.437500
154		-29.296875
155		-23.437500
156		-25.390625
157		-21.484375
158		-23.437500
159		-17.578125
160		-23.437500
161		-15.625000
162		-21.484375
163		-11.718750
164		-19.531250
165		-9.765625
166		-17.578125
167		-7.812500
168		-13.671875
169		-5.859375
170		-11.718750
171		-5.859375
172		-7.812500
173		-3.906250
174		-3.906250
175		0.000000
176		-5.859375
177		3.906250
178		-1.953125
179		5.859375
180		0.000000
181		7.812500
182		1.953125
183		9.765625
184		3.906250
185		13.671875
186		7.812500
187		15.625000
188		11.718750
189		15.625000
190		15.625000
191		19.531250
192		15.625000
193		23.437500
194		17.578125
195		25.390625
196		19.531250
197		27.343750
198		21.484375
199		31.250000
200		23.437500
201		33.203125
202		25.390625
203		35.156250
204		27.343750
205		35.156250
206		33.203125
207		35.156250
208		33.203125
209		41.015625
210		35.156250
211		42.968750
212		35.156250
213		42.968750
214		37.109375
215		46.875000
216		39.062500
217		46.875000
218		41.015625
219		48.828125
220		42.968750
221		48.828125
222		46.875000
223		48.828125
224		46.875000
225		50.781250
226		46.875000
227		52.734375
228		46.875000
229		54.687500
230		48.828125
231		56.640625
232		48.828125
233		56.640625
234		50.781250
235		56.640625
236		50.781250
237		58.593750
238		52.734375
239		56.640625
240		54.687500
241		56.640625
242		52.734375
243		58.593750
244		52.734375
245		60.546875
246		52.734375
247		58.593750
248		52.734375
249		58.593750
250		52.734375
251		60.546875
252		50.781250
253		58.593750
254		52.734375
255		58.593750
256		54.687500
257		56.640625
258		50.781250
259		56.640625
260		50.781250
261		58.593750
262		48.828125
263		56.640625
264		48.828125
265		54.687500
266		46.875000
267		54.687500
268		44.921875
269		52.734375
270		44.921875
271		52.734375
272		44.921875
273		48.828125
274		44.921875
275		46.875000
276		41.015625
277		46.875000
278		39.062500
279		46.875000
280		37.109375
281		44.921875
282		35.156250
283		42.968750
284		33.203125
285		41.015625
286		31.250000
287		39.062500
288		31.250000
289		37.109375
290		29.296875
291		33.203125
292		25.390625
293		31.250000
294		23.437500
295		31.250000
296		19.531250
297		29.296875
298		17.578125
299		27.343750
300		15.625000
301		23.437500
302		13.671875
303		21.484375
304		11.718750
305		19.531250
306		11.718750
307		15.625000
308		7.812500
309		11.718750
310		3.906250
311		11.718750
312		1.953125
313		9.765625
314		-1.953125
315		7.812500
316		-3.906250
317		5.859375
318		-5.859375
319		1.953125
320		-7.812500
321		0.000000
322		-7.812500
323		-1.953125
324		-11.718750
325		-7.812500
326		-15.625000
327		-7.812500
328		-17.578125
329		-9.765625
330		-19.531250
331		-11.718750
332		-21.484375
333		-13.671875
334		-23.437500
335		-15.625000
336		-27.343750
337		-17.578125
338		-27.343750
339		-19.531250
340		-27.343750
341		-25.390625
342		-29.296875
343		-25.390625
344		-33.203125
345		-25.390625
346		-35.156250
347		-27.343750
348		-37.109375
349		-29.296875
350		-39.062500
351		-31.250000
352		-39.062500
353		-31.250000
354		-41.015625
355		-33.203125
356		-39.062500
357		-37.109375
358		-41.015625
359		-37.109375
360		-42.968750
361		-37.109375
362		-44.921875
363		-37.109375
364		-44.921875
365		-37.109375
366		-44.921875
367		-39.062500
368		-46.875000
369		-39.062500
370		-46.875000
371		-39.062500
372		-46.875000
373		-39.062500
374		-44.921875
375		-41.015625
376		-46.875000
377		-39.062500
378		-44.921875
379		-39.062500
380		-44.921875
381		-39.062500
382		-44.921875
383		-37.109375
384		-44.921875
385		-37.109375
386		-44.921875
387		-37.109375
388		-42.968750
389		-35.156250
390		-39.062500
391		-37.109375
392		-39.062500
393		-35.156250
394		-39.062500
395		-33.203125
396		-39.062500
397		-31.250000
398		-37.109375
399		-29.296875
400		-35.156250
401		-27.343750
402		-33.203125
403		-25.390625
404		-33.203125
405		-23.437500
406		-31.250000
407		-23.437500
408		-27.343750
409		-23.437500
410		-25.390625
411		-19.531250
412		-25.390625
413		-17.578125
414		-23.437500
415		-15.625000
416		-21.484375
417		-11.718750
418		-17.578125
419		-11.718750
420		-15.625000
421		-7.812500
422		-13.671875
423		-7.812500
424		-9.765625
425		-5.859375
426		-7.812500
427		-1.953125
428		-7.812500
429		1.953125
430		-3.906250
431		3.906250
432		-1.953125
433		5.859375
434		0.000000
435		7.812500
436		3.906250
437		11.718750
438		5.859375
439		13.671875
440		9.765625
441		13.671875
442		13.671875
443		15.625000
444		13.671875
445		21.484375
446		15.625000
447		23.437500
448		17.578125
449		25.390625
450		19.531250
451		29.296875
452		21.484375
453		29.296875
454		23.437500
455		33.203125
456		25.390625
457		33.203125
458		31.250000
459		35.156250
460		31.250000
461		39.062500
462		33.203125
463		41.015625
464		35.156250
465		42.968750
466		37.109375
467		42.968750
468		39.062500
469		44.921875
470		39.062500
471		46.875000
472		41.015625
473		48.828125
474		44.921875
475		48.828125
476		46.875000
477		48.828125
478		44.921875
479		52.734375
480		46.875000
481		52.734375
482		46.875000
483		54.687500
484		48.828125
485		56.640625
486		48.828125
487		56.640625
488		50.781250
489		56.640625
490		50.781250
491		56.640625
492		54.687500
493		56.640625
494		52.734375
495		58.593750
496		52.734375
497		58.593750
498		52.734375
499		58.593750
500		52.734375
501		58.593750
502		50.781250
503		58.593750
504		52.734375
505		58.593750
506		50.781250
507		58.593750
508		52.734375
509		56.640625
510		52.734375
511		54.687500
512		50.781250
513		56.640625
514		48.828125
515		56.640625
516		48.828125
517		56.640625
518		46.875000
519		54.687500
520		46.875000
521		54.687500
522		44.921875
523		52.734375
524		46.875000
525		50.781250
526		44.921875
527		46.875000
528		41.015625
529		48.828125
530		39.062500
531		46.875000
532		37.109375
533		44.921875
534		37.109375
535		42.968750
536		35.156250
537		42.968750
538		33.203125
539		41.015625
540		31.250000
541		39.062500
542		31.250000
543		35.156250
544		27.343750
545		33.203125
546		23.437500
547		31.250000
548		21.484375
549		29.296875
550		19.531250
551		27.343750
552		17.578125
553		25.390625
554		15.625000
555		23.437500
556		13.671875
557		21.484375
558		11.718750
559		15.625000
560		9.765625
561		13.671875
562		5.859375
563		11.718750
564		3.906250
565		11.718750
566		0.000000
567		7.812500
568		-1.953125
569		5.859375
570		-3.906250
571		3.906250
572		-7.812500
573		1.953125
574		-7.812500
575		-1.953125
576		-9.765625
577		-5.859375
578		-13.671875
579		-7.812500
580		-17.578125
581		-7.812500
582		-19.531250
583		-11.718750
584		-21.484375
585		-13.671875
586		-23.437500
587		-15.625000
588		-25.390625
589		-17.578125
590		-27.343750
591		-19.531250
592		-27.343750
593		-23.437500
594		-31.250000
595		-25.390625
596		-33.203125
597		-25.390625
598		-35.156250
599		-27.343750
600		-35.156250
601		-29.296875
602		-37.109375
603		-29.296875
604		-39.062500
605		-31.250000
606		-41.015625
607		-33.203125
608		-39.062500
609		-35.156250
610		-39.062500
611		-37.109375
612		-42.968750
613		-37.109375
614		-44.921875
615		-37.109375
616		-44.921875
617		-37.109375
618		-44.921875
619		-37.109375
620		-44.921875
621		-39.062500
622		-46.875000
623		-39.062500
624		-46.875000
625		-39.062500
626		-44.921875
627		-41.015625
628		-44.921875
629		-41.015625
630		-46.875000
631		-39.062500
632		-46.875000
633		-39.062500
634		-44.921875
635		-39.062500
636		-44.921875
637		-37.109375
638		-44.921875
639		-37.109375
640		-42.968750
641		-37.109375
642		-41.015625
643		-37.109375
644		-39.062500
645		-37.109375
646		-41.015625
647		-33.203125
648		-41.015625
649		-31.250000
650		-39.062500
651		-31.250000
652		-37.109375
653		-29.296875
654		-35.156250
655		-27.343750
656		-33.203125
657		-25.390625
658		-31.250000
659		-25.390625
660		-27.343750
661		-25.390625
662		-27.343750
663		-19.531250
664		-25.390625
665		-17.578125
666		-23.437500
667		-15.625000
668		-21.484375
669		-13.671875
670		-19.531250
671		-11.718750
672		-17.578125
673		-7.812500
674		-15.625000
675		-7.812500
676		-11.718750
677		-7.812500
678		-7.812500
679		-3.906250
680		-7.812500
681		0.000000
682		-5.859375
683		1.953125
684		-3.906250
685		5.859375
686		0.000000
687		7.812500
688		0.000000
689		9.765625
690		3.906250
691		11.718750
692		5.859375
693		11.718750
694		11.718750
695		15.625000
696		11.718750
697		19.531250
698		13.671875
699		21.484375
700		15.625000
701		25.390625
702		17.578125
703		27.343750
704		21.484375
705		29.296875
706		23.437500
707		31.250000
708		25.390625
709		31.250000
710		29.296875
711		33.203125
712		31.250000
713		35.156250
714		31.250000
715		39.062500
716		33.203125
717		41.015625
718		35.156250
719		42.968750
720		37.109375
721		44.921875
722		39.062500
723		46.875000
724		39.062500
725		46.875000
726		42.968750
727		46.875000
728		44.921875
729		48.828125
730		44.921875
731		52.734375
732		44.921875
733		52.734375
734		46.875000
735		54.687500
736		48.828125
737		54.687500
738		48.828125
739		56.640625
740		48.828125
741		56.640625
742		50.781250
743		56.640625
744		52.734375
745		56.640625
746		52.734375
747		58.593750
748		52.734375
749		58.593750
750		52.734375
751		58.593750
752		52.734375
753		58.593750
754		52.734375
755		58.593750
756		52.734375
757		60.546875
758		52.734375
759		58.593750
760		54.687500
761		56.640625
762		52.734375
763		56.640625
764		50.781250
765		58.593750
766		48.828125
767		56.640625
768		48.828125
769		56.640625
770		48.828125
771		54.687500
772		46.875000
773		54.687500
774		46.875000
775		52.734375
776		46.875000
777		52.734375
778		44.921875
779		48.828125
780		42.968750
781		48.828125
782		41.015625
783		48.828125
784		39.062500
785		46.875000
786		37.109375
787		44.921875
788		35.156250
789		42.968750
790		33.203125
791		41.015625
792		33.203125
793		39.062500
794		31.250000
795		35.156250
796		29.296875
797		33.203125
798		25.390625
799		33.203125
800		23.437500
801		31.250000
802		21.484375
803		29.296875
804		19.531250
805		27.343750
806		15.625000
807		25.390625
808		13.671875
809		23.437500
810		13.671875
811		17.578125
812		11.718750
813		15.625000
814		7.812500
815		13.671875
816		3.906250
817		11.718750
818		1.953125
819		9.765625
820		0.000000
821		7.812500
822		-3.906250
823		5.859375
824		-5.859375
825		3.906250
826		-5.859375
827		0.000000
828		-7.812500
829		-3.906250
830		-13.671875
831		-5.859375
832		-15.625000
833		-5.859375
834		-17.578125
835		-9.765625
836		-19.531250
837		-11.718750
838		-21.484375
839		-13.671875
840		-23.437500
841		-15.625000
842		-25.390625
843		-17.578125
844		-25.390625
845		-21.484375
846		-27.343750
847		-23.437500
848		-31.250000
849		-23.437500
850		-33.203125
851		-25.390625
852		-35.156250
853		-27.343750
854		-37.109375
855		-29.296875
856		-37.109375
857		-31.250000
858		-39.062500
859		-31.250000
860		-39.062500
861		-33.203125
862		-39.062500
863		-37.109375
864		-42.968750
865		-35.156250
866		-44.921875
867		-37.109375
868		-44.921875
869		-37.109375
870		-44.921875
871		-37.109375
872		-44.921875
873		-39.062500
874		-44.921875
875		-39.062500
876		-44.921875
877		-39.062500
878		-42.968750
879		-41.015625
880		-44.921875
881		-41.015625
882		-46.875000
883		-39.062500
884		-46.875000
885		-39.062500
886		-44.921875
887		-39.062500
888		-44.921875
889		-39.062500
890		-44.921875
891		-37.109375
892		-44.921875
893		-37.109375
894		-41.015625
895		-37.109375
896		-41.015625
897		-37.109375
898		-41.015625
899		-35.156250
900		-41.015625
901		-33.203125
902		-39.062500
903		-31.250000
904		-37.109375
905		-29.296875
906		-37.109375
907		-29.296875
908		-35.156250
909		-27.343750
910		-33.203125
911		-25.390625
912		-29.296875
913		-25.390625
914		-29.296875
915		-21.484375
916		-27.343750
917		-19.531250
918		-25.390625
919		-17.578125
920		-23.437500
921		-15.625000
922		-21.484375
923		-13.671875
924		-19.531250
925		-9.765625
926		-17.578125
927		-9.765625
928		-11.718750
929		-7.812500
930		-9.765625
931		-5.859375
932		-9.765625
933		-1.953125
934		-7.812500
935		1.953125
936		-5.859375
937		3.906250
938		-1.953125
939		5.859375
940		0.000000
941		7.812500
942		1.953125
943		11.718750
944		5.859375
945		11.718750
946		9.765625
947		13.671875
948		11.718750
949		17.578125
950		11.718750
951		19.531250
952		13.671875
953		23.437500
954		17.578125
955		25.390625
956		19.531250
957		27.343750
958		21.484375
959		29.296875
960		23.437500
961		31.250000
962		27.343750
963		31.250000
964		29.296875
965		33.203125
966		29.296875
967		39.062500
968		33.203125
969		39.062500
970		33.203125
971		41.015625
972		35.156250
973		42.968750
974		37.109375
975		44.921875
976		39.062500
977		46.875000
978		42.968750
979		46.875000
980		44.921875
981		46.875000
982		44.921875
983		50.781250
984		44.921875
985		52.734375
986		46.875000
987		52.734375
988		46.875000
989		54.687500
990		48.828125
991		54.687500
992		48.828125
993		56.640625
994		50.781250
995		56.640625
996		52.734375
997		54.687500
998		52.734375
999		56.640625
1000		50.781250
1001		58.593750
1002		50.781250
1003		58.593750
1004		52.734375
1005		58.593750
1006		52.734375
1007		58.593750
1008		52.734375
1009		58.593750
1010		50.781250
1011		58.593750
1012		54.687500
1013		56.640625
1014		52.734375
1015		56.640625
1016		50.781250
1017		58.593750
1018		50.781250
1019		56.640625
1020		48.828125
1021		56.640625
1022		48.828125
1023		56.640625
1024		46.875000
1025		54.687500
1026		44.921875
1027		54.687500
1028		46.875000
1029		52.734375
1030		46.875000
1031		48.828125
1032		42.968750
1033		48.828125
1034		41.015625
1035		48.828125
1036		39.062500
1037		46.875000
1038		39.062500
1039		46.875000
1040		37.109375
1041		44.921875
1042		35.156250
1043		42.968750
1044		33.203125
1045		41.015625
1046		33.203125
1047		37.109375
1048		31.250000
1049		35.156250
1050		27.343750
1051		35.156250
1052		25.390625
1053		33.203125
1054		23.437500
1055		31.250000
1056		19.531250
1057		29.296875
1058		17.578125
1059		25.390625
1060		15.625000
1061		23.437500
1062		15.625000
1063		19.531250
1064		13.671875
1065		17.578125
1066		7.812500
1067		15.625000
1068		5.859375
1069		13.671875
1070		3.906250
1071		11.718750
1072		1.953125
1073		9.765625
1074		0.000000
1075		5.859375
1076		-3.906250
1077		3.906250
1078		-5.859375
1079		1.953125
1080		-5.859375
1081		-1.953125
1082		-9.765625
1083		-3.906250
1084		-13.671875
1085		-5.859375
1086		-15.625000
1087		-7.812500
1088		-17.578125
1089		-9.765625
1090		-19.531250
1091		-11.718750
1092		-23.437500
1093		-13.671875
1094		-23.437500
1095		-15.625000
1096		-23.437500
1097		-21.484375
1098		-25.390625
1099		-23.437500
1100		-31.250000
1101		-23.437500
1102		-31.250000
1103		-23.437500
1104		-33.203125
1105		-25.390625
1106		-35.156250
1107		-27.343750
1108		-37.109375
1109		-29.296875
1110		-37.109375
1111		-31.250000
1112		-39.062500
1113		-31.250000
1114		-39.062500
1115		-35.156250
1116		-42.968750
1117		-35.156250
1118		-42.968750
1119		-35.156250
1120		-42.968750
1121		-37.109375
1122		-44.921875
1123		-37.109375
1124		-44.921875
1125		-37.109375
1126		-44.921875
1127		-37.109375
1128		-46.875000
1129		-39.062500
1130		-42.968750
1131		-41.015625
1132		-42.968750
1133		-41.015625
1134		-46.875000
1135		-39.062500
1136		-46.875000
1137		-39.062500
1138		-46.875000
1139		-39.062500
1140		-44.921875
1141		-39.062500
1142		-44.921875
1143		-37.109375
1144		-44.921875
1145		-37.109375
1146		-44.921875
1147		-39.062500
1148		-41.015625
1149		-37.109375
1150		-41.015625
1151		-35.156250
1152		-41.015625
1153		-33.203125
1154		-41.015625
1155		-31.250000
1156		-39.062500
1157		-31.250000
1158		-37.109375
1159		-29.296875
1160		-35.156250
1161		-27.343750
1162		-35.156250
1163		-27.343750
1164		-29.296875
1165		-27.343750
1166		-27.343750
1167		-23.437500
1168		-29.296875
1169		-19.531250
1170		-27.343750
1171		-17.578125
1172		-25.390625
1173		-15.625000
1174		-23.437500
1175		-13.671875
1176		-21.484375
1177		-11.718750
1178		-19.531250
1179		-9.765625
1180		-13.671875
1181		-9.765625
1182		-11.718750
1183		-7.812500
1184		-9.765625
1185		-3.906250
1186		-9.765625
1187		0.000000
1188		-5.859375
1189		1.953125
1190		-3.906250
1191		3.906250
1192		-1.953125
1193		7.812500
1194		1.953125
1195		9.765625
1196		3.906250
1197		9.765625
1198		7.812500
1199		11.718750
1200		9.765625
1201		15.625000
1202		11.718750
1203		19.531250
1204		13.671875
1205		21.484375
1206		15.625000
1207		23.437500
1208		17.578125
1209		25.390625
1210		19.531250
1211		27.343750
1212		23.437500
1213		29.296875
1214		27.343750
1215		31.250000
1216		29.296875
1217		33.203125
1218		29.296875
1219		37.109375
1220		31.250000
1221		39.062500
1222		33.203125
1223		41.015625
1224		35.156250
1225		42.968750
1226		37.109375
1227		44.921875
1228		39.062500
1229		46.875000
1230		41.015625
1231		46.875000
1232		42.968750
1233		46.875000
1234		44.921875
1235		50.781250
1236		44.921875
1237		50.781250
1238		44.921875
1239		52.734375
1240		46.875000
1241		54.687500
1242		46.875000
1243		54.687500
1244		48.828125
1245		56.640625
1246		50.781250
1247		56.640625
1248		52.734375
1249		54.687500
1250		52.734375
1251		56.640625
1252		50.781250
1253		58.593750
1254		50.781250
1255		58.593750
1256		52.734375
1257		58.593750
1258		52.734375
1259		58.593750
1260		52.734375
1261		60.546875
1262		52.734375
1263		58.593750
1264		54.687500
1265		56.640625
1266		54.687500
1267		56.640625
1268		50.781250
1269		58.593750
1270		50.781250
1271		58.593750
1272		50.781250
1273		56.640625
1274		50.781250
1275		56.640625
1276		48.828125
1277		56.640625
1278		46.875000
1279		54.687500
1280		46.875000
1281		54.687500
1282		48.828125
1283		50.781250
1284		44.921875
1285		50.781250
1286		42.968750
1287		50.781250
1288		41.015625
1289		48.828125
1290		39.062500
1291		46.875000
1292		39.062500
1293		46.875000
1294		37.109375
1295		44.921875
1296		35.156250
1297		42.968750
1298		35.156250
1299		39.062500
1300		33.203125
1301		37.109375
1302		29.296875
1303		37.109375
1304		27.343750
1305		35.156250
1306		25.390625
1307		33.203125
1308		21.484375
1309		31.250000
1310		19.531250
1311		27.343750
1312		17.578125
1313		25.390625
1314		17.578125
1315		23.437500
1316		15.625000
1317		19.531250
1318		9.765625
1319		17.578125
1320		7.812500
1321		15.625000
1322		5.859375
1323		13.671875
1324		3.906250
1325		11.718750
1326		0.000000
1327		7.812500
1328		-1.953125
1329		5.859375
1330		-3.906250
1331		3.906250
1332		-3.906250
1333		0.000000
1334		-9.765625
1335		-3.906250
1336		-11.718750
1337		-3.906250
1338		-13.671875
1339		-5.859375
1340		-15.625000
1341		-7.812500
1342		-17.578125
1343		-9.765625
1344		-21.484375
1345		-11.718750
1346		-23.437500
1347		-13.671875
1348		-23.437500
1349		-19.531250
1350		-25.390625
1351		-21.484375
1352		-29.296875
1353		-21.484375
1354		-31.250000
1355		-23.437500
1356		-33.203125
1357		-23.437500
1358		-35.156250
1359		-25.390625
1360		-35.156250
1361		-27.343750
1362		-37.109375
1363		-29.296875
1364		-37.109375
1365		-31.250000
1366		-37.109375
1367		-35.156250
1368		-41.015625
1369		-35.156250
1370		-42.968750
1371		-35.156250
1372		-42.968750
1373		-35.156250
1374		-42.968750
1375		-37.109375
1376		-44.921875
1377		-37.109375
1378		-44.921875
1379		-39.062500
1380		-44.921875
1381		-39.062500
1382		-42.968750
1383		-41.015625
1384		-42.968750
1385		-41.015625
1386		-46.875000
1387		-39.062500
1388		-46.875000
1389		-39.062500
1390		-46.875000
1391		-39.062500
1392		-46.875000
1393		-39.062500
1394		-44.921875
1395		-39.062500
1396		-44.921875
1397		-37.109375
1398		-44.921875
1399		-39.062500
1400		-41.015625
1401		-39.062500
1402		-42.968750
1403		-35.156250
1404		-42.968750
1405		-35.156250
1406		-41.015625
1407		-33.203125
1408		-39.062500
1409		-31.250000
1410		-39.062500
1411		-31.250000
1412		-37.109375
1413		-29.296875
1414		-35.156250
1415		-27.343750
1416		-31.250000
1417		-27.343750
1418		-29.296875
1419		-25.390625
1420		-29.296875
1421		-23.437500
1422		-27.343750
1423		-19.531250
1424		-25.390625
1425		-17.578125
1426		-23.437500
1427		-15.625000
1428		-21.484375
1429		-13.671875
1430		-19.531250
1431		-11.718750
1432		-15.625000
1433		-11.718750
1434		-13.671875
1435		-9.765625
1436		-11.718750
1437		-5.859375
1438		-11.718750
1439		-1.953125
1440		-7.812500
1441		0.000000
1442		-5.859375
1443		1.953125
1444		-3.906250
1445		3.906250
1446		-1.953125
1447		7.812500
1448		1.953125
1449		7.812500
1450		5.859375
1451		9.765625
1452		7.812500
1453		13.671875
1454		9.765625
1455		17.578125
1456		11.718750
1457		19.531250
1458		13.671875
1459		21.484375
1460		15.625000
1461		25.390625
1462		17.578125
1463		25.390625
1464		19.531250
1465		27.343750
1466		25.390625
1467		29.296875
1468		27.343750
1469		31.250000
1470		27.343750
1471		35.156250
1472		29.296875
1473		37.109375
1474		31.250000
1475		39.062500
1476		33.203125
1477		41.015625
1478		35.156250
1479		42.968750
1480		37.109375
1481		44.921875
1482		39.062500
1483		44.921875
1484		42.968750
1485		44.921875
1486		42.968750
1487		48.828125
1488		42.968750
1489		50.781250
1490		44.921875
1491		52.734375
1492		44.921875
1493		52.734375
1494		46.875000
1495		54.687500
1496		46.875000
1497		54.687500
1498		48.828125
1499		56.640625
1500		52.734375
1501		54.687500
1502		50.781250
1503		56.640625
1504		50.781250
1505		58.593750
1506		50.781250
1507		58.593750
1508		50.781250
1509		58.593750
1510		50.781250
1511		58.593750
1512		52.734375
1513		58.593750
1514		52.734375
1515		58.593750
1516		54.687500
1517		56.640625
1518		54.687500
1519		56.640625
1520		52.734375
1521		58.593750
1522		50.781250
1523		58.593750
1524		50.781250
1525		58.593750
1526		50.781250
1527		56.640625
1528		48.828125
1529		56.640625
1530		48.828125
1531		54.687500
1532		48.828125
1533		54.687500
1534		48.828125
1535		50.781250
1536		44.921875
1537		50.781250
1538		42.968750
1539		50.781250
1540		42.968750
1541		48.828125
1542		41.015625
1543		48.828125
1544		39.062500
1545		46.875000
1546		37.109375
1547		44.921875
1548		37.109375
1549		42.968750
1550		37.109375
1551		39.062500
1552		33.203125
1553		37.109375
1554		29.296875
1555		37.109375
1556		27.343750
1557		35.156250
1558		25.390625
1559		33.203125
1560		23.437500
1561		31.250000
1562		21.484375
1563		29.296875
1564		19.531250
1565		27.343750
1566		17.578125
1567		25.390625
1568		15.625000
1569		19.531250
1570		11.718750
1571		19.531250
1572		9.765625
1573		17.578125
1574		7.812500
1575		15.625000
1576		3.906250
1577		13.671875
1578		1.953125
1579		11.718750
1580		0.000000
1581		7.812500
1582		-1.953125
1583		5.859375
1584		-3.906250
1585		0.000000
1586		-5.859375
1587		-1.953125
1588		-9.765625
1589		-1.953125
1590		-11.718750
1591		-5.859375
1592		-13.671875
1593		-5.859375
1594		-17.578125
1595		-9.765625
1596		-19.531250
1597		-11.718750
1598		-21.484375
1599		-13.671875
1600		-21.484375
1601		-17.578125
1602		-23.437500
1603		-19.531250
1604		-27.343750
1605		-21.484375
1606		-29.296875
1607		-21.484375
1608		-31.250000
1609		-23.437500
1610		-33.203125
1611		-25.390625
1612		-35.156250
1613		-27.343750
1614		-35.156250
1615		-29.296875
1616		-37.109375
1617		-31.250000
1618		-37.109375
1619		-33.203125
1620		-39.062500
1621		-35.156250
1622		-41.015625
1623		-35.156250
1624		-42.968750
1625		-35.156250
1626		-42.968750
1627		-35.156250
1628		-44.921875
1629		-37.109375
1630		-44.921875
1631		-37.109375
1632		-44.921875
1633		-39.062500
1634		-42.968750
1635		-41.015625
1636		-42.968750
1637		-41.015625
1638		-44.921875
1639		-39.062500
1640		-44.921875
1641		-39.062500
1642		-44.921875
1643		-41.015625
1644		-46.875000
1645		-39.062500
1646		-44.921875
1647		-39.062500
1648		-44.921875
1649		-39.062500
1650		-44.921875
1651		-37.109375
1652		-41.015625
1653		-39.062500
1654		-41.015625
1655		-37.109375
1656		-42.968750
1657		-35.156250
1658		-41.015625
1659		-35.156250
1660		-39.062500
1661		-33.203125
1662		-39.062500
1663		-31.250000
1664		-37.109375
1665		-29.296875
1666		-35.156250
1667		-29.296875
1668		-31.250000
1669		-29.296875
1670		-29.296875
1671		-27.343750
1672		-29.296875
1673		-25.390625
1674		-27.343750
1675		-23.437500
1676		-25.390625
1677		-21.484375
1678		-23.437500
1679		-17.578125
1680		-21.484375
1681		-15.625000
1682		-21.484375
1683		-13.671875
1684		-17.578125
1685		-13.671875
1686		-15.625000
1687		-9.765625
1688		-13.671875
1689		-7.812500
1690		-9.765625
1691		-5.859375
1692		-7.812500
1693		-3.906250
1694		-5.859375
1695		0.000000
1696		-3.906250
1697		1.953125
1698		0.000000
1699		5.859375
1700		1.953125
1701		5.859375
1702		5.859375
1703		7.812500
1704		7.812500
1705		11.718750
1706		9.765625
1707		13.671875
1708		11.718750
1709		15.625000
1710		13.671875
1711		19.531250
1712		15.625000
1713		23.437500
1714		19.531250
1715		23.437500
1716		21.484375
1717		25.390625
1718		23.437500
1719		27.343750
1720		25.390625
1721		29.296875
1722		27.343750
1723		33.203125
1724		29.296875
1725		33.203125
1726		31.250000
1727		37.109375
1728		35.156250
1729		37.109375
1730		35.156250
1731		41.015625
1732		39.062500
1733		42.968750
1734		39.062500
1735		42.968750
1736		41.015625
1737		44.921875
1738		42.968750
1739		46.875000
1740		44.921875
1741		48.828125
1742		46.875000
1743		50.781250
1744		46.875000
1745		50.781250
1746		48.828125
1747		50.781250
1748		48.828125
1749		52.734375
1750		50.781250
1751		54.687500
1752		52.734375
1753		54.687500
1754		52.734375
1755		54.687500
1756		52.734375
1757		56.640625
1758		54.687500
1759		56.640625
1760		54.687500
1761		56.640625
1762		54.687500
1763		56.640625
1764		54.687500
1765		56.640625
1766		54.687500
1767		56.640625
1768		54.687500
1769		56.640625
1770		54.687500
1771		56.640625
1772		52.734375
1773		56.640625
1774		52.734375
1775		56.640625
1776		52.734375
1777		56.640625
1778		52.734375
1779		56.640625
1780		50.781250
1781		54.687500
1782		50.781250
1783		54.687500
1784		50.781250
1785		54.687500
1786		48.828125
1787		52.734375
1788		46.875000
1789		50.781250
1790		46.875000
1791		50.781250
1792		44.921875
1793		48.828125
1794		44.921875
1795		48.828125
1796		42.968750
1797		44.921875
1798		41.015625
1799		44.921875
1800		37.109375
1801		42.968750
1802		37.109375
1803		41.015625
1804		35.156250
1805		39.062500
1806		33.203125
1807		37.109375
1808		31.250000
1809		35.156250
1810		29.296875
1811		33.203125
1812		27.343750
1813		31.250000
1814		25.390625
1815		29.296875
1816		23.437500
1817		27.343750
1818		19.531250
1819		25.390625
1820		17.578125
1821		21.484375
1822		15.625000
1823		19.531250
1824		13.671875
1825		17.578125
1826		11.718750
1827		15.625000
1828		7.812500
1829		13.671875
1830		5.859375
1831		9.765625
1832		3.906250
1833		7.812500
1834		1.953125
1835		5.859375
1836		-1.953125
1837		1.953125
1838		-3.906250
1839		0.000000
1840		-5.859375
1841		-1.953125
1842		-9.765625
1843		-3.906250
1844		-9.765625
1845		-5.859375
1846		-13.671875
1847		-9.765625
1848		-15.625000
1849		-9.765625
1850		-17.578125
1851		-13.671875
1852		-19.531250
1853		-15.625000
1854		-21.484375
1855		-17.578125
1856		-25.390625
1857		-19.531250
1858		-27.343750
1859		-21.484375
1860		-27.343750
1861		-23.437500
1862		-29.296875
1863		-25.390625
1864		-31.250000
1865		-27.343750
1866		-33.203125
1867		-29.296875
1868		-35.156250
1869		-29.296875
1870		-35.156250
1871		-33.203125
1872		-37.109375
1873		-33.203125
1874		-39.062500
1875		-35.156250
1876		-39.062500
1877		-37.109375
1878		-41.015625
1879		-37.109375
1880		-41.015625
1881		-39.062500
1882		-42.968750
1883		-39.062500
1884		-42.968750
1885		-39.062500
1886		-42.968750
1887		-41.015625
1888		-42.968750
1889		-41.015625
1890		-44.921875
1891		-41.015625
1892		-44.921875
1893		-41.015625
1894		-44.921875
1895		-41.015625
1896		-42.968750
1897		-41.015625
1898		-42.968750
1899		-41.015625
1900		-42.968750
1901		-41.015625
1902		-42.968750
1903		-39.062500
1904		-42.968750
1905		-39.062500
1906		-41.015625
1907		-37.109375
1908		-41.015625
1909		-37.109375
1910		-41.015625
1911		-37.109375
1912		-39.062500
1913		-35.156250
1914		-37.109375
1915		-33.203125
1916		-37.109375
1917		-33.203125
1918		-35.156250
1919		-31.250000
1920		-33.203125
1921		-29.296875
1922		-31.250000
1923		-29.296875
1924		-31.250000
1925		-25.390625
1926		-27.343750
1927		-23.437500
1928		-25.390625
1929		-23.437500
1930		-25.390625
1931		-21.484375
1932		-23.437500
1933		-19.531250
1934		-21.484375
1935		-15.625000
1936		-19.531250
1937		-13.671875
1938		-15.625000
1939		-11.718750
1940		-13.671875
1941		-9.765625
1942		-11.718750
1943		-7.812500
1944		-9.765625
1945		-5.859375
1946		-5.859375
1947		-1.953125
1948		-3.906250
1949		0.000000
1950		-1.953125
1951		1.953125
1952		0.000000
1953		3.906250
1954		3.906250
1955		7.812500
1956		5.859375
1957		9.765625
1958		7.812500
1959		11.718750
1960		9.765625
1961		13.671875
1962		13.671875
1963		17.578125
1964		15.625000
1965		19.531250
1966		17.578125
1967		21.484375
1968		19.531250
1969		25.390625
1970		21.484375
1971		25.390625
1972		25.390625
1973		29.296875
1974		25.390625
1975		31.250000
1976		29.296875
1977		33.203125
1978		31.250000
1979		35.156250
1980		33.203125
1981		37.109375
1982		35.156250
1983		39.062500
1984		37.109375
1985		41.015625
1986		39.062500
1987		41.015625
1988		41.015625
1989		44.921875
1990		41.015625
1991		46.875000
1992		42.968750
1993		46.875000
1994		44.921875
1995		48.828125
1996		46.875000
1997		48.828125
1998		46.875000
1999		50.781250
2000		48.828125
2001		52.734375
2002		48.828125
2003		52.734375
2004		50.781250
2005		54.687500
2006		52.734375
2007		54.687500
2008		52.734375
2009		54.687500
2010		52.734375
2011		56.640625
2012		52.734375
2013		56.640625
2014		54.687500
2015		56.640625
2016		54.687500
2017		56.640625
2018		54.687500
2019		58.593750
2020		54.687500
2021		58.593750
2022		54.687500
2023		56.640625
2024		54.687500
2025		56.640625
2026		54.687500
2027		56.640625
2028		54.687500
2029		56.640625
2030		52.734375
2031		56.640625
2032		52.734375
2033		54.687500
2034		50.781250
2035		54.687500
2036		50.781250
2037		54.687500
2038		50.781250
2039		52.734375
2040		46.875000
2041		52.734375
2042		46.875000
2043		50.781250
2044		46.875000
2045		50.781250
2046		44.921875
2047		48.828125
2048		42.968750
2049		46.875000
2050		42.968750
2051		44.921875
2052		41.015625
2053		44.921875
2054		39.062500
2055		41.015625
2056		37.109375
2057		41.015625
2058		35.156250
2059		39.062500
2060		33.203125
2061		37.109375
2062		31.250000
2063		35.156250
2064		29.296875
2065		33.203125
2066		25.390625
2067		31.250000
2068		23.437500
2069		27.343750
2070		21.484375
2071		27.343750
2072		19.531250
2073		23.437500
2074		17.578125
2075		21.484375
2076		13.671875
2077		19.531250
2078		11.718750
2079		17.578125
2080		9.765625
2081		13.671875
2082		7.812500
2083		11.718750
2084		5.859375
2085		9.765625
2086		1.953125
2087		7.812500
2088		0.000000
2089		3.906250
2090		-1.953125
2091		1.953125
2092		-3.906250
2093		0.000000
2094		-7.812500
2095		-1.953125
2096		-9.765625
2097		-5.859375
2098		-11.718750
2099		-7.812500
2100		-13.671875
2101		-9.765625
2102		-15.625000
2103		-11.718750
2104		-17.578125
2105		-13.671875
2106		-19.531250
2107		-17.578125
2108		-23.437500
2109		-19.531250
2110		-25.390625
2111		-21.484375
2112		-27.343750
2113		-21.484375
2114		-29.296875
2115		-25.390625
2116		-31.250000
2117		-25.390625
2118		-31.250000
2119		-27.343750
2120		-33.203125
2121		-29.296875
2122		-35.156250
2123		-31.250000
2124		-37.109375
2125		-33.203125
2126		-37.109375
2127		-33.203125
2128		-39.062500
2129		-35.156250
2130		-39.062500
2131		-37.109375
2132		-41.015625
2133		-37.109375
2134		-41.015625
2135		-39.062500
2136		-42.968750
2137		-39.062500
2138		-42.968750
2139		-41.015625
2140		-42.968750
2141		-41.015625
2142		-44.921875
2143		-41.015625
2144		-44.921875
2145		-41.015625
2146		-42.968750
2147		-41.015625
2148		-44.921875
2149		-41.015625
2150		-42.968750
2151		-41.015625
2152		-42.968750
2153		-41.015625
2154		-44.921875
2155		-39.062500
2156		-42.968750
2157		-39.062500
2158		-42.968750
2159		-39.062500
2160		-41.015625
2161		-37.109375
2162		-41.015625
2163		-37.109375
2164		-41.015625
2165		-37.109375
2166		-39.062500
2167		-35.156250
2168		-37.109375
2169		-33.203125
2170		-35.156250
2171		-31.250000
2172		-35.156250
2173		-31.250000
2174		-31.250000
2175		-29.296875
2176		-31.250000
2177		-27.343750
2178		-29.296875
2179		-25.390625
2180		-27.343750
2181		-23.437500
2182		-25.390625
2183		-21.484375
2184		-23.437500
2185		-19.531250
2186		-21.484375
2187		-17.578125
2188		-19.531250
2189		-15.625000
2190		-17.578125
2191		-13.671875
2192		-15.625000
2193		-9.765625
2194		-13.671875
2195		-9.765625
2196		-11.718750
2197		-5.859375
2198		-7.812500
2199		-3.906250
2200		-5.859375
2201		-1.953125
2202		-3.906250
2203		0.000000
2204		-1.953125
2205		3.906250
2206		1.953125
2207		5.859375
2208		3.906250
2209		7.812500
2210		5.859375
2211		9.765625
2212		7.812500
2213		13.671875
2214		11.718750
2215		15.625000
2216		13.671875
2217		17.578125
2218		15.625000
2219		21.484375
2220		19.531250
2221		23.437500
2222		21.484375
2223		25.390625
2224		23.437500
2225		27.343750
2226		25.390625
2227		29.296875
2228		27.343750
2229		31.250000
2230		29.296875
2231		33.203125
2232		31.250000
2233		35.156250
2234		33.203125
2235		37.109375
2236		35.156250
2237		39.062500
2238		37.109375
2239		41.015625
2240		39.062500
2241		42.968750
2242		41.015625
2243		44.921875
2244		42.968750
2245		46.875000
2246		42.968750
2247		46.875000
2248		44.921875
2249		48.828125
2250		46.875000
2251		50.781250
2252		48.828125
2253		50.781250
2254		48.828125
2255		52.734375
2256		50.781250
2257		52.734375
2258		52.734375
2259		54.687500
2260		52.734375
2261		56.640625
2262		52.734375
2263		56.640625
2264		52.734375
2265		56.640625
2266		54.687500
2267		56.640625
2268		54.687500
2269		56.640625
2270		54.687500
2271		56.640625
2272		54.687500
2273		58.593750
2274		54.687500
2275		56.640625
2276		54.687500
2277		58.593750
2278		54.687500
2279		58.593750
2280		54.687500
2281		56.640625
2282		54.687500
2283		56.640625
2284		52.734375
2285		56.640625
2286		52.734375
2287		56.640625
2288		50.781250
2289		54.687500
2290		50.781250
2291		52.734375
2292		50.781250
2293		52.734375
2294		48.828125
2295		52.734375
2296		46.875000
2297		50.781250
2298		46.875000
2299		50.781250
2300		44.921875
2301		48.828125
2302		42.968750
2303		46.875000
2304		41.015625
2305		44.921875
2306		41.015625
2307		44.921875
2308		39.062500
2309		42.968750
2310		35.156250
2311		39.062500
2312		33.203125
2313		39.062500
2314		33.203125
2315		37.109375
2316		31.250000
2317		35.156250
2318		27.343750
2319		33.203125
2320		25.390625
2321		31.250000
2322		23.437500
2323		27.343750
2324		21.484375
2325		25.390625
2326		17.578125
2327		23.437500
2328		17.578125
2329		21.484375
2330		13.671875
2331		19.531250
2332		11.718750
2333		15.625000
2334		9.765625
2335		13.671875
2336		7.812500
2337		11.718750
2338		3.906250
2339		9.765625
2340		1.953125
2341		5.859375
2342		0.000000
2343		3.906250
2344		-3.906250
2345		1.953125
2346		-5.859375
2347		-1.953125
2348		-7.812500
2349		-1.953125
2350		-9.765625
2351		-5.859375
2352		-11.718750
2353		-7.812500
2354		-15.625000
2355		-9.765625
2356		-17.578125
2357		-11.718750
2358		-19.531250
2359		-15.625000
2360		-21.484375
2361		-17.578125
2362		-23.437500
2363		-19.531250
2364		-25.390625
2365		-21.484375
2366		-27.343750
2367		-23.437500
2368		-29.296875
2369		-25.390625
2370		-31.250000
2371		-27.343750
2372		-31.250000
2373		-29.296875
2374		-33.203125
2375		-29.296875
2376		-35.156250
2377		-31.250000
2378		-37.109375
2379		-33.203125
2380		-37.109375
2381		-35.156250
2382		-39.062500
2383		-35.156250
2384		-41.015625
2385		-37.109375
2386		-41.015625
2387		-37.109375
2388		-41.015625
2389		-39.062500
2390		-41.015625
2391		-39.062500
2392		-42.968750
2393		-41.015625
2394		-44.921875
2395		-39.062500
2396		-42.968750
2397		-41.015625
2398		-42.968750
2399		-41.015625
2400		-44.921875
2401		-41.015625
2402		-44.921875
2403		-41.015625
2404		-44.921875
2405		-41.015625
2406		-44.921875
2407		-39.062500
2408		-42.968750
2409		-41.015625
2410		-42.968750
2411		-39.062500
2412		-41.015625
2413		-37.109375
2414		-41.015625
2415		-37.109375
2416		-39.062500
2417		-37.109375
2418		-39.062500
2419		-35.156250
2420		-39.062500
2421		-35.156250
2422		-37.109375
2423		-33.203125
2424		-35.156250
2425		-31.250000
2426		-33.203125
2427		-31.250000
2428		-33.203125
2429		-29.296875
2430		-31.250000
2431		-27.343750
2432		-29.296875
2433		-23.437500
2434		-27.343750
2435		-21.484375
2436		-25.390625
2437		-21.484375
2438		-23.437500
2439		-19.531250
2440		-21.484375
2441		-17.578125
2442		-19.531250
2443		-15.625000
2444		-17.578125
2445		-11.718750
2446		-13.671875
2447		-9.765625
2448		-11.718750
2449		-7.812500
2450		-9.765625
2451		-5.859375
2452		-7.812500
2453		-1.953125
2454		-3.906250
2455		-1.953125
2456		-3.906250
2457		1.953125
2458		0.000000
2459		3.906250
2460		1.953125
2461		5.859375
2462		3.906250
2463		9.765625
2464		7.812500
2465		11.718750
2466		9.765625
2467		13.671875
2468		11.718750
2469		15.625000
2470		13.671875
2471		19.531250
2472		17.578125
2473		21.484375
2474		19.531250
2475		23.437500
2476		21.484375
2477		25.390625
2478		23.437500
2479		27.343750
2480		25.390625
2481		31.250000
2482		27.343750
2483		31.250000
2484		31.250000
2485		35.156250
2486		33.203125
2487		35.156250
2488		33.203125
2489		39.062500
2490		35.156250
2491		39.062500
2492		39.062500
2493		42.968750
2494		39.062500
2495		44.921875
2496		41.015625
2497		44.921875
2498		42.968750
2499		46.875000
2500		44.921875
2501		48.828125
2502		44.921875
2503		48.828125
2504		46.875000
2505		50.781250
2506		48.828125
2507		52.734375
2508		50.781250
2509		52.734375
2510		50.781250
2511		54.687500
2512		50.781250
2513		54.687500
2514		52.734375
2515		56.640625
2516		52.734375
2517		56.640625
2518		54.687500
2519		56.640625
2520		52.734375
2521		58.593750
2522		54.687500
2523		56.640625
2524		54.687500
2525		58.593750
2526		54.687500
2527		56.640625
2528		54.687500
2529		58.593750
2530		54.687500
2531		58.593750
2532		54.687500
2533		56.640625
2534		54.687500
2535		56.640625
2536		52.734375
2537		56.640625
2538		52.734375
2539		56.640625
2540		52.734375
2541		56.640625
2542		50.781250
2543		54.687500
2544		50.781250
2545		52.734375
2546		48.828125
2547		54.687500
2548		46.875000
2549		52.734375
2550		46.875000
2551		50.781250
2552		44.921875
2553		48.828125
2554		44.921875
2555		48.828125
2556		42.968750
2557		46.875000
2558		41.015625
2559		44.921875
2560		39.062500
2561		42.968750
2562		37.109375
2563		41.015625
2564		35.156250
2565		39.062500
2566		33.203125
2567		37.109375
2568		31.250000
2569		37.109375
2570		29.296875
2571		33.203125
2572		27.343750
2573		33.203125
2574		25.390625
2575		29.296875
2576		23.437500
2577		27.343750
2578		19.531250
2579		25.390625
2580		17.578125
2581		23.437500
2582		15.625000
2583		19.531250
2584		13.671875
2585		17.578125
2586		11.718750
2587		15.625000
2588		7.812500
2589		13.671875
2590		5.859375
2591		9.765625
2592		3.906250
2593		7.812500
2594		1.953125
2595		5.859375
2596		0.000000
2597		3.906250
2598		-3.906250
2599		1.953125
2600		-5.859375
2601		-1.953125
2602		-7.812500
2603		-3.906250
2604		-9.765625
2605		-5.859375
2606		-11.718750
2607		-9.765625
2608		-15.625000
2609		-11.718750
2610		-17.578125
2611		-13.671875
2612		-19.531250
2613		-15.625000
2614		-21.484375
2615		-17.578125
2616		-23.437500
2617		-19.531250
2618		-25.390625
2619		-21.484375
2620		-27.343750
2621		-23.437500
2622		-29.296875
2623		-25.390625
2624		-31.250000
2625		-27.343750
2626		-33.203125
2627		-29.296875
2628		-33.203125
2629		-31.250000
2630		-35.156250
2631		-31.250000
2632		-37.109375
2633		-33.203125
2634		-39.062500
2635		-35.156250
2636		-39.062500
2637		-35.156250
2638		-41.015625
2639		-37.109375
2640		-41.015625
2641		-37.109375
2642		-42.968750
2643		-37.109375
2644		-42.968750
2645		-39.062500
2646		-42.968750
2647		-39.062500
2648		-42.968750
2649		-39.062500
2650		-42.968750
2651		-41.015625
2652		-42.968750
2653		-41.015625
2654		-42.968750
2655		-41.015625
2656		-42.968750
2657		-41.015625
2658		-42.968750
2659		-39.062500
2660		-42.968750
2661		-41.015625
2662		-42.968750
2663		-39.062500
2664		-41.015625
2665		-39.062500
2666		-41.015625
2667		-37.109375
2668		-41.015625
2669		-37.109375
2670		-41.015625
2671		-37.109375
2672		-39.062500
2673		-35.156250
2674		-37.109375
2675		-33.203125
2676		-35.156250
2677		-33.203125
2678		-35.156250
2679		-31.250000
2680		-33.203125
2681		-29.296875
2682		-31.250000
2683		-27.343750
2684		-29.296875
2685		-25.390625
2686		-27.343750
2687		-23.437500
2688		-25.390625
2689		-21.484375
2690		-23.437500
2691		-19.531250
2692		-23.437500
2693		-17.578125
2694		-19.531250
2695		-15.625000
2696		-17.578125
2697		-13.671875
2698		-15.625000
2699		-11.718750
2700		-13.671875
2701		-9.765625
2702		-11.718750
2703		-7.812500
2704		-9.765625
2705		-3.906250
2706		-7.812500
2707		-1.953125
2708		-3.906250
2709		0.000000
2710		-1.953125
2711		1.953125
2712		1.953125
2713		5.859375
2714		1.953125
2715		7.812500
2716		5.859375
2717		9.765625
2718		7.812500
2719		11.718750
2720		11.718750
2721		15.625000
2722		13.671875
2723		17.578125
2724		15.625000
2725		19.531250
2726		17.578125
2727		21.484375
2728		21.484375
2729		23.437500
2730		21.484375
2731		27.343750
2732		25.390625
2733		29.296875
2734		27.343750
2735		31.250000
2736		29.296875
2737		33.203125
2738		31.250000
2739		35.156250
2740		33.203125
2741		37.109375
2742		35.156250
2743		39.062500
2744		37.109375
2745		41.015625
2746		39.062500
2747		42.968750
2748		39.062500
2749		44.921875
2750		42.968750
2751		46.875000
2752		42.968750
2753		46.875000
2754		44.921875
2755		48.828125
2756		46.875000
2757		50.781250
2758		48.828125
2759		50.781250
2760		48.828125
2761		52.734375
2762		50.781250
2763		52.734375
2764		50.781250
2765		54.687500
2766		52.734375
2767		54.687500
2768		52.734375
2769		56.640625
2770		52.734375
2771		56.640625
2772		54.687500
2773		56.640625
2774		54.687500
2775		56.640625
2776		54.687500
2777		58.593750
2778		54.687500
2779		56.640625
2780		54.687500
2781		58.593750
2782		54.687500
2783		58.593750
2784		54.687500
2785		58.593750
2786		54.687500
2787		56.640625
2788		54.687500
2789		56.640625
2790		52.734375
2791		56.640625
2792		52.734375
2793		56.640625
2794		52.734375
2795		54.687500
2796		50.781250
2797		54.687500
2798		48.828125
2799		54.687500
2800		48.828125
2801		52.734375
2802		46.875000
2803		50.781250
2804		46.875000
2805		50.781250
2806		44.921875
2807		48.828125
2808		44.921875
2809		48.828125
2810		42.968750
2811		46.875000
2812		41.015625
2813		44.921875
2814		39.062500
2815		42.968750
2816		37.109375
2817		41.015625
2818		35.156250
2819		39.062500
2820		33.203125
2821		37.109375
2822		31.250000
2823		37.109375
2824		29.296875
2825		33.203125
2826		25.390625
2827		31.250000
2828		25.390625
2829		29.296875
2830		23.437500
2831		27.343750
2832		19.531250
2833		25.390625
2834		17.578125
2835		23.437500
2836		15.625000
2837		19.531250
2838		13.671875
2839		17.578125
2840		9.765625
2841		15.625000
2842		7.812500
2843		11.718750
2844		5.859375
2845		9.765625
2846		3.906250
2847		7.812500
2848		1.953125
2849		3.906250
2850		-1.953125
2851		3.906250
2852		-3.906250
2853		0.000000
2854		-7.812500
2855		-1.953125
2856		-9.765625
2857		-5.859375
2858		-11.718750
2859		-7.812500
2860		-13.671875
2861		-9.765625
2862		-15.625000
2863		-11.718750
2864		-19.531250
2865		-13.671875
2866		-21.484375
2867		-15.625000
2868		-21.484375
2869		-17.578125
2870		-23.437500
2871		-19.531250
2872		-27.343750
2873		-23.437500
2874		-27.343750
2875		-23.437500
2876		-29.296875
2877		-25.390625
2878		-31.250000
2879		-27.343750
2880		-33.203125
2881		-29.296875
2882		-35.156250
2883		-31.250000
2884		-35.156250
2885		-33.203125
2886		-37.109375
2887		-33.203125
2888		-39.062500
2889		-35.156250
2890		-41.015625
2891		-35.156250
2892		-41.015625
2893		-37.109375
2894		-42.968750
2895		-37.109375
2896		-41.015625
2897		-39.062500
2898		-42.968750
2899		-39.062500
2900		-42.968750
2901		-39.062500
2902		-42.968750
2903		-39.062500
2904		-42.968750
2905		-41.015625
2906		-44.921875
2907		-41.015625
2908		-42.968750
2909		-41.015625
2910		-44.921875
2911		-41.015625
2912		-42.968750
2913		-41.015625
2914		-42.968750
2915		-41.015625
2916		-42.968750
2917		-39.062500
2918		-42.968750
2919		-39.062500
2920		-41.015625
2921		-37.109375
2922		-39.062500
2923		-37.109375
2924		-39.062500
2925		-35.156250
2926		-37.109375
2927		-35.156250
2928		-37.109375
2929		-33.203125
2930		-35.156250
2931		-31.250000
2932		-35.156250
2933		-31.250000
2934		-33.203125
2935		-29.296875
2936		-31.250000
2937		-27.343750
2938		-29.296875
2939		-25.390625
2940		-27.343750
2941		-23.437500
2942		-25.390625
2943		-21.484375
2944		-23.437500
2945		-19.531250
2946		-21.484375
2947		-17.578125
2948		-19.531250
2949		-13.671875
2950		-17.578125
2951		-13.671875
2952		-15.625000
2953		-11.718750
2954		-11.718750
2955		-7.812500
2956		-9.765625
2957		-5.859375
2958		-7.812500
2959		-3.906250
2960		-5.859375
2961		0.000000
2962		-1.953125
2963		0.000000
2964		0.000000
2965		3.906250
2966		1.953125
2967		5.859375
2968		3.906250
2969		7.812500
2970		5.859375
2971		11.718750
2972		9.765625
2973		13.671875
2974		11.718750
2975		15.625000
2976		13.671875
2977		17.578125
2978		15.625000
2979		19.531250
2980		19.531250
2981		23.437500
2982		21.484375
2983		25.390625
2984		23.437500
2985		27.343750
2986		25.390625
2987		29.296875
2988		27.343750
2989		31.250000
2990		29.296875
2991		33.203125
2992		31.250000
2993		37.109375
2994		33.203125
2995		37.109375
2996		37.109375
2997		39.062500
2998		37.109375
2999		41.015625
3000		39.062500
3001		42.968750
3002		41.015625
3003		44.921875
3004		42.968750
3005		46.875000
3006		44.921875
3007		46.875000
3008		44.921875
3009		48.828125
3010		46.875000
3011		50.781250
3012		48.828125
3013		50.781250
3014		50.781250
3015		52.734375
3016		50.781250
3017		54.687500
3018		50.781250
3019		54.687500
3020		52.734375
3021		54.687500
3022		52.734375
3023		56.640625
3024		52.734375
3025		56.640625
3026		54.687500
3027		56.640625
3028		52.734375
3029		56.640625
3030		54.687500
3031		56.640625
3032		54.687500
3033		58.593750
3034		54.687500
3035		58.593750
3036		54.687500
3037		58.593750
3038		54.687500
3039		58.593750
3040		54.687500
3041		56.640625
3042		52.734375
3043		56.640625
3044		52.734375
3045		56.640625
3046		52.734375
3047		54.687500
3048		50.781250
3049		54.687500
3050		50.781250
3051		54.687500
3052		50.781250
3053		52.734375
3054		48.828125
3055		52.734375
3056		48.828125
3057		50.781250
3058		44.921875
3059		50.781250
3060		44.921875
3061		48.828125
3062		42.968750
3063		46.875000
3064		41.015625
3065		44.921875
3066		39.062500
3067		42.968750
3068		39.062500
3069		41.015625
3070		35.156250
3071		41.015625
3072		35.156250
3073		39.062500
3074		33.203125
3075		37.109375
3076		31.250000
3077		35.156250
3078		29.296875
3079		33.203125
3080		27.343750
3081		29.296875
3082		23.437500
3083		27.343750
3084		21.484375
3085		27.343750
3086		19.531250
3087		23.437500
3088		17.578125
3089		21.484375
3090		13.671875
3091		19.531250
3092		11.718750
3093		15.625000
3094		9.765625
3095		15.625000
3096		7.812500
3097		11.718750
3098		5.859375
3099		9.765625
3100		1.953125
3101		5.859375
3102		0.000000
3103		3.906250
3104		-1.953125
3105		1.953125
3106		-3.906250
3107		0.000000
3108		-7.812500
3109		-1.953125
3110		-9.765625
3111		-5.859375
3112		-11.718750
3113		-7.812500
3114		-13.671875
3115		-9.765625
3116		-17.578125
3117		-11.718750
3118		-19.531250
3119		-13.671875
3120		-21.484375
3121		-17.578125
3122		-23.437500
3123		-19.531250
3124		-25.390625
3125		-21.484375
3126		-27.343750
3127		-23.437500
3128		-29.296875
3129		-23.437500
3130		-29.296875
3131		-27.343750
3132		-31.250000
3133		-27.343750
3134		-33.203125
3135		-29.296875
3136		-35.156250
3137		-31.250000
3138		-37.109375
3139		-31.250000
3140		-37.109375
3141		-33.203125
3142		-39.062500
3143		-35.156250
3144		-39.062500
3145		-37.109375
3146		-41.015625
3147		-35.156250
3148		-41.015625
3149		-37.109375
3150		-42.968750
3151		-39.062500
3152		-42.968750
3153		-39.062500
3154		-42.968750
3155		-39.062500
3156		-42.968750
3157		-39.062500
3158		-42.968750
3159		-41.015625
3160		-42.968750
3161		-39.062500
3162		-44.921875
3163		-41.015625
3164		-42.968750
3165		-41.015625
3166		-42.968750
3167		-41.015625
3168		-42.968750
3169		-39.062500
3170		-41.015625
3171		-37.109375
3172		-42.968750
3173		-37.109375
3174		-39.062500
3175		-37.109375
3176		-39.062500
3177		-35.156250
3178		-39.062500
3179		-35.156250
3180		-39.062500
3181		-33.203125
3182		-35.156250
3183		-33.203125
3184		-35.156250
3185		-31.250000
3186		-33.203125
3187		-29.296875
3188		-31.250000
3189		-27.343750
3190		-29.296875
3191		-25.390625
3192		-27.343750
3193		-23.437500
3194		-27.343750
3195		-21.484375
3196		-25.390625
3197		-21.484375
3198		-21.484375
3199		-19.531250
3200		-19.531250
3201		-15.625000
3202		-17.578125
3203		-13.671875
3204		-15.625000
3205		-11.718750
3206		-13.671875
3207		-9.765625
3208		-11.718750
3209		-7.812500
3210		-9.765625
3211		-3.906250
3212		-7.812500
3213		-1.953125
3214		-3.906250
3215		0.000000
3216		-1.953125
3217		1.953125
3218		0.000000
3219		5.859375
3220		1.953125
3221		7.812500
3222		5.859375
3223		9.765625
3224		7.812500
3225		11.718750
3226		9.765625
3227		15.625000
3228		11.718750
3229		17.578125
3230		15.625000
3231		19.531250
3232		17.578125
3233		21.484375
3234		19.531250
3235		23.437500
3236		21.484375
3237		25.390625
3238		23.437500
3239		29.296875
3240		27.343750
3241		31.250000
3242		27.343750
3243		33.203125
3244		31.250000
3245		35.156250
3246		33.203125
3247		37.109375
3248		35.156250
3249		39.062500
3250		37.109375
3251		41.015625
3252		39.062500
3253		42.968750
3254		39.062500
3255		44.921875
3256		41.015625
3257		44.921875
3258		42.968750
3259		46.875000
3260		44.921875
3261		48.828125
3262		46.875000
3263		50.781250
3264		46.875000
3265		50.781250
3266		48.828125
3267		52.734375
3268		50.781250
3269		54.687500
3270		50.781250
3271		54.687500
3272		52.734375
3273		56.640625
3274		52.734375
3275		56.640625
3276		52.734375
3277		56.640625
3278		54.687500
3279		56.640625
3280		54.687500
3281		58.593750
3282		54.687500
3283		58.593750
3284		54.687500
3285		58.593750
3286		54.687500
3287		58.593750
3288		54.687500
3289		58.593750
3290		54.687500
3291		58.593750
3292		54.687500
3293		56.640625
3294		54.687500
3295		56.640625
3296		52.734375
3297		56.640625
3298		52.734375
3299		56.640625
3300		52.734375
3301		54.687500
3302		50.781250
3303		56.640625
3304		50.781250
3305		54.687500
3306		48.828125
3307		54.687500
3308		48.828125
3309		52.734375
3310		46.875000
3311		50.781250
3312		46.875000
3313		48.828125
3314		42.968750
3315		48.828125
3316		42.968750
3317		46.875000
3318		41.015625
3319		44.921875
3320		39.062500
3321		44.921875
3322		37.109375
3323		42.968750
3324		37.109375
3325		41.015625
3326		33.203125
3327		39.062500
3328		33.203125
3329		37.109375
3330		29.296875
3331		35.156250
3332		27.343750
3333		31.250000
3334		25.390625
3335		29.296875
3336		23.437500
3337		29.296875
3338		21.484375
3339		25.390625
3340		19.531250
3341		23.437500
3342		15.625000
3343		21.484375
3344		13.671875
3345		19.531250
3346		11.718750
3347		15.625000
3348		9.765625
3349		13.671875
3350		7.812500
3351		11.718750
3352		3.906250
3353		7.812500
3354		1.953125
3355		5.859375
3356		0.000000
3357		3.906250
3358		-1.953125
3359		1.953125
3360		-5.859375
3361		0.000000
3362		-7.812500
3363		-3.906250
3364		-9.765625
3365		-5.859375
3366		-11.718750
3367		-7.812500
3368		-15.625000
3369		-11.718750
3370		-15.625000
3371		-11.718750
3372		-19.531250
3373		-15.625000
3374		-21.484375
3375		-17.578125
3376		-23.437500
3377		-19.531250
3378		-25.390625
3379		-21.484375
3380		-29.296875
3381		-23.437500
3382		-29.296875
3383		-25.390625
3384		-31.250000
3385		-27.343750
3386		-31.250000
3387		-29.296875
3388		-33.203125
3389		-29.296875
3390		-35.156250
3391		-31.250000
3392		-37.109375
3393		-33.203125
3394		-39.062500
3395		-33.203125
3396		-39.062500
3397		-35.156250
3398		-41.015625
3399		-35.156250
3400		-41.015625
3401		-37.109375
3402		-41.015625
3403		-37.109375
3404		-42.968750
3405		-39.062500
3406		-42.968750
3407		-39.062500
3408		-42.968750
3409		-39.062500
3410		-42.968750
3411		-41.015625
3412		-42.968750
3413		-41.015625
3414		-42.968750
3415		-39.062500
3416		-42.968750
3417		-41.015625
3418		-42.968750
3419		-41.015625
3420		-42.968750
3421		-39.062500
3422		-42.968750
3423		-39.062500
3424		-41.015625
3425		-37.109375
3426		-41.015625
3427		-37.109375
3428		-39.062500
3429		-37.109375
3430		-39.062500
3431		-35.156250
3432		-39.062500
3433		-35.156250
3434		-37.109375
3435		-33.203125
3436		-35.156250
3437		-31.250000
3438		-33.203125
3439		-31.250000
3440		-33.203125
3441		-29.296875
3442		-31.250000
3443		-27.343750
3444		-29.296875
3445		-25.390625
3446		-27.343750
3447		-23.437500
3448		-25.390625
3449		-21.484375
3450		-23.437500
3451		-19.531250
3452		-21.484375
3453		-17.578125
3454		-21.484375
3455		-15.625000
3456		-17.578125
3457		-13.671875
3458		-15.625000
3459		-11.718750
3460		-13.671875
3461		-7.812500
3462		-9.765625
3463		-5.859375
3464		-7.812500
3465		-3.906250
3466		-5.859375
3467		-1.953125
3468		-3.906250
3469		0.000000
3470		-1.953125
3471		3.906250
3472		1.953125
3473		5.859375
3474		3.906250
3475		7.812500
3476		5.859375
3477		11.718750
3478		7.812500
3479		13.671875
3480		11.718750
3481		15.625000
3482		13.671875
3483		17.578125
3484		15.625000
3485		19.531250
3486		19.531250
3487		23.437500
3488		21.484375
3489		25.390625
3490		23.437500
3491		27.343750
3492		25.390625
3493		29.296875
3494		27.343750
3495		31.250000
3496		29.296875
3497		33.203125
3498		31.250000
3499		37.109375
3500		33.203125
3501		39.062500
3502		35.156250
3503		39.062500
3504		37.109375
3505		42.968750
3506		39.062500
3507		42.968750
3508		41.015625
3509		44.921875
3510		42.968750
3511		46.875000
3512		44.921875
3513		46.875000
3514		44.921875
3515		50.781250
3516		46.875000
3517		50.781250
3518		48.828125
3519		50.781250
3520		48.828125
3521		52.734375
3522		50.781250
3523		54.687500
3524		50.781250
3525		54.687500
3526		52.734375
3527		56.640625
3528		52.734375
3529		56.640625
3530		54.687500
3531		56.640625
3532		52.734375
3533		58.593750
3534		54.687500
3535		58.593750
3536		54.687500
3537		58.593750
3538		54.687500
3539		58.593750
3540		54.687500
3541		58.593750
3542		54.687500
3543		58.593750
3544		54.687500
3545		58.593750
3546		54.687500
3547		58.593750
3548		54.687500
3549		58.593750
3550		52.734375
3551		58.593750
3552		54.687500
3553		56.640625
3554		50.781250
3555		56.640625
3556		50.781250
3557		54.687500
3558		50.781250
3559		54.687500
3560		50.781250
3561		52.734375
3562		48.828125
3563		52.734375
3564		46.875000
3565		50.781250
3566		46.875000
3567		50.781250
3568		44.921875
3569		46.875000
3570		41.015625
3571		46.875000
3572		41.015625
3573		44.921875
3574		39.062500
3575		42.968750
3576		37.109375
3577		41.015625
3578		37.109375
3579		39.062500
3580		33.203125
3581		39.062500
3582		31.250000
3583		35.156250
3584		29.296875
3585		33.203125
3586		27.343750
3587		31.250000
3588		25.390625
3589		29.296875
3590		23.437500
3591		27.343750
3592		21.484375
3593		25.390625
3594		17.578125
3595		21.484375
3596		15.625000
3597		19.531250
3598		13.671875
3599		17.578125
3600		11.718750
3601		15.625000
3602		9.765625
3603		13.671875
3604		5.859375
3605		9.765625
3606		3.906250
3607		7.812500
3608		0.000000
3609		5.859375
3610		0.000000
3611		3.906250
3612		-3.906250
3613		1.953125
3614		-5.859375
3615		-1.953125
3616		-9.765625
3617		-3.906250
3618		-9.765625
3619		-5.859375
3620		-13.671875
3621		-7.812500
3622		-15.625000
3623		-11.718750
3624		-17.578125
3625		-11.718750
3626		-19.531250
3627		-15.625000
3628		-21.484375
3629		-17.578125
3630		-23.437500
3631		-19.531250
3632		-25.390625
3633		-21.484375
3634		-27.343750
3635		-23.437500
3636		-29.296875
3637		-25.390625
3638		-31.250000
3639		-27.343750
3640		-33.203125
3641		-27.343750
3642		-33.203125
3643		-31.250000
3644		-35.156250
3645		-31.250000
3646		-37.109375
3647		-33.203125
3648		-37.109375
3649		-33.203125
3650		-39.062500
3651		-35.156250
3652		-39.062500
3653		-37.109375
3654		-41.015625
3655		-37.109375
3656		-41.015625
3657		-37.109375
3658		-42.968750
3659		-39.062500
3660		-42.968750
3661		-39.062500
3662		-42.968750
3663		-39.062500
3664		-42.968750
3665		-39.062500
3666		-42.968750
3667		-39.062500
3668		-42.968750
3669		-39.062500
3670		-42.968750
3671		-41.015625
3672		-42.968750
3673		-39.062500
3674		-42.968750
3675		-39.062500
3676		-41.015625
3677		-39.062500
3678		-41.015625
3679		-37.109375
3680		-41.015625
3681		-37.109375
3682		-39.062500
3683		-37.109375
3684		-39.062500
3685		-35.156250
3686		-37.109375
3687		-33.203125
3688		-37.109375
3689		-31.250000
3690		-35.156250
3691		-31.250000
3692		-33.203125
3693		-29.296875
3694		-31.250000
3695		-27.343750
3696		-31.250000
3697		-25.390625
3698		-29.296875
3699		-25.390625
3700		-27.343750
3701		-21.484375
3702		-25.390625
3703		-21.484375
3704		-23.437500
3705		-19.531250
3706		-21.484375
3707		-17.578125
3708		-19.531250
3709		-13.671875
3710		-15.625000
3711		-11.718750
3712		-13.671875
3713		-9.765625
3714		-11.718750
3715		-7.812500
3716		-9.765625
3717		-5.859375
3718		-7.812500
3719		-3.906250
3720		-3.906250
3721		0.000000
3722		-1.953125
3723		1.953125
3724		0.000000
3725		3.906250
3726		1.953125
3727		5.859375
3728		5.859375
3729		9.765625
3730		7.812500
3731		11.718750
3732		9.765625
3733		13.671875
3734		11.718750
3735		15.625000
3736		13.671875
3737		19.531250
3738		17.578125
3739		21.484375
3740		19.531250
3741		23.437500
3742		21.484375
3743		25.390625
3744		23.437500
3745		27.343750
3746		25.390625
3747		31.250000
3748		27.343750
3749		33.203125
3750		31.250000
3751		35.156250
3752		33.203125
3753		37.109375
3754		35.156250
3755		39.062500
3756		37.109375
3757		41.015625
3758		39.062500
3759		42.968750
3760		41.015625
3761		44.921875
3762		42.968750
3763		46.875000
3764		42.968750
3765		46.875000
3766		44.921875
3767		48.828125
3768		46.875000
3769		50.781250
3770		48.828125
3771		50.781250
3772		48.828125
3773		52.734375
3774		50.781250
3775		54.687500
3776		50.781250
3777		54.687500
3778		52.734375
3779		56.640625
3780		52.734375
3781		56.640625
3782		52.734375
3783		56.640625
3784		54.687500
3785		58.593750
3786		54.687500
3787		58.593750
3788		54.687500
3789		58.593750
3790		54.687500
3791		58.593750
3792		54.687500
3793		58.593750
3794		54.687500
3795		58.593750
3796		54.687500
3797		58.593750
3798		54.687500
3799		58.593750
3800		54.687500
3801		58.593750
3802		54.687500
3803		58.593750
3804		54.687500
3805		56.640625
3806		52.734375
3807		56.640625
3808		52.734375
3809		56.640625
3810		50.781250
3811		54.687500
3812		50.781250
3813		54.687500
3814		48.828125
3815		52.734375
3816		48.828125
3817		52.734375
3818		46.875000
3819		50.781250
3820		44.921875
3821		48.828125
3822		44.921875
3823		46.875000
3824		41.015625
3825		44.921875
3826		41.015625
3827		44.921875
3828		39.062500
3829		42.968750
3830		37.109375
3831		41.015625
3832		35.156250
3833		39.062500
3834		33.203125
3835		37.109375
3836		31.250000
3837		35.156250
3838		29.296875
3839		33.203125
3840		27.343750
3841		31.250000
3842		25.390625
3843		29.296875
3844		21.484375
3845		27.343750
3846		19.531250
3847		23.437500
3848		17.578125
3849		21.484375
3850		15.625000
3851		19.531250
3852		13.671875
3853		17.578125
3854		11.718750
3855		13.671875
3856		7.812500
3857		11.718750
3858		5.859375
3859		9.765625
3860		1.953125
3861		7.812500
3862		1.953125
3863		5.859375
3864		-1.953125
3865		1.953125
3866		-3.906250
3867		0.000000
3868		-7.812500
3869		-1.953125
3870		-7.812500
3871		-3.906250
3872		-11.718750
3873		-7.812500
3874		-13.671875
3875		-7.812500
3876		-15.625000
3877		-11.718750
3878		-17.578125
3879		-13.671875
3880		-19.531250
3881		-15.625000
3882		-21.484375
3883		-17.578125
3884		-23.437500
3885		-19.531250
3886		-25.390625
3887		-21.484375
3888		-27.343750
3889		-23.437500
3890		-29.296875
3891		-25.390625
3892		-31.250000
3893		-27.343750
3894		-33.203125
3895		-29.296875
3896		-35.156250
3897		-31.250000
3898		-35.156250
3899		-33.203125
3900		-37.109375
3901		-33.203125
3902		-37.109375
3903		-35.156250
3904		-39.062500
3905		-35.156250
3906		-41.015625
3907		-37.109375
3908		-41.015625
3909		-37.109375
3910		-41.015625
3911		-37.109375
3912		-42.968750
3913		-39.062500
3914		-42.968750
3915		-39.062500
3916		-42.968750
3917		-39.062500
3918		-42.968750
3919		-39.062500
3920		-42.968750
3921		-41.015625
3922		-42.968750
3923		-41.015625
3924		-42.968750
3925		-39.062500
3926		-42.968750
3927		-39.062500
3928		-42.968750
3929		-39.062500
3930		-41.015625
3931		-37.109375
3932		-41.015625
3933		-37.109375
3934		-41.015625
3935		-37.109375
3936		-39.062500
3937		-35.156250
3938		-37.109375
3939		-35.156250
3940		-37.109375
3941		-33.203125
3942		-35.156250
3943		-31.250000
3944		-35.156250
3945		-31.250000
3946		-33.203125
3947		-27.343750
3948		-31.250000
3949		-27.343750
3950		-29.296875
3951		-25.390625
3952		-27.343750
3953		-23.437500
3954		-25.390625
3955		-21.484375
3956		-23.437500
3957		-19.531250
3958		-21.484375
3959		-17.578125
3960		-19.531250
3961		-15.625000
3962		-17.578125
3963		-13.671875
3964		-15.625000
3965		-11.718750
3966		-13.671875
3967		-9.765625
3968		-11.718750
3969		-5.859375
3970		-9.765625
3971		-5.859375
3972		-5.859375
3973		-1.953125
3974		-3.906250
3975		0.000000
3976		-1.953125
3977		1.953125
3978		0.000000
3979		5.859375
3980		1.953125
3981		7.812500
3982		5.859375
3983		9.765625
3984		7.812500
3985		13.671875
3986		9.765625
3987		13.671875
3988		13.671875
3989		17.578125
3990		15.625000
3991		19.531250
3992		15.625000
3993		21.484375
3994		19.531250
3995		23.437500
3996		21.484375
3997		25.390625
3998		25.390625
3999		29.296875
4000		27.343750
4001		31.250000
4002		29.296875
4003		33.203125
4004		31.250000
4005		35.156250
4006		33.203125
4007		37.109375
4008		35.156250
4009		39.062500
4010		37.109375
4011		41.015625
4012		39.062500
4013		42.968750
4014		41.015625
4015		44.921875
4016		42.968750
4017		46.875000
4018		44.921875
4019		46.875000
4020		44.921875
4021		48.828125
4022		46.875000
4023		50.781250
4024		48.828125
4025		52.734375
4026		48.828125
4027		52.734375
4028		50.781250
4029		54.687500
4030		50.781250
4031		54.687500
4032		52.734375
4033		54.687500
4034		52.734375
4035		56.640625
4036		52.734375
4037		58.593750
4038		54.687500
4039		56.640625
4040		54.687500
4041		56.640625
4042		54.687500
4043		58.593750
4044		54.687500
4045		58.593750
4046		54.687500
4047		58.593750
4048		56.640625
4049		58.593750
4050		54.687500
4051		58.593750
4052		54.687500
4053		58.593750
4054		54.687500
4055		58.593750
4056		54.687500
4057		56.640625
4058		52.734375
4059		56.640625
4060		52.734375
4061		56.640625
4062		50.781250
4063		56.640625
4064		50.781250
4065		54.687500
4066		50.781250
4067		54.687500
4068		48.828125
4069		52.734375
4070		46.875000
4071		50.781250
4072		46.875000
4073		48.828125
4074		44.921875
4075		48.828125
4076		42.968750
4077		48.828125
4078		41.015625
4079		44.921875
4080		41.015625
4081		42.968750
4082		39.062500
4083		42.968750
4084		37.109375
4085		41.015625
4086		33.203125
4087		39.062500
4088		31.250000
4089		37.109375
4090		31.250000
4091		35.156250
4092		29.296875
4093		33.203125
4094		25.390625
4095		31.250000
4096		23.437500
4097		27.343750
4098		21.484375
4099		25.390625
4100		19.531250
4101		23.437500
4102		17.578125
4103		21.484375
4104		13.671875
4105		19.531250
4106		11.718750
4107		15.625000
4108		9.765625
4109		13.671875
4110		5.859375
4111		11.718750
4112		5.859375
4113		9.765625
4114		1.953125
4115		7.812500
4116		0.000000
4117		3.906250
4118		-1.953125
4119		1.953125
4120		-5.859375
4121		0.000000
4122		-7.812500
4123		-3.906250
4124		-9.765625
4125		-5.859375
4126		-11.718750
4127		-7.812500
4128		-13.671875
4129		-9.765625
4130		-15.625000
4131		-11.718750
4132		-17.578125
4133		-15.625000
4134		-21.484375
4135		-15.625000
4136		-23.437500
4137		-17.578125
4138		-25.390625
4139		-21.484375
4140		-27.343750
4141		-23.437500
4142		-29.296875
4143		-25.390625
4144		-29.296875
4145		-25.390625
4146		-31.250000
4147		-27.343750
4148		-33.203125
4149		-29.296875
4150		-35.156250
4151		-31.250000
4152		-37.109375
4153		-33.203125
4154		-39.062500
4155		-33.203125
4156		-39.062500
4157		-35.156250
4158		-39.062500
4159		-35.156250
4160		-41.015625
4161		-37.109375
4162		-41.015625
4163		-37.109375
4164		-42.968750
4165		-37.109375
4166		-42.968750
4167		-37.109375
4168		-42.968750
4169		-39.062500
4170		-42.968750
4171		-39.062500
4172		-42.968750
4173		-39.062500
4174		-42.968750
4175		-41.015625
4176		-42.968750
4177		-39.062500
4178		-42.968750
4179		-39.062500
4180		-42.968750
4181		-39.062500
4182		-42.968750
4183		-37.109375
4184		-41.015625
4185		-37.109375
4186		-41.015625
4187		-37.109375
4188		-39.062500
4189		-37.109375
4190		-39.062500
4191		-35.156250
4192		-39.062500
4193		-33.203125
4194		-37.109375
4195		-31.250000
4196		-35.156250
4197		-31.250000
4198		-33.203125
4199		-29.296875
4200		-31.250000
4201		-27.343750
4202		-31.250000
4203		-27.343750
4204		-29.296875
4205		-25.390625
4206		-27.343750
4207		-23.437500
4208		-25.390625
4209		-21.484375
4210		-23.437500
4211		-19.531250
4212		-21.484375
4213		-15.625000
4214		-21.484375
4215		-13.671875
4216		-17.578125
4217		-11.718750
4218		-15.625000
4219		-9.765625
4220		-13.671875
4221		-7.812500
4222		-11.718750
4223		-5.859375
4224		-7.812500
4225		-3.906250
4226		-5.859375
4227		-1.953125
4228		-3.906250
4229		1.953125
4230		-1.953125
4231		3.906250
4232		0.000000
4233		5.859375
4234		1.953125
4235		7.812500
4236		5.859375
4237		11.718750
4238		7.812500
4239		13.671875
4240		11.718750
4241		15.625000
4242		13.671875
4243		17.578125
4244		15.625000
4245		21.484375
4246		17.578125
4247		23.437500
4248		19.531250
4249		25.390625
4250		21.484375
4251		29.296875
4252		23.437500
4253		31.250000
4254		27.343750
4255		33.203125
4256		29.296875
4257		33.203125
4258		31.250000
4259		35.156250
4260		33.203125
4261		39.062500
4262		35.156250
4263		41.015625
4264		37.109375
4265		42.968750
4266		39.062500
4267		44.921875
4268		41.015625
4269		46.875000
4270		42.968750
4271		46.875000
4272		42.968750
4273		48.828125
4274		46.875000
4275		48.828125
4276		46.875000
4277		50.781250
4278		48.828125
4279		52.734375
4280		50.781250
4281		52.734375
4282		50.781250
4283		54.687500
4284		52.734375
4285		54.687500
4286		52.734375
4287		56.640625
4288		52.734375
4289		58.593750
4290		54.687500
4291		56.640625
4292		54.687500
4293		56.640625
4294		54.687500
4295		58.593750
4296		54.687500
4297		58.593750
4298		54.687500
4299		58.593750
4300		56.640625
4301		58.593750
4302		56.640625
4303		58.593750
4304		56.640625
4305		58.593750
4306		54.687500
4307		58.593750
4308		54.687500
4309		56.640625
4310		54.687500
4311		56.640625
4312		54.687500
4313		56.640625
4314		52.734375
4315		56.640625
4316		52.734375
4317		54.687500
4318		50.781250
4319		54.687500
4320		50.781250
4321		52.734375
4322		48.828125
4323		52.734375
4324		48.828125
4325		50.781250
4326		46.875000
4327		48.828125
4328		44.921875
4329		48.828125
4330		42.968750
4331		46.875000
4332		41.015625
4333		44.921875
4334		39.062500
4335		42.968750
4336		39.062500
4337		41.015625
4338		37.109375
4339		41.015625
4340		35.156250
4341		37.109375
4342		33.203125
4343		37.109375
4344		29.296875
4345		33.203125
4346		27.343750
4347		31.250000
4348		25.390625
4349		29.296875
4350		23.437500
4351		27.343750
4352		21.484375
4353		25.390625
4354		19.531250
4355		23.437500
4356		17.578125
4357		19.531250
4358		13.671875
4359		17.578125
4360		11.718750
4361		15.625000
4362		9.765625
4363		13.671875
4364		5.859375
4365		9.765625
4366		3.906250
4367		7.812500
4368		1.953125
4369		5.859375
4370		0.000000
4371		3.906250
4372		-1.953125
4373		0.000000
4374		-5.859375
4375		-1.953125
4376		-7.812500
4377		-3.906250
4378		-11.718750
4379		-3.906250
4380		-15.625000
4381		-5.859375
4382		-17.578125
4383		-7.812500
4384		-17.578125
4385		-13.671875
4386		-19.531250
4387		-15.625000
4388		-21.484375
4389		-17.578125
4390		-23.437500
4391		-19.531250
4392		-25.390625
4393		-21.484375
4394		-31.250000
4395		-21.484375
4396		-31.250000
4397		-23.437500
4398		-33.203125
4399		-23.437500
4400		-35.156250
4401		-25.390625
4402		-33.203125
4403		-31.250000
4404		-35.156250
4405		-31.250000
4406		-35.156250
4407		-33.203125
4408		-37.109375
4409		-33.203125
4410		-37.109375
4411		-35.156250
4412		-42.968750
4413		-33.203125
4414		-42.968750
4415		-35.156250
4416		-42.968750
4417		-35.156250
4418		-42.968750
4419		-39.062500
4420		-41.015625
4421		-39.062500
4422		-41.015625
4423		-39.062500
4424		-42.968750
4425		-41.015625
4426		-42.968750
4427		-41.015625
4428		-46.875000
4429		-35.156250
4430		-44.921875
4431		-35.156250
4432		-46.875000
4433		-37.109375
4434		-41.015625
4435		-39.062500
4436		-41.015625
4437		-39.062500
4438		-41.015625
4439		-37.109375
4440		-41.015625
4441		-37.109375
4442		-39.062500
4443		-37.109375
4444		-41.015625
4445		-31.250000
4446		-41.015625
4447		-31.250000
4448		-39.062500
4449		-29.296875
4450		-39.062500
4451		-29.296875
4452		-33.203125
4453		-29.296875
4454		-31.250000
4455		-27.343750
4456		-29.296875
4457		-27.343750
4458		-27.343750
4459		-25.390625
4460		-25.390625
4461		-23.437500
4462		-27.343750
4463		-17.578125
4464		-25.390625
4465		-15.625000
4466		-23.437500
4467		-13.671875
4468		-17.578125
4469		-13.671875
4470		-15.625000
4471		-11.718750
4472		-13.671875
4473		-9.765625
4474		-11.718750
4475		-7.812500
4476		-9.765625
4477		-5.859375
4478		-9.765625
4479		1.953125
4480		-7.812500
4481		1.953125
4482		-5.859375
4483		5.859375
4484		-1.953125
4485		5.859375
4486		1.953125
4487		5.859375
4488		3.906250
4489		9.765625
4490		7.812500
4491		11.718750
4492		9.765625
4493		13.671875
4494		11.718750
4495		17.578125
4496		11.718750
4497		21.484375
4498		13.671875
4499		23.437500
4500		15.625000
4501		25.390625
4502		21.484375
4503		25.390625
4504		23.437500
4505		27.343750
4506		25.390625
4507		29.296875
4508		29.296875
4509		31.250000
4510		31.250000
4511		35.156250
4512		29.296875
4513		41.015625
4514		31.250000
4515		42.968750
4516		33.203125
4517		44.921875
4518		39.062500
4519		42.968750
4520		41.015625
4521		42.968750
4522		42.968750
4523		44.921875
4524		42.968750
4525		46.875000
4526		44.921875
4527		48.828125
4528		44.921875
4529		52.734375
4530		44.921875
4531		54.687500
4532		46.875000
4533		56.640625
4534		46.875000
4535		56.640625
4536		50.781250
4537		54.687500
4538		52.734375
4539		54.687500
4540		52.734375
4541		56.640625
4542		54.687500
4543		56.640625
4544		54.687500
4545		56.640625
4546		52.734375
4547		60.546875
4548		52.734375
4549		60.546875
4550		52.734375
4551		60.546875
4552		56.640625
4553		58.593750
4554		56.640625
4555		58.593750
4556		56.640625
4557		58.593750
4558		56.640625
4559		58.593750
4560		54.687500
4561		58.593750
4562		54.687500
4563		56.640625
4564		52.734375
4565		58.593750
4566		50.781250
4567		58.593750
4568		52.734375
4569		54.687500
4570		52.734375
4571		54.687500
4572		50.781250
4573		54.687500
4574		50.781250
4575		52.734375
4576		48.828125
4577		50.781250
4578		46.875000
4579		50.781250
4580		46.875000
4581		48.828125
4582		41.015625
4583		50.781250
4584		41.015625
4585		48.828125
4586		41.015625
4587		44.921875
4588		39.062500
4589		42.968750
4590		37.109375
4591		41.015625
4592		35.156250
4593		39.062500
4594		33.203125
4595		37.109375
4596		31.250000
4597		35.156250
4598		29.296875
4599		33.203125
4600		27.343750
4601		33.203125
4602		25.390625
4603		29.296875
4604		23.437500
4605		27.343750
4606		21.484375
4607		23.437500
4608		17.578125
4609		21.484375
4610		15.625000
4611		19.531250
4612		13.671875
4613		17.578125
4614		11.718750
4615		15.625000
4616		7.812500
4617		11.718750
4618		5.859375
4619		9.765625
4620		3.906250
4621		7.812500
4622		1.953125
4623		5.859375
4624		-1.953125
4625		1.953125
4626		-3.906250
4627		0.000000
4628		-5.859375
4629		-1.953125
4630		-7.812500
4631		-3.906250
4632		-9.765625
4633		-7.812500
4634		-13.671875
4635		-9.765625
4636		-15.625000
4637		-11.718750
4638		-17.578125
4639		-13.671875
4640		-19.531250
4641		-15.625000
4642		-21.484375
4643		-17.578125
4644		-23.437500
4645		-19.531250
4646		-25.390625
4647		-21.484375
4648		-27.343750
4649		-23.437500
4650		-29.296875
4651		-25.390625
4652		-31.250000
4653		-27.343750
4654		-31.250000
4655		-29.296875
4656		-33.203125
4657		-31.250000
4658		-35.156250
4659		-31.250000
4660		-37.109375
4661		-33.203125
4662		-37.109375
4663		-35.156250
4664		-39.062500
4665		-35.156250
4666		-39.062500
4667		-35.156250
4668		-39.062500
4669		-37.109375
4670		-41.015625
4671		-37.109375
4672		-41.015625
4673		-39.062500
4674		-41.015625
4675		-39.062500
4676		-41.015625
4677		-39.062500
4678		-41.015625
4679		-39.062500
4680		-42.968750
4681		-39.062500
4682		-42.968750
4683		-39.062500
4684		-41.015625
4685		-39.062500
4686		-42.968750
4687		-39.062500
4688		-42.968750
4689		-37.109375
4690		-41.015625
4691		-37.109375
4692		-39.062500
4693		-37.109375
4694		-39.062500
4695		-37.109375
4696		-39.062500
4697		-35.156250
4698		-37.109375
4699		-33.203125
4700		-37.109375
4701		-33.203125
4702		-35.156250
4703		-33.203125
4704		-35.156250
4705		-29.296875
4706		-33.203125
4707		-29.296875
4708		-31.250000
4709		-27.343750
4710		-29.296875
4711		-25.390625
4712		-27.343750
4713		-23.437500
4714		-27.343750
4715		-21.484375
4716		-23.437500
4717		-19.531250
4718		-21.484375
4719		-17.578125
4720		-19.531250
4721		-15.625000
4722		-17.578125
4723		-13.671875
4724		-15.625000
4725		-11.718750
4726		-13.671875
4727		-9.765625
4728		-11.718750
4729		-7.812500
4730		-7.812500
4731		-3.906250
4732		-7.812500
4733		-1.953125
4734		-3.906250
4735		0.000000
4736		-1.953125
4737		3.906250
4738		0.000000
4739		5.859375
4740		3.906250
4741		7.812500
4742		5.859375
4743		9.765625
4744		7.812500
4745		11.718750
4746		11.718750
4747		15.625000
4748		11.718750
4749		17.578125
4750		15.625000
4751		19.531250
4752		17.578125
4753		21.484375
4754		19.531250
4755		25.390625
4756		21.484375
4757		27.343750
4758		25.390625
4759		29.296875
4760		27.343750
4761		31.250000
4762		29.296875
4763		33.203125
4764		31.250000
4765		37.109375
4766		33.203125
4767		37.109375
4768		35.156250
4769		39.062500
4770		37.109375
4771		41.015625
4772		39.062500
4773		42.968750
4774		41.015625
4775		44.921875
4776		42.968750
4777		46.875000
4778		44.921875
4779		46.875000
4780		44.921875
4781		48.828125
4782		46.875000
4783		50.781250
4784		48.828125
4785		50.781250
4786		50.781250
4787		52.734375
4788		50.781250
4789		54.687500
4790		50.781250
4791		54.687500
4792		52.734375
4793		54.687500
4794		54.687500
4795		56.640625
4796		54.687500
4797		56.640625
4798		54.687500
4799		58.593750
4800		54.687500
4801		58.593750
4802		56.640625
4803		58.593750
4804		54.687500
4805		58.593750
4806		54.687500
4807		58.593750
4808		56.640625
4809		58.593750
4810		56.640625
4811		58.593750
4812		56.640625
4813		58.593750
4814		54.687500
4815		58.593750
4816		54.687500
4817		58.593750
4818		54.687500
4819		58.593750
4820		52.734375
4821		56.640625
4822		52.734375
4823		56.640625
4824		52.734375
4825		54.687500
4826		50.781250
4827		52.734375
4828		48.828125
4829		52.734375
4830		48.828125
4831		50.781250
4832		46.875000
4833		50.781250
4834		44.921875
4835		48.828125
4836		42.968750
4837		46.875000
4838		42.968750
4839		46.875000
4840		41.015625
4841		44.921875
4842		39.062500
4843		42.968750
4844		37.109375
4845		41.015625
4846		35.156250
4847		39.062500
4848		33.203125
4849		37.109375
4850		31.250000
4851		35.156250
4852		29.296875
4853		33.203125
4854		27.343750
4855		29.296875
4856		25.390625
4857		29.296875
4858		21.484375
4859		25.390625
4860		19.531250
4861		23.437500
4862		17.578125
4863		21.484375
4864		15.625000
4865		19.531250
4866		11.718750
4867		17.578125
4868		9.765625
4869		13.671875
4870		7.812500
4871		11.718750
4872		3.906250
4873		9.765625
4874		1.953125
4875		5.859375
4876		0.000000
4877		3.906250
4878		-1.953125
4879		1.953125
4880		-3.906250
4881		0.000000
4882		-7.812500
4883		-1.953125
4884		-9.765625
4885		-5.859375
4886		-11.718750
4887		-7.812500
4888		-13.671875
4889		-9.765625
4890		-15.625000
4891		-11.718750
4892		-17.578125
4893		-13.671875
4894		-19.531250
4895		-15.625000
4896		-21.484375
4897		-19.531250
4898		-23.437500
4899		-21.484375
4900		-25.390625
4901		-23.437500
4902		-27.343750
4903		-23.437500
4904		-29.296875
4905		-25.390625
4906		-31.250000
4907		-27.343750
4908		-33.203125
4909		-29.296875
4910		-33.203125
4911		-31.250000
4912		-35.156250
4913		-33.203125
4914		-37.109375
4915		-33.203125
4916		-37.109375
4917		-35.156250
4918		-39.062500
4919		-35.156250
4920		-39.062500
4921		-37.109375
4922		-41.015625
4923		-37.109375
4924		-41.015625
4925		-39.062500
4926		-41.015625
4927		-39.062500
4928		-41.015625
4929		-39.062500
4930		-42.968750
4931		-39.062500
4932		-42.968750
4933		-41.015625
4934		-41.015625
4935		-41.015625
4936		-41.015625
4937		-39.062500
4938		-41.015625
4939		-39.062500
4940		-41.015625
4941		-39.062500
4942		-41.015625
4943		-39.062500
4944		-41.015625
4945		-39.062500
4946		-39.062500
4947		-37.109375
4948		-39.062500
4949		-37.109375
4950		-37.109375
4951		-35.156250
4952		-37.109375
4953		-33.203125
4954		-35.156250
4955		-33.203125
4956		-35.156250
4957		-31.250000
4958		-33.203125
4959		-29.296875
4960		-31.250000
4961		-29.296875
4962		-29.296875
4963		-27.343750
4964		-29.296875
4965		-25.390625
4966		-27.343750
4967		-23.437500
4968		-25.390625
4969		-21.484375
4970		-23.437500
4971		-19.531250
4972		-21.484375
4973		-17.578125
4974		-19.531250
4975		-15.625000
4976		-17.578125
4977		-13.671875
4978		-13.671875
4979		-11.718750
4980		-11.718750
4981		-7.812500
4982		-9.765625
4983		-5.859375
4984		-7.812500
4985		-3.906250
4986		-5.859375
4987		-1.953125
4988		-1.953125
4989		0.000000
4990		0.000000
4991		3.906250
4992		1.953125
4993		5.859375
4994		3.906250
4995		7.812500
4996		5.859375
4997		11.718750
4998		9.765625
4999		13.671875
5000		11.718750
5001		15.625000
5002		11.718750
5003		19.531250
5004		15.625000
5005		19.531250
5006		19.531250
5007		23.437500
5008		21.484375
5009		25.390625
5010		23.437500
5011		27.343750
5012		25.390625
5013		29.296875
5014		27.343750
5015		31.250000
5016		29.296875
5017		35.156250
5018		31.250000
5019		37.109375
5020		33.203125
5021		39.062500
5022		37.109375
5023		39.062500
5024		39.062500
5025		41.015625
5026		41.015625
5027		42.968750
5028		41.015625
5029		44.921875
5030		42.968750
5031		46.875000
5032		44.921875
5033		48.828125
5034		44.921875
5035		50.781250
5036		44.921875
5037		50.781250
5038		48.828125
5039		52.734375
5040		50.781250
5041		52.734375
5042		50.781250
5043		54.687500
5044		52.734375
5045		54.687500
5046		52.734375
5047		56.640625
5048		54.687500
5049		56.640625
5050		52.734375
5051		58.593750
5052		52.734375
5053		58.593750
5054		54.687500
5055		58.593750
5056		56.640625
5057		58.593750
5058		56.640625
5059		58.593750
5060		56.640625
5061		58.593750
5062		56.640625
5063		58.593750
5064		56.640625
5065		58.593750
5066		54.687500
5067		60.546875
5068		52.734375
5069		58.593750
5070		54.687500
5071		58.593750
5072		54.687500
5073		56.640625
5074		52.734375
5075		56.640625
5076		52.734375
5077		54.687500
5078		50.781250
5079		54.687500
5080		50.781250
5081		52.734375
5082		48.828125
5083		52.734375
5084		46.875000
5085		52.734375
5086		46.875000
5087		50.781250
5088		44.921875
5089		48.828125
5090		42.968750
5091		46.875000
5092		42.968750
5093		44.921875
5094		41.015625
5095		42.968750
5096		39.062500
5097		41.015625
5098		37.109375
5099		41.015625
5100		33.203125
5101		39.062500
5102		29.296875
5103		37.109375
5104		29.296875
5105		35.156250
5106		27.343750
5107		31.250000
5108		25.390625
5109		29.296875
5110		23.437500
5111		27.343750
5112		21.484375
5113		25.390625
5114		19.531250
5115		23.437500
5116		17.578125
5117		21.484375
5118		13.671875
5119		19.531250
5120		11.718750
5121		17.578125
5122		9.765625
5123		13.671875
5124		7.812500
5125		11.718750
5126		3.906250
5127		7.812500
5128		1.953125
5129		5.859375
5130		0.000000
5131		3.906250
5132		-1.953125
5133		1.953125
5134		-5.859375
5135		0.000000
5136		-9.765625
5137		-1.953125
5138		-9.765625
5139		-5.859375
5140		-11.718750
5141		-7.812500
5142		-13.671875
5143		-9.765625
5144		-17.578125
5145		-13.671875
5146		-19.531250
5147		-15.625000
5148		-21.484375
5149		-17.578125
5150		-25.390625
5151		-17.578125
5152		-25.390625
5153		-19.531250
5154		-27.343750
5155		-21.484375
5156		-29.296875
5157		-25.390625
5158		-31.250000
5159		-27.343750
5160		-31.250000
5161		-29.296875
5162		-33.203125
5163		-29.296875
5164		-35.156250
5165		-31.250000
5166		-35.156250
5167		-33.203125
5168		-39.062500
5169		-31.250000
5170		-39.062500
5171		-33.203125
5172		-39.062500
5173		-37.109375
5174		-39.062500
5175		-37.109375
5176		-41.015625
5177		-37.109375
5178		-41.015625
5179		-39.062500
5180		-41.015625
5181		-39.062500
5182		-41.015625
5183		-39.062500
5184		-42.968750
5185		-39.062500
5186		-41.015625
5187		-39.062500
5188		-41.015625
5189		-39.062500
5190		-41.015625
5191		-39.062500
5192		-41.015625
5193		-39.062500
5194		-41.015625
5195		-39.062500
5196		-41.015625
5197		-39.062500
5198		-41.015625
5199		-37.109375
5200		-39.062500
5201		-37.109375
5202		-39.062500
5203		-35.156250
5204		-37.109375
5205		-35.156250
5206		-37.109375
5207		-33.203125
5208		-35.156250
5209		-33.203125
5210		-35.156250
5211		-31.250000
5212		-33.203125
5213		-29.296875
5214		-31.250000
5215		-27.343750
5216		-29.296875
5217		-25.390625
5218		-27.343750
5219		-25.390625
5220		-25.390625
5221		-23.437500
5222		-23.437500
5223		-21.484375
5224		-21.484375
5225		-19.531250
5226		-19.531250
5227		-17.578125
5228		-17.578125
5229		-13.671875
5230		-15.625000
5231		-11.718750
5232		-13.671875
5233		-9.765625
5234		-11.718750
5235		-7.812500
5236		-9.765625
5237		-5.859375
5238		-7.812500
5239		-3.906250
5240		-3.906250
5241		0.000000
5242		-1.953125
5243		1.953125
5244		0.000000
5245		3.906250
5246		1.953125
5247		5.859375
5248		5.859375
5249		9.765625
5250		7.812500
5251		11.718750
5252		9.765625
5253		13.671875
5254		11.718750
5255		15.625000
5256		15.625000
5257		19.531250
5258		17.578125
5259		21.484375
5260		19.531250
5261		23.437500
5262		21.484375
5263		25.390625
5264		25.390625
5265		27.343750
5266		27.343750
5267		29.296875
5268		29.296875
5269		33.203125
5270		31.250000
5271		35.156250
5272		33.203125
5273		37.109375
5274		35.156250
5275		39.062500
5276		37.109375
5277		41.015625
5278		39.062500
5279		42.968750
5280		41.015625
5281		44.921875
5282		42.968750
5283		44.921875
5284		44.921875
5285		46.875000
5286		44.921875
5287		48.828125
5288		46.875000
5289		50.781250
5290		48.828125
5291		50.781250
5292		48.828125
5293		52.734375
5294		50.781250
5295		52.734375
5296		52.734375
5297		54.687500
5298		52.734375
5299		54.687500
5300		52.734375
5301		56.640625
5302		54.687500
5303		56.640625
5304		54.687500
5305		56.640625
5306		54.687500
5307		56.640625
5308		56.640625
5309		58.593750
5310		54.687500
5311		58.593750
5312		56.640625
5313		58.593750
5314		56.640625
5315		58.593750
5316		56.640625
5317		58.593750
5318		56.640625
5319		58.593750
5320		56.640625
5321		58.593750
5322		54.687500
5323		56.640625
5324		54.687500
5325		56.640625
5326		54.687500
5327		56.640625
5328		52.734375
5329		54.687500
5330		52.734375
5331		54.687500
5332		50.781250
5333		54.687500
5334		50.781250
5335		52.734375
5336		48.828125
5337		52.734375
5338		46.875000
5339		50.781250
5340		46.875000
5341		48.828125
5342		44.921875
5343		46.875000
5344		42.968750
5345		46.875000
5346		41.015625
5347		44.921875
5348		39.062500
5349		42.968750
5350		37.109375
5351		41.015625
5352		35.156250
5353		39.062500
5354		33.203125
5355		37.109375
5356		31.250000
5357		35.156250
5358		29.296875
5359		33.203125
5360		27.343750
5361		31.250000
5362		25.390625
5363		29.296875
5364		23.437500
5365		27.343750
5366		21.484375
5367		25.390625
5368		17.578125
5369		21.484375
5370		15.625000
5371		19.531250
5372		13.671875
5373		17.578125
5374		11.718750
5375		15.625000
5376		9.765625
5377		11.718750
5378		5.859375
5379		9.765625
5380		3.906250
5381		7.812500
5382		1.953125
5383		5.859375
5384		-1.953125
5385		1.953125
5386		-3.906250
5387		0.000000
5388		-5.859375
5389		-1.953125
5390		-7.812500
5391		-3.906250
5392		-9.765625
5393		-7.812500
5394		-13.671875
5395		-9.765625
5396		-15.625000
5397		-11.718750
5398		-17.578125
5399		-13.671875
5400		-19.531250
5401		-15.625000
5402		-21.484375
5403		-17.578125
5404		-23.437500
5405		-19.531250
5406		-25.390625
5407		-21.484375
5408		-27.343750
5409		-23.437500
5410		-29.296875
5411		-25.390625
5412		-31.250000
5413		-27.343750
5414		-31.250000
5415		-29.296875
5416		-33.203125
5417		-31.250000
5418		-35.156250
5419		-31.250000
5420		-37.109375
5421		-33.203125
5422		-37.109375
5423		-35.156250
5424		-39.062500
5425		-35.156250
5426		-39.062500
5427		-37.109375
5428		-39.062500
5429		-37.109375
5430		-41.015625
5431		-39.062500
5432		-41.015625
5433		-39.062500
5434		-41.015625
5435		-39.062500
5436		-41.015625
5437		-39.062500
5438		-42.968750
5439		-39.062500
5440		-42.968750
5441		-39.062500
5442		-42.968750
5443		-39.062500
5444		-41.015625
5445		-39.062500
5446		-41.015625
5447		-39.062500
5448		-41.015625
5449		-39.062500
5450		-41.015625
5451		-39.062500
5452		-41.015625
5453		-37.109375
5454		-39.062500
5455		-37.109375
5456		-39.062500
5457		-35.156250
5458		-37.109375
5459		-35.156250
5460		-37.109375
5461		-33.203125
5462		-35.156250
5463		-31.250000
5464		-33.203125
5465		-31.250000
5466		-33.203125
5467		-29.296875
5468		-31.250000
5469		-27.343750
5470		-29.296875
5471		-25.390625
5472		-27.343750
5473		-23.437500
5474		-25.390625
5475		-21.484375
5476		-23.437500
5477		-19.531250
5478		-21.484375
5479		-17.578125
5480		-19.531250
5481		-15.625000
5482		-17.578125
5483		-13.671875
5484		-15.625000
5485		-11.718750
5486		-13.671875
5487		-9.765625
5488		-9.765625
5489		-7.812500
5490		-7.812500
5491		-3.906250
5492		-5.859375
5493		-1.953125
5494		-3.906250
5495		0.000000
5496		-1.953125
5497		1.953125
5498		1.953125
5499		5.859375
5500		3.906250
5501		7.812500
5502		5.859375
5503		9.765625
5504		7.812500
5505		11.718750
5506		11.718750
5507		15.625000
5508		13.671875
5509		17.578125
5510		15.625000
5511		19.531250
5512		17.578125
5513		21.484375
5514		21.484375
5515		23.437500
5516		23.437500
5517		27.343750
5518		25.390625
5519		29.296875
5520		27.343750
5521		31.250000
5522		29.296875
5523		33.203125
5524		31.250000
5525		35.156250
5526		33.203125
5527		37.109375
5528		35.156250
5529		39.062500
5530		37.109375
5531		41.015625
5532		39.062500
5533		42.968750
5534		41.015625
5535		44.921875
5536		42.968750
5537		46.875000
5538		44.921875
5539		46.875000
5540		46.875000
5541		48.828125
5542		46.875000
5543		50.781250
5544		48.828125
5545		50.781250
5546		50.781250
5547		52.734375
5548		50.781250
5549		52.734375
5550		52.734375
5551		54.687500
5552		52.734375
5553		54.687500
5554		52.734375
5555		56.640625
5556		54.687500
5557		56.640625
5558		54.687500
5559		56.640625
5560		54.687500
5561		58.593750
5562		54.687500
5563		58.593750
5564		56.640625
5565		58.593750
5566		56.640625
5567		58.593750
5568		56.640625
5569		58.593750
5570		56.640625
5571		58.593750
5572		54.687500
5573		58.593750
5574		54.687500
5575		58.593750
5576		54.687500
5577		56.640625
5578		54.687500
5579		56.640625
5580		52.734375
5581		56.640625
5582		52.734375
5583		54.687500
5584		50.781250
5585		54.687500
5586		50.781250
5587		52.734375
5588		50.781250
5589		52.734375
5590		48.828125
5591		50.781250
5592		46.875000
5593		50.781250
5594		44.921875
5595		48.828125
5596		44.921875
5597		46.875000
5598		42.968750
5599		46.875000
5600		41.015625
5601		44.921875
5602		39.062500
5603		42.968750
5604		37.109375
5605		41.015625
5606		35.156250
5607		39.062500
5608		33.203125
5609		37.109375
5610		31.250000
5611		35.156250
5612		29.296875
5613		33.203125
5614		27.343750
5615		31.250000
5616		25.390625
5617		29.296875
5618		21.484375
5619		25.390625
5620		19.531250
5621		23.437500
5622		17.578125
5623		21.484375
5624		15.625000
5625		19.531250
5626		13.671875
5627		17.578125
5628		9.765625
5629		13.671875
5630		7.812500
5631		11.718750
5632		5.859375
5633		9.765625
5634		1.953125
5635		7.812500
5636		0.000000
5637		3.906250
5638		-1.953125
5639		1.953125
5640		-3.906250
5641		0.000000
5642		-5.859375
5643		-1.953125
5644		-9.765625
5645		-5.859375
5646		-11.718750
5647		-7.812500
5648		-13.671875
5649		-9.765625
5650		-15.625000
5651		-11.718750
5652		-17.578125
5653		-13.671875
5654		-19.531250
5655		-15.625000
5656		-21.484375
5657		-17.578125
5658		-23.437500
5659		-21.484375
5660		-25.390625
5661		-23.437500
5662		-27.343750
5663		-23.437500
5664		-29.296875
5665		-25.390625
5666		-31.250000
5667		-27.343750
5668		-33.203125
5669		-29.296875
5670		-33.203125
5671		-31.250000
5672		-35.156250
5673		-33.203125
5674		-37.109375
5675		-33.203125
5676		-37.109375
5677		-35.156250
5678		-39.062500
5679		-35.156250
5680		-39.062500
5681		-37.109375
5682		-39.062500
5683		-37.109375
5684		-41.015625
5685		-39.062500
5686		-41.015625
5687		-39.062500
5688		-41.015625
5689		-39.062500
5690		-42.968750
5691		-39.062500
5692		-41.015625
5693		-39.062500
5694		-41.015625
5695		-39.062500
5696		-42.968750
5697		-39.062500
5698		-41.015625
5699		-39.062500
5700		-41.015625
5701		-39.062500
5702		-41.015625
5703		-37.109375
5704		-41.015625
5705		-37.109375
5706		-39.062500
5707		-37.109375
5708		-39.062500
5709		-37.109375
5710		-37.109375
5711		-35.156250
5712		-37.109375
5713		-35.156250
5714		-37.109375
5715		-33.203125
5716		-35.156250
5717		-31.250000
5718		-33.203125
5719		-29.296875
5720		-31.250000
5721		-29.296875
5722		-29.296875
5723		-27.343750
5724		-27.343750
5725		-25.390625
5726		-27.343750
5727		-23.437500
5728		-25.390625
5729		-21.484375
5730		-23.437500
5731		-19.531250
5732		-21.484375
5733		-17.578125
5734		-19.531250
5735		-15.625000
5736		-15.625000
5737		-13.671875
5738		-15.625000
5739		-11.718750
5740		-11.718750
5741		-7.812500
5742		-9.765625
5743		-5.859375
5744		-7.812500
5745		-3.906250
5746		-5.859375
5747		-1.953125
5748		-1.953125
5749		0.000000
5750		0.000000
5751		3.906250
5752		1.953125
5753		5.859375
5754		3.906250
5755		7.812500
5756		7.812500
5757		11.718750
5758		9.765625
5759		13.671875
5760		11.718750
5761		15.625000
5762		13.671875
5763		17.578125
5764		15.625000
5765		19.531250
5766		19.531250
5767		23.437500
5768		21.484375
5769		25.390625
5770		23.437500
5771		27.343750
5772		25.390625
5773		29.296875
5774		27.343750
5775		31.250000
5776		29.296875
5777		33.203125
5778		33.203125
5779		35.156250
5780		35.156250
5781		37.109375
5782		37.109375
5783		39.062500
5784		37.109375
5785		41.015625
5786		39.062500
5787		42.968750
5788		41.015625
5789		44.921875
5790		42.968750
5791		46.875000
5792		44.921875
5793		48.828125
5794		46.875000
5795		48.828125
5796		46.875000
5797		50.781250
5798		48.828125
5799		52.734375
5800		50.781250
5801		52.734375
5802		50.781250
5803		54.687500
5804		52.734375
5805		54.687500
5806		52.734375
5807		56.640625
5808		54.687500
5809		56.640625
5810		54.687500
5811		56.640625
5812		54.687500
5813		56.640625
5814		56.640625
5815		58.593750
5816		56.640625
5817		58.593750
5818		54.687500
5819		58.593750
5820		56.640625
5821		58.593750
5822		56.640625
5823		58.593750
5824		56.640625
5825		58.593750
5826		56.640625
5827		58.593750
5828		54.687500
5829		58.593750
5830		54.687500
5831		56.640625
5832		54.687500
5833		56.640625
5834		52.734375
5835		56.640625
5836		52.734375
5837		54.687500
5838		50.781250
5839		54.687500
5840		50.781250
5841		52.734375
5842		48.828125
5843		52.734375
5844		48.828125
5845		50.781250
5846		46.875000
5847		50.781250
5848		44.921875
5849		48.828125
5850		42.968750
5851		46.875000
5852		42.968750
5853		44.921875
5854		41.015625
5855		42.968750
5856		39.062500
5857		41.015625
5858		37.109375
5859		39.062500
5860		35.156250
5861		37.109375
5862		33.203125
5863		37.109375
5864		31.250000
5865		35.156250
5866		29.296875
5867		31.250000
5868		25.390625
5869		29.296875
5870		23.437500
5871		27.343750
5872		21.484375
5873		25.390625
5874		19.531250
5875		23.437500
5876		17.578125
5877		21.484375
5878		13.671875
5879		17.578125
5880		11.718750
5881		15.625000
5882		9.765625
5883		13.671875
5884		7.812500
5885		11.718750
5886		3.906250
5887		7.812500
5888		1.953125
5889		5.859375
5890		0.000000
5891		3.906250
5892		-1.953125
5893		1.953125
5894		-5.859375
5895		-1.953125
5896		-7.812500
5897		-3.906250
5898		-9.765625
5899		-5.859375
5900		-11.718750
5901		-7.812500
5902		-13.671875
5903		-9.765625
5904		-17.578125
5905		-11.718750
5906		-19.531250
5907		-15.625000
5908		-21.484375
5909		-17.578125
5910		-23.437500
5911		-19.531250
5912		-25.390625
5913		-21.484375
5914		-27.343750
5915		-23.437500
5916		-29.296875
5917		-25.390625
5918		-29.296875
5919		-27.343750
5920		-31.250000
5921		-29.296875
5922		-33.203125
5923		-29.296875
5924		-35.156250
5925		-31.250000
5926		-35.156250
5927		-33.203125
5928		-37.109375
5929		-33.203125
5930		-37.109375
5931		-35.156250
5932		-39.062500
5933		-35.156250
5934		-39.062500
5935		-37.109375
5936		-41.015625
5937		-37.109375
5938		-41.015625
5939		-39.062500
5940		-41.015625
5941		-39.062500
5942		-41.015625
5943		-39.062500
5944		-41.015625
5945		-39.062500
5946		-42.968750
5947		-41.015625
5948		-42.968750
5949		-39.062500
5950		-41.015625
5951		-39.062500
5952		-41.015625
5953		-39.062500
5954		-41.015625
5955		-39.062500
5956		-41.015625
5957		-39.062500
5958		-41.015625
5959		-37.109375
5960		-39.062500
5961		-37.109375
5962		-39.062500
5963		-37.109375
5964		-37.109375
5965		-35.156250
5966		-37.109375
5967		-33.203125
5968		-35.156250
5969		-33.203125
5970		-35.156250
5971		-31.250000
5972		-33.203125
5973		-29.296875
5974		-31.250000
5975		-27.343750
5976		-29.296875
5977		-25.390625
5978		-27.343750
5979		-25.390625
5980		-25.390625
5981		-23.437500
5982		-25.390625
5983		-21.484375
5984		-23.437500
5985		-19.531250
5986		-19.531250
5987		-15.625000
5988		-17.578125
5989		-15.625000
5990		-15.625000
5991		-11.718750
5992		-13.671875
5993		-9.765625
5994		-11.718750
5995		-7.812500
5996		-9.765625
5997		-5.859375
5998		-7.812500
5999		-3.906250
6000		-5.859375
6001		-1.953125
6002		-1.953125
6003		1.953125
6004		0.000000
6005		3.906250
6006		1.953125
6007		5.859375
6008		5.859375
6009		9.765625
6010		7.812500
6011		11.718750
6012		9.765625
6013		13.671875
6014		11.718750
6015		15.625000
6016		15.625000
6017		19.531250
6018		17.578125
6019		21.484375
6020		19.531250
6021		23.437500
6022		21.484375
6023		25.390625
6024		23.437500
6025		29.296875
6026		27.343750
6027		29.296875
6028		27.343750
6029		35.156250
6030		29.296875
6031		35.156250
6032		33.203125
6033		37.109375
6034		33.203125
6035		39.062500
6036		37.109375
6037		41.015625
6038		39.062500
6039		42.968750
6040		41.015625
6041		42.968750
6042		42.968750
6043		44.921875
6044		44.921875
6045		46.875000
6046		42.968750
6047		48.828125
6048		46.875000
6049		48.828125
6050		46.875000
6051		52.734375
6052		48.828125
6053		52.734375
6054		50.781250
6055		54.687500
6056		52.734375
6057		54.687500
6058		52.734375
6059		56.640625
6060		52.734375
6061		56.640625
6062		52.734375
6063		58.593750
6064		54.687500
6065		58.593750
6066		54.687500
6067		58.593750
6068		52.734375
6069		60.546875
6070		52.734375
6071		60.546875
6072		56.640625
6073		58.593750
6074		56.640625
6075		58.593750
6076		54.687500
6077		60.546875
6078		54.687500
6079		58.593750
6080		52.734375
6081		58.593750
6082		54.687500
6083		58.593750
6084		52.734375
6085		58.593750
6086		54.687500
6087		56.640625
6088		50.781250
6089		58.593750
6090		52.734375
6091		54.687500
6092		50.781250
6093		54.687500
6094		46.875000
6095		56.640625
6096		46.875000
6097		52.734375
6098		46.875000
6099		50.781250
6100		44.921875
6101		50.781250
6102		44.921875
6103		48.828125
6104		41.015625
6105		48.828125
6106		41.015625
6107		44.921875
6108		41.015625
6109		42.968750
6110		37.109375
6111		42.968750
6112		35.156250
6113		42.968750
6114		35.156250
6115		39.062500
6116		31.250000
6117		37.109375
6118		27.343750
6119		35.156250
6120		23.437500
6121		33.203125
6122		25.390625
6123		29.296875
6124		23.437500
6125		27.343750
6126		19.531250
6127		25.390625
6128		15.625000
6129		23.437500
6130		15.625000
6131		21.484375
6132		13.671875
6133		17.578125
6134		7.812500
6135		17.578125
6136		7.812500
6137		15.625000
6138		3.906250
6139		13.671875
6140		3.906250
6141		7.812500
6142		0.000000
6143		5.859375
6144		-3.906250
6145		3.906250
6146		-5.859375
6147		3.906250
6148		-5.859375
6149		-1.953125
6150		-7.812500
6151		-3.906250
6152		-13.671875
6153		-3.906250
6154		-17.578125
6155		-5.859375
6156		-15.625000
6157		-11.718750
6158		-17.578125
6159		-13.671875
6160		-19.531250
6161		-15.625000
6162		-23.437500
6163		-15.625000
6164		-23.437500
6165		-17.578125
6166		-25.390625
6167		-21.484375
6168		-31.250000
6169		-21.484375
6170		-29.296875
6171		-21.484375
6172		-33.203125
6173		-23.437500
6174		-31.250000
6175		-29.296875
6176		-35.156250
6177		-29.296875
6178		-39.062500
6179		-29.296875
6180		-37.109375
6181		-31.250000
6182		-37.109375
6183		-35.156250
6184		-39.062500
6185		-35.156250
6186		-42.968750
6187		-33.203125
6188		-42.968750
6189		-35.156250
6190		-41.015625
6191		-37.109375
6192		-41.015625
6193		-39.062500
6194		-42.968750
6195		-37.109375
6196		-44.921875
6197		-35.156250
6198		-41.015625
6199		-39.062500
6200		-42.968750
6201		-39.062500
6202		-44.921875
6203		-37.109375
6204		-44.921875
6205		-37.109375
6206		-41.015625
6207		-39.062500
6208		-41.015625
6209		-39.062500
6210		-41.015625
6211		-37.109375
6212		-42.968750
6213		-35.156250
6214		-42.968750
6215		-35.156250
6216		-39.062500
6217		-35.156250
6218		-39.062500
6219		-31.250000
6220		-41.015625
6221		-31.250000
6222		-37.109375
6223		-29.296875
6224		-33.203125
6225		-31.250000
6226		-31.250000
6227		-27.343750
6228		-31.250000
6229		-25.390625
6230		-33.203125
6231		-23.437500
6232		-29.296875
6233		-23.437500
6234		-25.390625
6235		-21.484375
6236		-27.343750
6237		-17.578125
6238		-23.437500
6239		-15.625000
6240		-19.531250
6241		-15.625000
6242		-17.578125
6243		-13.671875
6244		-15.625000
6245		-9.765625
6246		-15.625000
6247		-7.812500
6248		-11.718750
6249		-5.859375
6250		-7.812500
6251		-3.906250
6252		-7.812500
6253		1.953125
6254		-5.859375
6255		0.000000
6256		-3.906250
6257		1.953125
6258		0.000000
6259		5.859375
6260		3.906250
6261		7.812500
6262		3.906250
6263		13.671875
6264		7.812500
6265		13.671875
6266		11.718750
6267		13.671875
6268		11.718750
6269		19.531250
6270		11.718750
6271		21.484375
6272		17.578125
6273		23.437500
6274		19.531250
6275		23.437500
6276		23.437500
6277		27.343750
6278		25.390625
6279		29.296875
6280		25.390625
6281		33.203125
6282		29.296875
6283		33.203125
6284		31.250000
6285		37.109375
6286		31.250000
6287		41.015625
6288		35.156250
6289		41.015625
6290		37.109375
6291		41.015625
6292		39.062500
6293		42.968750
6294		41.015625
6295		44.921875
6296		41.015625
6297		48.828125
6298		42.968750
6299		48.828125
6300		46.875000
6301		48.828125
6302		44.921875
6303		52.734375
6304		48.828125
6305		50.781250
6306		46.875000
6307		54.687500
6308		50.781250
6309		52.734375
6310		52.734375
6311		54.687500
6312		52.734375
6313		56.640625
6314		52.734375
6315		58.593750
6316		52.734375
6317		56.640625
6318		54.687500
6319		58.593750
6320		52.734375
6321		58.593750
6322		56.640625
6323		58.593750
6324		56.640625
6325		58.593750
6326		54.687500
6327		58.593750
6328		56.640625
6329		58.593750
6330		56.640625
6331		58.593750
6332		54.687500
6333		60.546875
6334		54.687500
6335		58.593750
6336		52.734375
6337		60.546875
6338		54.687500
6339		56.640625
6340		52.734375
6341		56.640625
6342		52.734375
6343		54.687500
6344		50.781250
6345		54.687500
6346		50.781250
6347		52.734375
6348		48.828125
6349		52.734375
6350		48.828125
6351		50.781250
6352		46.875000
6353		50.781250
6354		44.921875
6355		48.828125
6356		42.968750
6357		46.875000
6358		42.968750
6359		44.921875
6360		41.015625
6361		44.921875
6362		39.062500
6363		42.968750
6364		37.109375
6365		41.015625
6366		35.156250
6367		39.062500
6368		33.203125
6369		39.062500
6370		31.250000
6371		35.156250
6372		29.296875
6373		33.203125
6374		27.343750
6375		31.250000
6376		25.390625
6377		29.296875
6378		21.484375
6379		25.390625
6380		19.531250
6381		25.390625
6382		15.625000
6383		23.437500
6384		13.671875
6385		21.484375
6386		11.718750
6387		17.578125
6388		9.765625
6389		15.625000
6390		7.812500
6391		13.671875
6392		5.859375
6393		9.765625
6394		1.953125
6395		7.812500
6396		0.000000
6397		5.859375
6398		-1.953125
6399		3.906250
6400		-5.859375
6401		0.000000
6402		-7.812500
6403		0.000000
6404		-9.765625
6405		-3.906250
6406		-11.718750
6407		-5.859375
6408		-13.671875
6409		-9.765625
6410		-15.625000
6411		-11.718750
6412		-19.531250
6413		-13.671875
6414		-21.484375
6415		-15.625000
6416		-23.437500
6417		-17.578125
6418		-25.390625
6419		-19.531250
6420		-27.343750
6421		-21.484375
6422		-29.296875
6423		-23.437500
6424		-29.296875
6425		-25.390625
6426		-31.250000
6427		-27.343750
6428		-33.203125
6429		-29.296875
6430		-35.156250
6431		-29.296875
6432		-37.109375
6433		-31.250000
6434		-39.062500
6435		-33.203125
6436		-39.062500
6437		-33.203125
6438		-39.062500
6439		-35.156250
6440		-41.015625
6441		-35.156250
6442		-41.015625
6443		-37.109375
6444		-41.015625
6445		-39.062500
6446		-42.968750
6447		-39.062500
6448		-42.968750
6449		-39.062500
6450		-42.968750
6451		-39.062500
6452		-44.921875
6453		-37.109375
6454		-42.968750
6455		-39.062500
6456		-42.968750
6457		-39.062500
6458		-42.968750
6459		-39.062500
6460		-41.015625
6461		-39.062500
6462		-42.968750
6463		-37.109375
6464		-41.015625
6465		-37.109375
6466		-41.015625
6467		-35.156250
6468		-41.015625
6469		-35.156250
6470		-39.062500
6471		-35.156250
6472		-37.109375
6473		-33.203125
6474		-37.109375
6475		-33.203125
6476		-35.156250
6477		-31.250000
6478		-33.203125
6479		-31.250000
6480		-33.203125
6481		-27.343750
6482		-31.250000
6483		-27.343750
6484		-29.296875
6485		-23.437500
6486		-29.296875
6487		-23.437500
6488		-25.390625
6489		-21.484375
6490		-23.437500
6491		-17.578125
6492		-21.484375
6493		-17.578125
6494		-19.531250
6495		-15.625000
6496		-17.578125
6497		-13.671875
6498		-15.625000
6499		-11.718750
6500		-13.671875
6501		-9.765625
6502		-11.718750
6503		-5.859375
6504		-7.812500
6505		-3.906250
6506		-5.859375
6507		-1.953125
6508		-3.906250
6509		0.000000
6510		-1.953125
6511		3.906250
6512		1.953125
6513		5.859375
6514		3.906250
6515		7.812500
6516		5.859375
6517		9.765625
6518		7.812500
6519		15.625000
6520		9.765625
6521		15.625000
6522		13.671875
6523		17.578125
6524		15.625000
6525		21.484375
6526		17.578125
6527		23.437500
6528		21.484375
6529		25.390625
6530		23.437500
6531		27.343750
6532		25.390625
6533		29.296875
6534		27.343750
6535		31.250000
6536		27.343750
6537		35.156250
6538		31.250000
6539		35.156250
6540		33.203125
6541		39.062500
6542		35.156250
6543		39.062500
6544		37.109375
6545		41.015625
6546		39.062500
6547		44.921875
6548		41.015625
6549		44.921875
6550		42.968750
6551		46.875000
6552		42.968750
6553		50.781250
6554		44.921875
6555		48.828125
6556		46.875000
6557		50.781250
6558		48.828125
6559		52.734375
6560		50.781250
6561		52.734375
6562		50.781250
6563		52.734375
6564		50.781250
6565		54.687500
6566		52.734375
6567		56.640625
6568		52.734375
6569		56.640625
6570		52.734375
6571		56.640625
6572		54.687500
6573		58.593750
6574		54.687500
6575		58.593750
6576		54.687500
6577		58.593750
6578		56.640625
6579		58.593750
6580		54.687500
6581		58.593750
6582		56.640625
6583		58.593750
6584		54.687500
6585		58.593750
6586		54.687500
6587		58.593750
6588		54.687500
6589		58.593750
6590		54.687500
6591		58.593750
6592		52.734375
6593		56.640625
6594		52.734375
6595		56.640625
6596		52.734375
6597		54.687500
6598		50.781250
6599		54.687500
6600		50.781250
6601		52.734375
6602		48.828125
6603		52.734375
6604		46.875000
6605		50.781250
6606		46.875000
6607		50.781250
6608		44.921875
6609		48.828125
6610		42.968750
6611		46.875000
6612		41.015625
6613		44.921875
6614		39.062500
6615		44.921875
6616		37.109375
6617		42.968750
6618		37.109375
6619		41.015625
6620		33.203125
6621		39.062500
6622		31.250000
6623		37.109375
6624		29.296875
6625		35.156250
6626		27.343750
6627		33.203125
6628		25.390625
6629		29.296875
6630		23.437500
6631		27.343750
6632		21.484375
6633		25.390625
6634		19.531250
6635		23.437500
6636		17.578125
6637		19.531250
6638		13.671875
6639		19.531250
6640		11.718750
6641		15.625000
6642		9.765625
6643		13.671875
6644		5.859375
6645		11.718750
6646		3.906250
6647		7.812500
6648		1.953125
6649		5.859375
6650		0.000000
6651		3.906250
6652		-1.953125
6653		1.953125
6654		-5.859375
6655		-1.953125
6656		-7.812500
6657		-3.906250
6658		-9.765625
6659		-5.859375
6660		-11.718750
6661		-7.812500
6662		-13.671875
6663		-9.765625
6664		-17.578125
6665		-13.671875
6666		-19.531250
6667		-15.625000
6668		-21.484375
6669		-17.578125
6670		-23.437500
6671		-17.578125
6672		-25.390625
6673		-21.484375
6674		-27.343750
6675		-23.437500
6676		-29.296875
6677		-25.390625
6678		-31.250000
6679		-27.343750
6680		-33.203125
6681		-29.296875
6682		-33.203125
6683		-29.296875
6684		-35.156250
6685		-31.250000
6686		-35.156250
6687		-33.203125
6688		-37.109375
6689		-33.203125
6690		-39.062500
6691		-35.156250
6692		-39.062500
6693		-35.156250
6694		-39.062500
6695		-37.109375
6696		-41.015625
6697		-39.062500
6698		-42.968750
6699		-37.109375
6700		-41.015625
6701		-39.062500
6702		-42.968750
6703		-39.062500
6704		-42.968750
6705		-41.015625
6706		-42.968750
6707		-39.062500
6708		-42.968750
6709		-39.062500
6710		-42.968750
6711		-39.062500
6712		-41.015625
6713		-39.062500
6714		-42.968750
6715		-39.062500
6716		-41.015625
6717		-39.062500
6718		-41.015625
6719		-37.109375
6720		-41.015625
6721		-37.109375
6722		-39.062500
6723		-35.156250
6724		-39.062500
6725		-35.156250
6726		-37.109375
6727		-33.203125
6728		-35.156250
6729		-33.203125
6730		-35.156250
6731		-31.250000
6732		-35.156250
6733		-29.296875
6734		-33.203125
6735		-27.343750
6736		-29.296875
6737		-27.343750
6738		-29.296875
6739		-23.437500
6740		-27.343750
6741		-23.437500
6742		-25.390625
6743		-21.484375
6744		-23.437500
6745		-19.531250
6746		-21.484375
6747		-17.578125
6748		-19.531250
6749		-15.625000
6750		-17.578125
6751		-11.718750
6752		-13.671875
6753		-9.765625
6754		-11.718750
6755		-7.812500
6756		-9.765625
6757		-5.859375
6758		-7.812500
6759		-3.906250
6760		-5.859375
6761		-1.953125
6762		-1.953125
6763		1.953125
6764		0.000000
6765		3.906250
6766		1.953125
6767		5.859375
6768		3.906250
6769		7.812500
6770		5.859375
6771		11.718750
6772		9.765625
6773		13.671875
6774		11.718750
6775		15.625000
6776		13.671875
6777		19.531250
6778		15.625000
6779		21.484375
6780		19.531250
6781		23.437500
6782		21.484375
6783		25.390625
6784		23.437500
6785		27.343750
6786		25.390625
6787		29.296875
6788		29.296875
6789		33.203125
6790		29.296875
6791		33.203125
6792		31.250000
6793		37.109375
6794		33.203125
6795		37.109375
6796		37.109375
6797		39.062500
6798		39.062500
6799		42.968750
6800		41.015625
6801		42.968750
6802		41.015625
6803		44.921875
6804		42.968750
6805		46.875000
6806		44.921875
6807		48.828125
6808		46.875000
6809		48.828125
6810		46.875000
6811		50.781250
6812		48.828125
6813		52.734375
6814		50.781250
6815		52.734375
6816		50.781250
6817		54.687500
6818		50.781250
6819		54.687500
6820		52.734375
6821		56.640625
6822		52.734375
6823		56.640625
6824		54.687500
6825		56.640625
6826		54.687500
6827		58.593750
6828		54.687500
6829		58.593750
6830		54.687500
6831		58.593750
6832		54.687500
6833		58.593750
6834		54.687500
6835		58.593750
6836		54.687500
6837		58.593750
6838		54.687500
6839		58.593750
6840		54.687500
6841		58.593750
6842		54.687500
6843		58.593750
6844		52.734375
6845		56.640625
6846		52.734375
6847		56.640625
6848		52.734375
6849		56.640625
6850		50.781250
6851		54.687500
6852		50.781250
6853		54.687500
6854		48.828125
6855		52.734375
6856		48.828125
6857		52.734375
6858		46.875000
6859		50.781250
6860		44.921875
6861		48.828125
6862		44.921875
6863		46.875000
6864		42.968750
6865		44.921875
6866		41.015625
6867		44.921875
6868		39.062500
6869		42.968750
6870		37.109375
6871		41.015625
6872		35.156250
6873		39.062500
6874		33.203125
6875		37.109375
6876		31.250000
6877		35.156250
6878		29.296875
6879		33.203125
6880		27.343750
6881		31.250000
6882		23.437500
6883		29.296875
6884		23.437500
6885		27.343750
6886		19.531250
6887		25.390625
6888		17.578125
6889		21.484375
6890		15.625000
6891		19.531250
6892		13.671875
6893		17.578125
6894		9.765625
6895		15.625000
6896		7.812500
6897		11.718750
6898		5.859375
6899		9.765625
6900		3.906250
6901		7.812500
6902		0.000000
6903		5.859375
6904		-1.953125
6905		1.953125
6906		-3.906250
6907		0.000000
6908		-5.859375
6909		-1.953125
6910		-9.765625
6911		-3.906250
6912		-11.718750
6913		-5.859375
6914		-13.671875
6915		-9.765625
6916		-15.625000
6917		-11.718750
6918		-17.578125
6919		-13.671875
6920		-19.531250
6921		-15.625000
6922		-23.437500
6923		-17.578125
6924		-23.437500
6925		-19.531250
6926		-25.390625
6927		-21.484375
6928		-27.343750
6929		-23.437500
6930		-29.296875
6931		-25.390625
6932		-31.250000
6933		-27.343750
6934		-33.203125
6935		-29.296875
6936		-33.203125
6937		-29.296875
6938		-35.156250
6939		-31.250000
6940		-37.109375
6941		-33.203125
6942		-39.062500
6943		-35.156250
6944		-41.015625
6945		-35.156250
6946		-39.062500
6947		-37.109375
6948		-41.015625
6949		-37.109375
6950		-42.968750
6951		-39.062500
6952		-42.968750
6953		-39.062500
6954		-42.968750
6955		-39.062500
6956		-42.968750
6957		-39.062500
6958		-42.968750
6959		-41.015625
6960		-42.968750
6961		-39.062500
6962		-42.968750
6963		-39.062500
6964		-42.968750
6965		-39.062500
6966		-42.968750
6967		-39.062500
6968		-42.968750
6969		-39.062500
6970		-41.015625
6971		-37.109375
6972		-41.015625
6973		-37.109375
6974		-41.015625
6975		-37.109375
6976		-39.062500
6977		-35.156250
6978		-39.062500
6979		-35.156250
6980		-37.109375
6981		-33.203125
6982		-35.156250
6983		-33.203125
6984		-35.156250
6985		-31.250000
6986		-33.203125
6987		-29.296875
6988		-31.250000
6989		-27.343750
6990		-29.296875
6991		-25.390625
6992		-27.343750
6993		-23.437500
6994		-27.343750
6995		-23.437500
6996		-25.390625
6997		-21.484375
6998		-21.484375
6999		-19.531250
7000		-19.531250
7001		-15.625000
7002		-17.578125
7003		-13.671875
7004		-15.625000
7005		-11.718750
7006		-13.671875
7007		-9.765625
7008		-11.718750
7009		-7.812500
7010		-9.765625
7011		-5.859375
7012		-7.812500
7013		-1.953125
7014		-3.906250
7015		0.000000
7016		-1.953125
7017		1.953125
7018		-1.953125
7019		3.906250
7020		1.953125
7021		7.812500
7022		5.859375
7023		9.765625
7024		7.812500
7025		11.718750
7026		9.765625
7027		13.671875
7028		11.718750
7029		17.578125
7030		15.625000
7031		19.531250
7032		17.578125
7033		21.484375
7034		19.531250
7035		23.437500
7036		21.484375
7037		25.390625
7038		25.390625
7039		29.296875
7040		25.390625
7041		31.250000
7042		29.296875
7043		33.203125
7044		31.250000
7045		35.156250
7046		33.203125
7047		37.109375
7048		35.156250
7049		39.062500
7050		37.109375
7051		41.015625
7052		37.109375
7053		42.968750
7054		41.015625
7055		42.968750
7056		41.015625
7057		46.875000
7058		42.968750
7059		46.875000
7060		44.921875
7061		48.828125
7062		46.875000
7063		50.781250
7064		48.828125
7065		50.781250
7066		48.828125
7067		52.734375
7068		50.781250
7069		54.687500
7070		50.781250
7071		54.687500
7072		50.781250
7073		56.640625
7074		52.734375
7075		56.640625
7076		52.734375
7077		56.640625
7078		54.687500
7079		56.640625
7080		54.687500
7081		58.593750
7082		54.687500
7083		58.593750
7084		54.687500
7085		58.593750
7086		54.687500
7087		58.593750
7088		56.640625
7089		58.593750
7090		54.687500
7091		58.593750
7092		54.687500
7093		58.593750
7094		54.687500
7095		58.593750
7096		54.687500
7097		58.593750
7098		54.687500
7099		56.640625
7100		52.734375
7101		56.640625
7102		52.734375
7103		56.640625
7104		50.781250
7105		54.687500
7106		50.781250
7107		54.687500
7108		48.828125
7109		52.734375
7110		46.875000
7111		50.781250
7112		44.921875
7113		50.781250
7114		44.921875
7115		48.828125
7116		42.968750
7117		46.875000
7118		42.968750
7119		46.875000
7120		41.015625
7121		44.921875
7122		39.062500
7123		42.968750
7124		37.109375
7125		41.015625
7126		35.156250
7127		39.062500
7128		33.203125
7129		37.109375
7130		31.250000
7131		35.156250
7132		29.296875
7133		33.203125
7134		25.390625
7135		31.250000
7136		23.437500
7137		27.343750
7138		21.484375
7139		25.390625
7140		19.531250
7141		25.390625
7142		15.625000
7143		21.484375
7144		13.671875
7145		19.531250
7146		11.718750
7147		15.625000
7148		9.765625
7149		13.671875
7150		7.812500
7151		11.718750
7152		5.859375
7153		9.765625
7154		1.953125
7155		5.859375
7156		0.000000
7157		3.906250
7158		-1.953125
7159		1.953125
7160		-3.906250
7161		0.000000
7162		-7.812500
7163		-1.953125
7164		-9.765625
7165		-3.906250
7166		-11.718750
7167		-7.812500
7168		-13.671875
7169		-9.765625
7170		-15.625000
7171		-11.718750
7172		-19.531250
7173		-13.671875
7174		-19.531250
7175		-15.625000
7176		-23.437500
7177		-17.578125
7178		-25.390625
7179		-21.484375
7180		-27.343750
7181		-23.437500
7182		-27.343750
7183		-25.390625
7184		-29.296875
7185		-27.343750
7186		-31.250000
7187		-27.343750
7188		-33.203125
7189		-29.296875
7190		-35.156250
7191		-31.250000
7192		-37.109375
7193		-33.203125
7194		-37.109375
7195		-33.203125
7196		-39.062500
7197		-35.156250
7198		-39.062500
7199		-35.156250
7200		-39.062500
7201		-37.109375
7202		-41.015625
7203		-37.109375
7204		-41.015625
7205		-39.062500
7206		-42.968750
7207		-39.062500
7208		-42.968750
7209		-39.062500
7210		-42.968750
7211		-39.062500
7212		-42.968750
7213		-39.062500
7214		-42.968750
7215		-39.062500
7216		-42.968750
7217		-41.015625
7218		-42.968750
7219		-39.062500
7220		-41.015625
7221		-39.062500
7222		-41.015625
7223		-39.062500
7224		-41.015625
7225		-39.062500
7226		-41.015625
7227		-37.109375
7228		-39.062500
7229		-37.109375
7230		-39.062500
7231		-35.156250
7232		-37.109375
7233		-35.156250
7234		-37.109375
7235		-33.203125
7236		-37.109375
7237		-31.250000
7238		-33.203125
7239		-31.250000
7240		-33.203125
7241		-29.296875
7242		-31.250000
7243		-27.343750
7244		-29.296875
7245		-25.390625
7246		-27.343750
7247		-23.437500
7248		-27.343750
7249		-21.484375
7250		-23.437500
7251		-19.531250
7252		-21.484375
7253		-17.578125
7254		-19.531250
7255		-15.625000
7256		-17.578125
7257		-13.671875
7258		-15.625000
7259		-11.718750
7260		-13.671875
7261		-9.765625
7262		-11.718750
7263		-5.859375
7264		-9.765625
7265		-3.906250
7266		-5.859375
7267		-1.953125
7268		-3.906250
7269		0.000000
7270		-1.953125
7271		3.906250
7272		0.000000
7273		5.859375
7274		3.906250
7275		7.812500
7276		5.859375
7277		9.765625
7278		7.812500
7279		11.718750
7280		9.765625
7281		15.625000
7282		11.718750
7283		17.578125
7284		15.625000
7285		19.531250
7286		17.578125
7287		21.484375
7288		19.531250
7289		25.390625
7290		23.437500
7291		27.343750
7292		25.390625
7293		29.296875
7294		27.343750
7295		31.250000
7296		29.296875
7297		33.203125
7298		31.250000
7299		35.156250
7300		33.203125
7301		37.109375
7302		35.156250
7303		39.062500
7304		37.109375
7305		41.015625
7306		39.062500
7307		42.968750
7308		41.015625
7309		44.921875
7310		42.968750
7311		46.875000
7312		42.968750
7313		46.875000
7314		44.921875
7315		48.828125
7316		46.875000
7317		50.781250
7318		48.828125
7319		50.781250
7320		48.828125
7321		52.734375
7322		50.781250
7323		54.687500
7324		50.781250
7325		54.687500
7326		52.734375
7327		54.687500
7328		52.734375
7329		56.640625
7330		52.734375
7331		56.640625
7332		52.734375
7333		58.593750
7334		54.687500
7335		58.593750
7336		54.687500
7337		58.593750
7338		54.687500
7339		58.593750
7340		54.687500
7341		58.593750
7342		54.687500
7343		58.593750
7344		54.687500
7345		58.593750
7346		54.687500
7347		58.593750
7348		52.734375
7349		58.593750
7350		54.687500
7351		56.640625
7352		52.734375
7353		56.640625
7354		52.734375
7355		54.687500
7356		50.781250
7357		56.640625
7358		50.781250
7359		54.687500
7360		48.828125
7361		52.734375
7362		48.828125
7363		50.781250
7364		46.875000
7365		50.781250
7366		46.875000
7367		50.781250
7368		44.921875
7369		48.828125
7370		42.968750
7371		46.875000
7372		41.015625
7373		44.921875
7374		39.062500
7375		42.968750
7376		37.109375
7377		42.968750
7378		35.156250
7379		39.062500
7380		33.203125
7381		37.109375
7382		33.203125
7383		35.156250
7384		29.296875
7385		33.203125
7386		27.343750
7387		31.250000
7388		25.390625
7389		29.296875
7390		23.437500
7391		27.343750
7392		19.531250
7393		25.390625
7394		17.578125
7395		21.484375
7396		15.625000
7397		21.484375
7398		11.718750
7399		17.578125
7400		11.718750
7401		15.625000
7402		9.765625
7403		13.671875
7404		5.859375
7405		9.765625
7406		3.906250
7407		7.812500
7408		0.000000
7409		5.859375
7410		0.000000
7411		3.906250
7412		-3.906250
7413		1.953125
7414		-5.859375
7415		-1.953125
7416		-7.812500
7417		-1.953125
7418		-9.765625
7419		-5.859375
7420		-13.671875
7421		-9.765625
7422		-15.625000
7423		-9.765625
7424		-17.578125
7425		-11.718750
7426		-19.531250
7427		-15.625000
7428		-21.484375
7429		-17.578125
7430		-23.437500
7431		-19.531250
7432		-25.390625
7433		-21.484375
7434		-27.343750
7435		-23.437500
7436		-29.296875
7437		-25.390625
7438		-31.250000
7439		-25.390625
7440		-33.203125
7441		-29.296875
7442		-33.203125
7443		-29.296875
7444		-35.156250
7445		-31.250000
7446		-37.109375
7447		-33.203125
7448		-37.109375
7449		-33.203125
7450		-39.062500
7451		-35.156250
7452		-39.062500
7453		-37.109375
7454		-41.015625
7455		-37.109375
7456		-41.015625
7457		-39.062500
7458		-41.015625
7459		-39.062500
7460		-42.968750
7461		-39.062500
7462		-42.968750
7463		-39.062500
7464		-42.968750
7465		-39.062500
7466		-42.968750
7467		-39.062500
7468		-42.968750
7469		-41.015625
7470		-42.968750
7471		-39.062500
7472		-42.968750
7473		-39.062500
7474		-42.968750
7475		-39.062500
7476		-41.015625
7477		-39.062500
7478		-41.015625
7479		-37.109375
7480		-41.015625
7481		-37.109375
7482		-41.015625
7483		-35.156250
7484		-39.062500
7485		-35.156250
7486		-37.109375
7487		-35.156250
7488		-37.109375
7489		-33.203125
7490		-35.156250
7491		-31.250000
7492		-35.156250
7493		-29.296875
7494		-31.250000
7495		-29.296875
7496		-31.250000
7497		-27.343750
7498		-29.296875
7499		-25.390625
7500		-27.343750
7501		-23.437500
7502		-25.390625
7503		-21.484375
7504		-23.437500
7505		-19.531250
7506		-21.484375
7507		-17.578125
7508		-19.531250
7509		-13.671875
7510		-17.578125
7511		-13.671875
7512		-13.671875
7513		-9.765625
7514		-13.671875
7515		-7.812500
7516		-11.718750
7517		-5.859375
7518		-7.812500
7519		-3.906250
7520		-5.859375
7521		-1.953125
7522		-3.906250
7523		1.953125
7524		0.000000
7525		3.906250
7526		1.953125
7527		5.859375
7528		3.906250
7529		9.765625
7530		5.859375
7531		11.718750
7532		9.765625
7533		13.671875
7534		9.765625
7535		15.625000
7536		13.671875
7537		17.578125
7538		15.625000
7539		21.484375
7540		17.578125
7541		23.437500
7542		21.484375
7543		25.390625
7544		23.437500
7545		27.343750
7546		25.390625
7547		29.296875
7548		27.343750
7549		31.250000
7550		29.296875
7551		33.203125
7552		33.203125
7553		35.156250
7554		35.156250
7555		37.109375
7556		35.156250
7557		41.015625
7558		37.109375
7559		41.015625
7560		39.062500
7561		44.921875
7562		41.015625
7563		44.921875
7564		42.968750
7565		46.875000
7566		44.921875
7567		48.828125
7568		46.875000
7569		50.781250
7570		46.875000
7571		50.781250
7572		48.828125
7573		52.734375
7574		48.828125
7575		52.734375
7576		50.781250
7577		54.687500
7578		52.734375
7579		54.687500
7580		52.734375
7581		56.640625
7582		52.734375
7583		56.640625
7584		54.687500
7585		58.593750
7586		54.687500
7587		56.640625
7588		54.687500
7589		58.593750
7590		54.687500
7591		58.593750
7592		54.687500
7593		58.593750
7594		56.640625
7595		58.593750
7596		54.687500
7597		58.593750
7598		54.687500
7599		58.593750
7600		52.734375
7601		58.593750
7602		54.687500
7603		56.640625
7604		54.687500
7605		56.640625
7606		52.734375
7607		56.640625
7608		52.734375
7609		54.687500
7610		50.781250
7611		54.687500
7612		50.781250
7613		54.687500
7614		48.828125
7615		52.734375
7616		48.828125
7617		50.781250
7618		46.875000
7619		50.781250
7620		44.921875
7621		48.828125
7622		44.921875
7623		46.875000
7624		42.968750
7625		46.875000
7626		41.015625
7627		44.921875
7628		39.062500
7629		42.968750
7630		37.109375
7631		41.015625
7632		35.156250
7633		41.015625
7634		33.203125
7635		37.109375
7636		31.250000
7637		35.156250
7638		29.296875
7639		33.203125
7640		27.343750
7641		31.250000
7642		25.390625
7643		29.296875
7644		23.437500
7645		27.343750
7646		19.531250
7647		23.437500
7648		17.578125
7649		21.484375
7650		15.625000
7651		19.531250
7652		13.671875
7653		17.578125
7654		9.765625
7655		15.625000
7656		7.812500
7657		13.671875
7658		5.859375
7659		9.765625
7660		3.906250
7661		7.812500
7662		0.000000
7663		5.859375
7664		-1.953125
7665		3.906250
7666		-3.906250
7667		0.000000
7668		-5.859375
7669		-1.953125
7670		-7.812500
7671		-3.906250
7672		-11.718750
7673		-7.812500
7674		-13.671875
7675		-9.765625
7676		-15.625000
7677		-11.718750
7678		-17.578125
7679		-13.671875
7680		-19.531250
7681		-15.625000
7682		-21.484375
7683		-17.578125
7684		-25.390625
7685		-19.531250
7686		-25.390625
7687		-21.484375
7688		-27.343750
7689		-23.437500
7690		-29.296875
7691		-25.390625
7692		-31.250000
7693		-27.343750
7694		-33.203125
7695		-29.296875
7696		-35.156250
7697		-31.250000
7698		-35.156250
7699		-31.250000
7700		-37.109375
7701		-33.203125
7702		-37.109375
7703		-33.203125
7704		-39.062500
7705		-37.109375
7706		-41.015625
7707		-37.109375
7708		-41.015625
7709		-37.109375
7710		-41.015625
7711		-37.109375
7712		-42.968750
7713		-39.062500
7714		-42.968750
7715		-39.062500
7716		-42.968750
7717		-39.062500
7718		-42.968750
7719		-41.015625
7720		-42.968750
7721		-41.015625
7722		-42.968750
7723		-41.015625
7724		-42.968750
7725		-39.062500
7726		-42.968750
7727		-39.062500
7728		-42.968750
7729		-39.062500
7730		-42.968750
7731		-37.109375
7732		-41.015625
7733		-37.109375
7734		-41.015625
7735		-35.156250
7736		-39.062500
7737		-37.109375
7738		-37.109375
7739		-35.156250
7740		-37.109375
7741		-33.203125
7742		-37.109375
7743		-33.203125
7744		-35.156250
7745		-31.250000
7746		-33.203125
7747		-29.296875
7748		-31.250000
7749		-27.343750
7750		-29.296875
7751		-25.390625
7752		-29.296875
7753		-23.437500
7754		-25.390625
7755		-23.437500
7756		-23.437500
7757		-19.531250
7758		-21.484375
7759		-17.578125
7760		-19.531250
7761		-17.578125
7762		-19.531250
7763		-13.671875
7764		-15.625000
7765		-11.718750
7766		-13.671875
7767		-9.765625
7768		-11.718750
7769		-7.812500
7770		-9.765625
7771		-5.859375
7772		-7.812500
7773		-3.906250
7774		-5.859375
7775		0.000000
7776		-1.953125
7777		1.953125
7778		0.000000
7779		3.906250
7780		1.953125
7781		5.859375
7782		3.906250
7783		9.765625
7784		7.812500
7785		11.718750
7786		9.765625
7787		13.671875
7788		11.718750
7789		15.625000
7790		15.625000
7791		19.531250
7792		17.578125
7793		21.484375
7794		17.578125
7795		23.437500
7796		21.484375
7797		25.390625
7798		23.437500
7799		27.343750
7800		25.390625
7801		31.250000
7802		27.343750
7803		33.203125
7804		31.250000
7805		35.156250
7806		33.203125
7807		37.109375
7808		35.156250
7809		39.062500
7810		35.156250
7811		41.015625
7812		39.062500
7813		41.015625
7814		39.062500
7815		44.921875
7816		41.015625
7817		44.921875
7818		42.968750
7819		46.875000
7820		42.968750
7821		48.828125
7822		46.875000
7823		48.828125
7824		48.828125
7825		50.781250
7826		48.828125
7827		52.734375
7828		50.781250
7829		52.734375
7830		50.781250
7831		54.687500
7832		52.734375
7833		54.687500
7834		52.734375
7835		56.640625
7836		52.734375
7837		56.640625
7838		54.687500
7839		56.640625
7840		54.687500
7841		58.593750
7842		54.687500
7843		58.593750
7844		54.687500
7845		58.593750
7846		54.687500
7847		58.593750
7848		54.687500
7849		58.593750
7850		54.687500
7851		58.593750
7852		54.687500
7853		58.593750
7854		54.687500
7855		56.640625
7856		54.687500
7857		56.640625
7858		52.734375
7859		56.640625
7860		52.734375
7861		56.640625
7862		50.781250
7863		54.687500
7864		50.781250
7865		54.687500
7866		50.781250
7867		54.687500
7868		48.828125
7869		52.734375
7870		46.875000
7871		52.734375
7872		46.875000
7873		48.828125
7874		44.921875
7875		48.828125
7876		42.968750
7877		46.875000
7878		41.015625
7879		44.921875
7880		39.062500
7881		42.968750
7882		39.062500
7883		42.968750
7884		37.109375
7885		41.015625
7886		33.203125
7887		39.062500
7888		33.203125
7889		35.156250
7890		31.250000
7891		33.203125
7892		27.343750
7893		33.203125
7894		25.390625
7895		31.250000
7896		23.437500
7897		27.343750
7898		21.484375
7899		27.343750
7900		19.531250
7901		23.437500
7902		17.578125
7903		21.484375
7904		15.625000
7905		19.531250
7906		11.718750
7907		15.625000
7908		9.765625
7909		13.671875
7910		7.812500
7911		11.718750
7912		5.859375
7913		9.765625
7914		1.953125
7915		7.812500
7916		0.000000
7917		3.906250
7918		-3.906250
7919		1.953125
7920		-3.906250
7921		0.000000
7922		-7.812500
7923		-3.906250
7924		-9.765625
7925		-5.859375
7926		-11.718750
7927		-7.812500
7928		-13.671875
7929		-9.765625
7930		-15.625000
7931		-11.718750
7932		-19.531250
7933		-15.625000
7934		-21.484375
7935		-15.625000
7936		-23.437500
7937		-19.531250
7938		-25.390625
7939		-21.484375
7940		-27.343750
7941		-23.437500
7942		-29.296875
7943		-23.437500
7944		-29.296875
7945		-27.343750
7946		-33.203125
7947		-27.343750
7948		-33.203125
7949		-29.296875
7950		-35.156250
7951		-31.250000
7952		-37.109375
7953		-33.203125
7954		-39.062500
7955		-33.203125
7956		-39.062500
7957		-35.156250
7958		-39.062500
7959		-37.109375
7960		-41.015625
7961		-37.109375
7962		-41.015625
7963		-39.062500
7964		-41.015625
7965		-39.062500
7966		-42.968750
7967		-39.062500
7968		-42.968750
7969		-39.062500
7970		-42.968750
7971		-39.062500
7972		-42.968750
7973		-41.015625
7974		-42.968750
7975		-41.015625
7976		-42.968750
7977		-39.062500
7978		-42.968750
7979		-39.062500
7980		-42.968750
7981		-39.062500
7982		-42.968750
7983		-39.062500
7984		-41.015625
7985		-39.062500
7986		-41.015625
7987		-37.109375
7988		-41.015625
7989		-37.109375
7990		-39.062500
7991		-35.156250
7992		-39.062500
7993		-35.156250
7994		-37.109375
7995		-33.203125
7996		-37.109375
7997		-33.203125
7998		-35.156250
7999		-31.250000
8000		-33.203125
8001		-29.296875
8002		-31.250000
8003		-27.343750
8004		-29.296875
8005		-25.390625
8006		-27.343750
8007		-23.437500
8008		-80.078125
8009		29.296875
8010		-66.406250
8011		23.437500
8012		-39.062500
8013		-5.859375
8014		-62.500000
8015		35.156250
8016		-72.265625
8017		41.015625
8018		-70.312500
8019		42.968750
8020		-48.828125
8021		27.343750
8022		-60.546875
8023		41.015625
8024		-58.593750
8025		44.921875
8026		-27.343750
8027		17.578125
8028		-7.812500
8029		1.953125
8030		-1.953125
8031		3.906250
8032		0.000000
8033		3.906250
8034		3.906250
8035		7.812500
8036		5.859375
8037		9.765625
8038		7.812500
8039		11.718750
8040		9.765625
8041		15.625000
8042		13.671875
8043		17.578125
8044		15.625000
8045		19.531250
8046		17.578125
8047		21.484375
8048		19.531250
8049		23.437500
8050		21.484375
8051		27.343750
8052		25.390625
8053		29.296875
8054		25.390625
8055		31.250000
8056		29.296875
8057		33.203125
8058		31.250000
8059		35.156250
8060		33.203125
8061		37.109375
8062		35.156250
8063		39.062500
8064		37.109375
8065		41.015625
8066		39.062500
8067		42.968750
8068		41.015625
8069		44.921875
8070		42.968750
8071		44.921875
8072		44.921875
8073		46.875000
8074		44.921875
8075		48.828125
8076		46.875000
8077		50.781250
8078		48.828125
8079		52.734375
8080		48.828125
8081		52.734375
8082		48.828125
8083		54.687500
8084		50.781250
8085		54.687500
8086		52.734375
8087		54.687500
8088		52.734375
8089		56.640625
8090		54.687500
8091		56.640625
8092		54.687500
8093		58.593750
8094		54.687500
8095		58.593750
8096		54.687500
8097		58.593750
8098		54.687500
8099		58.593750
8100		54.687500
8101		58.593750
8102		54.687500
8103		58.593750
8104		54.687500
8105		58.593750
8106		54.687500
8107		56.640625
8108		54.687500
8109		56.640625
8110		52.734375
8111		56.640625
8112		52.734375
8113		56.640625
8114		52.734375
8115		54.687500
8116		50.781250
8117		54.687500
8118		50.781250
8119		54.687500
8120		48.828125
8121		52.734375
8122		48.828125
8123		52.734375
8124		46.875000
8125		50.781250
8126		44.921875
8127		48.828125
8128		42.968750
8129		48.828125
8130		42.968750
8131		46.875000
8132		41.015625
8133		44.921875
8134		39.062500
8135		42.968750
8136		37.109375
8137		41.015625
8138		35.156250
8139		39.062500
8140		35.156250
8141		37.109375
8142		31.250000
8143		35.156250
8144		29.296875
8145		35.156250
8146		27.343750
8147		31.250000
8148		25.390625
8149		29.296875
8150		23.437500
8151		27.343750
8152		19.531250
8153		25.390625
8154		17.578125
8155		23.437500
8156		15.625000
8157		21.484375
8158		13.671875
8159		17.578125
8160		11.718750
8161		15.625000
8162		9.765625
8163		13.671875
8164		5.859375
8165		11.718750
8166		3.906250
8167		7.812500
8168		0.000000
8169		5.859375
8170		0.000000
8171		3.906250
8172		-3.906250
8173		0.000000
8174		-5.859375
8175		-1.953125
8176		-7.812500
8177		-3.906250
8178		-9.765625
8179		-5.859375
8180		-13.671875
8181		-7.812500
8182		-15.625000
8183		-11.718750
8184		-17.578125
8185		-13.671875
8186		-21.484375
8187		-15.625000
8188		-23.437500
8189		-17.578125
8190		-23.437500
8191		-19.531250
8192		-25.390625
8193		-21.484375
8194		-27.343750
8195		-23.437500
8196		-29.296875
8197		-25.390625
8198		-31.250000
8199		-27.343750
8200		-33.203125
8201		-29.296875
8202		-33.203125
8203		-29.296875
8204		-35.156250
8205		-31.250000
8206		-37.109375
8207		-33.203125
8208		-37.109375
8209		-35.156250
8210		-39.062500
8211		-35.156250
8212		-39.062500
8213		-35.156250
8214		-41.015625
8215		-37.109375
8216		-41.015625
8217		-39.062500
8218		-42.968750
8219		-39.062500
8220		-42.968750
8221		-39.062500
8222		-44.921875
8223		-39.062500
8224		-42.968750
8225		-41.015625
8226		-42.968750
8227		-41.015625
8228		-42.968750
8229		-39.062500
8230		-42.968750
8231		-41.015625
8232		-42.968750
8233		-41.015625
8234		-42.968750
8235		-39.062500
8236		-42.968750
8237		-39.062500
8238		-41.015625
8239		-39.062500
8240		-41.015625
8241		-37.109375
8242		-39.062500
8243		-37.109375
8244		-39.062500
8245		-35.156250
8246		-39.062500
8247		-35.156250
8248		-37.109375
8249		-33.203125
8250		-35.156250
8251		-31.250000
8252		-35.156250
8253		-31.250000
8254		-33.203125
8255		-29.296875
8256		-31.250000
8257		-27.343750
8258		-29.296875
8259		-25.390625
8260		-27.343750
8261		-23.437500
8262		-27.343750
8263		-21.484375
8264		-25.390625
8265		-19.531250
8266		-21.484375
8267		-17.578125
8268		-19.531250
8269		-15.625000
8270		-17.578125
8271		-13.671875
8272		-15.625000
8273		-9.765625
8274		-13.671875
8275		-7.812500
8276		-9.765625
8277		-5.859375
8278		-9.765625
8279		-3.906250
8280		-5.859375
8281		-1.953125
8282		-3.906250
8283		0.000000
8284		-1.953125
8285		1.953125
8286		1.953125
8287		5.859375
8288		3.906250
8289		7.812500
8290		5.859375
8291		9.765625
8292		7.812500
8293		11.718750
8294		11.718750
8295		15.625000
8296		13.671875
8297		17.578125
8298		15.625000
8299		19.531250
8300		17.578125
8301		21.484375
8302		19.531250
8303		25.390625
8304		23.437500
8305		27.343750
8306		25.390625
8307		29.296875
8308		27.343750
8309		31.250000
8310		29.296875
8311		33.203125
8312		31.250000
8313		35.156250
8314		33.203125
8315		37.109375
8316		35.156250
8317		39.062500
8318		37.109375
8319		41.015625
8320		39.062500
8321		42.968750
8322		41.015625
8323		44.921875
8324		41.015625
8325		44.921875
8326		44.921875
8327		46.875000
8328		44.921875
8329		48.828125
8330		46.875000
8331		50.781250
8332		46.875000
8333		50.781250
8334		48.828125
8335		52.734375
8336		50.781250
8337		52.734375
8338		50.781250
8339		54.687500
8340		52.734375
8341		54.687500
8342		52.734375
8343		54.687500
8344		54.687500
8345		56.640625
8346		52.734375
8347		56.640625
8348		54.687500
8349		58.593750
8350		54.687500
8351		58.593750
8352		54.687500
8353		58.593750
8354		54.687500
8355		58.593750
8356		54.687500
8357		58.593750
8358		54.687500
8359		58.593750
8360		54.687500
8361		56.640625
8362		54.687500
8363		58.593750
8364		52.734375
8365		56.640625
8366		52.734375
8367		56.640625
8368		52.734375
8369		54.687500
8370		50.781250
8371		54.687500
8372		50.781250
8373		52.734375
8374		48.828125
8375		52.734375
8376		48.828125
8377		50.781250
8378		46.875000
8379		48.828125
8380		44.921875
8381		48.828125
8382		42.968750
8383		46.875000
8384		42.968750
8385		46.875000
8386		41.015625
8387		44.921875
8388		39.062500
8389		42.968750
8390		37.109375
8391		41.015625
8392		35.156250
8393		39.062500
8394		33.203125
8395		37.109375
8396		31.250000
8397		35.156250
8398		29.296875
8399		33.203125
8400		25.390625
8401		31.250000
8402		25.390625
8403		29.296875
8404		21.484375
8405		27.343750
8406		19.531250
8407		23.437500
8408		17.578125
8409		21.484375
8410		15.625000
8411		19.531250
8412		11.718750
8413		17.578125
8414		9.765625
8415		13.671875
8416		7.812500
8417		11.718750
8418		5.859375
8419		9.765625
8420		1.953125
8421		7.812500
8422		0.000000
8423		3.906250
8424		-1.953125
8425		1.953125
8426		-3.906250
8427		0.000000
8428		-7.812500
8429		-3.906250
8430		-9.765625
8431		-3.906250
8432		-11.718750
8433		-7.812500
8434		-13.671875
8435		-9.765625
8436		-15.625000
8437		-11.718750
8438		-19.531250
8439		-13.671875
8440		-21.484375
8441		-15.625000
8442		-21.484375
8443		-17.578125
8444		-23.437500
8445		-21.484375
8446		-25.390625
8447		-23.437500
8448		-29.296875
8449		-23.437500
8450		-29.296875
8451		-25.390625
8452		-31.250000
8453		-27.343750
8454		-33.203125
8455		-29.296875
8456		-35.156250
8457		-31.250000
8458		-37.109375
8459		-33.203125
8460		-37.109375
8461		-35.156250
8462		-39.062500
8463		-35.156250
8464		-39.062500
8465		-35.156250
8466		-41.015625
8467		-37.109375
8468		-41.015625
8469		-39.062500
8470		-42.968750
8471		-39.062500
8472		-42.968750
8473		-39.062500
8474		-42.968750
8475		-39.062500
8476		-42.968750
8477		-41.015625
8478		-42.968750
8479		-41.015625
8480		-44.921875
8481		-41.015625
8482		-42.968750
8483		-41.015625
8484		-42.968750
8485		-41.015625
8486		-42.968750
8487		-39.062500
8488		-42.968750
8489		-39.062500
8490		-42.968750
8491		-39.062500
8492		-42.968750
8493		-39.062500
8494		-41.015625
8495		-37.109375
8496		-41.015625
8497		-35.156250
8498		-39.062500
8499		-35.156250
8500		-39.062500
8501		-35.156250
8502		-37.109375
8503		-33.203125
8504		-35.156250
8505		-31.250000
8506		-33.203125
8507		-31.250000
8508		-33.203125
8509		-27.343750
8510		-31.250000
8511		-27.343750
8512		-29.296875
8513		-25.390625
8514		-27.343750
8515		-23.437500
8516		-25.390625
8517		-19.531250
8518		-23.437500
8519		-19.531250
8520		-21.484375
8521		-17.578125
8522		-19.531250
8523		-15.625000
8524		-17.578125
8525		-11.718750
8526		-15.625000
8527		-9.765625
8528		-11.718750
8529		-7.812500
8530		-9.765625
8531		-5.859375
8532		-7.812500
8533		-3.906250
8534		-5.859375
8535		-1.953125
8536		-3.906250
8537		1.953125
8538		0.000000
8539		3.906250
8540		1.953125
8541		5.859375
8542		3.906250
8543		7.812500
8544		7.812500
8545		11.718750
8546		9.765625
8547		13.671875
8548		11.718750
8549		17.578125
8550		13.671875
8551		17.578125
8552		15.625000
8553		21.484375
8554		19.531250
8555		23.437500
8556		21.484375
8557		25.390625
8558		23.437500
8559		27.343750
8560		25.390625
8561		29.296875
8562		27.343750
8563		33.203125
8564		29.296875
8565		35.156250
8566		33.203125
8567		35.156250
8568		33.203125
8569		39.062500
8570		35.156250
8571		39.062500
8572		37.109375
8573		42.968750
8574		39.062500
8575		42.968750
8576		41.015625
8577		44.921875
8578		42.968750
8579		46.875000
8580		44.921875
8581		48.828125
8582		46.875000
8583		48.828125
8584		46.875000
8585		50.781250
8586		48.828125
8587		50.781250
8588		48.828125
8589		52.734375
8590		50.781250
8591		52.734375
8592		50.781250
8593		54.687500
8594		52.734375
8595		54.687500
8596		52.734375
8597		56.640625
8598		52.734375
8599		56.640625
8600		52.734375
8601		56.640625
8602		54.687500
8603		56.640625
8604		54.687500
8605		58.593750
8606		54.687500
8607		58.593750
8608		54.687500
8609		58.593750
8610		54.687500
8611		58.593750
8612		54.687500
8613		56.640625
8614		52.734375
8615		56.640625
8616		52.734375
8617		56.640625
8618		52.734375
8619		56.640625
8620		52.734375
8621		54.687500
8622		50.781250
8623		54.687500
8624		50.781250
8625		54.687500
8626		48.828125
8627		52.734375
8628		48.828125
8629		50.781250
8630		44.921875
8631		50.781250
8632		44.921875
8633		48.828125
8634		44.921875
8635		46.875000
8636		42.968750
8637		46.875000
8638		41.015625
8639		44.921875
8640		39.062500
8641		42.968750
8642		37.109375
8643		41.015625
8644		37.109375
8645		39.062500
8646		35.156250
8647		37.109375
8648		31.250000
8649		37.109375
8650		29.296875
8651		33.203125
8652		27.343750
8653		31.250000
8654		25.390625
8655		29.296875
8656		23.437500
8657		27.343750
8658		21.484375
8659		25.390625
8660		19.531250
8661		23.437500
8662		15.625000
8663		19.531250
8664		13.671875
8665		17.578125
8666		11.718750
8667		15.625000
8668		7.812500
8669		13.671875
8670		5.859375
8671		9.765625
8672		3.906250
8673		9.765625
8674		1.953125
8675		5.859375
8676		-1.953125
8677		3.906250
8678		-1.953125
8679		1.953125
8680		-5.859375
8681		-1.953125
8682		-7.812500
8683		-3.906250
8684		-11.718750
8685		-5.859375
8686		-13.671875
8687		-7.812500
8688		-15.625000
8689		-11.718750
8690		-17.578125
8691		-13.671875
8692		-19.531250
8693		-15.625000
8694		-21.484375
8695		-17.578125
8696		-23.437500
8697		-19.531250
8698		-25.390625
8699		-21.484375
8700		-27.343750
8701		-23.437500
8702		-29.296875
8703		-25.390625
8704		-31.250000
8705		-27.343750
8706		-33.203125
8707		-29.296875
8708		-35.156250
8709		-29.296875
8710		-37.109375
8711		-31.250000
8712		-37.109375
8713		-33.203125
8714		-39.062500
8715		-35.156250
8716		-41.015625
8717		-33.203125
8718		-42.968750
8719		-35.156250
8720		-41.015625
8721		-37.109375
8722		-42.968750
8723		-37.109375
8724		-42.968750
8725		-39.062500
8726		-44.921875
8727		-39.062500
8728		-42.968750
8729		-41.015625
8730		-44.921875
8731		-41.015625
8732		-44.921875
8733		-39.062500
8734		-46.875000
8735		-39.062500
8736		-44.921875
8737		-39.062500
8738		-42.968750
8739		-41.015625
8740		-42.968750
8741		-39.062500
8742		-44.921875
8743		-39.062500
8744		-42.968750
8745		-39.062500
8746		-41.015625
8747		-39.062500
8748		-41.015625
8749		-35.156250
8750		-42.968750
8751		-35.156250
8752		-41.015625
8753		-35.156250
8754		-41.015625
8755		-33.203125
8756		-39.062500
8757		-31.250000
8758		-37.109375
8759		-29.296875
8760		-35.156250
8761		-29.296875
8762		-31.250000
8763		-29.296875
8764		-31.250000
8765		-27.343750
8766		-31.250000
8767		-23.437500
8768		-29.296875
8769		-21.484375
8770		-27.343750
8771		-19.531250
8772		-25.390625
8773		-17.578125
8774		-23.437500
8775		-15.625000
8776		-19.531250
8777		-13.671875
8778		-17.578125
8779		-13.671875
8780		-13.671875
8781		-9.765625
8782		-13.671875
8783		-5.859375
8784		-11.718750
8785		-3.906250
8786		-9.765625
8787		-1.953125
8788		-5.859375
8789		0.000000
8790		-3.906250
8791		3.906250
8792		-1.953125
8793		5.859375
8794		0.000000
8795		7.812500
8796		5.859375
8797		9.765625
8798		7.812500
8799		13.671875
8800		7.812500
8801		15.625000
8802		9.765625
8803		17.578125
8804		11.718750
8805		21.484375
8806		13.671875
8807		23.437500
8808		17.578125
8809		25.390625
8810		19.531250
8811		27.343750
8812		23.437500
8813		27.343750
8814		25.390625
8815		29.296875
8816		27.343750
8817		33.203125
8818		29.296875
8819		35.156250
8820		29.296875
8821		37.109375
8822		33.203125
8823		41.015625
8824		35.156250
8825		41.015625
8826		37.109375
8827		42.968750
8828		37.109375
8829		44.921875
8830		41.015625
8831		44.921875
8832		42.968750
8833		48.828125
8834		42.968750
8835		48.828125
8836		44.921875
8837		50.781250
8838		44.921875
8839		52.734375
8840		44.921875
8841		52.734375
8842		46.875000
8843		54.687500
8844		48.828125
8845		54.687500
8846		50.781250
8847		54.687500
8848		52.734375
8849		54.687500
8850		50.781250
8851		58.593750
8852		52.734375
8853		58.593750
8854		50.781250
8855		58.593750
8856		52.734375
8857		58.593750
8858		52.734375
8859		58.593750
8860		52.734375
8861		58.593750
8862		52.734375
8863		58.593750
8864		54.687500
8865		56.640625
8866		52.734375
8867		58.593750
8868		50.781250
8869		58.593750
8870		50.781250
8871		58.593750
8872		50.781250
8873		56.640625
8874		48.828125
8875		56.640625
8876		48.828125
8877		56.640625
8878		48.828125
8879		54.687500
8880		48.828125
8881		50.781250
8882		48.828125
8883		50.781250
8884		42.968750
8885		50.781250
8886		42.968750
8887		50.781250
8888		41.015625
8889		48.828125
8890		41.015625
8891		48.828125
8892		37.109375
8893		46.875000
8894		37.109375
8895		44.921875
8896		37.109375
8897		41.015625
8898		35.156250
8899		39.062500
8900		31.250000
8901		37.109375
8902		31.250000
8903		37.109375
8904		27.343750
8905		33.203125
8906		25.390625
8907		31.250000
8908		23.437500
8909		29.296875
8910		21.484375
8911		27.343750
8912		19.531250
8913		25.390625
8914		17.578125
8915		21.484375
8916		13.671875
8917		19.531250
8918		11.718750
8919		19.531250
8920		7.812500
8921		17.578125
8922		5.859375
8923		13.671875
8924		3.906250
8925		11.718750
8926		1.953125
8927		9.765625
8928		0.000000
8929		7.812500
8930		-1.953125
8931		1.953125
8932		-3.906250
8933		0.000000
8934		-7.812500
8935		-1.953125
8936		-11.718750
8937		-1.953125
8938		-13.671875
8939		-5.859375
8940		-15.625000
8941		-7.812500
8942		-17.578125
8943		-9.765625
8944		-19.531250
8945		-11.718750
8946		-19.531250
8947		-13.671875
8948		-21.484375
8949		-19.531250
8950		-25.390625
8951		-19.531250
8952		-29.296875
8953		-21.484375
8954		-31.250000
8955		-23.437500
8956		-33.203125
8957		-25.390625
8958		-33.203125
8959		-27.343750
8960		-35.156250
8961		-27.343750
8962		-35.156250
8963		-29.296875
8964		-35.156250
8965		-33.203125
8966		-37.109375
8967		-35.156250
8968		-41.015625
8969		-33.203125
8970		-41.015625
8971		-35.156250
8972		-42.968750
8973		-35.156250
8974		-42.968750
8975		-37.109375
8976		-44.921875
8977		-37.109375
8978		-44.921875
8979		-37.109375
8980		-44.921875
8981		-39.062500
8982		-42.968750
8983		-41.015625
8984		-46.875000
8985		-39.062500
8986		-46.875000
8987		-39.062500
8988		-46.875000
8989		-39.062500
8990		-46.875000
8991		-39.062500
8992		-46.875000
8993		-39.062500
8994		-44.921875
8995		-39.062500
8996		-44.921875
8997		-39.062500
8998		-41.015625
8999		-39.062500
9000		-42.968750
9001		-35.156250
9002		-42.968750
9003		-35.156250
9004		-41.015625
9005		-35.156250
9006		-41.015625
9007		-33.203125
9008		-39.062500
9009		-31.250000
9010		-39.062500
9011		-31.250000
9012		-37.109375
9013		-29.296875
9014		-33.203125
9015		-29.296875
9016		-31.250000
9017		-27.343750
9018		-31.250000
9019		-23.437500
9020		-29.296875
9021		-21.484375
9022		-29.296875
9023		-19.531250
9024		-27.343750
9025		-17.578125
9026		-25.390625
9027		-17.578125
9028		-23.437500
9029		-13.671875
9030		-19.531250
9031		-13.671875
9032		-15.625000
9033		-11.718750
9034		-13.671875
9035		-7.812500
9036		-13.671875
9037		-5.859375
9038		-11.718750
9039		-1.953125
9040		-9.765625
9041		0.000000
9042		-7.812500
9043		1.953125
9044		-3.906250
9045		3.906250
9046		-1.953125
9047		5.859375
9048		3.906250
9049		7.812500
9050		5.859375
9051		9.765625
9052		5.859375
9053		13.671875
9054		7.812500
9055		17.578125
9056		11.718750
9057		19.531250
9058		13.671875
9059		21.484375
9060		15.625000
9061		23.437500
9062		17.578125
9063		25.390625
9064		21.484375
9065		25.390625
9066		25.390625
9067		29.296875
9068		25.390625
9069		33.203125
9070		27.343750
9071		35.156250
9072		29.296875
9073		37.109375
9074		31.250000
9075		39.062500
9076		33.203125
9077		41.015625
9078		35.156250
9079		42.968750
9080		37.109375
9081		44.921875
9082		41.015625
9083		42.968750
9084		41.015625
9085		46.875000
9086		41.015625
9087		48.828125
9088		42.968750
9089		50.781250
9090		44.921875
9091		50.781250
9092		44.921875
9093		52.734375
9094		46.875000
9095		54.687500
9096		48.828125
9097		54.687500
9098		50.781250
9099		52.734375
9100		52.734375
9101		54.687500
9102		50.781250
9103		56.640625
9104		50.781250
9105		58.593750
9106		50.781250
9107		58.593750
9108		50.781250
9109		58.593750
9110		52.734375
9111		60.546875
9112		52.734375
9113		58.593750
9114		52.734375
9115		58.593750
9116		54.687500
9117		56.640625
9118		52.734375
9119		58.593750
9120		52.734375
9121		58.593750
9122		50.781250
9123		58.593750
9124		50.781250
9125		58.593750
9126		50.781250
9127		56.640625
9128		48.828125
9129		56.640625
9130		48.828125
9131		56.640625
9132		50.781250
9133		52.734375
9134		48.828125
9135		50.781250
9136		44.921875
9137		52.734375
9138		42.968750
9139		50.781250
9140		42.968750
9141		50.781250
9142		41.015625
9143		48.828125
9144		39.062500
9145		46.875000
9146		37.109375
9147		46.875000
9148		39.062500
9149		42.968750
9150		37.109375
9151		41.015625
9152		33.203125
9153		39.062500
9154		31.250000
9155		39.062500
9156		29.296875
9157		37.109375
9158		25.390625
9159		33.203125
9160		23.437500
9161		33.203125
9162		21.484375
9163		29.296875
9164		21.484375
9165		27.343750
9166		19.531250
9167		23.437500
9168		13.671875
9169		21.484375
9170		11.718750
9171		21.484375
9172		9.765625
9173		17.578125
9174		7.812500
9175		15.625000
9176		5.859375
9177		13.671875
9178		1.953125
9179		11.718750
9180		0.000000
9181		9.765625
9182		0.000000
9183		3.906250
9184		-1.953125
9185		1.953125
9186		-7.812500
9187		0.000000
9188		-9.765625
9189		-1.953125
9190		-11.718750
9191		-3.906250
9192		-13.671875
9193		-5.859375
9194		-17.578125
9195		-7.812500
9196		-19.531250
9197		-9.765625
9198		-19.531250
9199		-13.671875
9200		-21.484375
9201		-17.578125
9202		-25.390625
9203		-17.578125
9204		-27.343750
9205		-19.531250
9206		-29.296875
9207		-21.484375
9208		-31.250000
9209		-23.437500
9210		-33.203125
9211		-25.390625
9212		-35.156250
9213		-27.343750
9214		-35.156250
9215		-27.343750
9216		-35.156250
9217		-31.250000
9218		-37.109375
9219		-33.203125
9220		-41.015625
9221		-33.203125
9222		-41.015625
9223		-33.203125
9224		-42.968750
9225		-35.156250
9226		-42.968750
9227		-35.156250
9228		-44.921875
9229		-37.109375
9230		-44.921875
9231		-37.109375
9232		-44.921875
9233		-39.062500
9234		-42.968750
9235		-41.015625
9236		-46.875000
9237		-39.062500
9238		-46.875000
9239		-39.062500
9240		-46.875000
9241		-39.062500
9242		-46.875000
9243		-39.062500
9244		-46.875000
9245		-39.062500
9246		-46.875000
9247		-37.109375
9248		-44.921875
9249		-39.062500
9250		-42.968750
9251		-41.015625
9252		-42.968750
9253		-37.109375
9254		-42.968750
9255		-37.109375
9256		-42.968750
9257		-35.156250
9258		-42.968750
9259		-35.156250
9260		-41.015625
9261		-33.203125
9262		-39.062500
9263		-31.250000
9264		-37.109375
9265		-31.250000
9266		-35.156250
9267		-31.250000
9268		-33.203125
9269		-29.296875
9270		-33.203125
9271		-25.390625
9272		-31.250000
9273		-23.437500
9274		-29.296875
9275		-21.484375
9276		-27.343750
9277		-19.531250
9278		-27.343750
9279		-17.578125
9280		-23.437500
9281		-15.625000
9282		-19.531250
9283		-15.625000
9284		-17.578125
9285		-13.671875
9286		-15.625000
9287		-9.765625
9288		-15.625000
9289		-5.859375
9290		-13.671875
9291		-3.906250
9292		-9.765625
9293		-1.953125
9294		-7.812500
9295		0.000000
9296		-5.859375
9297		1.953125
9298		-3.906250
9299		3.906250
9300		1.953125
9301		5.859375
9302		3.906250
9303		7.812500
9304		3.906250
9305		11.718750
9306		5.859375
9307		15.625000
9308		9.765625
9309		17.578125
9310		11.718750
9311		19.531250
9312		13.671875
9313		21.484375
9314		17.578125
9315		25.390625
9316		19.531250
9317		25.390625
9318		23.437500
9319		27.343750
9320		23.437500
9321		31.250000
9322		25.390625
9323		33.203125
9324		27.343750
9325		35.156250
9326		29.296875
9327		37.109375
9328		31.250000
9329		39.062500
9330		33.203125
9331		41.015625
9332		35.156250
9333		42.968750
9334		39.062500
9335		42.968750
9336		41.015625
9337		46.875000
9338		41.015625
9339		48.828125
9340		41.015625
9341		50.781250
9342		42.968750
9343		50.781250
9344		44.921875
9345		52.734375
9346		46.875000
9347		52.734375
9348		46.875000
9349		54.687500
9350		50.781250
9351		52.734375
9352		50.781250
9353		54.687500
9354		50.781250
9355		56.640625
9356		50.781250
9357		56.640625
9358		50.781250
9359		58.593750
9360		50.781250
9361		58.593750
9362		50.781250
9363		58.593750
9364		52.734375
9365		58.593750
9366		52.734375
9367		58.593750
9368		54.687500
9369		56.640625
9370		52.734375
9371		58.593750
9372		50.781250
9373		58.593750
9374		50.781250
9375		58.593750
9376		50.781250
9377		58.593750
9378		50.781250
9379		58.593750
9380		48.828125
9381		56.640625
9382		48.828125
9383		56.640625
9384		50.781250
9385		52.734375
9386		48.828125
9387		52.734375
9388		44.921875
9389		52.734375
9390		44.921875
9391		52.734375
9392		42.968750
9393		50.781250
9394		42.968750
9395		48.828125
9396		41.015625
9397		48.828125
9398		39.062500
9399		46.875000
9400		39.062500
9401		44.921875
9402		37.109375
9403		41.015625
9404		33.203125
9405		39.062500
9406		31.250000
9407		39.062500
9408		29.296875
9409		37.109375
9410		27.343750
9411		35.156250
9412		25.390625
9413		33.203125
9414		23.437500
9415		31.250000
9416		23.437500
9417		29.296875
9418		21.484375
9419		25.390625
9420		17.578125
9421		23.437500
9422		13.671875
9423		21.484375
9424		11.718750
9425		19.531250
9426		9.765625
9427		17.578125
9428		7.812500
9429		13.671875
9430		3.906250
9431		11.718750
9432		1.953125
9433		9.765625
9434		1.953125
9435		5.859375
9436		0.000000
9437		3.906250
9438		-5.859375
9439		1.953125
9440		-7.812500
9441		0.000000
9442		-9.765625
9443		-1.953125
9444		-13.671875
9445		-3.906250
9446		-15.625000
9447		-7.812500
9448		-17.578125
9449		-9.765625
9450		-17.578125
9451		-11.718750
9452		-19.531250
9453		-15.625000
9454		-23.437500
9455		-17.578125
9456		-25.390625
9457		-17.578125
9458		-27.343750
9459		-19.531250
9460		-29.296875
9461		-21.484375
9462		-31.250000
9463		-23.437500
9464		-33.203125
9465		-25.390625
9466		-35.156250
9467		-27.343750
9468		-33.203125
9469		-31.250000
9470		-35.156250
9471		-33.203125
9472		-39.062500
9473		-33.203125
9474		-41.015625
9475		-31.250000
9476		-41.015625
9477		-35.156250
9478		-42.968750
9479		-35.156250
9480		-42.968750
9481		-37.109375
9482		-44.921875
9483		-37.109375
9484		-44.921875
9485		-37.109375
9486		-42.968750
9487		-41.015625
9488		-46.875000
9489		-39.062500
9490		-46.875000
9491		-39.062500
9492		-46.875000
9493		-39.062500
9494		-46.875000
9495		-39.062500
9496		-46.875000
9497		-39.062500
9498		-46.875000
9499		-39.062500
9500		-44.921875
9501		-39.062500
9502		-42.968750
9503		-41.015625
9504		-42.968750
9505		-39.062500
9506		-42.968750
9507		-37.109375
9508		-44.921875
9509		-35.156250
9510		-42.968750
9511		-35.156250
9512		-41.015625
9513		-33.203125
9514		-39.062500
9515		-33.203125
9516		-39.062500
9517		-31.250000
9518		-35.156250
9519		-31.250000
9520		-33.203125
9521		-31.250000
9522		-35.156250
9523		-27.343750
9524		-33.203125
9525		-25.390625
9526		-31.250000
9527		-23.437500
9528		-29.296875
9529		-21.484375
9530		-27.343750
9531		-19.531250
9532		-25.390625
9533		-17.578125
9534		-23.437500
9535		-17.578125
9536		-19.531250
9537		-15.625000
9538		-15.625000
9539		-11.718750
9540		-17.578125
9541		-7.812500
9542		-13.671875
9543		-5.859375
9544		-11.718750
9545		-3.906250
9546		-9.765625
9547		-1.953125
9548		-7.812500
9549		1.953125
9550		-5.859375
9551		1.953125
9552		0.000000
9553		3.906250
9554		1.953125
9555		5.859375
9556		3.906250
9557		11.718750
9558		3.906250
9559		13.671875
9560		7.812500
9561		15.625000
9562		9.765625
9563		17.578125
9564		11.718750
9565		19.531250
9566		13.671875
9567		23.437500
9568		17.578125
9569		23.437500
9570		21.484375
9571		25.390625
9572		21.484375
9573		29.296875
9574		23.437500
9575		31.250000
9576		27.343750
9577		33.203125
9578		27.343750
9579		37.109375
9580		31.250000
9581		39.062500
9582		31.250000
9583		39.062500
9584		33.203125
9585		41.015625
9586		39.062500
9587		41.015625
9588		39.062500
9589		42.968750
9590		39.062500
9591		46.875000
9592		41.015625
9593		48.828125
9594		42.968750
9595		48.828125
9596		42.968750
9597		50.781250
9598		44.921875
9599		52.734375
9600		44.921875
9601		52.734375
9602		48.828125
9603		52.734375
9604		50.781250
9605		52.734375
9606		48.828125
9607		56.640625
9608		50.781250
9609		56.640625
9610		50.781250
9611		58.593750
9612		50.781250
9613		58.593750
9614		50.781250
9615		58.593750
9616		50.781250
9617		58.593750
9618		52.734375
9619		58.593750
9620		54.687500
9621		56.640625
9622		52.734375
9623		58.593750
9624		52.734375
9625		58.593750
9626		52.734375
9627		58.593750
9628		50.781250
9629		58.593750
9630		50.781250
9631		58.593750
9632		50.781250
9633		56.640625
9634		48.828125
9635		56.640625
9636		50.781250
9637		54.687500
9638		50.781250
9639		52.734375
9640		46.875000
9641		54.687500
9642		44.921875
9643		52.734375
9644		44.921875
9645		52.734375
9646		42.968750
9647		50.781250
9648		41.015625
9649		48.828125
9650		41.015625
9651		46.875000
9652		39.062500
9653		46.875000
9654		39.062500
9655		42.968750
9656		35.156250
9657		41.015625
9658		33.203125
9659		41.015625
9660		31.250000
9661		39.062500
9662		29.296875
9663		37.109375
9664		27.343750
9665		35.156250
9666		25.390625
9667		33.203125
9668		23.437500
9669		31.250000
9670		23.437500
9671		27.343750
9672		19.531250
9673		23.437500
9674		15.625000
9675		23.437500
9676		13.671875
9677		21.484375
9678		9.765625
9679		19.531250
9680		7.812500
9681		17.578125
9682		7.812500
9683		13.671875
9684		3.906250
9685		11.718750
9686		3.906250
9687		7.812500
9688		0.000000
9689		5.859375
9690		-3.906250
9691		3.906250
9692		-5.859375
9693		1.953125
9694		-9.765625
9695		0.000000
9696		-11.718750
9697		-1.953125
9698		-13.671875
9699		-5.859375
9700		-15.625000
9701		-7.812500
9702		-17.578125
9703		-9.765625
9704		-17.578125
9705		-13.671875
9706		-21.484375
9707		-15.625000
9708		-25.390625
9709		-15.625000
9710		-27.343750
9711		-19.531250
9712		-27.343750
9713		-19.531250
9714		-31.250000
9715		-23.437500
9716		-33.203125
9717		-23.437500
9718		-33.203125
9719		-25.390625
9720		-33.203125
9721		-29.296875
9722		-35.156250
9723		-31.250000
9724		-39.062500
9725		-31.250000
9726		-39.062500
9727		-33.203125
9728		-41.015625
9729		-33.203125
9730		-41.015625
9731		-35.156250
9732		-42.968750
9733		-35.156250
9734		-42.968750
9735		-37.109375
9736		-42.968750
9737		-37.109375
9738		-42.968750
9739		-41.015625
9740		-44.921875
9741		-39.062500
9742		-46.875000
9743		-39.062500
9744		-46.875000
9745		-39.062500
9746		-46.875000
9747		-39.062500
9748		-46.875000
9749		-39.062500
9750		-46.875000
9751		-39.062500
9752		-46.875000
9753		-39.062500
9754		-42.968750
9755		-41.015625
9756		-42.968750
9757		-41.015625
9758		-44.921875
9759		-37.109375
9760		-44.921875
9761		-37.109375
9762		-42.968750
9763		-37.109375
9764		-41.015625
9765		-35.156250
9766		-41.015625
9767		-33.203125
9768		-39.062500
9769		-33.203125
9770		-39.062500
9771		-33.203125
9772		-35.156250
9773		-31.250000
9774		-35.156250
9775		-27.343750
9776		-35.156250
9777		-27.343750
9778		-31.250000
9779		-25.390625
9780		-31.250000
9781		-23.437500
9782		-29.296875
9783		-21.484375
9784		-27.343750
9785		-19.531250
9786		-23.437500
9787		-17.578125
9788		-19.531250
9789		-17.578125
9790		-17.578125
9791		-13.671875
9792		-19.531250
9793		-9.765625
9794		-15.625000
9795		-7.812500
9796		-13.671875
9797		-5.859375
9798		-11.718750
9799		-3.906250
9800		-9.765625
9801		0.000000
9802		-7.812500
9803		1.953125
9804		-1.953125
9805		1.953125
9806		0.000000
9807		3.906250
9808		1.953125
9809		9.765625
9810		3.906250
9811		11.718750
9812		5.859375
9813		13.671875
9814		7.812500
9815		15.625000
9816		9.765625
9817		19.531250
9818		13.671875
9819		21.484375
9820		15.625000
9821		21.484375
9822		19.531250
9823		23.437500
9824		21.484375
9825		27.343750
9826		21.484375
9827		31.250000
9828		23.437500
9829		33.203125
9830		25.390625
9831		35.156250
9832		29.296875
9833		37.109375
9834		31.250000
9835		39.062500
9836		31.250000
9837		41.015625
9838		37.109375
9839		41.015625
9840		39.062500
9841		42.968750
9842		39.062500
9843		44.921875
9844		39.062500
9845		48.828125
9846		41.015625
9847		48.828125
9848		42.968750
9849		50.781250
9850		44.921875
9851		50.781250
9852		44.921875
9853		52.734375
9854		46.875000
9855		52.734375
9856		50.781250
9857		52.734375
9858		48.828125
9859		56.640625
9860		48.828125
9861		56.640625
9862		48.828125
9863		56.640625
9864		50.781250
9865		58.593750
9866		50.781250
9867		58.593750
9868		50.781250
9869		58.593750
9870		50.781250
9871		58.593750
9872		54.687500
9873		56.640625
9874		52.734375
9875		58.593750
9876		52.734375
9877		58.593750
9878		52.734375
9879		58.593750
9880		50.781250
9881		58.593750
9882		50.781250
9883		58.593750
9884		50.781250
9885		58.593750
9886		50.781250
9887		56.640625
9888		50.781250
9889		54.687500
9890		50.781250
9891		52.734375
9892		46.875000
9893		54.687500
9894		46.875000
9895		54.687500
9896		44.921875
9897		52.734375
9898		42.968750
9899		50.781250
9900		42.968750
9901		48.828125
9902		41.015625
9903		48.828125
9904		39.062500
9905		46.875000
9906		41.015625
9907		42.968750
9908		35.156250
9909		42.968750
9910		33.203125
9911		41.015625
9912		31.250000
9913		41.015625
9914		31.250000
9915		39.062500
9916		29.296875
9917		37.109375
9918		27.343750
9919		35.156250
9920		25.390625
9921		33.203125
9922		23.437500
9923		27.343750
9924		21.484375
9925		25.390625
9926		17.578125
9927		25.390625
9928		15.625000
9929		23.437500
9930		11.718750
9931		21.484375
9932		9.765625
9933		17.578125
9934		7.812500
9935		15.625000
9936		3.906250
9937		13.671875
9938		3.906250
9939		11.718750
9940		1.953125
9941		5.859375
9942		-1.953125
9943		3.906250
9944		-3.906250
9945		3.906250
9946		-5.859375
9947		1.953125
9948		-9.765625
9949		-1.953125
9950		-11.718750
9951		-3.906250
9952		-13.671875
9953		-5.859375
9954		-15.625000
9955		-7.812500
9956		-15.625000
9957		-13.671875
9958		-19.531250
9959		-15.625000
9960		-23.437500
9961		-15.625000
9962		-25.390625
9963		-17.578125
9964		-27.343750
9965		-19.531250
9966		-29.296875
9967		-21.484375
9968		-31.250000
9969		-23.437500
9970		-33.203125
9971		-25.390625
9972		-31.250000
9973		-29.296875
9974		-33.203125
9975		-31.250000
9976		-37.109375
9977		-31.250000
9978		-39.062500
9979		-31.250000
9980		-41.015625
9981		-33.203125
9982		-41.015625
9983		-33.203125
9984		-42.968750
9985		-35.156250
9986		-42.968750
9987		-35.156250
9988		-42.968750
9989		-37.109375
9990		-42.968750
9991		-39.062500
9992		-44.921875
9993		-39.062500
9994		-44.921875
9995		-39.062500
9996		-46.875000
9997		-39.062500
9998		-46.875000
9999		-39.062500
10000		-46.875000
