Channel              :		CH1
Frequency            :		1.973kHz
Period               :		0.507ms
PK-PK                :		168.0mV
Probe attenuation    :		1X
Voltage per ADC value:		0.122070mV
Time interval        :		2.00000us

index		CH1_Voltage(mV)
1		83.984375
2		83.984375
3		85.937500
4		83.984375
5		85.937500
6		82.031250
7		85.937500
8		82.031250
9		85.937500
10		80.078125
11		83.984375
12		80.078125
13		82.031250
14		78.125000
15		82.031250
16		76.171875
17		80.078125
18		76.171875
19		78.125000
20		74.218750
21		76.171875
22		72.265625
23		76.171875
24		70.312500
25		74.218750
26		66.406250
27		72.265625
28		64.453125
29		68.359375
30		62.500000
31		66.406250
32		58.593750
33		64.453125
34		56.640625
35		62.500000
36		54.687500
37		58.593750
38		50.781250
39		54.687500
40		46.875000
41		52.734375
42		44.921875
43		48.828125
44		41.015625
45		44.921875
46		37.109375
47		42.968750
48		33.203125
49		39.062500
50		29.296875
51		35.156250
52		25.390625
53		31.250000
54		21.484375
55		27.343750
56		19.531250
57		23.437500
58		15.625000
59		21.484375
60		11.718750
61		15.625000
62		5.859375
63		11.718750
64		1.953125
65		7.812500
66		-1.953125
67		3.906250
68		-3.906250
69		0.000000
70		-7.812500
71		-3.906250
72		-11.718750
73		-7.812500
74		-15.625000
75		-9.765625
76		-21.484375
77		-15.625000
78		-23.437500
79		-19.531250
80		-29.296875
81		-23.437500
82		-31.250000
83		-25.390625
84		-35.156250
85		-29.296875
86		-37.109375
87		-33.203125
88		-41.015625
89		-37.109375
90		-44.921875
91		-39.062500
92		-48.828125
93		-42.968750
94		-50.781250
95		-44.921875
96		-52.734375
97		-48.828125
98		-56.640625
99		-52.734375
100		-58.593750
101		-54.687500
102		-60.546875
103		-56.640625
104		-62.500000
105		-58.593750
106		-64.453125
107		-60.546875
108		-66.406250
109		-62.500000
110		-68.359375
111		-64.453125
112		-68.359375
113		-66.406250
114		-70.312500
115		-68.359375
116		-72.265625
117		-68.359375
118		-72.265625
119		-68.359375
120		-72.265625
121		-70.312500
122		-74.218750
123		-70.312500
124		-74.218750
125		-70.312500
126		-74.218750
127		-70.312500
128		-74.218750
129		-70.312500
130		-72.265625
131		-70.312500
132		-72.265625
133		-68.359375
134		-72.265625
135		-68.359375
136		-70.312500
137		-66.406250
138		-70.312500
139		-66.406250
140		-68.359375
141		-64.453125
142		-66.406250
143		-62.500000
144		-64.453125
145		-60.546875
146		-62.500000
147		-58.593750
148		-60.546875
149		-56.640625
150		-58.593750
151		-52.734375
152		-56.640625
153		-52.734375
154		-52.734375
155		-48.828125
156		-50.781250
157		-44.921875
158		-48.828125
159		-42.968750
160		-44.921875
161		-39.062500
162		-41.015625
163		-37.109375
164		-39.062500
165		-33.203125
166		-35.156250
167		-29.296875
168		-31.250000
169		-25.390625
170		-27.343750
171		-21.484375
172		-23.437500
173		-17.578125
174		-19.531250
175		-13.671875
176		-15.625000
177		-11.718750
178		-13.671875
179		-7.812500
180		-7.812500
181		-1.953125
182		-3.906250
183		0.000000
184		0.000000
185		5.859375
186		3.906250
187		7.812500
188		7.812500
189		11.718750
190		9.765625
191		17.578125
192		15.625000
193		19.531250
194		17.578125
195		25.390625
196		23.437500
197		27.343750
198		27.343750
199		31.250000
200		31.250000
201		35.156250
202		33.203125
203		39.062500
204		37.109375
205		42.968750
206		41.015625
207		46.875000
208		44.921875
209		48.828125
210		46.875000
211		52.734375
212		50.781250
213		54.687500
214		52.734375
215		58.593750
216		56.640625
217		60.546875
218		58.593750
219		64.453125
220		62.500000
221		66.406250
222		64.453125
223		68.359375
224		66.406250
225		70.312500
226		68.359375
227		74.218750
228		72.265625
229		74.218750
230		74.218750
231		78.125000
232		76.171875
233		80.078125
234		76.171875
235		82.031250
236		78.125000
237		82.031250
238		80.078125
239		82.031250
240		80.078125
241		83.984375
242		82.031250
243		83.984375
244		82.031250
245		85.937500
246		82.031250
247		85.937500
248		83.984375
249		85.937500
250		83.984375
251		85.937500
252		83.984375
253		85.937500
254		83.984375
255		85.937500
256		82.031250
257		87.890625
258		83.984375
259		85.937500
260		82.031250
261		85.937500
262		82.031250
263		83.984375
264		80.078125
265		83.984375
266		80.078125
267		82.031250
268		76.171875
269		82.031250
270		76.171875
271		80.078125
272		74.218750
273		78.125000
274		72.265625
275		76.171875
276		70.312500
277		74.218750
278		68.359375
279		72.265625
280		66.406250
281		72.265625
282		62.500000
283		68.359375
284		60.546875
285		66.406250
286		58.593750
287		62.500000
288		54.687500
289		60.546875
290		52.734375
291		56.640625
292		48.828125
293		54.687500
294		46.875000
295		50.781250
296		42.968750
297		46.875000
298		39.062500
299		44.921875
300		35.156250
301		41.015625
302		31.250000
303		37.109375
304		27.343750
305		33.203125
306		25.390625
307		29.296875
308		21.484375
309		27.343750
310		17.578125
311		23.437500
312		13.671875
313		19.531250
314		9.765625
315		15.625000
316		5.859375
317		11.718750
318		1.953125
319		7.812500
320		-1.953125
321		3.906250
322		-5.859375
323		0.000000
324		-9.765625
325		-5.859375
326		-13.671875
327		-7.812500
328		-17.578125
329		-13.671875
330		-21.484375
331		-15.625000
332		-25.390625
333		-19.531250
334		-29.296875
335		-23.437500
336		-33.203125
337		-27.343750
338		-35.156250
339		-31.250000
340		-41.015625
341		-35.156250
342		-42.968750
343		-37.109375
344		-46.875000
345		-41.015625
346		-48.828125
347		-42.968750
348		-52.734375
349		-46.875000
350		-54.687500
351		-50.781250
352		-58.593750
353		-52.734375
354		-58.593750
355		-56.640625
356		-60.546875
357		-56.640625
358		-64.453125
359		-58.593750
360		-66.406250
361		-62.500000
362		-68.359375
363		-64.453125
364		-68.359375
365		-66.406250
366		-70.312500
367		-66.406250
368		-72.265625
369		-68.359375
370		-72.265625
371		-68.359375
372		-72.265625
373		-70.312500
374		-74.218750
375		-70.312500
376		-74.218750
377		-70.312500
378		-74.218750
379		-70.312500
380		-74.218750
381		-70.312500
382		-74.218750
383		-70.312500
384		-72.265625
385		-70.312500
386		-72.265625
387		-68.359375
388		-72.265625
389		-68.359375
390		-70.312500
391		-68.359375
392		-70.312500
393		-66.406250
394		-68.359375
395		-64.453125
396		-66.406250
397		-62.500000
398		-64.453125
399		-60.546875
400		-62.500000
401		-58.593750
402		-60.546875
403		-56.640625
404		-60.546875
405		-52.734375
406		-54.687500
407		-50.781250
408		-52.734375
409		-48.828125
410		-50.781250
411		-44.921875
412		-46.875000
413		-41.015625
414		-44.921875
415		-39.062500
416		-41.015625
417		-35.156250
418		-37.109375
419		-31.250000
420		-33.203125
421		-29.296875
422		-29.296875
423		-25.390625
424		-27.343750
425		-21.484375
426		-23.437500
427		-17.578125
428		-19.531250
429		-13.671875
430		-15.625000
431		-9.765625
432		-11.718750
433		-5.859375
434		-7.812500
435		-1.953125
436		-3.906250
437		1.953125
438		0.000000
439		5.859375
440		3.906250
441		9.765625
442		7.812500
443		13.671875
444		11.718750
445		17.578125
446		15.625000
447		21.484375
448		19.531250
449		25.390625
450		23.437500
451		29.296875
452		27.343750
453		33.203125
454		31.250000
455		37.109375
456		35.156250
457		41.015625
458		39.062500
459		44.921875
460		41.015625
461		46.875000
462		44.921875
463		50.781250
464		48.828125
465		52.734375
466		50.781250
467		56.640625
468		54.687500
469		58.593750
470		56.640625
471		62.500000
472		60.546875
473		64.453125
474		62.500000
475		66.406250
476		64.453125
477		70.312500
478		68.359375
479		72.265625
480		70.312500
481		74.218750
482		72.265625
483		76.171875
484		74.218750
485		78.125000
486		76.171875
487		80.078125
488		76.171875
489		82.031250
490		80.078125
491		82.031250
492		80.078125
493		83.984375
494		80.078125
495		83.984375
496		82.031250
497		85.937500
498		82.031250
499		85.937500
500		82.031250
501		85.937500
502		83.984375
503		87.890625
504		82.031250
505		87.890625
506		83.984375
507		85.937500
508		82.031250
509		87.890625
510		83.984375
511		87.890625
512		82.031250
513		85.937500
514		82.031250
515		85.937500
516		82.031250
517		83.984375
518		80.078125
519		83.984375
520		80.078125
521		82.031250
522		78.125000
523		82.031250
524		76.171875
525		80.078125
526		74.218750
527		78.125000
528		72.265625
529		76.171875
530		70.312500
531		74.218750
532		68.359375
533		72.265625
534		66.406250
535		70.312500
536		64.453125
537		68.359375
538		60.546875
539		66.406250
540		58.593750
541		62.500000
542		54.687500
543		60.546875
544		52.734375
545		56.640625
546		48.828125
547		54.687500
548		46.875000
549		50.781250
550		41.015625
551		48.828125
552		39.062500
553		42.968750
554		35.156250
555		41.015625
556		31.250000
557		37.109375
558		27.343750
559		33.203125
560		23.437500
561		29.296875
562		19.531250
563		25.390625
564		17.578125
565		21.484375
566		11.718750
567		17.578125
568		9.765625
569		13.671875
570		3.906250
571		11.718750
572		0.000000
573		7.812500
574		-3.906250
575		1.953125
576		-7.812500
577		-1.953125
578		-11.718750
579		-5.859375
580		-15.625000
581		-9.765625
582		-19.531250
583		-13.671875
584		-23.437500
585		-17.578125
586		-25.390625
587		-21.484375
588		-29.296875
589		-25.390625
590		-33.203125
591		-29.296875
592		-37.109375
593		-31.250000
594		-41.015625
595		-35.156250
596		-42.968750
597		-39.062500
598		-46.875000
599		-41.015625
600		-48.828125
601		-44.921875
602		-52.734375
603		-46.875000
604		-54.687500
605		-50.781250
606		-56.640625
607		-52.734375
608		-58.593750
609		-56.640625
610		-62.500000
611		-58.593750
612		-64.453125
613		-58.593750
614		-66.406250
615		-62.500000
616		-68.359375
617		-62.500000
618		-68.359375
619		-66.406250
620		-70.312500
621		-66.406250
622		-72.265625
623		-66.406250
624		-72.265625
625		-68.359375
626		-72.265625
627		-68.359375
628		-74.218750
629		-70.312500
630		-74.218750
631		-70.312500
632		-72.265625
633		-70.312500
634		-74.218750
635		-70.312500
636		-74.218750
637		-70.312500
638		-72.265625
639		-68.359375
640		-72.265625
641		-68.359375
642		-70.312500
643		-68.359375
644		-70.312500
645		-66.406250
646		-68.359375
647		-64.453125
648		-66.406250
649		-62.500000
650		-64.453125
651		-60.546875
652		-62.500000
653		-58.593750
654		-62.500000
655		-58.593750
656		-60.546875
657		-54.687500
658		-56.640625
659		-52.734375
660		-54.687500
661		-48.828125
662		-50.781250
663		-46.875000
664		-48.828125
665		-44.921875
666		-44.921875
667		-41.015625
668		-42.968750
669		-37.109375
670		-39.062500
671		-33.203125
672		-37.109375
673		-31.250000
674		-33.203125
675		-27.343750
676		-29.296875
677		-23.437500
678		-25.390625
679		-19.531250
680		-21.484375
681		-15.625000
682		-17.578125
683		-11.718750
684		-13.671875
685		-9.765625
686		-9.765625
687		-3.906250
688		-5.859375
689		0.000000
690		-1.953125
691		3.906250
692		1.953125
693		7.812500
694		5.859375
695		11.718750
696		9.765625
697		15.625000
698		13.671875
699		19.531250
700		17.578125
701		23.437500
702		21.484375
703		27.343750
704		25.390625
705		29.296875
706		27.343750
707		33.203125
708		33.203125
709		37.109375
710		35.156250
711		41.015625
712		39.062500
713		44.921875
714		42.968750
715		48.828125
716		44.921875
717		50.781250
718		48.828125
719		54.687500
720		52.734375
721		56.640625
722		54.687500
723		60.546875
724		58.593750
725		62.500000
726		60.546875
727		64.453125
728		64.453125
729		68.359375
730		66.406250
731		70.312500
732		68.359375
733		72.265625
734		70.312500
735		74.218750
736		72.265625
737		76.171875
738		74.218750
739		78.125000
740		76.171875
741		80.078125
742		78.125000
743		80.078125
744		78.125000
745		82.031250
746		80.078125
747		83.984375
748		82.031250
749		83.984375
750		82.031250
751		85.937500
752		83.984375
753		85.937500
754		83.984375
755		85.937500
756		82.031250
757		87.890625
758		83.984375
759		85.937500
760		83.984375
761		85.937500
762		83.984375
763		87.890625
764		82.031250
765		85.937500
766		83.984375
767		85.937500
768		82.031250
769		85.937500
770		80.078125
771		83.984375
772		78.125000
773		83.984375
774		80.078125
775		82.031250
776		78.125000
777		80.078125
778		76.171875
779		80.078125
780		74.218750
781		78.125000
782		72.265625
783		76.171875
784		70.312500
785		74.218750
786		68.359375
787		72.265625
788		64.453125
789		68.359375
790		62.500000
791		66.406250
792		60.546875
793		64.453125
794		56.640625
795		62.500000
796		54.687500
797		58.593750
798		50.781250
799		56.640625
800		48.828125
801		52.734375
802		44.921875
803		48.828125
804		41.015625
805		46.875000
806		37.109375
807		42.968750
808		35.156250
809		39.062500
810		31.250000
811		35.156250
812		27.343750
813		33.203125
814		23.437500
815		29.296875
816		19.531250
817		25.390625
818		15.625000
819		21.484375
820		11.718750
821		17.578125
822		7.812500
823		13.671875
824		3.906250
825		9.765625
826		0.000000
827		5.859375
828		-3.906250
829		0.000000
830		-7.812500
831		-3.906250
832		-11.718750
833		-5.859375
834		-15.625000
835		-11.718750
836		-19.531250
837		-13.671875
838		-23.437500
839		-17.578125
840		-27.343750
841		-21.484375
842		-31.250000
843		-25.390625
844		-35.156250
845		-29.296875
846		-37.109375
847		-31.250000
848		-41.015625
849		-37.109375
850		-44.921875
851		-39.062500
852		-46.875000
853		-42.968750
854		-50.781250
855		-46.875000
856		-54.687500
857		-48.828125
858		-56.640625
859		-50.781250
860		-58.593750
861		-54.687500
862		-60.546875
863		-56.640625
864		-62.500000
865		-58.593750
866		-64.453125
867		-60.546875
868		-66.406250
869		-62.500000
870		-68.359375
871		-64.453125
872		-70.312500
873		-66.406250
874		-70.312500
875		-66.406250
876		-72.265625
877		-68.359375
878		-74.218750
879		-68.359375
880		-72.265625
881		-70.312500
882		-74.218750
883		-70.312500
884		-74.218750
885		-70.312500
886		-74.218750
887		-70.312500
888		-74.218750
889		-70.312500
890		-74.218750
891		-70.312500
892		-72.265625
893		-70.312500
894		-72.265625
895		-68.359375
896		-70.312500
897		-66.406250
898		-70.312500
899		-66.406250
900		-68.359375
901		-64.453125
902		-66.406250
903		-62.500000
904		-64.453125
905		-60.546875
906		-64.453125
907		-58.593750
908		-62.500000
909		-56.640625
910		-58.593750
911		-54.687500
912		-56.640625
913		-52.734375
914		-52.734375
915		-48.828125
916		-50.781250
917		-46.875000
918		-48.828125
919		-42.968750
920		-44.921875
921		-41.015625
922		-41.015625
923		-37.109375
924		-39.062500
925		-33.203125
926		-35.156250
927		-31.250000
928		-31.250000
929		-27.343750
930		-29.296875
931		-23.437500
932		-23.437500
933		-19.531250
934		-21.484375
935		-15.625000
936		-17.578125
937		-9.765625
938		-13.671875
939		-7.812500
940		-9.765625
941		-3.906250
942		-5.859375
943		0.000000
944		-1.953125
945		3.906250
946		1.953125
947		7.812500
948		5.859375
949		11.718750
950		9.765625
951		15.625000
952		15.625000
953		19.531250
954		17.578125
955		23.437500
956		21.484375
957		27.343750
958		25.390625
959		31.250000
960		29.296875
961		35.156250
962		33.203125
963		39.062500
964		37.109375
965		42.968750
966		41.015625
967		44.921875
968		42.968750
969		48.828125
970		46.875000
971		52.734375
972		48.828125
973		54.687500
974		52.734375
975		58.593750
976		56.640625
977		60.546875
978		58.593750
979		62.500000
980		62.500000
981		66.406250
982		64.453125
983		68.359375
984		66.406250
985		70.312500
986		68.359375
987		72.265625
988		70.312500
989		74.218750
990		72.265625
991		76.171875
992		74.218750
993		78.125000
994		76.171875
995		80.078125
996		78.125000
997		82.031250
998		80.078125
999		82.031250
1000		80.078125
1001		83.984375
1002		80.078125
1003		83.984375
1004		82.031250
1005		85.937500
1006		83.984375
1007		85.937500
1008		83.984375
1009		87.890625
1010		83.984375
1011		85.937500
1012		83.984375
1013		85.937500
1014		83.984375
1015		87.890625
1016		83.984375
1017		85.937500
1018		83.984375
1019		85.937500
1020		82.031250
1021		85.937500
1022		82.031250
1023		85.937500
1024		80.078125
1025		83.984375
1026		80.078125
1027		83.984375
1028		78.125000
1029		82.031250
1030		76.171875
1031		80.078125
1032		74.218750
1033		80.078125
1034		72.265625
1035		76.171875
1036		70.312500
1037		76.171875
1038		70.312500
1039		72.265625
1040		66.406250
1041		72.265625
1042		64.453125
1043		68.359375
1044		62.500000
1045		66.406250
1046		58.593750
1047		64.453125
1048		54.687500
1049		60.546875
1050		52.734375
1051		58.593750
1052		50.781250
1053		54.687500
1054		46.875000
1055		50.781250
1056		42.968750
1057		48.828125
1058		39.062500
1059		44.921875
1060		37.109375
1061		41.015625
1062		33.203125
1063		39.062500
1064		29.296875
1065		35.156250
1066		25.390625
1067		31.250000
1068		21.484375
1069		27.343750
1070		17.578125
1071		23.437500
1072		13.671875
1073		19.531250
1074		9.765625
1075		15.625000
1076		5.859375
1077		11.718750
1078		1.953125
1079		7.812500
1080		-1.953125
1081		3.906250
1082		-5.859375
1083		0.000000
1084		-9.765625
1085		-3.906250
1086		-13.671875
1087		-7.812500
1088		-17.578125
1089		-11.718750
1090		-21.484375
1091		-15.625000
1092		-25.390625
1093		-19.531250
1094		-29.296875
1095		-23.437500
1096		-31.250000
1097		-27.343750
1098		-35.156250
1099		-29.296875
1100		-39.062500
1101		-33.203125
1102		-42.968750
1103		-37.109375
1104		-44.921875
1105		-41.015625
1106		-48.828125
1107		-42.968750
1108		-52.734375
1109		-46.875000
1110		-54.687500
1111		-48.828125
1112		-56.640625
1113		-52.734375
1114		-60.546875
1115		-54.687500
1116		-60.546875
1117		-56.640625
1118		-64.453125
1119		-60.546875
1120		-66.406250
1121		-60.546875
1122		-66.406250
1123		-62.500000
1124		-70.312500
1125		-62.500000
1126		-70.312500
1127		-66.406250
1128		-70.312500
1129		-68.359375
1130		-74.218750
1131		-68.359375
1132		-74.218750
1133		-68.359375
1134		-72.265625
1135		-70.312500
1136		-74.218750
1137		-70.312500
1138		-74.218750
1139		-70.312500
1140		-74.218750
1141		-70.312500
1142		-74.218750
1143		-68.359375
1144		-72.265625
1145		-70.312500
1146		-72.265625
1147		-70.312500
1148		-74.218750
1149		-66.406250
1150		-72.265625
1151		-66.406250
1152		-68.359375
1153		-64.453125
1154		-68.359375
1155		-64.453125
1156		-68.359375
1157		-62.500000
1158		-66.406250
1159		-58.593750
1160		-64.453125
1161		-58.593750
1162		-60.546875
1163		-56.640625
1164		-58.593750
1165		-50.781250
1166		-56.640625
1167		-48.828125
1168		-56.640625
1169		-48.828125
1170		-50.781250
1171		-44.921875
1172		-48.828125
1173		-41.015625
1174		-44.921875
1175		-37.109375
1176		-42.968750
1177		-35.156250
1178		-37.109375
1179		-33.203125
1180		-33.203125
1181		-29.296875
1182		-33.203125
1183		-23.437500
1184		-29.296875
1185		-19.531250
1186		-25.390625
1187		-15.625000
1188		-21.484375
1189		-11.718750
1190		-17.578125
1191		-7.812500
1192		-13.671875
1193		-3.906250
1194		-7.812500
1195		-1.953125
1196		-5.859375
1197		1.953125
1198		0.000000
1199		7.812500
1200		1.953125
1201		11.718750
1202		5.859375
1203		15.625000
1204		9.765625
1205		19.531250
1206		13.671875
1207		23.437500
1208		17.578125
1209		27.343750
1210		21.484375
1211		29.296875
1212		27.343750
1213		31.250000
1214		31.250000
1215		37.109375
1216		31.250000
1217		41.015625
1218		37.109375
1219		44.921875
1220		39.062500
1221		48.828125
1222		42.968750
1223		52.734375
1224		46.875000
1225		54.687500
1226		48.828125
1227		56.640625
1228		52.734375
1229		58.593750
1230		56.640625
1231		62.500000
1232		58.593750
1233		66.406250
1234		60.546875
1235		68.359375
1236		62.500000
1237		70.312500
1238		64.453125
1239		74.218750
1240		68.359375
1241		76.171875
1242		70.312500
1243		78.125000
1244		72.265625
1245		78.125000
1246		76.171875
1247		80.078125
1248		76.171875
1249		82.031250
1250		76.171875
1251		83.984375
1252		78.125000
1253		85.937500
1254		80.078125
1255		85.937500
1256		80.078125
1257		87.890625
1258		80.078125
1259		87.890625
1260		82.031250
1261		87.890625
1262		83.984375
1263		85.937500
1264		83.984375
1265		85.937500
1266		82.031250
1267		89.843750
1268		82.031250
1269		89.843750
1270		82.031250
1271		89.843750
1272		82.031250
1273		87.890625
1274		80.078125
1275		87.890625
1276		80.078125
1277		87.890625
1278		80.078125
1279		85.937500
1280		80.078125
1281		82.031250
1282		76.171875
1283		82.031250
1284		74.218750
1285		82.031250
1286		72.265625
1287		80.078125
1288		70.312500
1289		80.078125
1290		68.359375
1291		78.125000
1292		66.406250
1293		74.218750
1294		64.453125
1295		72.265625
1296		64.453125
1297		68.359375
1298		60.546875
1299		66.406250
1300		56.640625
1301		64.453125
1302		54.687500
1303		62.500000
1304		50.781250
1305		60.546875
1306		46.875000
1307		56.640625
1308		42.968750
1309		52.734375
1310		41.015625
1311		50.781250
1312		41.015625
1313		44.921875
1314		37.109375
1315		41.015625
1316		29.296875
1317		37.109375
1318		25.390625
1319		37.109375
1320		23.437500
1321		31.250000
1322		19.531250
1323		29.296875
1324		15.625000
1325		25.390625
1326		11.718750
1327		21.484375
1328		9.765625
1329		17.578125
1330		5.859375
1331		11.718750
1332		0.000000
1333		7.812500
1334		-3.906250
1335		5.859375
1336		-7.812500
1337		1.953125
1338		-11.718750
1339		-1.953125
1340		-15.625000
1341		-5.859375
1342		-19.531250
1343		-9.765625
1344		-21.484375
1345		-15.625000
1346		-25.390625
1347		-19.531250
1348		-29.296875
1349		-23.437500
1350		-35.156250
1351		-27.343750
1352		-37.109375
1353		-29.296875
1354		-41.015625
1355		-31.250000
1356		-44.921875
1357		-35.156250
1358		-48.828125
1359		-39.062500
1360		-50.781250
1361		-41.015625
1362		-50.781250
1363		-44.921875
1364		-54.687500
1365		-50.781250
1366		-58.593750
1367		-52.734375
1368		-62.500000
1369		-52.734375
1370		-64.453125
1371		-54.687500
1372		-66.406250
1373		-58.593750
1374		-66.406250
1375		-60.546875
1376		-68.359375
1377		-60.546875
1378		-70.312500
1379		-62.500000
1380		-70.312500
1381		-66.406250
1382		-70.312500
1383		-68.359375
1384		-74.218750
1385		-66.406250
1386		-74.218750
1387		-68.359375
1388		-76.171875
1389		-68.359375
1390		-76.171875
1391		-68.359375
1392		-76.171875
1393		-68.359375
1394		-76.171875
1395		-68.359375
1396		-72.265625
1397		-70.312500
1398		-72.265625
1399		-70.312500
1400		-74.218750
1401		-66.406250
1402		-72.265625
1403		-66.406250
1404		-72.265625
1405		-64.453125
1406		-70.312500
1407		-62.500000
1408		-70.312500
1409		-60.546875
1410		-68.359375
1411		-60.546875
1412		-66.406250
1413		-60.546875
1414		-62.500000
1415		-58.593750
1416		-60.546875
1417		-54.687500
1418		-60.546875
1419		-50.781250
1420		-56.640625
1421		-48.828125
1422		-54.687500
1423		-46.875000
1424		-50.781250
1425		-42.968750
1426		-48.828125
1427		-39.062500
1428		-44.921875
1429		-37.109375
1430		-39.062500
1431		-35.156250
1432		-37.109375
1433		-31.250000
1434		-35.156250
1435		-25.390625
1436		-31.250000
1437		-21.484375
1438		-27.343750
1439		-19.531250
1440		-25.390625
1441		-13.671875
1442		-21.484375
1443		-11.718750
1444		-17.578125
1445		-7.812500
1446		-13.671875
1447		-5.859375
1448		-5.859375
1449		-1.953125
1450		-1.953125
1451		3.906250
1452		-1.953125
1453		7.812500
1454		1.953125
1455		11.718750
1456		7.812500
1457		17.578125
1458		11.718750
1459		19.531250
1460		13.671875
1461		23.437500
1462		17.578125
1463		25.390625
1464		25.390625
1465		29.296875
1466		27.343750
1467		33.203125
1468		29.296875
1469		39.062500
1470		33.203125
1471		42.968750
1472		37.109375
1473		44.921875
1474		41.015625
1475		48.828125
1476		42.968750
1477		52.734375
1478		44.921875
1479		54.687500
1480		50.781250
1481		56.640625
1482		54.687500
1483		58.593750
1484		56.640625
1485		64.453125
1486		58.593750
1487		66.406250
1488		60.546875
1489		70.312500
1490		62.500000
1491		72.265625
1492		66.406250
1493		74.218750
1494		68.359375
1495		76.171875
1496		70.312500
1497		76.171875
1498		74.218750
1499		78.125000
1500		74.218750
1501		82.031250
1502		76.171875
1503		82.031250
1504		76.171875
1505		83.984375
1506		78.125000
1507		85.937500
1508		80.078125
1509		87.890625
1510		80.078125
1511		87.890625
1512		80.078125
1513		87.890625
1514		83.984375
1515		85.937500
1516		83.984375
1517		85.937500
1518		82.031250
1519		89.843750
1520		82.031250
1521		89.843750
1522		82.031250
1523		89.843750
1524		82.031250
1525		87.890625
1526		80.078125
1527		87.890625
1528		80.078125
1529		87.890625
1530		80.078125
1531		85.937500
1532		80.078125
1533		83.984375
1534		76.171875
1535		83.984375
1536		74.218750
1537		83.984375
1538		74.218750
1539		82.031250
1540		72.265625
1541		80.078125
1542		70.312500
1543		78.125000
1544		68.359375
1545		76.171875
1546		66.406250
1547		74.218750
1548		66.406250
1549		70.312500
1550		62.500000
1551		66.406250
1552		58.593750
1553		66.406250
1554		54.687500
1555		64.453125
1556		52.734375
1557		60.546875
1558		48.828125
1559		58.593750
1560		46.875000
1561		54.687500
1562		42.968750
1563		52.734375
1564		42.968750
1565		46.875000
1566		39.062500
1567		44.921875
1568		33.203125
1569		41.015625
1570		29.296875
1571		39.062500
1572		25.390625
1573		35.156250
1574		21.484375
1575		31.250000
1576		17.578125
1577		27.343750
1578		13.671875
1579		23.437500
1580		11.718750
1581		19.531250
1582		7.812500
1583		13.671875
1584		1.953125
1585		9.765625
1586		-1.953125
1587		7.812500
1588		-5.859375
1589		3.906250
1590		-9.765625
1591		0.000000
1592		-13.671875
1593		-3.906250
1594		-17.578125
1595		-7.812500
1596		-19.531250
1597		-11.718750
1598		-23.437500
1599		-17.578125
1600		-27.343750
1601		-21.484375
1602		-31.250000
1603		-23.437500
1604		-35.156250
1605		-27.343750
1606		-41.015625
1607		-29.296875
1608		-42.968750
1609		-33.203125
1610		-44.921875
1611		-37.109375
1612		-48.828125
1613		-39.062500
1614		-50.781250
1615		-42.968750
1616		-52.734375
1617		-48.828125
1618		-58.593750
1619		-50.781250
1620		-60.546875
1621		-52.734375
1622		-62.500000
1623		-54.687500
1624		-64.453125
1625		-56.640625
1626		-68.359375
1627		-58.593750
1628		-68.359375
1629		-60.546875
1630		-68.359375
1631		-62.500000
1632		-68.359375
1633		-66.406250
1634		-70.312500
1635		-68.359375
1636		-74.218750
1637		-66.406250
1638		-74.218750
1639		-66.406250
1640		-76.171875
1641		-68.359375
1642		-76.171875
1643		-68.359375
1644		-76.171875
1645		-68.359375
1646		-76.171875
1647		-68.359375
1648		-74.218750
1649		-70.312500
1650		-74.218750
1651		-70.312500
1652		-74.218750
1653		-68.359375
1654		-74.218750
1655		-66.406250
1656		-74.218750
1657		-66.406250
1658		-72.265625
1659		-64.453125
1660		-70.312500
1661		-62.500000
1662		-70.312500
1663		-62.500000
1664		-66.406250
1665		-60.546875
1666		-64.453125
1667		-60.546875
1668		-62.500000
1669		-54.687500
1670		-62.500000
1671		-52.734375
1672		-58.593750
1673		-50.781250
1674		-56.640625
1675		-46.875000
1676		-52.734375
1677		-44.921875
1678		-50.781250
1679		-41.015625
1680		-48.828125
1681		-39.062500
1682		-42.968750
1683		-37.109375
1684		-39.062500
1685		-35.156250
1686		-37.109375
1687		-27.343750
1688		-35.156250
1689		-25.390625
1690		-31.250000
1691		-21.484375
1692		-27.343750
1693		-17.578125
1694		-23.437500
1695		-13.671875
1696		-19.531250
1697		-9.765625
1698		-15.625000
1699		-7.812500
1700		-9.765625
1701		-3.906250
1702		-5.859375
1703		1.953125
1704		-3.906250
1705		5.859375
1706		0.000000
1707		9.765625
1708		3.906250
1709		13.671875
1710		7.812500
1711		17.578125
1712		11.718750
1713		21.484375
1714		15.625000
1715		23.437500
1716		21.484375
1717		27.343750
1718		25.390625
1719		31.250000
1720		27.343750
1721		37.109375
1722		31.250000
1723		39.062500
1724		35.156250
1725		44.921875
1726		37.109375
1727		46.875000
1728		41.015625
1729		50.781250
1730		44.921875
1731		52.734375
1732		46.875000
1733		54.687500
1734		52.734375
1735		56.640625
1736		54.687500
1737		62.500000
1738		56.640625
1739		66.406250
1740		58.593750
1741		68.359375
1742		62.500000
1743		70.312500
1744		64.453125
1745		72.265625
1746		66.406250
1747		74.218750
1748		68.359375
1749		76.171875
1750		72.265625
1751		76.171875
1752		74.218750
1753		80.078125
1754		74.218750
1755		82.031250
1756		76.171875
1757		83.984375
1758		78.125000
1759		83.984375
1760		78.125000
1761		85.937500
1762		80.078125
1763		85.937500
1764		80.078125
1765		87.890625
1766		83.984375
1767		85.937500
1768		82.031250
1769		85.937500
1770		82.031250
1771		89.843750
1772		82.031250
1773		89.843750
1774		82.031250
1775		89.843750
1776		82.031250
1777		87.890625
1778		80.078125
1779		87.890625
1780		80.078125
1781		87.890625
1782		80.078125
1783		87.890625
1784		82.031250
1785		83.984375
1786		78.125000
1787		83.984375
1788		78.125000
1789		83.984375
1790		76.171875
1791		82.031250
1792		74.218750
1793		82.031250
1794		72.265625
1795		80.078125
1796		70.312500
1797		76.171875
1798		70.312500
1799		74.218750
1800		68.359375
1801		72.265625
1802		64.453125
1803		68.359375
1804		60.546875
1805		68.359375
1806		56.640625
1807		66.406250
1808		54.687500
1809		62.500000
1810		50.781250
1811		60.546875
1812		48.828125
1813		58.593750
1814		44.921875
1815		54.687500
1816		44.921875
1817		48.828125
1818		41.015625
1819		44.921875
1820		35.156250
1821		42.968750
1822		31.250000
1823		41.015625
1824		27.343750
1825		37.109375
1826		23.437500
1827		33.203125
1828		21.484375
1829		31.250000
1830		15.625000
1831		25.390625
1832		15.625000
1833		21.484375
1834		11.718750
1835		15.625000
1836		3.906250
1837		11.718750
1838		0.000000
1839		9.765625
1840		-3.906250
1841		5.859375
1842		-7.812500
1843		1.953125
1844		-11.718750
1845		0.000000
1846		-15.625000
1847		-3.906250
1848		-17.578125
1849		-9.765625
1850		-19.531250
1851		-15.625000
1852		-23.437500
1853		-19.531250
1854		-29.296875
1855		-21.484375
1856		-33.203125
1857		-23.437500
1858		-37.109375
1859		-27.343750
1860		-41.015625
1861		-31.250000
1862		-44.921875
1863		-35.156250
1864		-46.875000
1865		-37.109375
1866		-48.828125
1867		-41.015625
1868		-50.781250
1869		-46.875000
1870		-54.687500
1871		-48.828125
1872		-58.593750
1873		-50.781250
1874		-60.546875
1875		-52.734375
1876		-62.500000
1877		-54.687500
1878		-66.406250
1879		-56.640625
1880		-66.406250
1881		-60.546875
1882		-68.359375
1883		-60.546875
1884		-68.359375
1885		-64.453125
1886		-68.359375
1887		-66.406250
1888		-72.265625
1889		-64.453125
1890		-74.218750
1891		-66.406250
1892		-74.218750
1893		-66.406250
1894		-76.171875
1895		-68.359375
1896		-76.171875
1897		-68.359375
1898		-76.171875
1899		-68.359375
1900		-76.171875
1901		-70.312500
1902		-72.265625
1903		-70.312500
1904		-76.171875
1905		-68.359375
1906		-74.218750
1907		-68.359375
1908		-74.218750
1909		-66.406250
1910		-72.265625
1911		-64.453125
1912		-72.265625
1913		-64.453125
1914		-70.312500
1915		-62.500000
1916		-68.359375
1917		-60.546875
1918		-64.453125
1919		-60.546875
1920		-62.500000
1921		-56.640625
1922		-62.500000
1923		-54.687500
1924		-60.546875
1925		-52.734375
1926		-58.593750
1927		-48.828125
1928		-56.640625
1929		-44.921875
1930		-52.734375
1931		-42.968750
1932		-48.828125
1933		-41.015625
1934		-44.921875
1935		-39.062500
1936		-41.015625
1937		-37.109375
1938		-39.062500
1939		-31.250000
1940		-37.109375
1941		-27.343750
1942		-33.203125
1943		-23.437500
1944		-29.296875
1945		-19.531250
1946		-25.390625
1947		-15.625000
1948		-23.437500
1949		-11.718750
1950		-17.578125
1951		-11.718750
1952		-11.718750
1953		-5.859375
1954		-7.812500
1955		-1.953125
1956		-7.812500
1957		1.953125
1958		-3.906250
1959		5.859375
1960		0.000000
1961		11.718750
1962		3.906250
1963		15.625000
1964		7.812500
1965		19.531250
1966		13.671875
1967		21.484375
1968		19.531250
1969		25.390625
1970		23.437500
1971		27.343750
1972		25.390625
1973		33.203125
1974		29.296875
1975		37.109375
1976		31.250000
1977		41.015625
1978		35.156250
1979		44.921875
1980		39.062500
1981		48.828125
1982		41.015625
1983		50.781250
1984		44.921875
1985		52.734375
1986		50.781250
1987		54.687500
1988		54.687500
1989		60.546875
1990		54.687500
1991		62.500000
1992		56.640625
1993		66.406250
1994		60.546875
1995		68.359375
1996		62.500000
1997		72.265625
1998		64.453125
1999		74.218750
2000		66.406250
2001		74.218750
2002		72.265625
2003		76.171875
2004		74.218750
2005		78.125000
2006		74.218750
2007		82.031250
2008		76.171875
2009		83.984375
2010		76.171875
2011		83.984375
2012		78.125000
2013		85.937500
2014		78.125000
2015		85.937500
2016		80.078125
2017		87.890625
2018		83.984375
2019		85.937500
2020		83.984375
2021		85.937500
2022		82.031250
2023		87.890625
2024		82.031250
2025		89.843750
2026		82.031250
2027		89.843750
2028		82.031250
2029		89.843750
2030		82.031250
2031		89.843750
2032		82.031250
2033		89.843750
2034		80.078125
2035		87.890625
2036		82.031250
2037		85.937500
2038		78.125000
2039		85.937500
2040		78.125000
2041		85.937500
2042		76.171875
2043		83.984375
2044		74.218750
2045		82.031250
2046		72.265625
2047		80.078125
2048		70.312500
2049		80.078125
2050		70.312500
2051		78.125000
2052		70.312500
2053		74.218750
2054		66.406250
2055		72.265625
2056		62.500000
2057		70.312500
2058		60.546875
2059		68.359375
2060		56.640625
2061		66.406250
2062		54.687500
2063		62.500000
2064		50.781250
2065		60.546875
2066		48.828125
2067		58.593750
2068		46.875000
2069		54.687500
2070		44.921875
2071		48.828125
2072		37.109375
2073		46.875000
2074		35.156250
2075		44.921875
2076		31.250000
2077		41.015625
2078		29.296875
2079		37.109375
2080		23.437500
2081		33.203125
2082		21.484375
2083		29.296875
2084		17.578125
2085		25.390625
2086		15.625000
2087		19.531250
2088		9.765625
2089		15.625000
2090		3.906250
2091		13.671875
2092		0.000000
2093		9.765625
2094		-3.906250
2095		5.859375
2096		-7.812500
2097		1.953125
2098		-11.718750
2099		-1.953125
2100		-15.625000
2101		-5.859375
2102		-17.578125
2103		-9.765625
2104		-21.484375
2105		-15.625000
2106		-25.390625
2107		-17.578125
2108		-29.296875
2109		-21.484375
2110		-33.203125
2111		-23.437500
2112		-37.109375
2113		-27.343750
2114		-41.015625
2115		-31.250000
2116		-44.921875
2117		-35.156250
2118		-46.875000
2119		-37.109375
2120		-48.828125
2121		-42.968750
2122		-52.734375
2123		-44.921875
2124		-56.640625
2125		-46.875000
2126		-58.593750
2127		-50.781250
2128		-60.546875
2129		-52.734375
2130		-64.453125
2131		-54.687500
2132		-66.406250
2133		-56.640625
2134		-66.406250
2135		-58.593750
2136		-66.406250
2137		-62.500000
2138		-68.359375
2139		-64.453125
2140		-72.265625
2141		-64.453125
2142		-72.265625
2143		-66.406250
2144		-74.218750
2145		-66.406250
2146		-74.218750
2147		-66.406250
2148		-76.171875
2149		-68.359375
2150		-76.171875
2151		-68.359375
2152		-74.218750
2153		-68.359375
2154		-74.218750
2155		-70.312500
2156		-74.218750
2157		-68.359375
2158		-74.218750
2159		-68.359375
2160		-74.218750
2161		-66.406250
2162		-74.218750
2163		-66.406250
2164		-72.265625
2165		-64.453125
2166		-72.265625
2167		-62.500000
2168		-70.312500
2169		-62.500000
2170		-66.406250
2171		-62.500000
2172		-64.453125
2173		-60.546875
2174		-64.453125
2175		-56.640625
2176		-62.500000
2177		-54.687500
2178		-58.593750
2179		-50.781250
2180		-56.640625
2181		-48.828125
2182		-54.687500
2183		-44.921875
2184		-50.781250
2185		-42.968750
2186		-48.828125
2187		-42.968750
2188		-42.968750
2189		-39.062500
2190		-41.015625
2191		-33.203125
2192		-39.062500
2193		-31.250000
2194		-35.156250
2195		-25.390625
2196		-33.203125
2197		-23.437500
2198		-29.296875
2199		-19.531250
2200		-25.390625
2201		-15.625000
2202		-21.484375
2203		-13.671875
2204		-15.625000
2205		-9.765625
2206		-11.718750
2207		-3.906250
2208		-9.765625
2209		0.000000
2210		-5.859375
2211		3.906250
2212		0.000000
2213		7.812500
2214		3.906250
2215		11.718750
2216		5.859375
2217		15.625000
2218		9.765625
2219		19.531250
2220		15.625000
2221		21.484375
2222		19.531250
2223		25.390625
2224		23.437500
2225		31.250000
2226		25.390625
2227		35.156250
2228		29.296875
2229		39.062500
2230		33.203125
2231		41.015625
2232		37.109375
2233		44.921875
2234		39.062500
2235		48.828125
2236		42.968750
2237		50.781250
2238		48.828125
2239		52.734375
2240		50.781250
2241		58.593750
2242		52.734375
2243		62.500000
2244		56.640625
2245		64.453125
2246		58.593750
2247		68.359375
2248		60.546875
2249		70.312500
2250		64.453125
2251		72.265625
2252		66.406250
2253		74.218750
2254		70.312500
2255		74.218750
2256		72.265625
2257		76.171875
2258		72.265625
2259		80.078125
2260		74.218750
2261		82.031250
2262		76.171875
2263		83.984375
2264		78.125000
2265		83.984375
2266		78.125000
2267		85.937500
2268		80.078125
2269		87.890625
2270		82.031250
2271		85.937500
2272		83.984375
2273		85.937500
2274		82.031250
2275		89.843750
2276		82.031250
2277		89.843750
2278		82.031250
2279		89.843750
2280		82.031250
2281		89.843750
2282		82.031250
2283		89.843750
2284		82.031250
2285		89.843750
2286		82.031250
2287		87.890625
2288		83.984375
2289		85.937500
2290		82.031250
2291		85.937500
2292		78.125000
2293		85.937500
2294		78.125000
2295		85.937500
2296		76.171875
2297		83.984375
2298		74.218750
2299		82.031250
2300		72.265625
2301		80.078125
2302		72.265625
2303		78.125000
2304		72.265625
2305		76.171875
2306		68.359375
2307		72.265625
2308		64.453125
2309		72.265625
2310		62.500000
2311		70.312500
2312		60.546875
2313		68.359375
2314		56.640625
2315		64.453125
2316		54.687500
2317		62.500000
2318		50.781250
2319		58.593750
2320		48.828125
2321		56.640625
2322		46.875000
2323		50.781250
2324		41.015625
2325		48.828125
2326		37.109375
2327		46.875000
2328		35.156250
2329		42.968750
2330		29.296875
2331		41.015625
2332		25.390625
2333		37.109375
2334		23.437500
2335		31.250000
2336		21.484375
2337		27.343750
2338		17.578125
2339		23.437500
2340		13.671875
2341		19.531250
2342		7.812500
2343		17.578125
2344		3.906250
2345		13.671875
2346		0.000000
2347		9.765625
2348		-3.906250
2349		5.859375
2350		-7.812500
2351		1.953125
2352		-11.718750
2353		-1.953125
2354		-13.671875
2355		-7.812500
2356		-17.578125
2357		-11.718750
2358		-23.437500
2359		-15.625000
2360		-27.343750
2361		-17.578125
2362		-31.250000
2363		-21.484375
2364		-35.156250
2365		-25.390625
2366		-39.062500
2367		-29.296875
2368		-41.015625
2369		-31.250000
2370		-42.968750
2371		-35.156250
2372		-44.921875
2373		-41.015625
2374		-48.828125
2375		-44.921875
2376		-52.734375
2377		-44.921875
2378		-56.640625
2379		-46.875000
2380		-58.593750
2381		-50.781250
2382		-60.546875
2383		-52.734375
2384		-62.500000
2385		-54.687500
2386		-64.453125
2387		-56.640625
2388		-64.453125
2389		-60.546875
2390		-66.406250
2391		-62.500000
2392		-70.312500
2393		-62.500000
2394		-72.265625
2395		-64.453125
2396		-72.265625
2397		-64.453125
2398		-72.265625
2399		-66.406250
2400		-74.218750
2401		-66.406250
2402		-74.218750
2403		-68.359375
2404		-74.218750
2405		-68.359375
2406		-72.265625
2407		-70.312500
2408		-74.218750
2409		-68.359375
2410		-74.218750
2411		-66.406250
2412		-74.218750
2413		-66.406250
2414		-72.265625
2415		-66.406250
2416		-72.265625
2417		-64.453125
2418		-72.265625
2419		-64.453125
2420		-70.312500
2421		-62.500000
2422		-66.406250
2423		-62.500000
2424		-64.453125
2425		-60.546875
2426		-64.453125
2427		-56.640625
2428		-62.500000
2429		-54.687500
2430		-60.546875
2431		-52.734375
2432		-58.593750
2433		-50.781250
2434		-56.640625
2435		-46.875000
2436		-54.687500
2437		-44.921875
2438		-50.781250
2439		-42.968750
2440		-44.921875
2441		-41.015625
2442		-42.968750
2443		-35.156250
2444		-41.015625
2445		-31.250000
2446		-37.109375
2447		-27.343750
2448		-33.203125
2449		-25.390625
2450		-29.296875
2451		-21.484375
2452		-27.343750
2453		-17.578125
2454		-23.437500
2455		-15.625000
2456		-17.578125
2457		-11.718750
2458		-13.671875
2459		-7.812500
2460		-11.718750
2461		-1.953125
2462		-7.812500
2463		1.953125
2464		-3.906250
2465		5.859375
2466		0.000000
2467		9.765625
2468		3.906250
2469		13.671875
2470		7.812500
2471		17.578125
2472		13.671875
2473		19.531250
2474		17.578125
2475		23.437500
2476		21.484375
2477		29.296875
2478		23.437500
2479		33.203125
2480		27.343750
2481		37.109375
2482		31.250000
2483		41.015625
2484		35.156250
2485		42.968750
2486		39.062500
2487		46.875000
2488		41.015625
2489		48.828125
2490		46.875000
2491		50.781250
2492		50.781250
2493		54.687500
2494		50.781250
2495		60.546875
2496		52.734375
2497		62.500000
2498		56.640625
2499		64.453125
2500		60.546875
2501		68.359375
2502		62.500000
2503		70.312500
2504		64.453125
2505		72.265625
2506		68.359375
2507		72.265625
2508		72.265625
2509		74.218750
2510		72.265625
2511		80.078125
2512		74.218750
2513		82.031250
2514		74.218750
2515		82.031250
2516		76.171875
2517		83.984375
2518		78.125000
2519		83.984375
2520		78.125000
2521		85.937500
2522		80.078125
2523		85.937500
2524		83.984375
2525		85.937500
2526		82.031250
2527		89.843750
2528		82.031250
2529		89.843750
2530		82.031250
2531		89.843750
2532		82.031250
2533		89.843750
2534		83.984375
2535		89.843750
2536		82.031250
2537		89.843750
2538		82.031250
2539		89.843750
2540		82.031250
2541		85.937500
2542		82.031250
2543		85.937500
2544		80.078125
2545		87.890625
2546		78.125000
2547		85.937500
2548		78.125000
2549		85.937500
2550		76.171875
2551		83.984375
2552		74.218750
2553		82.031250
2554		72.265625
2555		80.078125
2556		72.265625
2557		76.171875
2558		70.312500
2559		74.218750
2560		66.406250
2561		72.265625
2562		64.453125
2563		72.265625
2564		60.546875
2565		70.312500
2566		58.593750
2567		66.406250
2568		54.687500
2569		64.453125
2570		52.734375
2571		62.500000
2572		50.781250
2573		58.593750
2574		48.828125
2575		52.734375
2576		42.968750
2577		50.781250
2578		39.062500
2579		48.828125
2580		37.109375
2581		46.875000
2582		33.203125
2583		42.968750
2584		29.296875
2585		39.062500
2586		25.390625
2587		35.156250
2588		23.437500
2589		31.250000
2590		19.531250
2591		25.390625
2592		15.625000
2593		21.484375
2594		9.765625
2595		19.531250
2596		5.859375
2597		15.625000
2598		1.953125
2599		11.718750
2600		-1.953125
2601		7.812500
2602		-5.859375
2603		3.906250
2604		-9.765625
2605		0.000000
2606		-11.718750
2607		-3.906250
2608		-15.625000
2609		-9.765625
2610		-19.531250
2611		-13.671875
2612		-23.437500
2613		-15.625000
2614		-27.343750
2615		-19.531250
2616		-31.250000
2617		-23.437500
2618		-35.156250
2619		-25.390625
2620		-39.062500
2621		-29.296875
2622		-41.015625
2623		-33.203125
2624		-42.968750
2625		-39.062500
2626		-46.875000
2627		-41.015625
2628		-50.781250
2629		-42.968750
2630		-54.687500
2631		-44.921875
2632		-56.640625
2633		-48.828125
2634		-58.593750
2635		-50.781250
2636		-62.500000
2637		-52.734375
2638		-64.453125
2639		-56.640625
2640		-62.500000
2641		-60.546875
2642		-64.453125
2643		-62.500000
2644		-68.359375
2645		-62.500000
2646		-70.312500
2647		-62.500000
2648		-72.265625
2649		-64.453125
2650		-72.265625
2651		-66.406250
2652		-74.218750
2653		-66.406250
2654		-74.218750
2655		-68.359375
2656		-74.218750
2657		-68.359375
2658		-72.265625
2659		-70.312500
2660		-74.218750
2661		-68.359375
2662		-74.218750
2663		-68.359375
2664		-74.218750
2665		-68.359375
2666		-74.218750
2667		-66.406250
2668		-74.218750
2669		-66.406250
2670		-72.265625
2671		-64.453125
2672		-72.265625
2673		-64.453125
2674		-68.359375
2675		-64.453125
2676		-66.406250
2677		-62.500000
2678		-66.406250
2679		-58.593750
2680		-64.453125
2681		-56.640625
2682		-62.500000
2683		-54.687500
2684		-60.546875
2685		-52.734375
2686		-58.593750
2687		-48.828125
2688		-54.687500
2689		-46.875000
2690		-52.734375
2691		-46.875000
2692		-48.828125
2693		-42.968750
2694		-44.921875
2695		-37.109375
2696		-44.921875
2697		-35.156250
2698		-41.015625
2699		-31.250000
2700		-37.109375
2701		-27.343750
2702		-33.203125
2703		-23.437500
2704		-29.296875
2705		-21.484375
2706		-25.390625
2707		-17.578125
2708		-19.531250
2709		-15.625000
2710		-15.625000
2711		-11.718750
2712		-15.625000
2713		-5.859375
2714		-11.718750
2715		-1.953125
2716		-5.859375
2717		1.953125
2718		-1.953125
2719		5.859375
2720		0.000000
2721		9.765625
2722		3.906250
2723		15.625000
2724		9.765625
2725		15.625000
2726		15.625000
2727		19.531250
2728		17.578125
2729		25.390625
2730		19.531250
2731		29.296875
2732		23.437500
2733		33.203125
2734		27.343750
2735		37.109375
2736		31.250000
2737		41.015625
2738		35.156250
2739		44.921875
2740		39.062500
2741		46.875000
2742		44.921875
2743		48.828125
2744		46.875000
2745		54.687500
2746		48.828125
2747		56.640625
2748		50.781250
2749		60.546875
2750		54.687500
2751		64.453125
2752		56.640625
2753		66.406250
2754		60.546875
2755		68.359375
2756		62.500000
2757		70.312500
2758		68.359375
2759		70.312500
2760		70.312500
2761		74.218750
2762		70.312500
2763		78.125000
2764		72.265625
2765		80.078125
2766		72.265625
2767		80.078125
2768		76.171875
2769		82.031250
2770		76.171875
2771		83.984375
2772		78.125000
2773		85.937500
2774		80.078125
2775		85.937500
2776		82.031250
2777		85.937500
2778		82.031250
2779		87.890625
2780		82.031250
2781		89.843750
2782		82.031250
2783		89.843750
2784		82.031250
2785		89.843750
2786		82.031250
2787		89.843750
2788		82.031250
2789		89.843750
2790		82.031250
2791		89.843750
2792		83.984375
2793		85.937500
2794		83.984375
2795		85.937500
2796		80.078125
2797		87.890625
2798		80.078125
2799		87.890625
2800		78.125000
2801		85.937500
2802		78.125000
2803		85.937500
2804		74.218750
2805		83.984375
2806		74.218750
2807		82.031250
2808		74.218750
2809		78.125000
2810		72.265625
2811		76.171875
2812		68.359375
2813		74.218750
2814		66.406250
2815		74.218750
2816		62.500000
2817		72.265625
2818		60.546875
2819		68.359375
2820		56.640625
2821		66.406250
2822		54.687500
2823		64.453125
2824		54.687500
2825		60.546875
2826		50.781250
2827		56.640625
2828		46.875000
2829		52.734375
2830		42.968750
2831		50.781250
2832		39.062500
2833		48.828125
2834		35.156250
2835		44.921875
2836		31.250000
2837		41.015625
2838		27.343750
2839		37.109375
2840		25.390625
2841		33.203125
2842		23.437500
2843		29.296875
2844		19.531250
2845		25.390625
2846		13.671875
2847		21.484375
2848		9.765625
2849		19.531250
2850		3.906250
2851		15.625000
2852		1.953125
2853		11.718750
2854		-1.953125
2855		7.812500
2856		-5.859375
2857		1.953125
2858		-7.812500
2859		-1.953125
2860		-11.718750
2861		-5.859375
2862		-17.578125
2863		-9.765625
2864		-21.484375
2865		-11.718750
2866		-25.390625
2867		-15.625000
2868		-29.296875
2869		-19.531250
2870		-33.203125
2871		-23.437500
2872		-37.109375
2873		-27.343750
2874		-39.062500
2875		-29.296875
2876		-41.015625
2877		-35.156250
2878		-44.921875
2879		-39.062500
2880		-48.828125
2881		-41.015625
2882		-52.734375
2883		-42.968750
2884		-54.687500
2885		-46.875000
2886		-56.640625
2887		-48.828125
2888		-60.546875
2889		-52.734375
2890		-62.500000
2891		-54.687500
2892		-62.500000
2893		-56.640625
2894		-64.453125
2895		-60.546875
2896		-68.359375
2897		-60.546875
2898		-70.312500
2899		-62.500000
2900		-70.312500
2901		-62.500000
2902		-72.265625
2903		-64.453125
2904		-72.265625
2905		-66.406250
2906		-74.218750
2907		-66.406250
2908		-74.218750
2909		-66.406250
2910		-72.265625
2911		-70.312500
2912		-72.265625
2913		-70.312500
2914		-76.171875
2915		-68.359375
2916		-74.218750
2917		-68.359375
2918		-74.218750
2919		-66.406250
2920		-74.218750
2921		-66.406250
2922		-74.218750
2923		-66.406250
2924		-72.265625
2925		-64.453125
2926		-68.359375
2927		-66.406250
2928		-66.406250
2929		-64.453125
2930		-68.359375
2931		-60.546875
2932		-66.406250
2933		-58.593750
2934		-64.453125
2935		-56.640625
2936		-62.500000
2937		-54.687500
2938		-60.546875
2939		-50.781250
2940		-56.640625
2941		-48.828125
2942		-54.687500
2943		-46.875000
2944		-48.828125
2945		-44.921875
2946		-46.875000
2947		-41.015625
2948		-44.921875
2949		-35.156250
2950		-42.968750
2951		-33.203125
2952		-39.062500
2953		-29.296875
2954		-35.156250
2955		-27.343750
2956		-33.203125
2957		-23.437500
2958		-29.296875
2959		-19.531250
2960		-23.437500
2961		-17.578125
2962		-19.531250
2963		-13.671875
2964		-15.625000
2965		-7.812500
2966		-13.671875
2967		-3.906250
2968		-9.765625
2969		0.000000
2970		-5.859375
2971		3.906250
2972		-1.953125
2973		7.812500
2974		1.953125
2975		11.718750
2976		5.859375
2977		13.671875
2978		11.718750
2979		17.578125
2980		15.625000
2981		23.437500
2982		17.578125
2983		27.343750
2984		21.484375
2985		31.250000
2986		25.390625
2987		35.156250
2988		29.296875
2989		39.062500
2990		33.203125
2991		42.968750
2992		35.156250
2993		42.968750
2994		42.968750
2995		46.875000
2996		44.921875
2997		50.781250
2998		44.921875
2999		54.687500
3000		48.828125
3001		58.593750
3002		52.734375
3003		60.546875
3004		54.687500
3005		64.453125
3006		58.593750
3007		66.406250
3008		60.546875
3009		68.359375
3010		66.406250
3011		70.312500
3012		68.359375
3013		72.265625
3014		68.359375
3015		76.171875
3016		70.312500
3017		78.125000
3018		72.265625
3019		80.078125
3020		74.218750
3021		82.031250
3022		76.171875
3023		83.984375
3024		76.171875
3025		83.984375
3026		78.125000
3027		85.937500
3028		82.031250
3029		83.984375
3030		82.031250
3031		87.890625
3032		82.031250
3033		87.890625
3034		82.031250
3035		87.890625
3036		82.031250
3037		89.843750
3038		82.031250
3039		89.843750
3040		82.031250
3041		89.843750
3042		82.031250
3043		89.843750
3044		83.984375
3045		87.890625
3046		83.984375
3047		85.937500
3048		80.078125
3049		87.890625
3050		80.078125
3051		87.890625
3052		78.125000
3053		87.890625
3054		78.125000
3055		85.937500
3056		76.171875
3057		83.984375
3058		74.218750
3059		83.984375
3060		74.218750
3061		82.031250
3062		74.218750
3063		78.125000
3064		68.359375
3065		76.171875
3066		66.406250
3067		76.171875
3068		64.453125
3069		72.265625
3070		62.500000
3071		70.312500
3072		60.546875
3073		68.359375
3074		56.640625
3075		66.406250
3076		56.640625
3077		62.500000
3078		52.734375
3079		58.593750
3080		48.828125
3081		54.687500
3082		44.921875
3083		54.687500
3084		42.968750
3085		50.781250
3086		39.062500
3087		46.875000
3088		35.156250
3089		44.921875
3090		31.250000
3091		41.015625
3092		27.343750
3093		37.109375
3094		25.390625
3095		31.250000
3096		21.484375
3097		27.343750
3098		15.625000
3099		23.437500
3100		11.718750
3101		21.484375
3102		7.812500
3103		17.578125
3104		3.906250
3105		13.671875
3106		0.000000
3107		9.765625
3108		-3.906250
3109		5.859375
3110		-5.859375
3111		1.953125
3112		-9.765625
3113		-3.906250
3114		-15.625000
3115		-7.812500
3116		-19.531250
3117		-9.765625
3118		-21.484375
3119		-11.718750
3120		-27.343750
3121		-17.578125
3122		-29.296875
3123		-21.484375
3124		-33.203125
3125		-25.390625
3126		-37.109375
3127		-27.343750
3128		-39.062500
3129		-33.203125
3130		-41.015625
3131		-37.109375
3132		-46.875000
3133		-39.062500
3134		-50.781250
3135		-41.015625
3136		-52.734375
3137		-44.921875
3138		-56.640625
3139		-46.875000
3140		-58.593750
3141		-50.781250
3142		-60.546875
3143		-52.734375
3144		-60.546875
3145		-54.687500
3146		-62.500000
3147		-58.593750
3148		-66.406250
3149		-60.546875
3150		-70.312500
3151		-60.546875
3152		-70.312500
3153		-62.500000
3154		-72.265625
3155		-62.500000
3156		-72.265625
3157		-64.453125
3158		-72.265625
3159		-66.406250
3160		-74.218750
3161		-66.406250
3162		-72.265625
3163		-70.312500
3164		-74.218750
3165		-68.359375
3166		-76.171875
3167		-68.359375
3168		-76.171875
3169		-68.359375
3170		-74.218750
3171		-68.359375
3172		-74.218750
3173		-66.406250
3174		-74.218750
3175		-66.406250
3176		-72.265625
3177		-64.453125
3178		-70.312500
3179		-66.406250
3180		-68.359375
3181		-64.453125
3182		-68.359375
3183		-60.546875
3184		-66.406250
3185		-58.593750
3186		-66.406250
3187		-58.593750
3188		-62.500000
3189		-54.687500
3190		-62.500000
3191		-52.734375
3192		-58.593750
3193		-50.781250
3194		-56.640625
3195		-48.828125
3196		-50.781250
3197		-46.875000
3198		-48.828125
3199		-41.015625
3200		-48.828125
3201		-39.062500
3202		-44.921875
3203		-37.109375
3204		-41.015625
3205		-33.203125
3206		-39.062500
3207		-29.296875
3208		-35.156250
3209		-25.390625
3210		-31.250000
3211		-21.484375
3212		-25.390625
3213		-21.484375
3214		-21.484375
3215		-17.578125
3216		-19.531250
3217		-9.765625
3218		-17.578125
3219		-5.859375
3220		-13.671875
3221		-3.906250
3222		-7.812500
3223		0.000000
3224		-3.906250
3225		5.859375
3226		0.000000
3227		9.765625
3228		3.906250
3229		9.765625
3230		9.765625
3231		13.671875
3232		11.718750
3233		19.531250
3234		15.625000
3235		25.390625
3236		17.578125
3237		29.296875
3238		23.437500
3239		33.203125
3240		27.343750
3241		35.156250
3242		29.296875
3243		39.062500
3244		33.203125
3245		41.015625
3246		39.062500
3247		44.921875
3248		42.968750
3249		48.828125
3250		42.968750
3251		52.734375
3252		46.875000
3253		56.640625
3254		50.781250
3255		58.593750
3256		52.734375
3257		62.500000
3258		56.640625
3259		64.453125
3260		58.593750
3261		68.359375
3262		64.453125
3263		68.359375
3264		66.406250
3265		70.312500
3266		68.359375
3267		74.218750
3268		68.359375
3269		78.125000
3270		70.312500
3271		78.125000
3272		72.265625
3273		82.031250
3274		74.218750
3275		82.031250
3276		76.171875
3277		83.984375
3278		78.125000
3279		83.984375
3280		82.031250
3281		83.984375
3282		80.078125
3283		87.890625
3284		80.078125
3285		87.890625
3286		82.031250
3287		89.843750
3288		82.031250
3289		89.843750
3290		82.031250
3291		89.843750
3292		82.031250
3293		89.843750
3294		82.031250
3295		89.843750
3296		83.984375
3297		87.890625
3298		83.984375
3299		87.890625
3300		82.031250
3301		87.890625
3302		80.078125
3303		87.890625
3304		80.078125
3305		87.890625
3306		78.125000
3307		85.937500
3308		78.125000
3309		85.937500
3310		76.171875
3311		83.984375
3312		76.171875
3313		82.031250
3314		76.171875
3315		78.125000
3316		70.312500
3317		78.125000
3318		68.359375
3319		78.125000
3320		66.406250
3321		74.218750
3322		64.453125
3323		72.265625
3324		60.546875
3325		70.312500
3326		58.593750
3327		68.359375
3328		56.640625
3329		64.453125
3330		56.640625
3331		60.546875
3332		52.734375
3333		56.640625
3334		46.875000
3335		56.640625
3336		44.921875
3337		52.734375
3338		41.015625
3339		48.828125
3340		37.109375
3341		46.875000
3342		33.203125
3343		42.968750
3344		29.296875
3345		41.015625
3346		29.296875
3347		35.156250
3348		25.390625
3349		29.296875
3350		17.578125
3351		27.343750
3352		13.671875
3353		23.437500
3354		9.765625
3355		21.484375
3356		7.812500
3357		15.625000
3358		3.906250
3359		11.718750
3360		0.000000
3361		9.765625
3362		-1.953125
3363		3.906250
3364		-5.859375
3365		-1.953125
3366		-11.718750
3367		-5.859375
3368		-15.625000
3369		-7.812500
3370		-19.531250
3371		-11.718750
3372		-23.437500
3373		-15.625000
3374		-29.296875
3375		-17.578125
3376		-31.250000
3377		-21.484375
3378		-35.156250
3379		-25.390625
3380		-37.109375
3381		-31.250000
3382		-39.062500
3383		-35.156250
3384		-44.921875
3385		-37.109375
3386		-48.828125
3387		-39.062500
3388		-50.781250
3389		-42.968750
3390		-54.687500
3391		-44.921875
3392		-56.640625
3393		-48.828125
3394		-58.593750
3395		-50.781250
3396		-60.546875
3397		-52.734375
3398		-60.546875
3399		-56.640625
3400		-64.453125
3401		-58.593750
3402		-66.406250
3403		-58.593750
3404		-70.312500
3405		-60.546875
3406		-70.312500
3407		-62.500000
3408		-72.265625
3409		-64.453125
3410		-72.265625
3411		-64.453125
3412		-74.218750
3413		-66.406250
3414		-72.265625
3415		-70.312500
3416		-72.265625
3417		-70.312500
3418		-74.218750
3419		-68.359375
3420		-74.218750
3421		-68.359375
3422		-76.171875
3423		-68.359375
3424		-74.218750
3425		-66.406250
3426		-74.218750
3427		-66.406250
3428		-74.218750
3429		-66.406250
3430		-72.265625
3431		-66.406250
3432		-68.359375
3433		-66.406250
3434		-68.359375
3435		-62.500000
3436		-68.359375
3437		-60.546875
3438		-66.406250
3439		-58.593750
3440		-64.453125
3441		-56.640625
3442		-62.500000
3443		-54.687500
3444		-60.546875
3445		-52.734375
3446		-58.593750
3447		-50.781250
3448		-52.734375
3449		-48.828125
3450		-50.781250
3451		-44.921875
3452		-50.781250
3453		-41.015625
3454		-46.875000
3455		-37.109375
3456		-42.968750
3457		-35.156250
3458		-41.015625
3459		-31.250000
3460		-37.109375
3461		-27.343750
3462		-33.203125
3463		-23.437500
3464		-27.343750
3465		-23.437500
3466		-25.390625
3467		-19.531250
3468		-21.484375
3469		-13.671875
3470		-17.578125
3471		-9.765625
3472		-15.625000
3473		-7.812500
3474		-11.718750
3475		-1.953125
3476		-5.859375
3477		1.953125
3478		-1.953125
3479		5.859375
3480		1.953125
3481		7.812500
3482		5.859375
3483		11.718750
3484		9.765625
3485		17.578125
3486		11.718750
3487		21.484375
3488		15.625000
3489		25.390625
3490		19.531250
3491		29.296875
3492		23.437500
3493		33.203125
3494		27.343750
3495		37.109375
3496		31.250000
3497		39.062500
3498		37.109375
3499		41.015625
3500		41.015625
3501		44.921875
3502		42.968750
3503		50.781250
3504		44.921875
3505		54.687500
3506		48.828125
3507		56.640625
3508		50.781250
3509		60.546875
3510		54.687500
3511		62.500000
3512		56.640625
3513		66.406250
3514		60.546875
3515		66.406250
3516		64.453125
3517		68.359375
3518		66.406250
3519		74.218750
3520		68.359375
3521		76.171875
3522		68.359375
3523		78.125000
3524		72.265625
3525		80.078125
3526		72.265625
3527		82.031250
3528		74.218750
3529		82.031250
3530		76.171875
3531		83.984375
3532		80.078125
3533		83.984375
3534		82.031250
3535		85.937500
3536		80.078125
3537		87.890625
3538		80.078125
3539		87.890625
3540		82.031250
3541		89.843750
3542		82.031250
3543		89.843750
3544		82.031250
3545		89.843750
3546		82.031250
3547		89.843750
3548		85.937500
3549		87.890625
3550		85.937500
3551		87.890625
3552		82.031250
3553		89.843750
3554		82.031250
3555		89.843750
3556		82.031250
3557		87.890625
3558		80.078125
3559		87.890625
3560		78.125000
3561		85.937500
3562		76.171875
3563		85.937500
3564		76.171875
3565		83.984375
3566		76.171875
3567		80.078125
3568		72.265625
3569		80.078125
3570		70.312500
3571		78.125000
3572		68.359375
3573		78.125000
3574		66.406250
3575		76.171875
3576		64.453125
3577		74.218750
3578		62.500000
3579		70.312500
3580		58.593750
3581		68.359375
3582		58.593750
3583		62.500000
3584		54.687500
3585		60.546875
3586		50.781250
3587		58.593750
3588		46.875000
3589		56.640625
3590		42.968750
3591		52.734375
3592		41.015625
3593		48.828125
3594		37.109375
3595		46.875000
3596		33.203125
3597		42.968750
3598		31.250000
3599		39.062500
3600		27.343750
3601		33.203125
3602		21.484375
3603		29.296875
3604		17.578125
3605		27.343750
3606		15.625000
3607		23.437500
3608		11.718750
3609		19.531250
3610		7.812500
3611		17.578125
3612		1.953125
3613		11.718750
3614		0.000000
3615		7.812500
3616		-3.906250
3617		1.953125
3618		-7.812500
3619		-1.953125
3620		-13.671875
3621		-3.906250
3622		-17.578125
3623		-7.812500
3624		-19.531250
3625		-9.765625
3626		-25.390625
3627		-13.671875
3628		-29.296875
3629		-19.531250
3630		-31.250000
3631		-23.437500
3632		-33.203125
3633		-27.343750
3634		-37.109375
3635		-31.250000
3636		-42.968750
3637		-35.156250
3638		-44.921875
3639		-35.156250
3640		-48.828125
3641		-39.062500
3642		-50.781250
3643		-42.968750
3644		-54.687500
3645		-44.921875
3646		-56.640625
3647		-48.828125
3648		-58.593750
3649		-50.781250
3650		-58.593750
3651		-54.687500
3652		-62.500000
3653		-56.640625
3654		-66.406250
3655		-56.640625
3656		-66.406250
3657		-58.593750
3658		-70.312500
3659		-60.546875
3660		-70.312500
3661		-62.500000
3662		-70.312500
3663		-64.453125
3664		-72.265625
3665		-64.453125
3666		-70.312500
3667		-68.359375
3668		-70.312500
3669		-68.359375
3670		-74.218750
3671		-68.359375
3672		-74.218750
3673		-66.406250
3674		-74.218750
3675		-66.406250
3676		-74.218750
3677		-66.406250
3678		-74.218750
3679		-66.406250
3680		-74.218750
3681		-66.406250
3682		-72.265625
3683		-66.406250
3684		-68.359375
3685		-66.406250
3686		-70.312500
3687		-60.546875
3688		-68.359375
3689		-60.546875
3690		-66.406250
3691		-58.593750
3692		-66.406250
3693		-56.640625
3694		-64.453125
3695		-54.687500
3696		-62.500000
3697		-52.734375
3698		-58.593750
3699		-50.781250
3700		-54.687500
3701		-50.781250
3702		-52.734375
3703		-46.875000
3704		-50.781250
3705		-42.968750
3706		-48.828125
3707		-39.062500
3708		-44.921875
3709		-37.109375
3710		-42.968750
3711		-33.203125
3712		-39.062500
3713		-29.296875
3714		-35.156250
3715		-27.343750
3716		-29.296875
3717		-25.390625
3718		-25.390625
3719		-21.484375
3720		-23.437500
3721		-15.625000
3722		-21.484375
3723		-11.718750
3724		-17.578125
3725		-7.812500
3726		-13.671875
3727		-3.906250
3728		-9.765625
3729		0.000000
3730		-5.859375
3731		3.906250
3732		-1.953125
3733		5.859375
3734		3.906250
3735		9.765625
3736		7.812500
3737		15.625000
3738		9.765625
3739		19.531250
3740		15.625000
3741		23.437500
3742		17.578125
3743		27.343750
3744		21.484375
3745		31.250000
3746		25.390625
3747		35.156250
3748		29.296875
3749		39.062500
3750		35.156250
3751		39.062500
3752		39.062500
3753		42.968750
3754		41.015625
3755		48.828125
3756		42.968750
3757		52.734375
3758		46.875000
3759		56.640625
3760		48.828125
3761		58.593750
3762		52.734375
3763		62.500000
3764		54.687500
3765		64.453125
3766		58.593750
3767		64.453125
3768		64.453125
3769		68.359375
3770		66.406250
3771		72.265625
3772		66.406250
3773		74.218750
3774		68.359375
3775		76.171875
3776		70.312500
3777		78.125000
3778		72.265625
3779		80.078125
3780		74.218750
3781		82.031250
3782		76.171875
3783		83.984375
3784		80.078125
3785		83.984375
3786		80.078125
3787		83.984375
3788		80.078125
3789		87.890625
3790		82.031250
3791		87.890625
3792		82.031250
3793		89.843750
3794		82.031250
3795		89.843750
3796		82.031250
3797		89.843750
3798		82.031250
3799		89.843750
3800		85.937500
3801		87.890625
3802		85.937500
3803		87.890625
3804		82.031250
3805		89.843750
3806		82.031250
3807		89.843750
3808		82.031250
3809		87.890625
3810		80.078125
3811		87.890625
3812		80.078125
3813		87.890625
3814		78.125000
3815		85.937500
3816		78.125000
3817		83.984375
3818		78.125000
3819		82.031250
3820		74.218750
3821		80.078125
3822		72.265625
3823		80.078125
3824		70.312500
3825		78.125000
3826		66.406250
3827		76.171875
3828		64.453125
3829		74.218750
3830		64.453125
3831		72.265625
3832		62.500000
3833		70.312500
3834		60.546875
3835		64.453125
3836		56.640625
3837		62.500000
3838		50.781250
3839		60.546875
3840		48.828125
3841		56.640625
3842		46.875000
3843		54.687500
3844		42.968750
3845		50.781250
3846		39.062500
3847		46.875000
3848		35.156250
3849		44.921875
3850		33.203125
3851		41.015625
3852		31.250000
3853		35.156250
3854		25.390625
3855		31.250000
3856		21.484375
3857		29.296875
3858		15.625000
3859		25.390625
3860		13.671875
3861		21.484375
3862		9.765625
3863		17.578125
3864		5.859375
3865		13.671875
3866		1.953125
3867		11.718750
3868		0.000000
3869		5.859375
3870		-3.906250
3871		1.953125
3872		-9.765625
3873		-1.953125
3874		-13.671875
3875		-3.906250
3876		-17.578125
3877		-7.812500
3878		-21.484375
3879		-11.718750
3880		-25.390625
3881		-17.578125
3882		-29.296875
3883		-19.531250
3884		-31.250000
3885		-23.437500
3886		-35.156250
3887		-29.296875
3888		-39.062500
3889		-31.250000
3890		-42.968750
3891		-33.203125
3892		-46.875000
3893		-37.109375
3894		-48.828125
3895		-41.015625
3896		-50.781250
3897		-42.968750
3898		-54.687500
3899		-46.875000
3900		-54.687500
3901		-50.781250
3902		-58.593750
3903		-52.734375
3904		-60.546875
3905		-56.640625
3906		-64.453125
3907		-56.640625
3908		-66.406250
3909		-58.593750
3910		-66.406250
3911		-60.546875
3912		-70.312500
3913		-60.546875
3914		-70.312500
3915		-64.453125
3916		-70.312500
3917		-64.453125
3918		-70.312500
3919		-68.359375
3920		-72.265625
3921		-68.359375
3922		-72.265625
3923		-68.359375
3924		-74.218750
3925		-68.359375
3926		-74.218750
3927		-68.359375
3928		-74.218750
3929		-68.359375
3930		-72.265625
3931		-70.312500
3932		-72.265625
3933		-68.359375
3934		-72.265625
3935		-68.359375
3936		-70.312500
3937		-68.359375
3938		-70.312500
3939		-64.453125
3940		-68.359375
3941		-62.500000
3942		-68.359375
3943		-60.546875
3944		-66.406250
3945		-58.593750
3946		-62.500000
3947		-58.593750
3948		-62.500000
3949		-56.640625
3950		-58.593750
3951		-54.687500
3952		-56.640625
3953		-52.734375
3954		-54.687500
3955		-48.828125
3956		-50.781250
3957		-46.875000
3958		-48.828125
3959		-42.968750
3960		-46.875000
3961		-41.015625
3962		-42.968750
3963		-37.109375
3964		-39.062500
3965		-33.203125
3966		-37.109375
3967		-31.250000
3968		-33.203125
3969		-27.343750
3970		-29.296875
3971		-23.437500
3972		-25.390625
3973		-19.531250
3974		-21.484375
3975		-15.625000
3976		-17.578125
3977		-11.718750
3978		-13.671875
3979		-7.812500
3980		-9.765625
3981		-5.859375
3982		-5.859375
3983		0.000000
3984		-1.953125
3985		3.906250
3986		1.953125
3987		7.812500
3988		5.859375
3989		11.718750
3990		9.765625
3991		15.625000
3992		13.671875
3993		19.531250
3994		17.578125
3995		21.484375
3996		21.484375
3997		25.390625
3998		23.437500
3999		31.250000
4000		29.296875
4001		35.156250
4002		33.203125
4003		37.109375
4004		37.109375
4005		41.015625
4006		39.062500
4007		44.921875
4008		42.968750
4009		48.828125
4010		46.875000
4011		50.781250
4012		48.828125
4013		54.687500
4014		50.781250
4015		56.640625
4016		54.687500
4017		60.546875
4018		58.593750
4019		62.500000
4020		60.546875
4021		66.406250
4022		64.453125
4023		68.359375
4024		66.406250
4025		70.312500
4026		68.359375
4027		72.265625
4028		70.312500
4029		74.218750
4030		72.265625
4031		78.125000
4032		76.171875
4033		78.125000
4034		76.171875
4035		80.078125
4036		78.125000
4037		82.031250
4038		80.078125
4039		82.031250
4040		80.078125
4041		83.984375
4042		82.031250
4043		85.937500
4044		83.984375
4045		85.937500
4046		83.984375
4047		87.890625
4048		83.984375
4049		87.890625
4050		83.984375
4051		87.890625
4052		83.984375
4053		87.890625
4054		85.937500
4055		87.890625
4056		83.984375
4057		87.890625
4058		83.984375
4059		87.890625
4060		83.984375
4061		87.890625
4062		83.984375
4063		85.937500
4064		82.031250
4065		85.937500
4066		82.031250
4067		85.937500
4068		80.078125
4069		83.984375
4070		78.125000
4071		82.031250
4072		76.171875
4073		80.078125
4074		76.171875
4075		80.078125
4076		74.218750
4077		78.125000
4078		72.265625
4079		76.171875
4080		70.312500
4081		74.218750
4082		66.406250
4083		72.265625
4084		62.500000
4085		68.359375
4086		62.500000
4087		66.406250
4088		58.593750
4089		64.453125
4090		54.687500
4091		60.546875
4092		52.734375
4093		58.593750
4094		50.781250
4095		54.687500
4096		46.875000
4097		52.734375
4098		42.968750
4099		48.828125
4100		41.015625
4101		44.921875
4102		37.109375
4103		42.968750
4104		33.203125
4105		37.109375
4106		29.296875
4107		35.156250
4108		25.390625
4109		31.250000
4110		21.484375
4111		27.343750
4112		17.578125
4113		23.437500
4114		13.671875
4115		19.531250
4116		9.765625
4117		15.625000
4118		5.859375
4119		11.718750
4120		1.953125
4121		7.812500
4122		-1.953125
4123		3.906250
4124		-5.859375
4125		0.000000
4126		-9.765625
4127		-3.906250
4128		-13.671875
4129		-7.812500
4130		-17.578125
4131		-11.718750
4132		-21.484375
4133		-15.625000
4134		-25.390625
4135		-19.531250
4136		-29.296875
4137		-23.437500
4138		-31.250000
4139		-27.343750
4140		-37.109375
4141		-29.296875
4142		-39.062500
4143		-33.203125
4144		-42.968750
4145		-37.109375
4146		-44.921875
4147		-41.015625
4148		-48.828125
4149		-42.968750
4150		-50.781250
4151		-46.875000
4152		-54.687500
4153		-48.828125
4154		-56.640625
4155		-52.734375
4156		-58.593750
4157		-54.687500
4158		-60.546875
4159		-56.640625
4160		-62.500000
4161		-58.593750
4162		-64.453125
4163		-60.546875
4164		-66.406250
4165		-62.500000
4166		-68.359375
4167		-64.453125
4168		-70.312500
4169		-66.406250
4170		-70.312500
4171		-66.406250
4172		-70.312500
4173		-68.359375
4174		-72.265625
4175		-68.359375
4176		-72.265625
4177		-68.359375
4178		-72.265625
4179		-68.359375
4180		-72.265625
4181		-70.312500
4182		-72.265625
4183		-68.359375
4184		-72.265625
4185		-68.359375
4186		-72.265625
4187		-68.359375
4188		-70.312500
4189		-68.359375
4190		-70.312500
4191		-66.406250
4192		-68.359375
4193		-66.406250
4194		-68.359375
4195		-64.453125
4196		-66.406250
4197		-62.500000
4198		-64.453125
4199		-60.546875
4200		-62.500000
4201		-58.593750
4202		-60.546875
4203		-56.640625
4204		-58.593750
4205		-54.687500
4206		-56.640625
4207		-52.734375
4208		-54.687500
4209		-48.828125
4210		-50.781250
4211		-44.921875
4212		-46.875000
4213		-42.968750
4214		-44.921875
4215		-41.015625
4216		-41.015625
4217		-37.109375
4218		-39.062500
4219		-33.203125
4220		-35.156250
4221		-29.296875
4222		-31.250000
4223		-27.343750
4224		-27.343750
4225		-23.437500
4226		-25.390625
4227		-19.531250
4228		-21.484375
4229		-15.625000
4230		-17.578125
4231		-9.765625
4232		-13.671875
4233		-7.812500
4234		-9.765625
4235		-3.906250
4236		-5.859375
4237		0.000000
4238		-1.953125
4239		3.906250
4240		1.953125
4241		9.765625
4242		5.859375
4243		11.718750
4244		9.765625
4245		15.625000
4246		13.671875
4247		19.531250
4248		17.578125
4249		23.437500
4250		21.484375
4251		27.343750
4252		25.390625
4253		31.250000
4254		29.296875
4255		35.156250
4256		33.203125
4257		39.062500
4258		37.109375
4259		41.015625
4260		41.015625
4261		44.921875
4262		42.968750
4263		48.828125
4264		46.875000
4265		50.781250
4266		50.781250
4267		54.687500
4268		52.734375
4269		58.593750
4270		56.640625
4271		60.546875
4272		58.593750
4273		64.453125
4274		62.500000
4275		66.406250
4276		64.453125
4277		68.359375
4278		66.406250
4279		72.265625
4280		70.312500
4281		72.265625
4282		72.265625
4283		76.171875
4284		74.218750
4285		78.125000
4286		74.218750
4287		80.078125
4288		78.125000
4289		80.078125
4290		78.125000
4291		82.031250
4292		80.078125
4293		83.984375
4294		82.031250
4295		85.937500
4296		82.031250
4297		85.937500
4298		82.031250
4299		85.937500
4300		83.984375
4301		87.890625
4302		83.984375
4303		87.890625
4304		83.984375
4305		87.890625
4306		85.937500
4307		87.890625
4308		85.937500
4309		87.890625
4310		85.937500
4311		87.890625
4312		83.984375
4313		87.890625
4314		83.984375
4315		85.937500
4316		83.984375
4317		85.937500
4318		82.031250
4319		85.937500
4320		80.078125
4321		83.984375
4322		80.078125
4323		83.984375
4324		78.125000
4325		82.031250
4326		76.171875
4327		80.078125
4328		76.171875
4329		80.078125
4330		74.218750
4331		76.171875
4332		70.312500
4333		76.171875
4334		68.359375
4335		74.218750
4336		66.406250
4337		70.312500
4338		64.453125
4339		68.359375
4340		62.500000
4341		66.406250
4342		58.593750
4343		62.500000
4344		54.687500
4345		60.546875
4346		52.734375
4347		56.640625
4348		48.828125
4349		54.687500
4350		44.921875
4351		50.781250
4352		42.968750
4353		46.875000
4354		39.062500
4355		44.921875
4356		35.156250
4357		41.015625
4358		33.203125
4359		37.109375
4360		29.296875
4361		35.156250
4362		23.437500
4363		29.296875
4364		21.484375
4365		27.343750
4366		17.578125
4367		23.437500
4368		11.718750
4369		17.578125
4370		9.765625
4371		15.625000
4372		5.859375
4373		9.765625
4374		1.953125
4375		7.812500
4376		-1.953125
4377		1.953125
4378		-5.859375
4379		0.000000
4380		-9.765625
4381		-3.906250
4382		-15.625000
4383		-9.765625
4384		-19.531250
4385		-13.671875
4386		-23.437500
4387		-15.625000
4388		-25.390625
4389		-19.531250
4390		-29.296875
4391		-23.437500
4392		-33.203125
4393		-27.343750
4394		-37.109375
4395		-31.250000
4396		-39.062500
4397		-33.203125
4398		-42.968750
4399		-37.109375
4400		-46.875000
4401		-41.015625
4402		-48.828125
4403		-42.968750
4404		-50.781250
4405		-46.875000
4406		-52.734375
4407		-48.828125
4408		-56.640625
4409		-52.734375
4410		-58.593750
4411		-54.687500
4412		-60.546875
4413		-56.640625
4414		-62.500000
4415		-58.593750
4416		-64.453125
4417		-60.546875
4418		-66.406250
4419		-62.500000
4420		-68.359375
4421		-64.453125
4422		-68.359375
4423		-66.406250
4424		-70.312500
4425		-66.406250
4426		-70.312500
4427		-66.406250
4428		-70.312500
4429		-68.359375
4430		-72.265625
4431		-68.359375
4432		-72.265625
4433		-68.359375
4434		-72.265625
4435		-68.359375
4436		-72.265625
4437		-68.359375
4438		-72.265625
4439		-68.359375
4440		-70.312500
4441		-68.359375
4442		-70.312500
4443		-66.406250
4444		-68.359375
4445		-66.406250
4446		-68.359375
4447		-64.453125
4448		-66.406250
4449		-62.500000
4450		-64.453125
4451		-60.546875
4452		-64.453125
4453		-58.593750
4454		-60.546875
4455		-56.640625
4456		-58.593750
4457		-54.687500
4458		-56.640625
4459		-52.734375
4460		-54.687500
4461		-48.828125
4462		-52.734375
4463		-46.875000
4464		-48.828125
4465		-44.921875
4466		-46.875000
4467		-41.015625
4468		-42.968750
4469		-39.062500
4470		-41.015625
4471		-35.156250
4472		-37.109375
4473		-31.250000
4474		-33.203125
4475		-27.343750
4476		-29.296875
4477		-23.437500
4478		-25.390625
4479		-21.484375
4480		-23.437500
4481		-17.578125
4482		-19.531250
4483		-13.671875
4484		-15.625000
4485		-9.765625
4486		-11.718750
4487		-5.859375
4488		-7.812500
4489		-1.953125
4490		-3.906250
4491		1.953125
4492		0.000000
4493		5.859375
4494		3.906250
4495		9.765625
4496		7.812500
4497		13.671875
4498		11.718750
4499		17.578125
4500		15.625000
4501		21.484375
4502		19.531250
4503		25.390625
4504		23.437500
4505		31.250000
4506		27.343750
4507		33.203125
4508		31.250000
4509		37.109375
4510		35.156250
4511		41.015625
4512		39.062500
4513		42.968750
4514		42.968750
4515		46.875000
4516		44.921875
4517		50.781250
4518		48.828125
4519		54.687500
4520		52.734375
4521		56.640625
4522		54.687500
4523		60.546875
4524		58.593750
4525		62.500000
4526		60.546875
4527		66.406250
4528		62.500000
4529		68.359375
4530		66.406250
4531		70.312500
4532		68.359375
4533		72.265625
4534		70.312500
4535		74.218750
4536		72.265625
4537		78.125000
4538		74.218750
4539		80.078125
4540		76.171875
4541		80.078125
4542		78.125000
4543		82.031250
4544		80.078125
4545		83.984375
4546		82.031250
4547		83.984375
4548		82.031250
4549		85.937500
4550		83.984375
4551		85.937500
4552		83.984375
4553		87.890625
4554		83.984375
4555		87.890625
4556		83.984375
4557		87.890625
4558		85.937500
4559		87.890625
4560		85.937500
4561		89.843750
4562		85.937500
4563		87.890625
4564		83.984375
4565		87.890625
4566		85.937500
4567		87.890625
4568		83.984375
4569		87.890625
4570		83.984375
4571		85.937500
4572		82.031250
4573		85.937500
4574		80.078125
4575		83.984375
4576		80.078125
4577		83.984375
4578		78.125000
4579		83.984375
4580		76.171875
4581		82.031250
4582		74.218750
4583		78.125000
4584		72.265625
4585		76.171875
4586		70.312500
4587		76.171875
4588		68.359375
4589		74.218750
4590		66.406250
4591		72.265625
4592		64.453125
4593		68.359375
4594		60.546875
4595		66.406250
4596		58.593750
4597		62.500000
4598		54.687500
4599		60.546875
4600		50.781250
4601		56.640625
4602		48.828125
4603		52.734375
4604		44.921875
4605		50.781250
4606		42.968750
4607		46.875000
4608		37.109375
4609		42.968750
4610		33.203125
4611		41.015625
4612		31.250000
4613		37.109375
4614		27.343750
4615		33.203125
4616		23.437500
4617		29.296875
4618		19.531250
4619		25.390625
4620		15.625000
4621		21.484375
4622		11.718750
4623		17.578125
4624		7.812500
4625		13.671875
4626		3.906250
4627		9.765625
4628		0.000000
4629		5.859375
4630		-3.906250
4631		1.953125
4632		-7.812500
4633		-1.953125
4634		-11.718750
4635		-5.859375
4636		-15.625000
4637		-9.765625
4638		-19.531250
4639		-13.671875
4640		-23.437500
4641		-17.578125
4642		-27.343750
4643		-21.484375
4644		-31.250000
4645		-25.390625
4646		-33.203125
4647		-29.296875
4648		-37.109375
4649		-31.250000
4650		-41.015625
4651		-35.156250
4652		-42.968750
4653		-37.109375
4654		-46.875000
4655		-41.015625
4656		-48.828125
4657		-44.921875
4658		-52.734375
4659		-46.875000
4660		-54.687500
4661		-50.781250
4662		-56.640625
4663		-52.734375
4664		-58.593750
4665		-54.687500
4666		-60.546875
4667		-56.640625
4668		-62.500000
4669		-58.593750
4670		-64.453125
4671		-60.546875
4672		-66.406250
4673		-62.500000
4674		-68.359375
4675		-64.453125
4676		-68.359375
4677		-66.406250
4678		-70.312500
4679		-66.406250
4680		-70.312500
4681		-66.406250
4682		-72.265625
4683		-68.359375
4684		-72.265625
4685		-68.359375
4686		-72.265625
4687		-68.359375
4688		-72.265625
4689		-68.359375
4690		-72.265625
4691		-68.359375
4692		-70.312500
4693		-68.359375
4694		-70.312500
4695		-66.406250
4696		-70.312500
4697		-66.406250
4698		-68.359375
4699		-64.453125
4700		-66.406250
4701		-64.453125
4702		-66.406250
4703		-62.500000
4704		-64.453125
4705		-60.546875
4706		-62.500000
4707		-58.593750
4708		-60.546875
4709		-56.640625
4710		-58.593750
4711		-54.687500
4712		-56.640625
4713		-50.781250
4714		-52.734375
4715		-48.828125
4716		-50.781250
4717		-46.875000
4718		-48.828125
4719		-42.968750
4720		-44.921875
4721		-41.015625
4722		-42.968750
4723		-37.109375
4724		-41.015625
4725		-35.156250
4726		-35.156250
4727		-31.250000
4728		-31.250000
4729		-27.343750
4730		-29.296875
4731		-23.437500
4732		-25.390625
4733		-19.531250
4734		-21.484375
4735		-15.625000
4736		-17.578125
4737		-11.718750
4738		-13.671875
4739		-7.812500
4740		-9.765625
4741		-3.906250
4742		-5.859375
4743		0.000000
4744		-1.953125
4745		3.906250
4746		0.000000
4747		7.812500
4748		5.859375
4749		11.718750
4750		9.765625
4751		15.625000
4752		13.671875
4753		19.531250
4754		17.578125
4755		23.437500
4756		21.484375
4757		27.343750
4758		25.390625
4759		31.250000
4760		29.296875
4761		33.203125
4762		33.203125
4763		37.109375
4764		35.156250
4765		41.015625
4766		39.062500
4767		44.921875
4768		42.968750
4769		48.828125
4770		46.875000
4771		50.781250
4772		48.828125
4773		54.687500
4774		52.734375
4775		56.640625
4776		56.640625
4777		60.546875
4778		58.593750
4779		64.453125
4780		60.546875
4781		66.406250
4782		64.453125
4783		68.359375
4784		66.406250
4785		70.312500
4786		70.312500
4787		72.265625
4788		70.312500
4789		76.171875
4790		74.218750
4791		78.125000
4792		76.171875
4793		80.078125
4794		78.125000
4795		80.078125
4796		78.125000
4797		82.031250
4798		80.078125
4799		83.984375
4800		82.031250
4801		85.937500
4802		82.031250
4803		85.937500
4804		82.031250
4805		87.890625
4806		83.984375
4807		87.890625
4808		83.984375
4809		87.890625
4810		85.937500
4811		87.890625
4812		85.937500
4813		87.890625
4814		85.937500
4815		89.843750
4816		85.937500
4817		87.890625
4818		85.937500
4819		87.890625
4820		83.984375
4821		87.890625
4822		83.984375
4823		87.890625
4824		83.984375
4825		87.890625
4826		82.031250
4827		85.937500
4828		82.031250
4829		83.984375
4830		80.078125
4831		83.984375
4832		78.125000
4833		82.031250
4834		76.171875
4835		80.078125
4836		74.218750
4837		78.125000
4838		72.265625
4839		76.171875
4840		70.312500
4841		74.218750
4842		68.359375
4843		74.218750
4844		66.406250
4845		70.312500
4846		62.500000
4847		68.359375
4848		60.546875
4849		64.453125
4850		56.640625
4851		62.500000
4852		54.687500
4853		58.593750
4854		50.781250
4855		56.640625
4856		48.828125
4857		52.734375
4858		44.921875
4859		50.781250
4860		41.015625
4861		46.875000
4862		37.109375
4863		42.968750
4864		33.203125
4865		39.062500
4866		31.250000
4867		37.109375
4868		27.343750
4869		33.203125
4870		23.437500
4871		29.296875
4872		17.578125
4873		25.390625
4874		13.671875
4875		21.484375
4876		11.718750
4877		17.578125
4878		7.812500
4879		13.671875
4880		3.906250
4881		9.765625
4882		0.000000
4883		5.859375
4884		-5.859375
4885		1.953125
4886		-7.812500
4887		-1.953125
4888		-11.718750
4889		-5.859375
4890		-15.625000
4891		-9.765625
4892		-19.531250
4893		-13.671875
4894		-23.437500
4895		-17.578125
4896		-27.343750
4897		-21.484375
4898		-31.250000
4899		-25.390625
4900		-33.203125
4901		-29.296875
4902		-37.109375
4903		-33.203125
4904		-41.015625
4905		-35.156250
4906		-42.968750
4907		-39.062500
4908		-46.875000
4909		-41.015625
4910		-48.828125
4911		-44.921875
4912		-52.734375
4913		-48.828125
4914		-54.687500
4915		-50.781250
4916		-58.593750
4917		-52.734375
4918		-58.593750
4919		-54.687500
4920		-62.500000
4921		-56.640625
4922		-64.453125
4923		-58.593750
4924		-64.453125
4925		-60.546875
4926		-66.406250
4927		-62.500000
4928		-66.406250
4929		-64.453125
4930		-68.359375
4931		-66.406250
4932		-70.312500
4933		-66.406250
4934		-70.312500
4935		-66.406250
4936		-70.312500
4937		-68.359375
4938		-70.312500
4939		-68.359375
4940		-70.312500
4941		-68.359375
4942		-72.265625
4943		-68.359375
4944		-70.312500
4945		-68.359375
4946		-70.312500
4947		-66.406250
4948		-70.312500
4949		-66.406250
4950		-70.312500
4951		-66.406250
4952		-68.359375
4953		-64.453125
4954		-66.406250
4955		-62.500000
4956		-66.406250
4957		-60.546875
4958		-62.500000
4959		-58.593750
4960		-60.546875
4961		-58.593750
4962		-58.593750
4963		-54.687500
4964		-56.640625
4965		-52.734375
4966		-54.687500
4967		-50.781250
4968		-52.734375
4969		-46.875000
4970		-50.781250
4971		-44.921875
4972		-46.875000
4973		-41.015625
4974		-42.968750
4975		-39.062500
4976		-41.015625
4977		-35.156250
4978		-37.109375
4979		-31.250000
4980		-33.203125
4981		-27.343750
4982		-31.250000
4983		-25.390625
4984		-27.343750
4985		-21.484375
4986		-23.437500
4987		-17.578125
4988		-19.531250
4989		-13.671875
4990		-15.625000
4991		-9.765625
4992		-11.718750
4993		-5.859375
4994		-7.812500
4995		-1.953125
4996		-3.906250
4997		1.953125
4998		0.000000
4999		5.859375
5000		3.906250
5001		9.765625
5002		5.859375
5003		13.671875
5004		11.718750
5005		17.578125
5006		15.625000
5007		21.484375
5008		19.531250
5009		25.390625
5010		21.484375
5011		27.343750
5012		27.343750
5013		31.250000
5014		31.250000
5015		35.156250
5016		33.203125
5017		39.062500
5018		37.109375
5019		42.968750
5020		41.015625
5021		46.875000
5022		44.921875
5023		48.828125
5024		48.828125
5025		52.734375
5026		50.781250
5027		56.640625
5028		54.687500
5029		58.593750
5030		56.640625
5031		62.500000
5032		58.593750
5033		64.453125
5034		62.500000
5035		66.406250
5036		66.406250
5037		70.312500
5038		68.359375
5039		72.265625
5040		70.312500
5041		74.218750
5042		72.265625
5043		78.125000
5044		74.218750
5045		78.125000
5046		76.171875
5047		80.078125
5048		78.125000
5049		82.031250
5050		80.078125
5051		83.984375
5052		80.078125
5053		83.984375
5054		82.031250
5055		85.937500
5056		83.984375
5057		87.890625
5058		83.984375
5059		87.890625
5060		83.984375
5061		87.890625
5062		85.937500
5063		87.890625
5064		85.937500
5065		89.843750
5066		85.937500
5067		89.843750
5068		85.937500
5069		89.843750
5070		85.937500
5071		89.843750
5072		85.937500
5073		89.843750
5074		85.937500
5075		89.843750
5076		83.984375
5077		87.890625
5078		83.984375
5079		85.937500
5080		82.031250
5081		85.937500
5082		82.031250
5083		83.984375
5084		80.078125
5085		83.984375
5086		78.125000
5087		82.031250
5088		76.171875
5089		80.078125
5090		74.218750
5091		78.125000
5092		72.265625
5093		76.171875
5094		70.312500
5095		74.218750
5096		68.359375
5097		72.265625
5098		64.453125
5099		70.312500
5100		62.500000
5101		68.359375
5102		60.546875
5103		64.453125
5104		56.640625
5105		62.500000
5106		52.734375
5107		58.593750
5108		50.781250
5109		54.687500
5110		46.875000
5111		52.734375
5112		44.921875
5113		48.828125
5114		41.015625
5115		44.921875
5116		37.109375
5117		42.968750
5118		33.203125
5119		39.062500
5120		29.296875
5121		35.156250
5122		25.390625
5123		31.250000
5124		21.484375
5125		27.343750
5126		17.578125
5127		23.437500
5128		15.625000
5129		21.484375
5130		9.765625
5131		15.625000
5132		7.812500
5133		11.718750
5134		1.953125
5135		9.765625
5136		-1.953125
5137		3.906250
5138		-5.859375
5139		0.000000
5140		-9.765625
5141		-3.906250
5142		-13.671875
5143		-5.859375
5144		-17.578125
5145		-11.718750
5146		-19.531250
5147		-15.625000
5148		-23.437500
5149		-19.531250
5150		-27.343750
5151		-21.484375
5152		-31.250000
5153		-25.390625
5154		-35.156250
5155		-29.296875
5156		-39.062500
5157		-33.203125
5158		-41.015625
5159		-37.109375
5160		-44.921875
5161		-39.062500
5162		-46.875000
5163		-42.968750
5164		-48.828125
5165		-46.875000
5166		-52.734375
5167		-48.828125
5168		-54.687500
5169		-50.781250
5170		-58.593750
5171		-52.734375
5172		-58.593750
5173		-56.640625
5174		-62.500000
5175		-56.640625
5176		-64.453125
5177		-58.593750
5178		-64.453125
5179		-60.546875
5180		-66.406250
5181		-62.500000
5182		-68.359375
5183		-64.453125
5184		-68.359375
5185		-64.453125
5186		-70.312500
5187		-66.406250
5188		-70.312500
5189		-66.406250
5190		-72.265625
5191		-68.359375
5192		-72.265625
5193		-68.359375
5194		-72.265625
5195		-68.359375
5196		-70.312500
5197		-68.359375
5198		-70.312500
5199		-68.359375
5200		-70.312500
5201		-66.406250
5202		-70.312500
5203		-66.406250
5204		-68.359375
5205		-64.453125
5206		-68.359375
5207		-64.453125
5208		-66.406250
5209		-62.500000
5210		-64.453125
5211		-60.546875
5212		-64.453125
5213		-58.593750
5214		-60.546875
5215		-56.640625
5216		-58.593750
5217		-54.687500
5218		-56.640625
5219		-50.781250
5220		-54.687500
5221		-48.828125
5222		-52.734375
5223		-46.875000
5224		-48.828125
5225		-44.921875
5226		-46.875000
5227		-41.015625
5228		-42.968750
5229		-39.062500
5230		-39.062500
5231		-35.156250
5232		-37.109375
5233		-31.250000
5234		-33.203125
5235		-27.343750
5236		-29.296875
5237		-25.390625
5238		-25.390625
5239		-21.484375
5240		-23.437500
5241		-17.578125
5242		-19.531250
5243		-13.671875
5244		-15.625000
5245		-9.765625
5246		-11.718750
5247		-5.859375
5248		-7.812500
5249		-1.953125
5250		-3.906250
5251		1.953125
5252		0.000000
5253		5.859375
5254		3.906250
5255		9.765625
5256		7.812500
5257		13.671875
5258		11.718750
5259		17.578125
5260		15.625000
5261		21.484375
5262		19.531250
5263		25.390625
5264		23.437500
5265		29.296875
5266		27.343750
5267		33.203125
5268		31.250000
5269		37.109375
5270		35.156250
5271		41.015625
5272		39.062500
5273		42.968750
5274		41.015625
5275		46.875000
5276		44.921875
5277		50.781250
5278		48.828125
5279		54.687500
5280		52.734375
5281		56.640625
5282		54.687500
5283		58.593750
5284		58.593750
5285		62.500000
5286		60.546875
5287		66.406250
5288		64.453125
5289		68.359375
5290		66.406250
5291		70.312500
5292		68.359375
5293		72.265625
5294		70.312500
5295		74.218750
5296		72.265625
5297		76.171875
5298		74.218750
5299		78.125000
5300		76.171875
5301		80.078125
5302		78.125000
5303		82.031250
5304		80.078125
5305		83.984375
5306		80.078125
5307		85.937500
5308		82.031250
5309		85.937500
5310		83.984375
5311		87.890625
5312		83.984375
5313		87.890625
5314		85.937500
5315		87.890625
5316		83.984375
5317		89.843750
5318		85.937500
5319		89.843750
5320		85.937500
5321		89.843750
5322		85.937500
5323		89.843750
5324		85.937500
5325		87.890625
5326		85.937500
5327		87.890625
5328		83.984375
5329		87.890625
5330		83.984375
5331		87.890625
5332		83.984375
5333		85.937500
5334		82.031250
5335		85.937500
5336		80.078125
5337		83.984375
5338		78.125000
5339		82.031250
5340		76.171875
5341		80.078125
5342		76.171875
5343		80.078125
5344		74.218750
5345		78.125000
5346		70.312500
5347		76.171875
5348		68.359375
5349		72.265625
5350		66.406250
5351		70.312500
5352		64.453125
5353		68.359375
5354		60.546875
5355		66.406250
5356		58.593750
5357		62.500000
5358		56.640625
5359		60.546875
5360		52.734375
5361		56.640625
5362		48.828125
5363		54.687500
5364		46.875000
5365		50.781250
5366		42.968750
5367		46.875000
5368		39.062500
5369		44.921875
5370		35.156250
5371		41.015625
5372		31.250000
5373		37.109375
5374		27.343750
5375		33.203125
5376		23.437500
5377		29.296875
5378		19.531250
5379		27.343750
5380		17.578125
5381		23.437500
5382		13.671875
5383		17.578125
5384		7.812500
5385		13.671875
5386		3.906250
5387		11.718750
5388		1.953125
5389		5.859375
5390		-1.953125
5391		1.953125
5392		-7.812500
5393		-1.953125
5394		-11.718750
5395		-5.859375
5396		-13.671875
5397		-9.765625
5398		-19.531250
5399		-13.671875
5400		-23.437500
5401		-17.578125
5402		-25.390625
5403		-21.484375
5404		-29.296875
5405		-23.437500
5406		-33.203125
5407		-27.343750
5408		-37.109375
5409		-31.250000
5410		-39.062500
5411		-35.156250
5412		-44.921875
5413		-37.109375
5414		-44.921875
5415		-41.015625
5416		-48.828125
5417		-44.921875
5418		-52.734375
5419		-46.875000
5420		-54.687500
5421		-48.828125
5422		-56.640625
5423		-52.734375
5424		-58.593750
5425		-54.687500
5426		-60.546875
5427		-56.640625
5428		-62.500000
5429		-58.593750
5430		-64.453125
5431		-60.546875
5432		-66.406250
5433		-62.500000
5434		-68.359375
5435		-64.453125
5436		-68.359375
5437		-64.453125
5438		-70.312500
5439		-66.406250
5440		-70.312500
5441		-66.406250
5442		-72.265625
5443		-68.359375
5444		-72.265625
5445		-68.359375
5446		-72.265625
5447		-68.359375
5448		-72.265625
5449		-68.359375
5450		-72.265625
5451		-68.359375
5452		-72.265625
5453		-68.359375
5454		-70.312500
5455		-66.406250
5456		-70.312500
5457		-66.406250
5458		-68.359375
5459		-66.406250
5460		-68.359375
5461		-64.453125
5462		-66.406250
5463		-62.500000
5464		-66.406250
5465		-60.546875
5466		-62.500000
5467		-58.593750
5468		-60.546875
5469		-56.640625
5470		-58.593750
5471		-54.687500
5472		-56.640625
5473		-52.734375
5474		-54.687500
5475		-48.828125
5476		-50.781250
5477		-46.875000
5478		-48.828125
5479		-44.921875
5480		-46.875000
5481		-41.015625
5482		-42.968750
5483		-39.062500
5484		-39.062500
5485		-33.203125
5486		-37.109375
5487		-31.250000
5488		-33.203125
5489		-27.343750
5490		-29.296875
5491		-23.437500
5492		-25.390625
5493		-21.484375
5494		-21.484375
5495		-15.625000
5496		-19.531250
5497		-11.718750
5498		-13.671875
5499		-9.765625
5500		-11.718750
5501		-5.859375
5502		-5.859375
5503		-1.953125
5504		-3.906250
5505		1.953125
5506		0.000000
5507		7.812500
5508		5.859375
5509		9.765625
5510		7.812500
5511		13.671875
5512		11.718750
5513		17.578125
5514		17.578125
5515		21.484375
5516		21.484375
5517		25.390625
5518		25.390625
5519		29.296875
5520		27.343750
5521		33.203125
5522		31.250000
5523		37.109375
5524		35.156250
5525		41.015625
5526		39.062500
5527		44.921875
5528		42.968750
5529		46.875000
5530		44.921875
5531		50.781250
5532		48.828125
5533		54.687500
5534		52.734375
5535		56.640625
5536		54.687500
5537		60.546875
5538		58.593750
5539		62.500000
5540		60.546875
5541		64.453125
5542		64.453125
5543		68.359375
5544		66.406250
5545		70.312500
5546		68.359375
5547		72.265625
5548		68.359375
5549		74.218750
5550		74.218750
5551		76.171875
5552		76.171875
5553		78.125000
5554		76.171875
5555		80.078125
5556		78.125000
5557		82.031250
5558		80.078125
5559		83.984375
5560		82.031250
5561		83.984375
5562		82.031250
5563		85.937500
5564		82.031250
5565		87.890625
5566		83.984375
5567		87.890625
5568		83.984375
5569		87.890625
5570		83.984375
5571		87.890625
5572		85.937500
5573		89.843750
5574		85.937500
5575		87.890625
5576		85.937500
5577		87.890625
5578		85.937500
5579		87.890625
5580		83.984375
5581		87.890625
5582		83.984375
5583		85.937500
5584		83.984375
5585		85.937500
5586		82.031250
5587		85.937500
5588		82.031250
5589		83.984375
5590		80.078125
5591		83.984375
5592		78.125000
5593		82.031250
5594		76.171875
5595		80.078125
5596		74.218750
5597		78.125000
5598		72.265625
5599		78.125000
5600		70.312500
5601		74.218750
5602		68.359375
5603		72.265625
5604		66.406250
5605		70.312500
5606		62.500000
5607		68.359375
5608		60.546875
5609		66.406250
5610		58.593750
5611		62.500000
5612		54.687500
5613		58.593750
5614		50.781250
5615		56.640625
5616		48.828125
5617		52.734375
5618		44.921875
5619		50.781250
5620		41.015625
5621		46.875000
5622		37.109375
5623		42.968750
5624		35.156250
5625		41.015625
5626		31.250000
5627		35.156250
5628		27.343750
5629		33.203125
5630		23.437500
5631		29.296875
5632		19.531250
5633		25.390625
5634		15.625000
5635		21.484375
5636		11.718750
5637		17.578125
5638		7.812500
5639		13.671875
5640		3.906250
5641		9.765625
5642		0.000000
5643		5.859375
5644		-3.906250
5645		1.953125
5646		-7.812500
5647		-1.953125
5648		-11.718750
5649		-5.859375
5650		-15.625000
5651		-9.765625
5652		-19.531250
5653		-13.671875
5654		-23.437500
5655		-17.578125
5656		-27.343750
5657		-21.484375
5658		-31.250000
5659		-25.390625
5660		-33.203125
5661		-27.343750
5662		-37.109375
5663		-31.250000
5664		-41.015625
5665		-35.156250
5666		-42.968750
5667		-39.062500
5668		-46.875000
5669		-41.015625
5670		-48.828125
5671		-44.921875
5672		-52.734375
5673		-46.875000
5674		-54.687500
5675		-50.781250
5676		-56.640625
5677		-52.734375
5678		-60.546875
5679		-54.687500
5680		-62.500000
5681		-56.640625
5682		-62.500000
5683		-58.593750
5684		-64.453125
5685		-62.500000
5686		-66.406250
5687		-62.500000
5688		-68.359375
5689		-64.453125
5690		-68.359375
5691		-66.406250
5692		-70.312500
5693		-66.406250
5694		-70.312500
5695		-68.359375
5696		-72.265625
5697		-68.359375
5698		-74.218750
5699		-68.359375
5700		-72.265625
5701		-70.312500
5702		-72.265625
5703		-68.359375
5704		-72.265625
5705		-68.359375
5706		-72.265625
5707		-68.359375
5708		-70.312500
5709		-66.406250
5710		-70.312500
5711		-66.406250
5712		-70.312500
5713		-66.406250
5714		-68.359375
5715		-62.500000
5716		-66.406250
5717		-62.500000
5718		-64.453125
5719		-60.546875
5720		-62.500000
5721		-58.593750
5722		-60.546875
5723		-56.640625
5724		-58.593750
5725		-54.687500
5726		-56.640625
5727		-52.734375
5728		-52.734375
5729		-48.828125
5730		-50.781250
5731		-46.875000
5732		-48.828125
5733		-42.968750
5734		-44.921875
5735		-41.015625
5736		-42.968750
5737		-37.109375
5738		-41.015625
5739		-33.203125
5740		-35.156250
5741		-29.296875
5742		-31.250000
5743		-27.343750
5744		-29.296875
5745		-23.437500
5746		-25.390625
5747		-19.531250
5748		-21.484375
5749		-15.625000
5750		-19.531250
5751		-11.718750
5752		-13.671875
5753		-7.812500
5754		-9.765625
5755		-3.906250
5756		-5.859375
5757		0.000000
5758		-1.953125
5759		3.906250
5760		1.953125
5761		7.812500
5762		5.859375
5763		11.718750
5764		9.765625
5765		15.625000
5766		13.671875
5767		19.531250
5768		17.578125
5769		23.437500
5770		21.484375
5771		27.343750
5772		25.390625
5773		31.250000
5774		29.296875
5775		35.156250
5776		31.250000
5777		37.109375
5778		37.109375
5779		41.015625
5780		39.062500
5781		44.921875
5782		42.968750
5783		48.828125
5784		46.875000
5785		50.781250
5786		50.781250
5787		54.687500
5788		52.734375
5789		58.593750
5790		54.687500
5791		60.546875
5792		58.593750
5793		64.453125
5794		62.500000
5795		66.406250
5796		64.453125
5797		68.359375
5798		66.406250
5799		72.265625
5800		70.312500
5801		72.265625
5802		72.265625
5803		74.218750
5804		74.218750
5805		78.125000
5806		76.171875
5807		78.125000
5808		76.171875
5809		80.078125
5810		78.125000
5811		82.031250
5812		80.078125
5813		83.984375
5814		82.031250
5815		85.937500
5816		82.031250
5817		85.937500
5818		83.984375
5819		85.937500
5820		83.984375
5821		87.890625
5822		83.984375
5823		87.890625
5824		83.984375
5825		87.890625
5826		85.937500
5827		87.890625
5828		83.984375
5829		87.890625
5830		85.937500
5831		87.890625
5832		83.984375
5833		87.890625
5834		83.984375
5835		87.890625
5836		83.984375
5837		85.937500
5838		82.031250
5839		85.937500
5840		82.031250
5841		85.937500
5842		80.078125
5843		83.984375
5844		78.125000
5845		82.031250
5846		78.125000
5847		82.031250
5848		76.171875
5849		80.078125
5850		74.218750
5851		78.125000
5852		72.265625
5853		76.171875
5854		68.359375
5855		74.218750
5856		66.406250
5857		72.265625
5858		64.453125
5859		70.312500
5860		62.500000
5861		66.406250
5862		60.546875
5863		64.453125
5864		56.640625
5865		62.500000
5866		54.687500
5867		58.593750
5868		50.781250
5869		54.687500
5870		46.875000
5871		50.781250
5872		42.968750
5873		48.828125
5874		41.015625
5875		44.921875
5876		37.109375
5877		42.968750
5878		33.203125
5879		39.062500
5880		29.296875
5881		35.156250
5882		25.390625
5883		31.250000
5884		21.484375
5885		29.296875
5886		17.578125
5887		23.437500
5888		13.671875
5889		19.531250
5890		9.765625
5891		15.625000
5892		5.859375
5893		11.718750
5894		1.953125
5895		7.812500
5896		-1.953125
5897		5.859375
5898		-5.859375
5899		0.000000
5900		-9.765625
5901		-3.906250
5902		-13.671875
5903		-7.812500
5904		-17.578125
5905		-11.718750
5906		-21.484375
5907		-15.625000
5908		-25.390625
5909		-19.531250
5910		-29.296875
5911		-23.437500
5912		-31.250000
5913		-25.390625
5914		-35.156250
5915		-29.296875
5916		-39.062500
5917		-31.250000
5918		-41.015625
5919		-35.156250
5920		-44.921875
5921		-41.015625
5922		-48.828125
5923		-42.968750
5924		-52.734375
5925		-44.921875
5926		-54.687500
5927		-46.875000
5928		-56.640625
5929		-50.781250
5930		-58.593750
5931		-52.734375
5932		-62.500000
5933		-56.640625
5934		-62.500000
5935		-58.593750
5936		-64.453125
5937		-60.546875
5938		-66.406250
5939		-62.500000
5940		-68.359375
5941		-62.500000
5942		-70.312500
5943		-64.453125
5944		-70.312500
5945		-66.406250
5946		-72.265625
5947		-66.406250
5948		-72.265625
5949		-68.359375
5950		-74.218750
5951		-68.359375
5952		-72.265625
5953		-70.312500
5954		-72.265625
5955		-70.312500
5956		-74.218750
5957		-68.359375
5958		-74.218750
5959		-68.359375
5960		-72.265625
5961		-68.359375
5962		-72.265625
5963		-66.406250
5964		-70.312500
5965		-64.453125
5966		-70.312500
5967		-64.453125
5968		-68.359375
5969		-64.453125
5970		-66.406250
5971		-62.500000
5972		-64.453125
5973		-60.546875
5974		-64.453125
5975		-56.640625
5976		-62.500000
5977		-54.687500
5978		-60.546875
5979		-52.734375
5980		-56.640625
5981		-50.781250
5982		-54.687500
5983		-48.828125
5984		-50.781250
5985		-46.875000
5986		-48.828125
5987		-42.968750
5988		-44.921875
5989		-41.015625
5990		-42.968750
5991		-37.109375
5992		-39.062500
5993		-33.203125
5994		-35.156250
5995		-29.296875
5996		-31.250000
5997		-27.343750
5998		-27.343750
5999		-23.437500
6000		-23.437500
6001		-19.531250
6002		-21.484375
6003		-15.625000
6004		-17.578125
6005		-11.718750
6006		-13.671875
6007		-7.812500
6008		-9.765625
6009		-3.906250
6010		-5.859375
6011		0.000000
6012		-1.953125
6013		3.906250
6014		1.953125
6015		7.812500
6016		5.859375
6017		11.718750
6018		9.765625
6019		15.625000
6020		13.671875
6021		19.531250
6022		17.578125
6023		23.437500
6024		21.484375
6025		27.343750
6026		25.390625
6027		31.250000
6028		29.296875
6029		35.156250
6030		33.203125
6031		37.109375
6032		37.109375
6033		41.015625
6034		41.015625
6035		44.921875
6036		42.968750
6037		48.828125
6038		46.875000
6039		50.781250
6040		50.781250
6041		54.687500
6042		52.734375
6043		58.593750
6044		56.640625
6045		60.546875
6046		58.593750
6047		62.500000
6048		62.500000
6049		66.406250
6050		64.453125
6051		68.359375
6052		66.406250
6053		70.312500
6054		70.312500
6055		72.265625
6056		70.312500
6057		74.218750
6058		74.218750
6059		76.171875
6060		76.171875
6061		80.078125
6062		78.125000
6063		80.078125
6064		80.078125
6065		82.031250
6066		80.078125
6067		83.984375
6068		82.031250
6069		83.984375
6070		82.031250
6071		85.937500
6072		83.984375
6073		85.937500
6074		83.984375
6075		85.937500
6076		83.984375
6077		87.890625
6078		85.937500
6079		87.890625
6080		85.937500
6081		87.890625
6082		85.937500
6083		87.890625
6084		85.937500
6085		87.890625
6086		85.937500
6087		87.890625
6088		83.984375
6089		85.937500
6090		80.078125
6091		89.843750
6092		80.078125
6093		87.890625
6094		78.125000
6095		87.890625
6096		80.078125
6097		83.984375
6098		78.125000
6099		82.031250
6100		78.125000
6101		80.078125
6102		74.218750
6103		78.125000
6104		74.218750
6105		78.125000
6106		70.312500
6107		76.171875
6108		66.406250
6109		76.171875
6110		64.453125
6111		74.218750
6112		62.500000
6113		72.265625
6114		60.546875
6115		64.453125
6116		58.593750
6117		62.500000
6118		56.640625
6119		60.546875
6120		52.734375
6121		56.640625
6122		48.828125
6123		54.687500
6124		44.921875
6125		52.734375
6126		41.015625
6127		50.781250
6128		35.156250
6129		46.875000
6130		35.156250
6131		41.015625
6132		31.250000
6133		37.109375
6134		29.296875
6135		33.203125
6136		25.390625
6137		29.296875
6138		21.484375
6139		25.390625
6140		13.671875
6141		23.437500
6142		9.765625
6143		21.484375
6144		5.859375
6145		17.578125
6146		3.906250
6147		13.671875
6148		1.953125
6149		5.859375
6150		-1.953125
6151		1.953125
6152		-7.812500
6153		-1.953125
6154		-9.765625
6155		-5.859375
6156		-15.625000
6157		-9.765625
6158		-19.531250
6159		-9.765625
6160		-25.390625
6161		-13.671875
6162		-27.343750
6163		-17.578125
6164		-29.296875
6165		-25.390625
6166		-33.203125
6167		-27.343750
6168		-37.109375
6169		-31.250000
6170		-39.062500
6171		-35.156250
6172		-42.968750
6173		-37.109375
6174		-48.828125
6175		-39.062500
6176		-52.734375
6177		-39.062500
6178		-56.640625
6179		-42.968750
6180		-54.687500
6181		-48.828125
6182		-56.640625
6183		-52.734375
6184		-58.593750
6185		-54.687500
6186		-60.546875
6187		-56.640625
6188		-64.453125
6189		-58.593750
6190		-64.453125
6191		-62.500000
6192		-70.312500
6193		-60.546875
6194		-70.312500
6195		-60.546875
6196		-72.265625
6197		-62.500000
6198		-70.312500
6199		-68.359375
6200		-72.265625
6201		-68.359375
6202		-72.265625
6203		-68.359375
6204		-72.265625
6205		-70.312500
6206		-72.265625
6207		-70.312500
6208		-76.171875
6209		-66.406250
6210		-76.171875
6211		-66.406250
6212		-76.171875
6213		-66.406250
6214		-72.265625
6215		-68.359375
6216		-70.312500
6217		-68.359375
6218		-70.312500
6219		-66.406250
6220		-68.359375
6221		-66.406250
6222		-68.359375
6223		-64.453125
6224		-68.359375
6225		-58.593750
6226		-66.406250
6227		-56.640625
6228		-66.406250
6229		-54.687500
6230		-62.500000
6231		-54.687500
6232		-58.593750
6233		-54.687500
6234		-54.687500
6235		-50.781250
6236		-52.734375
6237		-48.828125
6238		-50.781250
6239		-46.875000
6240		-46.875000
6241		-42.968750
6242		-46.875000
6243		-37.109375
6244		-42.968750
6245		-33.203125
6246		-41.015625
6247		-31.250000
6248		-35.156250
6249		-29.296875
6250		-31.250000
6251		-25.390625
6252		-27.343750
6253		-21.484375
6254		-23.437500
6255		-19.531250
6256		-19.531250
6257		-15.625000
6258		-17.578125
6259		-7.812500
6260		-15.625000
6261		-3.906250
6262		-11.718750
6263		0.000000
6264		-5.859375
6265		0.000000
6266		0.000000
6267		3.906250
6268		3.906250
6269		9.765625
6270		5.859375
6271		11.718750
6272		11.718750
6273		15.625000
6274		15.625000
6275		19.531250
6276		19.531250
6277		27.343750
6278		21.484375
6279		27.343750
6280		25.390625
6281		31.250000
6282		29.296875
6283		35.156250
6284		33.203125
6285		39.062500
6286		37.109375
6287		42.968750
6288		41.015625
6289		44.921875
6290		44.921875
6291		48.828125
6292		46.875000
6293		52.734375
6294		50.781250
6295		58.593750
6296		52.734375
6297		58.593750
6298		56.640625
6299		60.546875
6300		60.546875
6301		64.453125
6302		62.500000
6303		66.406250
6304		64.453125
6305		68.359375
6306		68.359375
6307		70.312500
6308		70.312500
6309		74.218750
6310		72.265625
6311		78.125000
6312		72.265625
6313		80.078125
6314		76.171875
6315		80.078125
6316		78.125000
6317		80.078125
6318		80.078125
6319		82.031250
6320		80.078125
6321		83.984375
6322		82.031250
6323		83.984375
6324		82.031250
6325		85.937500
6326		83.984375
6327		85.937500
6328		83.984375
6329		85.937500
6330		83.984375
6331		87.890625
6332		85.937500
6333		87.890625
6334		85.937500
6335		87.890625
6336		85.937500
6337		87.890625
6338		85.937500
6339		87.890625
6340		83.984375
6341		87.890625
6342		83.984375
6343		85.937500
6344		83.984375
6345		85.937500
6346		82.031250
6347		83.984375
6348		82.031250
6349		83.984375
6350		80.078125
6351		82.031250
6352		78.125000
6353		82.031250
6354		76.171875
6355		80.078125
6356		74.218750
6357		78.125000
6358		72.265625
6359		76.171875
6360		70.312500
6361		74.218750
6362		68.359375
6363		72.265625
6364		66.406250
6365		70.312500
6366		62.500000
6367		68.359375
6368		60.546875
6369		64.453125
6370		58.593750
6371		62.500000
6372		54.687500
6373		58.593750
6374		50.781250
6375		56.640625
6376		48.828125
6377		52.734375
6378		44.921875
6379		50.781250
6380		41.015625
6381		46.875000
6382		37.109375
6383		42.968750
6384		35.156250
6385		39.062500
6386		31.250000
6387		35.156250
6388		27.343750
6389		33.203125
6390		23.437500
6391		29.296875
6392		19.531250
6393		25.390625
6394		15.625000
6395		21.484375
6396		11.718750
6397		17.578125
6398		7.812500
6399		13.671875
6400		3.906250
6401		9.765625
6402		0.000000
6403		5.859375
6404		-3.906250
6405		1.953125
6406		-7.812500
6407		-1.953125
6408		-11.718750
6409		-5.859375
6410		-15.625000
6411		-9.765625
6412		-19.531250
6413		-13.671875
6414		-23.437500
6415		-17.578125
6416		-27.343750
6417		-21.484375
6418		-31.250000
6419		-25.390625
6420		-33.203125
6421		-29.296875
6422		-37.109375
6423		-33.203125
6424		-41.015625
6425		-35.156250
6426		-44.921875
6427		-39.062500
6428		-46.875000
6429		-41.015625
6430		-50.781250
6431		-44.921875
6432		-52.734375
6433		-48.828125
6434		-56.640625
6435		-50.781250
6436		-56.640625
6437		-52.734375
6438		-60.546875
6439		-56.640625
6440		-62.500000
6441		-58.593750
6442		-66.406250
6443		-60.546875
6444		-66.406250
6445		-60.546875
6446		-66.406250
6447		-62.500000
6448		-68.359375
6449		-66.406250
6450		-70.312500
6451		-66.406250
6452		-72.265625
6453		-66.406250
6454		-72.265625
6455		-68.359375
6456		-72.265625
6457		-70.312500
6458		-72.265625
6459		-70.312500
6460		-74.218750
6461		-68.359375
6462		-74.218750
6463		-70.312500
6464		-72.265625
6465		-70.312500
6466		-72.265625
6467		-68.359375
6468		-72.265625
6469		-68.359375
6470		-70.312500
6471		-68.359375
6472		-70.312500
6473		-66.406250
6474		-68.359375
6475		-64.453125
6476		-66.406250
6477		-62.500000
6478		-66.406250
6479		-60.546875
6480		-64.453125
6481		-60.546875
6482		-62.500000
6483		-58.593750
6484		-60.546875
6485		-54.687500
6486		-58.593750
6487		-52.734375
6488		-54.687500
6489		-50.781250
6490		-52.734375
6491		-48.828125
6492		-48.828125
6493		-44.921875
6494		-48.828125
6495		-41.015625
6496		-42.968750
6497		-39.062500
6498		-41.015625
6499		-35.156250
6500		-37.109375
6501		-31.250000
6502		-35.156250
6503		-29.296875
6504		-29.296875
6505		-25.390625
6506		-27.343750
6507		-21.484375
6508		-23.437500
6509		-17.578125
6510		-19.531250
6511		-13.671875
6512		-15.625000
6513		-9.765625
6514		-11.718750
6515		-5.859375
6516		-7.812500
6517		-1.953125
6518		-3.906250
6519		1.953125
6520		0.000000
6521		5.859375
6522		3.906250
6523		9.765625
6524		7.812500
6525		13.671875
6526		11.718750
6527		17.578125
6528		13.671875
6529		21.484375
6530		19.531250
6531		25.390625
6532		23.437500
6533		29.296875
6534		27.343750
6535		33.203125
6536		31.250000
6537		37.109375
6538		33.203125
6539		39.062500
6540		39.062500
6541		42.968750
6542		41.015625
6543		46.875000
6544		44.921875
6545		50.781250
6546		48.828125
6547		52.734375
6548		50.781250
6549		56.640625
6550		54.687500
6551		60.546875
6552		56.640625
6553		62.500000
6554		60.546875
6555		64.453125
6556		62.500000
6557		66.406250
6558		66.406250
6559		70.312500
6560		68.359375
6561		72.265625
6562		70.312500
6563		74.218750
6564		72.265625
6565		76.171875
6566		74.218750
6567		78.125000
6568		76.171875
6569		80.078125
6570		78.125000
6571		82.031250
6572		80.078125
6573		82.031250
6574		80.078125
6575		83.984375
6576		82.031250
6577		83.984375
6578		82.031250
6579		85.937500
6580		83.984375
6581		85.937500
6582		83.984375
6583		85.937500
6584		83.984375
6585		87.890625
6586		85.937500
6587		87.890625
6588		85.937500
6589		87.890625
6590		83.984375
6591		87.890625
6592		83.984375
6593		87.890625
6594		83.984375
6595		85.937500
6596		83.984375
6597		85.937500
6598		82.031250
6599		85.937500
6600		82.031250
6601		83.984375
6602		80.078125
6603		83.984375
6604		80.078125
6605		82.031250
6606		78.125000
6607		80.078125
6608		76.171875
6609		78.125000
6610		74.218750
6611		78.125000
6612		72.265625
6613		76.171875
6614		70.312500
6615		74.218750
6616		66.406250
6617		70.312500
6618		64.453125
6619		68.359375
6620		62.500000
6621		66.406250
6622		60.546875
6623		64.453125
6624		56.640625
6625		62.500000
6626		54.687500
6627		58.593750
6628		50.781250
6629		54.687500
6630		46.875000
6631		52.734375
6632		44.921875
6633		48.828125
6634		41.015625
6635		44.921875
6636		37.109375
6637		41.015625
6638		33.203125
6639		39.062500
6640		29.296875
6641		35.156250
6642		25.390625
6643		31.250000
6644		21.484375
6645		27.343750
6646		17.578125
6647		23.437500
6648		13.671875
6649		19.531250
6650		9.765625
6651		15.625000
6652		5.859375
6653		11.718750
6654		1.953125
6655		7.812500
6656		-1.953125
6657		3.906250
6658		-5.859375
6659		0.000000
6660		-9.765625
6661		-3.906250
6662		-13.671875
6663		-7.812500
6664		-17.578125
6665		-11.718750
6666		-19.531250
6667		-15.625000
6668		-25.390625
6669		-19.531250
6670		-27.343750
6671		-23.437500
6672		-31.250000
6673		-27.343750
6674		-35.156250
6675		-31.250000
6676		-39.062500
6677		-33.203125
6678		-42.968750
6679		-37.109375
6680		-44.921875
6681		-41.015625
6682		-48.828125
6683		-42.968750
6684		-50.781250
6685		-46.875000
6686		-52.734375
6687		-48.828125
6688		-56.640625
6689		-52.734375
6690		-58.593750
6691		-54.687500
6692		-60.546875
6693		-56.640625
6694		-62.500000
6695		-58.593750
6696		-64.453125
6697		-58.593750
6698		-66.406250
6699		-62.500000
6700		-68.359375
6701		-64.453125
6702		-68.359375
6703		-66.406250
6704		-70.312500
6705		-68.359375
6706		-70.312500
6707		-68.359375
6708		-72.265625
6709		-70.312500
6710		-72.265625
6711		-70.312500
6712		-74.218750
6713		-68.359375
6714		-74.218750
6715		-68.359375
6716		-72.265625
6717		-70.312500
6718		-72.265625
6719		-70.312500
6720		-72.265625
6721		-70.312500
6722		-72.265625
6723		-68.359375
6724		-70.312500
6725		-68.359375
6726		-70.312500
6727		-66.406250
6728		-70.312500
6729		-64.453125
6730		-70.312500
6731		-62.500000
6732		-66.406250
6733		-62.500000
6734		-64.453125
6735		-60.546875
6736		-62.500000
6737		-58.593750
6738		-58.593750
6739		-54.687500
6740		-56.640625
6741		-52.734375
6742		-54.687500
6743		-50.781250
6744		-52.734375
6745		-46.875000
6746		-50.781250
6747		-44.921875
6748		-46.875000
6749		-41.015625
6750		-42.968750
6751		-39.062500
6752		-39.062500
6753		-35.156250
6754		-37.109375
6755		-31.250000
6756		-33.203125
6757		-27.343750
6758		-29.296875
6759		-25.390625
6760		-25.390625
6761		-21.484375
6762		-23.437500
6763		-15.625000
6764		-19.531250
6765		-11.718750
6766		-13.671875
6767		-9.765625
6768		-9.765625
6769		-5.859375
6770		-5.859375
6771		-1.953125
6772		-1.953125
6773		1.953125
6774		1.953125
6775		5.859375
6776		5.859375
6777		11.718750
6778		9.765625
6779		13.671875
6780		11.718750
6781		19.531250
6782		15.625000
6783		23.437500
6784		19.531250
6785		25.390625
6786		25.390625
6787		29.296875
6788		27.343750
6789		33.203125
6790		31.250000
6791		37.109375
6792		35.156250
6793		41.015625
6794		39.062500
6795		42.968750
6796		42.968750
6797		48.828125
6798		44.921875
6799		50.781250
6800		48.828125
6801		52.734375
6802		52.734375
6803		56.640625
6804		54.687500
6805		60.546875
6806		58.593750
6807		62.500000
6808		60.546875
6809		64.453125
6810		64.453125
6811		66.406250
6812		66.406250
6813		72.265625
6814		66.406250
6815		74.218750
6816		68.359375
6817		74.218750
6818		72.265625
6819		76.171875
6820		74.218750
6821		78.125000
6822		76.171875
6823		80.078125
6824		78.125000
6825		80.078125
6826		80.078125
6827		82.031250
6828		80.078125
6829		83.984375
6830		80.078125
6831		85.937500
6832		82.031250
6833		85.937500
6834		83.984375
6835		85.937500
6836		83.984375
6837		85.937500
6838		83.984375
6839		85.937500
6840		83.984375
6841		85.937500
6842		83.984375
6843		87.890625
6844		83.984375
6845		85.937500
6846		82.031250
6847		87.890625
6848		82.031250
6849		87.890625
6850		82.031250
6851		85.937500
6852		82.031250
6853		83.984375
6854		80.078125
6855		83.984375
6856		80.078125
6857		82.031250
6858		78.125000
6859		82.031250
6860		76.171875
6861		80.078125
6862		74.218750
6863		78.125000
6864		72.265625
6865		78.125000
6866		70.312500
6867		76.171875
6868		68.359375
6869		72.265625
6870		66.406250
6871		70.312500
6872		64.453125
6873		68.359375
6874		60.546875
6875		64.453125
6876		58.593750
6877		62.500000
6878		54.687500
6879		58.593750
6880		50.781250
6881		56.640625
6882		46.875000
6883		54.687500
6884		44.921875
6885		50.781250
6886		42.968750
6887		46.875000
6888		39.062500
6889		42.968750
6890		35.156250
6891		41.015625
6892		31.250000
6893		37.109375
6894		27.343750
6895		33.203125
6896		23.437500
6897		29.296875
6898		19.531250
6899		27.343750
6900		15.625000
6901		21.484375
6902		11.718750
6903		17.578125
6904		7.812500
6905		13.671875
6906		3.906250
6907		9.765625
6908		0.000000
6909		5.859375
6910		-3.906250
6911		1.953125
6912		-7.812500
6913		-1.953125
6914		-11.718750
6915		-5.859375
6916		-15.625000
6917		-9.765625
6918		-19.531250
6919		-13.671875
6920		-23.437500
6921		-17.578125
6922		-27.343750
6923		-21.484375
6924		-31.250000
6925		-25.390625
6926		-33.203125
6927		-29.296875
6928		-37.109375
6929		-33.203125
6930		-41.015625
6931		-35.156250
6932		-42.968750
6933		-39.062500
6934		-46.875000
6935		-42.968750
6936		-50.781250
6937		-44.921875
6938		-52.734375
6939		-48.828125
6940		-54.687500
6941		-50.781250
6942		-58.593750
6943		-54.687500
6944		-60.546875
6945		-56.640625
6946		-62.500000
6947		-58.593750
6948		-64.453125
6949		-60.546875
6950		-66.406250
6951		-62.500000
6952		-68.359375
6953		-64.453125
6954		-68.359375
6955		-66.406250
6956		-70.312500
6957		-68.359375
6958		-72.265625
6959		-68.359375
6960		-72.265625
6961		-70.312500
6962		-72.265625
6963		-70.312500
6964		-74.218750
6965		-70.312500
6966		-74.218750
6967		-72.265625
6968		-74.218750
6969		-70.312500
6970		-74.218750
6971		-70.312500
6972		-72.265625
6973		-70.312500
6974		-72.265625
6975		-70.312500
6976		-72.265625
6977		-68.359375
6978		-70.312500
6979		-68.359375
6980		-70.312500
6981		-66.406250
6982		-68.359375
6983		-66.406250
6984		-66.406250
6985		-64.453125
6986		-66.406250
6987		-62.500000
6988		-62.500000
6989		-60.546875
6990		-60.546875
6991		-56.640625
6992		-58.593750
6993		-54.687500
6994		-56.640625
6995		-52.734375
6996		-54.687500
6997		-50.781250
6998		-50.781250
6999		-46.875000
7000		-48.828125
7001		-44.921875
7002		-44.921875
7003		-41.015625
7004		-42.968750
7005		-37.109375
7006		-39.062500
7007		-35.156250
7008		-35.156250
7009		-31.250000
7010		-33.203125
7011		-27.343750
7012		-29.296875
7013		-23.437500
7014		-25.390625
7015		-19.531250
7016		-21.484375
7017		-15.625000
7018		-17.578125
7019		-11.718750
7020		-13.671875
7021		-7.812500
7022		-9.765625
7023		-3.906250
7024		-5.859375
7025		0.000000
7026		-1.953125
7027		3.906250
7028		1.953125
7029		7.812500
7030		5.859375
7031		11.718750
7032		9.765625
7033		15.625000
7034		13.671875
7035		19.531250
7036		17.578125
7037		23.437500
7038		21.484375
7039		27.343750
7040		25.390625
7041		31.250000
7042		29.296875
7043		35.156250
7044		33.203125
7045		37.109375
7046		37.109375
7047		41.015625
7048		39.062500
7049		44.921875
7050		42.968750
7051		48.828125
7052		46.875000
7053		50.781250
7054		48.828125
7055		54.687500
7056		52.734375
7057		58.593750
7058		56.640625
7059		60.546875
7060		58.593750
7061		62.500000
7062		62.500000
7063		64.453125
7064		64.453125
7065		68.359375
7066		66.406250
7067		70.312500
7068		68.359375
7069		72.265625
7070		70.312500
7071		74.218750
7072		72.265625
7073		76.171875
7074		74.218750
7075		78.125000
7076		76.171875
7077		80.078125
7078		78.125000
7079		82.031250
7080		78.125000
7081		82.031250
7082		80.078125
7083		83.984375
7084		82.031250
7085		83.984375
7086		82.031250
7087		85.937500
7088		82.031250
7089		85.937500
7090		83.984375
7091		85.937500
7092		83.984375
7093		85.937500
7094		83.984375
7095		85.937500
7096		83.984375
7097		85.937500
7098		83.984375
7099		85.937500
7100		83.984375
7101		85.937500
7102		82.031250
7103		85.937500
7104		82.031250
7105		83.984375
7106		82.031250
7107		83.984375
7108		80.078125
7109		82.031250
7110		78.125000
7111		82.031250
7112		76.171875
7113		80.078125
7114		76.171875
7115		78.125000
7116		74.218750
7117		76.171875
7118		72.265625
7119		76.171875
7120		70.312500
7121		72.265625
7122		68.359375
7123		72.265625
7124		64.453125
7125		68.359375
7126		62.500000
7127		66.406250
7128		60.546875
7129		64.453125
7130		56.640625
7131		60.546875
7132		52.734375
7133		58.593750
7134		50.781250
7135		54.687500
7136		46.875000
7137		52.734375
7138		44.921875
7139		48.828125
7140		41.015625
7141		44.921875
7142		37.109375
7143		42.968750
7144		33.203125
7145		39.062500
7146		29.296875
7147		35.156250
7148		25.390625
7149		31.250000
7150		23.437500
7151		27.343750
7152		19.531250
7153		23.437500
7154		15.625000
7155		19.531250
7156		11.718750
7157		15.625000
7158		7.812500
7159		11.718750
7160		1.953125
7161		7.812500
7162		-1.953125
7163		3.906250
7164		-3.906250
7165		0.000000
7166		-9.765625
7167		-3.906250
7168		-13.671875
7169		-7.812500
7170		-17.578125
7171		-11.718750
7172		-19.531250
7173		-15.625000
7174		-23.437500
7175		-19.531250
7176		-27.343750
7177		-23.437500
7178		-31.250000
7179		-27.343750
7180		-35.156250
7181		-31.250000
7182		-39.062500
7183		-33.203125
7184		-42.968750
7185		-37.109375
7186		-44.921875
7187		-41.015625
7188		-48.828125
7189		-44.921875
7190		-50.781250
7191		-46.875000
7192		-54.687500
7193		-48.828125
7194		-56.640625
7195		-52.734375
7196		-58.593750
7197		-54.687500
7198		-60.546875
7199		-56.640625
7200		-64.453125
7201		-60.546875
7202		-66.406250
7203		-62.500000
7204		-66.406250
7205		-64.453125
7206		-68.359375
7207		-66.406250
7208		-70.312500
7209		-66.406250
7210		-72.265625
7211		-68.359375
7212		-72.265625
7213		-70.312500
7214		-74.218750
7215		-70.312500
7216		-74.218750
7217		-72.265625
7218		-74.218750
7219		-72.265625
7220		-74.218750
7221		-72.265625
7222		-74.218750
7223		-72.265625
7224		-74.218750
7225		-72.265625
7226		-74.218750
7227		-72.265625
7228		-74.218750
7229		-70.312500
7230		-72.265625
7231		-70.312500
7232		-72.265625
7233		-68.359375
7234		-70.312500
7235		-68.359375
7236		-68.359375
7237		-66.406250
7238		-68.359375
7239		-64.453125
7240		-66.406250
7241		-62.500000
7242		-64.453125
7243		-60.546875
7244		-62.500000
7245		-58.593750
7246		-60.546875
7247		-54.687500
7248		-56.640625
7249		-52.734375
7250		-54.687500
7251		-50.781250
7252		-52.734375
7253		-48.828125
7254		-48.828125
7255		-44.921875
7256		-46.875000
7257		-41.015625
7258		-42.968750
7259		-37.109375
7260		-39.062500
7261		-35.156250
7262		-37.109375
7263		-31.250000
7264		-33.203125
7265		-27.343750
7266		-29.296875
7267		-23.437500
7268		-25.390625
7269		-19.531250
7270		-21.484375
7271		-17.578125
7272		-17.578125
7273		-11.718750
7274		-13.671875
7275		-7.812500
7276		-9.765625
7277		-3.906250
7278		-5.859375
7279		0.000000
7280		-1.953125
7281		3.906250
7282		1.953125
7283		7.812500
7284		5.859375
7285		11.718750
7286		9.765625
7287		13.671875
7288		13.671875
7289		19.531250
7290		17.578125
7291		23.437500
7292		21.484375
7293		27.343750
7294		25.390625
7295		31.250000
7296		29.296875
7297		33.203125
7298		33.203125
7299		37.109375
7300		37.109375
7301		41.015625
7302		39.062500
7303		44.921875
7304		42.968750
7305		46.875000
7306		46.875000
7307		50.781250
7308		48.828125
7309		54.687500
7310		52.734375
7311		56.640625
7312		54.687500
7313		60.546875
7314		58.593750
7315		62.500000
7316		60.546875
7317		64.453125
7318		64.453125
7319		68.359375
7320		66.406250
7321		70.312500
7322		68.359375
7323		72.265625
7324		70.312500
7325		74.218750
7326		72.265625
7327		76.171875
7328		74.218750
7329		78.125000
7330		76.171875
7331		80.078125
7332		78.125000
7333		80.078125
7334		78.125000
7335		82.031250
7336		80.078125
7337		82.031250
7338		80.078125
7339		83.984375
7340		82.031250
7341		83.984375
7342		82.031250
7343		85.937500
7344		83.984375
7345		85.937500
7346		83.984375
7347		85.937500
7348		83.984375
7349		85.937500
7350		83.984375
7351		85.937500
7352		83.984375
7353		85.937500
7354		82.031250
7355		85.937500
7356		82.031250
7357		83.984375
7358		82.031250
7359		83.984375
7360		80.078125
7361		82.031250
7362		80.078125
7363		82.031250
7364		78.125000
7365		80.078125
7366		76.171875
7367		80.078125
7368		74.218750
7369		78.125000
7370		72.265625
7371		76.171875
7372		70.312500
7373		74.218750
7374		68.359375
7375		72.265625
7376		66.406250
7377		70.312500
7378		64.453125
7379		68.359375
7380		60.546875
7381		64.453125
7382		58.593750
7383		62.500000
7384		54.687500
7385		60.546875
7386		52.734375
7387		56.640625
7388		48.828125
7389		54.687500
7390		46.875000
7391		50.781250
7392		42.968750
7393		46.875000
7394		39.062500
7395		44.921875
7396		35.156250
7397		41.015625
7398		33.203125
7399		37.109375
7400		29.296875
7401		33.203125
7402		25.390625
7403		29.296875
7404		21.484375
7405		25.390625
7406		17.578125
7407		21.484375
7408		13.671875
7409		19.531250
7410		9.765625
7411		13.671875
7412		5.859375
7413		9.765625
7414		1.953125
7415		7.812500
7416		-1.953125
7417		1.953125
7418		-5.859375
7419		-1.953125
7420		-9.765625
7421		-5.859375
7422		-13.671875
7423		-9.765625
7424		-17.578125
7425		-13.671875
7426		-21.484375
7427		-17.578125
7428		-25.390625
7429		-21.484375
7430		-29.296875
7431		-23.437500
7432		-33.203125
7433		-27.343750
7434		-37.109375
7435		-31.250000
7436		-39.062500
7437		-35.156250
7438		-42.968750
7439		-39.062500
7440		-46.875000
7441		-41.015625
7442		-48.828125
7443		-44.921875
7444		-52.734375
7445		-48.828125
7446		-54.687500
7447		-50.781250
7448		-58.593750
7449		-52.734375
7450		-60.546875
7451		-56.640625
7452		-62.500000
7453		-58.593750
7454		-64.453125
7455		-60.546875
7456		-66.406250
7457		-62.500000
7458		-68.359375
7459		-64.453125
7460		-70.312500
7461		-66.406250
7462		-70.312500
7463		-68.359375
7464		-72.265625
7465		-68.359375
7466		-72.265625
7467		-70.312500
7468		-74.218750
7469		-70.312500
7470		-74.218750
7471		-72.265625
7472		-74.218750
7473		-72.265625
7474		-74.218750
7475		-72.265625
7476		-74.218750
7477		-72.265625
7478		-74.218750
7479		-72.265625
7480		-74.218750
7481		-72.265625
7482		-74.218750
7483		-70.312500
7484		-72.265625
7485		-70.312500
7486		-72.265625
7487		-68.359375
7488		-70.312500
7489		-68.359375
7490		-68.359375
7491		-66.406250
7492		-68.359375
7493		-64.453125
7494		-66.406250
7495		-62.500000
7496		-64.453125
7497		-60.546875
7498		-62.500000
7499		-56.640625
7500		-58.593750
7501		-54.687500
7502		-56.640625
7503		-52.734375
7504		-54.687500
7505		-48.828125
7506		-50.781250
7507		-46.875000
7508		-48.828125
7509		-42.968750
7510		-44.921875
7511		-41.015625
7512		-42.968750
7513		-37.109375
7514		-39.062500
7515		-33.203125
7516		-35.156250
7517		-29.296875
7518		-31.250000
7519		-27.343750
7520		-27.343750
7521		-23.437500
7522		-23.437500
7523		-19.531250
7524		-19.531250
7525		-15.625000
7526		-17.578125
7527		-11.718750
7528		-11.718750
7529		-7.812500
7530		-9.765625
7531		-3.906250
7532		-5.859375
7533		1.953125
7534		-1.953125
7535		3.906250
7536		3.906250
7537		7.812500
7538		7.812500
7539		11.718750
7540		11.718750
7541		15.625000
7542		15.625000
7543		19.531250
7544		19.531250
7545		23.437500
7546		23.437500
7547		27.343750
7548		25.390625
7549		31.250000
7550		29.296875
7551		35.156250
7552		33.203125
7553		39.062500
7554		37.109375
7555		41.015625
7556		41.015625
7557		44.921875
7558		44.921875
7559		48.828125
7560		46.875000
7561		50.781250
7562		50.781250
7563		54.687500
7564		52.734375
7565		58.593750
7566		56.640625
7567		60.546875
7568		58.593750
7569		62.500000
7570		62.500000
7571		66.406250
7572		64.453125
7573		68.359375
7574		66.406250
7575		70.312500
7576		68.359375
7577		72.265625
7578		72.265625
7579		74.218750
7580		72.265625
7581		76.171875
7582		74.218750
7583		78.125000
7584		76.171875
7585		80.078125
7586		78.125000
7587		80.078125
7588		80.078125
7589		82.031250
7590		80.078125
7591		83.984375
7592		80.078125
7593		83.984375
7594		82.031250
7595		83.984375
7596		82.031250
7597		85.937500
7598		83.984375
7599		85.937500
7600		83.984375
7601		85.937500
7602		83.984375
7603		85.937500
7604		83.984375
7605		85.937500
7606		83.984375
7607		85.937500
7608		82.031250
7609		85.937500
7610		82.031250
7611		83.984375
7612		82.031250
7613		83.984375
7614		80.078125
7615		82.031250
7616		78.125000
7617		82.031250
7618		78.125000
7619		80.078125
7620		76.171875
7621		78.125000
7622		74.218750
7623		78.125000
7624		72.265625
7625		76.171875
7626		70.312500
7627		74.218750
7628		68.359375
7629		72.265625
7630		64.453125
7631		70.312500
7632		62.500000
7633		66.406250
7634		60.546875
7635		64.453125
7636		56.640625
7637		62.500000
7638		54.687500
7639		58.593750
7640		50.781250
7641		56.640625
7642		48.828125
7643		52.734375
7644		44.921875
7645		48.828125
7646		41.015625
7647		46.875000
7648		39.062500
7649		42.968750
7650		35.156250
7651		39.062500
7652		31.250000
7653		35.156250
7654		27.343750
7655		33.203125
7656		23.437500
7657		29.296875
7658		19.531250
7659		25.390625
7660		15.625000
7661		21.484375
7662		11.718750
7663		17.578125
7664		7.812500
7665		13.671875
7666		3.906250
7667		9.765625
7668		0.000000
7669		5.859375
7670		-3.906250
7671		1.953125
7672		-7.812500
7673		-1.953125
7674		-11.718750
7675		-5.859375
7676		-15.625000
7677		-9.765625
7678		-19.531250
7679		-13.671875
7680		-23.437500
7681		-17.578125
7682		-27.343750
7683		-21.484375
7684		-31.250000
7685		-25.390625
7686		-35.156250
7687		-29.296875
7688		-37.109375
7689		-33.203125
7690		-41.015625
7691		-37.109375
7692		-44.921875
7693		-39.062500
7694		-46.875000
7695		-42.968750
7696		-50.781250
7697		-46.875000
7698		-52.734375
7699		-48.828125
7700		-56.640625
7701		-52.734375
7702		-58.593750
7703		-54.687500
7704		-60.546875
7705		-56.640625
7706		-62.500000
7707		-58.593750
7708		-66.406250
7709		-60.546875
7710		-66.406250
7711		-62.500000
7712		-68.359375
7713		-66.406250
7714		-70.312500
7715		-66.406250
7716		-72.265625
7717		-68.359375
7718		-72.265625
7719		-70.312500
7720		-74.218750
7721		-70.312500
7722		-74.218750
7723		-72.265625
7724		-74.218750
7725		-72.265625
7726		-74.218750
7727		-72.265625
7728		-74.218750
7729		-72.265625
7730		-74.218750
7731		-72.265625
7732		-76.171875
7733		-72.265625
7734		-74.218750
7735		-72.265625
7736		-74.218750
7737		-70.312500
7738		-74.218750
7739		-68.359375
7740		-72.265625
7741		-68.359375
7742		-72.265625
7743		-66.406250
7744		-68.359375
7745		-66.406250
7746		-68.359375
7747		-62.500000
7748		-64.453125
7749		-62.500000
7750		-62.500000
7751		-60.546875
7752		-62.500000
7753		-56.640625
7754		-58.593750
7755		-54.687500
7756		-56.640625
7757		-52.734375
7758		-54.687500
7759		-48.828125
7760		-50.781250
7761		-46.875000
7762		-46.875000
7763		-42.968750
7764		-44.921875
7765		-39.062500
7766		-42.968750
7767		-35.156250
7768		-39.062500
7769		-33.203125
7770		-35.156250
7771		-29.296875
7772		-31.250000
7773		-25.390625
7774		-27.343750
7775		-19.531250
7776		-23.437500
7777		-17.578125
7778		-21.484375
7779		-13.671875
7780		-15.625000
7781		-9.765625
7782		-11.718750
7783		-3.906250
7784		-7.812500
7785		-3.906250
7786		-3.906250
7787		0.000000
7788		0.000000
7789		5.859375
7790		1.953125
7791		9.765625
7792		7.812500
7793		13.671875
7794		9.765625
7795		17.578125
7796		15.625000
7797		21.484375
7798		19.531250
7799		23.437500
7800		23.437500
7801		27.343750
7802		27.343750
7803		31.250000
7804		31.250000
7805		35.156250
7806		33.203125
7807		41.015625
7808		35.156250
7809		44.921875
7810		39.062500
7811		46.875000
7812		44.921875
7813		50.781250
7814		44.921875
7815		52.734375
7816		50.781250
7817		58.593750
7818		54.687500
7819		58.593750
7820		56.640625
7821		60.546875
7822		58.593750
7823		64.453125
7824		60.546875
7825		68.359375
7826		62.500000
7827		68.359375
7828		66.406250
7829		70.312500
7830		68.359375
7831		76.171875
7832		72.265625
7833		74.218750
7834		70.312500
7835		78.125000
7836		74.218750
7837		78.125000
7838		76.171875
7839		80.078125
7840		76.171875
7841		83.984375
7842		78.125000
7843		83.984375
7844		80.078125
7845		83.984375
7846		80.078125
7847		85.937500
7848		80.078125
7849		87.890625
7850		80.078125
7851		87.890625
7852		82.031250
7853		85.937500
7854		83.984375
7855		85.937500
7856		82.031250
7857		87.890625
7858		78.125000
7859		87.890625
7860		82.031250
7861		85.937500
7862		80.078125
7863		83.984375
7864		78.125000
7865		85.937500
7866		76.171875
7867		85.937500
7868		80.078125
7869		82.031250
7870		78.125000
7871		80.078125
7872		76.171875
7873		80.078125
7874		70.312500
7875		80.078125
7876		72.265625
7877		78.125000
7878		70.312500
7879		74.218750
7880		64.453125
7881		76.171875
7882		62.500000
7883		74.218750
7884		60.546875
7885		72.265625
7886		60.546875
7887		66.406250
7888		58.593750
7889		62.500000
7890		52.734375
7891		60.546875
7892		50.781250
7893		60.546875
7894		50.781250
7895		54.687500
7896		46.875000
7897		50.781250
7898		41.015625
7899		50.781250
7900		37.109375
7901		46.875000
7902		37.109375
7903		41.015625
7904		33.203125
7905		39.062500
7906		29.296875
7907		35.156250
7908		23.437500
7909		33.203125
7910		21.484375
7911		29.296875
7912		17.578125
7913		23.437500
7914		9.765625
7915		21.484375
7916		9.765625
7917		19.531250
7918		5.859375
7919		15.625000
7920		1.953125
7921		7.812500
7922		-1.953125
7923		3.906250
7924		-7.812500
7925		0.000000
7926		-9.765625
7927		-3.906250
7928		-13.671875
7929		-7.812500
7930		-17.578125
7931		-11.718750
7932		-21.484375
7933		-13.671875
7934		-25.390625
7935		-19.531250
7936		-29.296875
7937		-23.437500
7938		-31.250000
7939		-27.343750
7940		-37.109375
7941		-31.250000
7942		-41.015625
7943		-31.250000
7944		-42.968750
7945		-37.109375
7946		-44.921875
7947		-41.015625
7948		-52.734375
7949		-41.015625
7950		-54.687500
7951		-46.875000
7952		-54.687500
7953		-48.828125
7954		-56.640625
7955		-52.734375
7956		-60.546875
7957		-56.640625
7958		-64.453125
7959		-56.640625
7960		-66.406250
7961		-58.593750
7962		-66.406250
7963		-62.500000
7964		-70.312500
7965		-62.500000
7966		-72.265625
7967		-62.500000
7968		-72.265625
7969		-64.453125
7970		-72.265625
7971		-68.359375
7972		-72.265625
7973		-70.312500
7974		-76.171875
7975		-70.312500
7976		-78.125000
7977		-68.359375
7978		-76.171875
7979		-72.265625
7980		-76.171875
7981		-72.265625
7982		-78.125000
7983		-70.312500
7984		-78.125000
7985		-70.312500
7986		-74.218750
7987		-72.265625
7988		-74.218750
7989		-72.265625
7990		-74.218750
7991		-70.312500
7992		-74.218750
7993		-66.406250
7994		-72.265625
7995		-68.359375
7996		-70.312500
7997		-66.406250
7998		-70.312500
7999		-60.546875
8000		-70.312500
8001		-62.500000
8002		-66.406250
8003		-58.593750
8004		-62.500000
8005		-58.593750
8006		-60.546875
8007		-56.640625
8008		-58.593750
8009		-50.781250
8010		-56.640625
8011		-50.781250
8012		-52.734375
8013		-48.828125
8014		-50.781250
8015		-42.968750
8016		-46.875000
8017		-42.968750
8018		-44.921875
8019		-37.109375
8020		-41.015625
8021		-35.156250
8022		-37.109375
8023		-31.250000
8024		-33.203125
8025		-29.296875
8026		-33.203125
8027		-23.437500
8028		-27.343750
8029		-21.484375
8030		-21.484375
8031		-17.578125
8032		-19.531250
8033		-13.671875
8034		-15.625000
8035		-9.765625
8036		-11.718750
8037		-5.859375
8038		-7.812500
8039		-1.953125
8040		-3.906250
8041		1.953125
8042		1.953125
8043		5.859375
8044		5.859375
8045		11.718750
8046		7.812500
8047		13.671875
8048		13.671875
8049		19.531250
8050		15.625000
8051		21.484375
8052		19.531250
8053		25.390625
8054		23.437500
8055		29.296875
8056		27.343750
8057		33.203125
8058		31.250000
8059		37.109375
8060		35.156250
8061		41.015625
8062		39.062500
8063		42.968750
8064		42.968750
8065		46.875000
8066		44.921875
8067		50.781250
8068		48.828125
8069		52.734375
8070		50.781250
8071		56.640625
8072		54.687500
8073		58.593750
8074		56.640625
8075		62.500000
8076		60.546875
8077		64.453125
8078		62.500000
8079		66.406250
8080		64.453125
8081		70.312500
8082		68.359375
8083		72.265625
8084		70.312500
8085		74.218750
8086		72.265625
8087		76.171875
8088		74.218750
8089		76.171875
8090		76.171875
8091		80.078125
8092		76.171875
8093		82.031250
8094		78.125000
8095		82.031250
8096		78.125000
8097		83.984375
8098		78.125000
8099		85.937500
8100		80.078125
8101		85.937500
8102		80.078125
8103		85.937500
8104		82.031250
8105		85.937500
8106		82.031250
8107		85.937500
8108		82.031250
8109		87.890625
8110		82.031250
8111		85.937500
8112		80.078125
8113		85.937500
8114		80.078125
8115		85.937500
8116		80.078125
8117		85.937500
8118		80.078125
8119		83.984375
8120		78.125000
8121		83.984375
8122		78.125000
8123		82.031250
8124		76.171875
8125		82.031250
8126		74.218750
8127		80.078125
8128		72.265625
8129		78.125000
8130		70.312500
8131		76.171875
8132		68.359375
8133		76.171875
8134		68.359375
8135		74.218750
8136		66.406250
8137		70.312500
8138		64.453125
8139		68.359375
8140		60.546875
8141		64.453125
8142		56.640625
8143		64.453125
8144		54.687500
8145		60.546875
8146		50.781250
8147		58.593750
8148		48.828125
8149		56.640625
8150		44.921875
8151		52.734375
8152		42.968750
8153		48.828125
8154		37.109375
8155		44.921875
8156		35.156250
8157		41.015625
8158		31.250000
8159		37.109375
8160		29.296875
8161		35.156250
8162		25.390625
8163		29.296875
8164		19.531250
8165		27.343750
8166		15.625000
8167		23.437500
8168		13.671875
8169		19.531250
8170		9.765625
8171		15.625000
8172		5.859375
8173		11.718750
8174		1.953125
8175		5.859375
8176		-3.906250
8177		3.906250
8178		-5.859375
8179		0.000000
8180		-13.671875
8181		-3.906250
8182		-15.625000
8183		-9.765625
8184		-17.578125
8185		-11.718750
8186		-23.437500
8187		-15.625000
8188		-25.390625
8189		-19.531250
8190		-29.296875
8191		-23.437500
8192		-35.156250
8193		-27.343750
8194		-37.109375
8195		-31.250000
8196		-41.015625
8197		-33.203125
8198		-42.968750
8199		-37.109375
8200		-46.875000
8201		-41.015625
8202		-48.828125
8203		-44.921875
8204		-52.734375
8205		-46.875000
8206		-54.687500
8207		-50.781250
8208		-58.593750
8209		-52.734375
8210		-60.546875
8211		-56.640625
8212		-62.500000
8213		-58.593750
8214		-66.406250
8215		-60.546875
8216		-66.406250
8217		-62.500000
8218		-68.359375
8219		-64.453125
8220		-70.312500
8221		-66.406250
8222		-70.312500
8223		-68.359375
8224		-72.265625
8225		-68.359375
8226		-74.218750
8227		-68.359375
8228		-74.218750
8229		-70.312500
8230		-74.218750
8231		-72.265625
8232		-76.171875
8233		-70.312500
8234		-76.171875
8235		-72.265625
8236		-76.171875
8237		-72.265625
8238		-76.171875
8239		-72.265625
8240		-74.218750
8241		-72.265625
8242		-74.218750
8243		-70.312500
8244		-74.218750
8245		-70.312500
8246		-72.265625
8247		-68.359375
8248		-72.265625
8249		-66.406250
8250		-70.312500
8251		-64.453125
8252		-68.359375
8253		-64.453125
8254		-66.406250
8255		-62.500000
8256		-64.453125
8257		-60.546875
8258		-62.500000
8259		-56.640625
8260		-58.593750
8261		-54.687500
8262		-56.640625
8263		-52.734375
8264		-54.687500
8265		-48.828125
8266		-52.734375
8267		-46.875000
8268		-48.828125
8269		-42.968750
8270		-46.875000
8271		-41.015625
8272		-42.968750
8273		-37.109375
8274		-39.062500
8275		-33.203125
8276		-37.109375
8277		-31.250000
8278		-31.250000
8279		-27.343750
8280		-29.296875
8281		-23.437500
8282		-25.390625
8283		-19.531250
8284		-21.484375
8285		-15.625000
8286		-17.578125
8287		-11.718750
8288		-13.671875
8289		-7.812500
8290		-9.765625
8291		-3.906250
8292		-5.859375
8293		0.000000
8294		-1.953125
8295		3.906250
8296		1.953125
8297		7.812500
8298		5.859375
8299		13.671875
8300		9.765625
8301		15.625000
8302		13.671875
8303		19.531250
8304		17.578125
8305		23.437500
8306		21.484375
8307		27.343750
8308		25.390625
8309		31.250000
8310		29.296875
8311		35.156250
8312		33.203125
8313		39.062500
8314		37.109375
8315		41.015625
8316		39.062500
8317		44.921875
8318		42.968750
8319		48.828125
8320		44.921875
8321		50.781250
8322		48.828125
8323		54.687500
8324		52.734375
8325		56.640625
8326		56.640625
8327		60.546875
8328		58.593750
8329		62.500000
8330		62.500000
8331		66.406250
8332		64.453125
8333		68.359375
8334		66.406250
8335		70.312500
8336		68.359375
8337		72.265625
8338		70.312500
8339		74.218750
8340		72.265625
8341		76.171875
8342		74.218750
8343		78.125000
8344		76.171875
8345		80.078125
8346		78.125000
8347		82.031250
8348		78.125000
8349		83.984375
8350		80.078125
8351		83.984375
8352		80.078125
8353		83.984375
8354		82.031250
8355		85.937500
8356		82.031250
8357		85.937500
8358		83.984375
8359		85.937500
8360		82.031250
8361		87.890625
8362		83.984375
8363		85.937500
8364		83.984375
8365		85.937500
8366		83.984375
8367		85.937500
8368		82.031250
8369		85.937500
8370		82.031250
8371		85.937500
8372		80.078125
8373		85.937500
8374		80.078125
8375		83.984375
8376		78.125000
8377		82.031250
8378		78.125000
8379		80.078125
8380		76.171875
8381		80.078125
8382		74.218750
8383		78.125000
8384		72.265625
8385		78.125000
8386		70.312500
8387		74.218750
8388		68.359375
8389		72.265625
8390		66.406250
8391		70.312500
8392		64.453125
8393		68.359375
8394		60.546875
8395		66.406250
8396		58.593750
8397		62.500000
8398		54.687500
8399		60.546875
8400		50.781250
8401		56.640625
8402		48.828125
8403		54.687500
8404		44.921875
8405		50.781250
8406		42.968750
8407		48.828125
8408		39.062500
8409		44.921875
8410		35.156250
8411		41.015625
8412		31.250000
8413		37.109375
8414		27.343750
8415		33.203125
8416		23.437500
8417		29.296875
8418		21.484375
8419		25.390625
8420		17.578125
8421		21.484375
8422		13.671875
8423		17.578125
8424		9.765625
8425		13.671875
8426		3.906250
8427		9.765625
8428		0.000000
8429		5.859375
8430		-1.953125
8431		1.953125
8432		-7.812500
8433		-1.953125
8434		-11.718750
8435		-5.859375
8436		-15.625000
8437		-7.812500
8438		-19.531250
8439		-13.671875
8440		-21.484375
8441		-17.578125
8442		-25.390625
8443		-21.484375
8444		-31.250000
8445		-23.437500
8446		-33.203125
8447		-27.343750
8448		-37.109375
8449		-31.250000
8450		-39.062500
8451		-35.156250
8452		-44.921875
8453		-39.062500
8454		-46.875000
8455		-41.015625
8456		-48.828125
8457		-44.921875
8458		-52.734375
8459		-48.828125
8460		-54.687500
8461		-50.781250
8462		-58.593750
8463		-52.734375
8464		-60.546875
8465		-56.640625
8466		-62.500000
8467		-58.593750
8468		-64.453125
8469		-60.546875
8470		-66.406250
8471		-62.500000
8472		-68.359375
8473		-64.453125
8474		-68.359375
8475		-66.406250
8476		-70.312500
8477		-68.359375
8478		-72.265625
8479		-68.359375
8480		-72.265625
8481		-70.312500
8482		-74.218750
8483		-70.312500
8484		-74.218750
8485		-70.312500
8486		-74.218750
8487		-72.265625
8488		-74.218750
8489		-70.312500
8490		-74.218750
8491		-72.265625
8492		-74.218750
8493		-72.265625
8494		-74.218750
8495		-70.312500
8496		-74.218750
8497		-70.312500
8498		-72.265625
8499		-68.359375
8500		-72.265625
8501		-68.359375
8502		-70.312500
8503		-66.406250
8504		-68.359375
8505		-64.453125
8506		-66.406250
8507		-62.500000
8508		-64.453125
8509		-62.500000
8510		-62.500000
8511		-58.593750
8512		-60.546875
8513		-56.640625
8514		-58.593750
8515		-54.687500
8516		-56.640625
8517		-50.781250
8518		-52.734375
8519		-48.828125
8520		-50.781250
8521		-44.921875
8522		-46.875000
8523		-42.968750
8524		-44.921875
8525		-39.062500
8526		-41.015625
8527		-37.109375
8528		-37.109375
8529		-33.203125
8530		-35.156250
8531		-29.296875
8532		-31.250000
8533		-25.390625
8534		-27.343750
8535		-21.484375
8536		-23.437500
8537		-17.578125
8538		-19.531250
8539		-13.671875
8540		-17.578125
8541		-9.765625
8542		-11.718750
8543		-7.812500
8544		-7.812500
8545		-1.953125
8546		-3.906250
8547		1.953125
8548		0.000000
8549		5.859375
8550		3.906250
8551		9.765625
8552		7.812500
8553		13.671875
8554		11.718750
8555		17.578125
8556		15.625000
8557		21.484375
8558		19.531250
8559		25.390625
8560		23.437500
8561		29.296875
8562		25.390625
8563		31.250000
8564		31.250000
8565		37.109375
8566		35.156250
8567		39.062500
8568		37.109375
8569		42.968750
8570		41.015625
8571		46.875000
8572		44.921875
8573		48.828125
8574		46.875000
8575		52.734375
8576		50.781250
8577		54.687500
8578		54.687500
8579		58.593750
8580		56.640625
8581		62.500000
8582		58.593750
8583		64.453125
8584		62.500000
8585		66.406250
8586		64.453125
8587		70.312500
8588		66.406250
8589		72.265625
8590		68.359375
8591		74.218750
8592		72.265625
8593		74.218750
8594		74.218750
8595		78.125000
8596		74.218750
8597		78.125000
8598		76.171875
8599		80.078125
8600		78.125000
8601		82.031250
8602		80.078125
8603		82.031250
8604		80.078125
8605		83.984375
8606		80.078125
8607		83.984375
8608		82.031250
8609		83.984375
8610		82.031250
8611		85.937500
8612		82.031250
8613		85.937500
8614		82.031250
8615		85.937500
8616		82.031250
8617		85.937500
8618		82.031250
8619		85.937500
8620		82.031250
8621		85.937500
8622		82.031250
8623		85.937500
8624		82.031250
8625		85.937500
8626		80.078125
8627		83.984375
8628		78.125000
8629		82.031250
8630		78.125000
8631		82.031250
8632		76.171875
8633		80.078125
8634		76.171875
8635		78.125000
8636		72.265625
8637		78.125000
8638		72.265625
8639		74.218750
8640		68.359375
8641		74.218750
8642		66.406250
8643		70.312500
8644		64.453125
8645		68.359375
8646		62.500000
8647		66.406250
8648		60.546875
8649		64.453125
8650		56.640625
8651		60.546875
8652		52.734375
8653		58.593750
8654		50.781250
8655		54.687500
8656		46.875000
8657		52.734375
8658		44.921875
8659		48.828125
8660		41.015625
8661		46.875000
8662		37.109375
8663		42.968750
8664		33.203125
8665		39.062500
8666		29.296875
8667		37.109375
8668		25.390625
8669		31.250000
8670		23.437500
8671		27.343750
8672		19.531250
8673		23.437500
8674		15.625000
8675		19.531250
8676		11.718750
8677		15.625000
8678		7.812500
8679		11.718750
8680		3.906250
8681		9.765625
8682		0.000000
8683		5.859375
8684		-3.906250
8685		1.953125
8686		-7.812500
8687		-1.953125
8688		-13.671875
8689		-7.812500
8690		-17.578125
8691		-11.718750
8692		-19.531250
8693		-15.625000
8694		-23.437500
8695		-19.531250
8696		-27.343750
8697		-23.437500
8698		-31.250000
8699		-25.390625
8700		-35.156250
8701		-29.296875
8702		-39.062500
8703		-33.203125
8704		-42.968750
8705		-37.109375
8706		-44.921875
8707		-41.015625
8708		-48.828125
8709		-42.968750
8710		-50.781250
8711		-46.875000
8712		-54.687500
8713		-48.828125
8714		-56.640625
8715		-52.734375
8716		-58.593750
8717		-54.687500
8718		-60.546875
8719		-56.640625
8720		-64.453125
8721		-60.546875
8722		-66.406250
8723		-62.500000
8724		-68.359375
8725		-62.500000
8726		-68.359375
8727		-64.453125
8728		-70.312500
8729		-66.406250
8730		-72.265625
8731		-68.359375
8732		-72.265625
8733		-68.359375
8734		-74.218750
8735		-70.312500
8736		-74.218750
8737		-70.312500
8738		-74.218750
8739		-72.265625
8740		-76.171875
8741		-72.265625
8742		-76.171875
8743		-72.265625
8744		-74.218750
8745		-72.265625
8746		-74.218750
8747		-70.312500
8748		-74.218750
8749		-70.312500
8750		-74.218750
8751		-70.312500
8752		-72.265625
8753		-70.312500
8754		-72.265625
8755		-68.359375
8756		-70.312500
8757		-66.406250
8758		-68.359375
8759		-64.453125
8760		-66.406250
8761		-62.500000
8762		-64.453125
8763		-60.546875
8764		-64.453125
8765		-58.593750
8766		-60.546875
8767		-56.640625
8768		-58.593750
8769		-54.687500
8770		-56.640625
8771		-50.781250
8772		-52.734375
8773		-48.828125
8774		-50.781250
8775		-44.921875
8776		-46.875000
8777		-42.968750
8778		-42.968750
8779		-39.062500
8780		-41.015625
8781		-35.156250
8782		-37.109375
8783		-31.250000
8784		-33.203125
8785		-29.296875
8786		-31.250000
8787		-25.390625
8788		-27.343750
8789		-21.484375
8790		-23.437500
8791		-17.578125
8792		-19.531250
8793		-13.671875
8794		-15.625000
8795		-9.765625
8796		-11.718750
8797		-5.859375
8798		-7.812500
8799		-1.953125
8800		-3.906250
8801		1.953125
8802		0.000000
8803		5.859375
8804		3.906250
8805		9.765625
8806		7.812500
8807		13.671875
8808		11.718750
8809		19.531250
8810		15.625000
8811		21.484375
8812		19.531250
8813		25.390625
8814		23.437500
8815		29.296875
8816		27.343750
8817		33.203125
8818		31.250000
8819		37.109375
8820		35.156250
8821		41.015625
8822		37.109375
8823		42.968750
8824		41.015625
8825		46.875000
8826		44.921875
8827		50.781250
8828		48.828125
8829		52.734375
8830		52.734375
8831		56.640625
8832		54.687500
8833		58.593750
8834		56.640625
8835		62.500000
8836		60.546875
8837		64.453125
8838		62.500000
8839		66.406250
8840		64.453125
8841		70.312500
8842		68.359375
8843		72.265625
8844		70.312500
8845		74.218750
8846		72.265625
8847		76.171875
8848		72.265625
8849		78.125000
8850		76.171875
8851		80.078125
8852		76.171875
8853		80.078125
8854		78.125000
8855		82.031250
8856		80.078125
8857		82.031250
8858		80.078125
8859		83.984375
8860		80.078125
8861		83.984375
8862		82.031250
8863		83.984375
8864		82.031250
8865		85.937500
8866		83.984375
8867		85.937500
8868		82.031250
8869		85.937500
8870		82.031250
8871		85.937500
8872		82.031250
8873		85.937500
8874		82.031250
8875		85.937500
8876		82.031250
8877		85.937500
8878		82.031250
8879		83.984375
8880		80.078125
8881		83.984375
8882		78.125000
8883		82.031250
8884		78.125000
8885		82.031250
8886		76.171875
8887		80.078125
8888		74.218750
8889		78.125000
8890		72.265625
8891		76.171875
8892		70.312500
8893		74.218750
8894		68.359375
8895		72.265625
8896		66.406250
8897		70.312500
8898		64.453125
8899		68.359375
8900		60.546875
8901		66.406250
8902		58.593750
8903		64.453125
8904		56.640625
8905		60.546875
8906		52.734375
8907		58.593750
8908		48.828125
8909		54.687500
8910		46.875000
8911		52.734375
8912		42.968750
8913		48.828125
8914		39.062500
8915		44.921875
8916		37.109375
8917		41.015625
8918		33.203125
8919		39.062500
8920		29.296875
8921		35.156250
8922		25.390625
8923		31.250000
8924		21.484375
8925		27.343750
8926		17.578125
8927		23.437500
8928		13.671875
8929		19.531250
8930		9.765625
8931		15.625000
8932		5.859375
8933		11.718750
8934		1.953125
8935		7.812500
8936		-1.953125
8937		3.906250
8938		-5.859375
8939		0.000000
8940		-9.765625
8941		-3.906250
8942		-13.671875
8943		-7.812500
8944		-17.578125
8945		-11.718750
8946		-21.484375
8947		-15.625000
8948		-25.390625
8949		-19.531250
8950		-29.296875
8951		-23.437500
8952		-33.203125
8953		-27.343750
8954		-37.109375
8955		-31.250000
8956		-39.062500
8957		-35.156250
8958		-42.968750
8959		-37.109375
8960		-46.875000
8961		-41.015625
8962		-48.828125
8963		-44.921875
8964		-52.734375
8965		-46.875000
8966		-54.687500
8967		-50.781250
8968		-56.640625
8969		-52.734375
8970		-60.546875
8971		-54.687500
8972		-62.500000
8973		-58.593750
8974		-64.453125
8975		-60.546875
8976		-66.406250
8977		-62.500000
8978		-68.359375
8979		-64.453125
8980		-68.359375
8981		-66.406250
8982		-72.265625
8983		-66.406250
8984		-72.265625
8985		-68.359375
8986		-74.218750
8987		-70.312500
8988		-74.218750
8989		-70.312500
8990		-74.218750
8991		-72.265625
8992		-74.218750
8993		-72.265625
8994		-76.171875
8995		-72.265625
8996		-74.218750
8997		-72.265625
8998		-76.171875
8999		-70.312500
9000		-74.218750
9001		-72.265625
9002		-74.218750
9003		-70.312500
9004		-72.265625
9005		-70.312500
9006		-72.265625
9007		-68.359375
9008		-70.312500
9009		-68.359375
9010		-70.312500
9011		-66.406250
9012		-68.359375
9013		-64.453125
9014		-66.406250
9015		-62.500000
9016		-64.453125
9017		-60.546875
9018		-62.500000
9019		-58.593750
9020		-60.546875
9021		-56.640625
9022		-56.640625
9023		-52.734375
9024		-54.687500
9025		-50.781250
9026		-52.734375
9027		-46.875000
9028		-50.781250
9029		-44.921875
9030		-46.875000
9031		-41.015625
9032		-42.968750
9033		-37.109375
9034		-39.062500
9035		-35.156250
9036		-37.109375
9037		-31.250000
9038		-33.203125
9039		-27.343750
9040		-29.296875
9041		-23.437500
9042		-25.390625
9043		-19.531250
9044		-21.484375
9045		-17.578125
9046		-17.578125
9047		-13.671875
9048		-13.671875
9049		-7.812500
9050		-9.765625
9051		-3.906250
9052		-5.859375
9053		0.000000
9054		-1.953125
9055		3.906250
9056		1.953125
9057		7.812500
9058		5.859375
9059		11.718750
9060		9.765625
9061		15.625000
9062		13.671875
9063		19.531250
9064		17.578125
9065		23.437500
9066		21.484375
9067		27.343750
9068		25.390625
9069		29.296875
9070		27.343750
9071		35.156250
9072		33.203125
9073		37.109375
9074		37.109375
9075		41.015625
9076		39.062500
9077		44.921875
9078		42.968750
9079		46.875000
9080		46.875000
9081		50.781250
9082		48.828125
9083		54.687500
9084		52.734375
9085		56.640625
9086		54.687500
9087		60.546875
9088		58.593750
9089		62.500000
9090		60.546875
9091		66.406250
9092		62.500000
9093		68.359375
9094		66.406250
9095		70.312500
9096		68.359375
9097		72.265625
9098		70.312500
9099		74.218750
9100		70.312500
9101		76.171875
9102		74.218750
9103		78.125000
9104		76.171875
9105		80.078125
9106		76.171875
9107		82.031250
9108		78.125000
9109		82.031250
9110		80.078125
9111		83.984375
9112		80.078125
9113		83.984375
9114		82.031250
9115		83.984375
9116		82.031250
9117		85.937500
9118		82.031250
9119		85.937500
9120		83.984375
9121		85.937500
9122		82.031250
9123		85.937500
9124		82.031250
9125		85.937500
9126		82.031250
9127		85.937500
9128		82.031250
9129		85.937500
9130		82.031250
9131		83.984375
9132		80.078125
9133		83.984375
9134		80.078125
9135		83.984375
9136		78.125000
9137		82.031250
9138		78.125000
9139		80.078125
9140		76.171875
9141		80.078125
9142		74.218750
9143		78.125000
9144		70.312500
9145		76.171875
9146		70.312500
9147		74.218750
9148		68.359375
9149		72.265625
9150		66.406250
9151		70.312500
9152		62.500000
9153		68.359375
9154		60.546875
9155		64.453125
9156		58.593750
9157		62.500000
9158		54.687500
9159		60.546875
9160		52.734375
9161		56.640625
9162		48.828125
9163		54.687500
9164		46.875000
9165		50.781250
9166		42.968750
9167		46.875000
9168		39.062500
9169		44.921875
9170		35.156250
9171		41.015625
9172		31.250000
9173		37.109375
9174		27.343750
9175		33.203125
9176		25.390625
9177		29.296875
9178		21.484375
9179		27.343750
9180		17.578125
9181		21.484375
9182		13.671875
9183		17.578125
9184		9.765625
9185		15.625000
9186		5.859375
9187		9.765625
9188		0.000000
9189		5.859375
9190		-3.906250
9191		1.953125
9192		-5.859375
9193		-1.953125
9194		-11.718750
9195		-5.859375
9196		-13.671875
9197		-7.812500
9198		-17.578125
9199		-13.671875
9200		-21.484375
9201		-17.578125
9202		-25.390625
9203		-21.484375
9204		-29.296875
9205		-23.437500
9206		-33.203125
9207		-27.343750
9208		-37.109375
9209		-31.250000
9210		-41.015625
9211		-35.156250
9212		-42.968750
9213		-39.062500
9214		-46.875000
9215		-41.015625
9216		-50.781250
9217		-44.921875
9218		-52.734375
9219		-46.875000
9220		-54.687500
9221		-50.781250
9222		-56.640625
9223		-52.734375
9224		-60.546875
9225		-56.640625
9226		-62.500000
9227		-58.593750
9228		-66.406250
9229		-60.546875
9230		-66.406250
9231		-62.500000
9232		-68.359375
9233		-64.453125
9234		-70.312500
9235		-66.406250
9236		-72.265625
9237		-68.359375
9238		-72.265625
9239		-68.359375
9240		-72.265625
9241		-70.312500
9242		-74.218750
9243		-70.312500
9244		-74.218750
9245		-72.265625
9246		-76.171875
9247		-72.265625
9248		-74.218750
9249		-72.265625
9250		-76.171875
9251		-70.312500
9252		-74.218750
9253		-72.265625
9254		-74.218750
9255		-72.265625
9256		-74.218750
9257		-70.312500
9258		-74.218750
9259		-68.359375
9260		-72.265625
9261		-68.359375
9262		-70.312500
9263		-66.406250
9264		-68.359375
9265		-66.406250
9266		-68.359375
9267		-64.453125
9268		-66.406250
9269		-62.500000
9270		-64.453125
9271		-60.546875
9272		-62.500000
9273		-56.640625
9274		-58.593750
9275		-54.687500
9276		-56.640625
9277		-52.734375
9278		-54.687500
9279		-48.828125
9280		-52.734375
9281		-46.875000
9282		-48.828125
9283		-42.968750
9284		-44.921875
9285		-39.062500
9286		-42.968750
9287		-37.109375
9288		-39.062500
9289		-33.203125
9290		-35.156250
9291		-29.296875
9292		-31.250000
9293		-27.343750
9294		-29.296875
9295		-21.484375
9296		-23.437500
9297		-19.531250
9298		-19.531250
9299		-15.625000
9300		-15.625000
9301		-11.718750
9302		-13.671875
9303		-7.812500
9304		-9.765625
9305		-1.953125
9306		-5.859375
9307		0.000000
9308		0.000000
9309		3.906250
9310		3.906250
9311		9.765625
9312		5.859375
9313		13.671875
9314		11.718750
9315		15.625000
9316		15.625000
9317		19.531250
9318		19.531250
9319		23.437500
9320		21.484375
9321		27.343750
9322		27.343750
9323		31.250000
9324		29.296875
9325		35.156250
9326		33.203125
9327		39.062500
9328		37.109375
9329		42.968750
9330		41.015625
9331		44.921875
9332		44.921875
9333		48.828125
9334		46.875000
9335		52.734375
9336		48.828125
9337		54.687500
9338		54.687500
9339		58.593750
9340		56.640625
9341		60.546875
9342		58.593750
9343		64.453125
9344		62.500000
9345		66.406250
9346		64.453125
9347		68.359375
9348		66.406250
9349		70.312500
9350		68.359375
9351		72.265625
9352		72.265625
9353		76.171875
9354		72.265625
9355		76.171875
9356		74.218750
9357		80.078125
9358		76.171875
9359		80.078125
9360		78.125000
9361		82.031250
9362		78.125000
9363		82.031250
9364		80.078125
9365		83.984375
9366		82.031250
9367		83.984375
9368		82.031250
9369		85.937500
9370		82.031250
9371		85.937500
9372		82.031250
9373		85.937500
9374		82.031250
9375		85.937500
9376		83.984375
9377		85.937500
9378		82.031250
9379		85.937500
9380		82.031250
9381		85.937500
9382		82.031250
9383		83.984375
9384		82.031250
9385		83.984375
9386		80.078125
9387		83.984375
9388		80.078125
9389		83.984375
9390		78.125000
9391		82.031250
9392		76.171875
9393		80.078125
9394		76.171875
9395		78.125000
9396		72.265625
9397		78.125000
9398		72.265625
9399		76.171875
9400		70.312500
9401		74.218750
9402		66.406250
9403		72.265625
9404		64.453125
9405		70.312500
9406		62.500000
9407		66.406250
9408		60.546875
9409		66.406250
9410		56.640625
9411		62.500000
9412		54.687500
9413		60.546875
9414		50.781250
9415		56.640625
9416		48.828125
9417		52.734375
9418		44.921875
9419		48.828125
9420		41.015625
9421		46.875000
9422		39.062500
9423		42.968750
9424		35.156250
9425		41.015625
9426		31.250000
9427		37.109375
9428		27.343750
9429		33.203125
9430		21.484375
9431		29.296875
9432		19.531250
9433		25.390625
9434		15.625000
9435		21.484375
9436		11.718750
9437		17.578125
9438		7.812500
9439		13.671875
9440		3.906250
9441		9.765625
9442		0.000000
9443		5.859375
9444		-3.906250
9445		1.953125
9446		-7.812500
9447		-1.953125
9448		-11.718750
9449		-5.859375
9450		-15.625000
9451		-9.765625
9452		-21.484375
9453		-13.671875
9454		-23.437500
9455		-17.578125
9456		-27.343750
9457		-21.484375
9458		-31.250000
9459		-25.390625
9460		-35.156250
9461		-29.296875
9462		-39.062500
9463		-33.203125
9464		-41.015625
9465		-35.156250
9466		-44.921875
9467		-39.062500
9468		-46.875000
9469		-42.968750
9470		-50.781250
9471		-44.921875
9472		-52.734375
9473		-48.828125
9474		-54.687500
9475		-50.781250
9476		-58.593750
9477		-54.687500
9478		-60.546875
9479		-56.640625
9480		-62.500000
9481		-58.593750
9482		-64.453125
9483		-60.546875
9484		-66.406250
9485		-62.500000
9486		-68.359375
9487		-64.453125
9488		-70.312500
9489		-66.406250
9490		-72.265625
9491		-68.359375
9492		-72.265625
9493		-68.359375
9494		-72.265625
9495		-70.312500
9496		-74.218750
9497		-70.312500
9498		-76.171875
9499		-70.312500
9500		-74.218750
9501		-72.265625
9502		-74.218750
9503		-70.312500
9504		-74.218750
9505		-72.265625
9506		-74.218750
9507		-72.265625
9508		-74.218750
9509		-70.312500
9510		-72.265625
9511		-70.312500
9512		-72.265625
9513		-68.359375
9514		-70.312500
9515		-66.406250
9516		-70.312500
9517		-66.406250
9518		-68.359375
9519		-64.453125
9520		-66.406250
9521		-62.500000
9522		-64.453125
9523		-60.546875
9524		-62.500000
9525		-58.593750
9526		-60.546875
9527		-56.640625
9528		-58.593750
9529		-54.687500
9530		-54.687500
9531		-50.781250
9532		-52.734375
9533		-48.828125
9534		-50.781250
9535		-44.921875
9536		-46.875000
9537		-41.015625
9538		-42.968750
9539		-39.062500
9540		-41.015625
9541		-35.156250
9542		-37.109375
9543		-31.250000
9544		-35.156250
9545		-27.343750
9546		-31.250000
9547		-25.390625
9548		-27.343750
9549		-21.484375
9550		-23.437500
9551		-17.578125
9552		-19.531250
9553		-13.671875
9554		-15.625000
9555		-9.765625
9556		-11.718750
9557		-5.859375
9558		-7.812500
9559		-1.953125
9560		-3.906250
9561		1.953125
9562		0.000000
9563		5.859375
9564		3.906250
9565		9.765625
9566		7.812500
9567		13.671875
9568		11.718750
9569		17.578125
9570		15.625000
9571		21.484375
9572		19.531250
9573		25.390625
9574		23.437500
9575		29.296875
9576		27.343750
9577		33.203125
9578		31.250000
9579		37.109375
9580		35.156250
9581		39.062500
9582		39.062500
9583		42.968750
9584		41.015625
9585		46.875000
9586		44.921875
9587		50.781250
9588		48.828125
9589		54.687500
9590		52.734375
9591		56.640625
9592		54.687500
9593		58.593750
9594		56.640625
9595		62.500000
9596		60.546875
9597		64.453125
9598		62.500000
9599		68.359375
9600		66.406250
9601		70.312500
9602		68.359375
9603		72.265625
9604		70.312500
9605		74.218750
9606		72.265625
9607		76.171875
9608		74.218750
9609		78.125000
9610		74.218750
9611		78.125000
9612		76.171875
9613		80.078125
9614		78.125000
9615		82.031250
9616		80.078125
9617		83.984375
9618		82.031250
9619		83.984375
9620		82.031250
9621		85.937500
9622		82.031250
9623		85.937500
9624		82.031250
9625		85.937500
9626		83.984375
9627		85.937500
9628		83.984375
9629		85.937500
9630		83.984375
9631		85.937500
9632		82.031250
9633		85.937500
9634		83.984375
9635		85.937500
9636		82.031250
9637		85.937500
9638		82.031250
9639		85.937500
9640		80.078125
9641		83.984375
9642		78.125000
9643		82.031250
9644		78.125000
9645		82.031250
9646		76.171875
9647		80.078125
9648		74.218750
9649		78.125000
9650		74.218750
9651		78.125000
9652		72.265625
9653		74.218750
9654		68.359375
9655		72.265625
9656		66.406250
9657		70.312500
9658		64.453125
9659		68.359375
9660		62.500000
9661		66.406250
9662		58.593750
9663		62.500000
9664		56.640625
9665		60.546875
9666		54.687500
9667		58.593750
9668		50.781250
9669		54.687500
9670		46.875000
9671		52.734375
9672		42.968750
9673		48.828125
9674		41.015625
9675		44.921875
9676		37.109375
9677		42.968750
9678		33.203125
9679		39.062500
9680		29.296875
9681		35.156250
9682		25.390625
9683		31.250000
9684		23.437500
9685		27.343750
9686		19.531250
9687		23.437500
9688		13.671875
9689		19.531250
9690		11.718750
9691		15.625000
9692		5.859375
9693		11.718750
9694		1.953125
9695		9.765625
9696		-1.953125
9697		3.906250
9698		-5.859375
9699		0.000000
9700		-9.765625
9701		-3.906250
9702		-13.671875
9703		-7.812500
9704		-17.578125
9705		-11.718750
9706		-21.484375
9707		-15.625000
9708		-25.390625
9709		-19.531250
9710		-27.343750
9711		-23.437500
9712		-31.250000
9713		-25.390625
9714		-35.156250
9715		-29.296875
9716		-39.062500
9717		-33.203125
9718		-41.015625
9719		-37.109375
9720		-44.921875
9721		-41.015625
9722		-48.828125
9723		-42.968750
9724		-50.781250
9725		-46.875000
9726		-54.687500
9727		-48.828125
9728		-56.640625
9729		-52.734375
9730		-58.593750
9731		-54.687500
9732		-60.546875
9733		-56.640625
9734		-62.500000
9735		-58.593750
9736		-64.453125
9737		-62.500000
9738		-68.359375
9739		-64.453125
9740		-70.312500
9741		-64.453125
9742		-70.312500
9743		-66.406250
9744		-72.265625
9745		-68.359375
9746		-72.265625
9747		-70.312500
9748		-74.218750
9749		-70.312500
9750		-74.218750
9751		-70.312500
9752		-74.218750
9753		-72.265625
9754		-76.171875
9755		-72.265625
9756		-76.171875
9757		-72.265625
9758		-74.218750
9759		-72.265625
9760		-74.218750
9761		-72.265625
9762		-74.218750
9763		-70.312500
9764		-72.265625
9765		-70.312500
9766		-72.265625
9767		-68.359375
9768		-70.312500
9769		-68.359375
9770		-70.312500
9771		-66.406250
9772		-68.359375
9773		-64.453125
9774		-66.406250
9775		-62.500000
9776		-64.453125
9777		-60.546875
9778		-62.500000
9779		-58.593750
9780		-60.546875
9781		-56.640625
9782		-56.640625
9783		-52.734375
9784		-56.640625
9785		-50.781250
9786		-52.734375
9787		-48.828125
9788		-48.828125
9789		-44.921875
9790		-46.875000
9791		-41.015625
9792		-42.968750
9793		-37.109375
9794		-41.015625
9795		-35.156250
9796		-37.109375
9797		-31.250000
9798		-33.203125
9799		-27.343750
9800		-29.296875
9801		-23.437500
9802		-25.390625
9803		-21.484375
9804		-21.484375
9805		-17.578125
9806		-19.531250
9807		-13.671875
9808		-13.671875
9809		-9.765625
9810		-9.765625
9811		-5.859375
9812		-5.859375
9813		0.000000
9814		-1.953125
9815		3.906250
9816		1.953125
9817		7.812500
9818		3.906250
9819		9.765625
9820		9.765625
9821		15.625000
9822		13.671875
9823		19.531250
9824		15.625000
9825		21.484375
9826		19.531250
9827		27.343750
9828		23.437500
9829		31.250000
9830		29.296875
9831		33.203125
9832		31.250000
9833		37.109375
9834		35.156250
9835		41.015625
9836		39.062500
9837		44.921875
9838		42.968750
9839		48.828125
9840		44.921875
9841		50.781250
9842		48.828125
9843		54.687500
9844		50.781250
9845		56.640625
9846		54.687500
9847		60.546875
9848		58.593750
9849		62.500000
9850		60.546875
9851		66.406250
9852		64.453125
9853		68.359375
9854		66.406250
9855		70.312500
9856		68.359375
9857		72.265625
9858		70.312500
9859		74.218750
9860		72.265625
9861		76.171875
9862		74.218750
9863		78.125000
9864		76.171875
9865		80.078125
9866		78.125000
9867		80.078125
9868		78.125000
9869		82.031250
9870		80.078125
9871		82.031250
9872		80.078125
9873		83.984375
9874		82.031250
9875		85.937500
9876		82.031250
9877		85.937500
9878		82.031250
9879		85.937500
9880		82.031250
9881		85.937500
9882		82.031250
9883		85.937500
9884		82.031250
9885		85.937500
9886		83.984375
9887		85.937500
9888		82.031250
9889		85.937500
9890		82.031250
9891		85.937500
9892		80.078125
9893		83.984375
9894		80.078125
9895		83.984375
9896		78.125000
9897		82.031250
9898		78.125000
9899		82.031250
9900		76.171875
9901		80.078125
9902		74.218750
9903		78.125000
9904		72.265625
9905		76.171875
9906		70.312500
9907		74.218750
9908		68.359375
9909		74.218750
9910		64.453125
9911		70.312500
9912		62.500000
9913		68.359375
9914		60.546875
9915		66.406250
9916		58.593750
9917		62.500000
9918		54.687500
9919		60.546875
9920		52.734375
9921		56.640625
9922		48.828125
9923		54.687500
9924		46.875000
9925		52.734375
9926		42.968750
9927		48.828125
9928		39.062500
9929		44.921875
9930		37.109375
9931		41.015625
9932		31.250000
9933		37.109375
9934		29.296875
9935		35.156250
9936		25.390625
9937		31.250000
9938		21.484375
9939		27.343750
9940		15.625000
9941		23.437500
9942		13.671875
9943		19.531250
9944		9.765625
9945		15.625000
9946		5.859375
9947		11.718750
9948		1.953125
9949		7.812500
9950		-1.953125
9951		3.906250
9952		-5.859375
9953		0.000000
9954		-9.765625
9955		-3.906250
9956		-15.625000
9957		-7.812500
9958		-17.578125
9959		-11.718750
9960		-21.484375
9961		-15.625000
9962		-25.390625
9963		-19.531250
9964		-29.296875
9965		-23.437500
9966		-33.203125
9967		-27.343750
9968		-37.109375
9969		-29.296875
9970		-39.062500
9971		-35.156250
9972		-42.968750
9973		-39.062500
9974		-46.875000
9975		-41.015625
9976		-48.828125
9977		-42.968750
9978		-52.734375
9979		-46.875000
9980		-54.687500
9981		-50.781250
9982		-58.593750
9983		-52.734375
9984		-60.546875
9985		-54.687500
9986		-62.500000
9987		-56.640625
9988		-64.453125
9989		-60.546875
9990		-68.359375
9991		-62.500000
9992		-70.312500
9993		-62.500000
9994		-70.312500
9995		-64.453125
9996		-70.312500
9997		-66.406250
9998		-72.265625
9999		-68.359375
10000		-76.171875
