Channel              :		CH1
Frequency            :		1.973kHz
Period               :		0.507ms
PK-PK                :		140.6mV
Probe attenuation    :		1X
Voltage per ADC value:		0.122070mV
Time interval        :		2.00000us

index		CH1_Voltage(mV)
1		72.265625
2		72.265625
3		70.312500
4		72.265625
5		68.359375
6		72.265625
7		68.359375
8		70.312500
9		66.406250
10		70.312500
11		64.453125
12		68.359375
13		64.453125
14		68.359375
15		62.500000
16		66.406250
17		60.546875
18		64.453125
19		60.546875
20		64.453125
21		58.593750
22		62.500000
23		56.640625
24		60.546875
25		54.687500
26		58.593750
27		52.734375
28		56.640625
29		48.828125
30		54.687500
31		46.875000
32		50.781250
33		44.921875
34		48.828125
35		42.968750
36		46.875000
37		39.062500
38		44.921875
39		37.109375
40		41.015625
41		33.203125
42		39.062500
43		31.250000
44		35.156250
45		27.343750
46		33.203125
47		25.390625
48		29.296875
49		21.484375
50		27.343750
51		17.578125
52		25.390625
53		15.625000
54		19.531250
55		11.718750
56		17.578125
57		9.765625
58		13.671875
59		5.859375
60		9.765625
61		1.953125
62		7.812500
63		-1.953125
64		3.906250
65		-3.906250
66		1.953125
67		-7.812500
68		-1.953125
69		-9.765625
70		-5.859375
71		-13.671875
72		-9.765625
73		-17.578125
74		-11.718750
75		-19.531250
76		-15.625000
77		-23.437500
78		-19.531250
79		-25.390625
80		-21.484375
81		-29.296875
82		-23.437500
83		-31.250000
84		-27.343750
85		-35.156250
86		-29.296875
87		-37.109375
88		-31.250000
89		-39.062500
90		-35.156250
91		-41.015625
92		-37.109375
93		-44.921875
94		-41.015625
95		-46.875000
96		-42.968750
97		-48.828125
98		-44.921875
99		-50.781250
100		-46.875000
101		-52.734375
102		-48.828125
103		-54.687500
104		-50.781250
105		-54.687500
106		-50.781250
107		-56.640625
108		-52.734375
109		-56.640625
110		-54.687500
111		-58.593750
112		-54.687500
113		-58.593750
114		-56.640625
115		-60.546875
116		-56.640625
117		-60.546875
118		-58.593750
119		-60.546875
120		-58.593750
121		-62.500000
122		-58.593750
123		-62.500000
124		-58.593750
125		-60.546875
126		-58.593750
127		-62.500000
128		-58.593750
129		-60.546875
130		-56.640625
131		-60.546875
132		-56.640625
133		-58.593750
134		-56.640625
135		-58.593750
136		-54.687500
137		-56.640625
138		-54.687500
139		-56.640625
140		-52.734375
141		-54.687500
142		-50.781250
143		-52.734375
144		-48.828125
145		-50.781250
146		-46.875000
147		-48.828125
148		-44.921875
149		-46.875000
150		-42.968750
151		-44.921875
152		-41.015625
153		-42.968750
154		-39.062500
155		-41.015625
156		-35.156250
157		-39.062500
158		-33.203125
159		-35.156250
160		-31.250000
161		-31.250000
162		-27.343750
163		-29.296875
164		-23.437500
165		-27.343750
166		-21.484375
167		-23.437500
168		-17.578125
169		-21.484375
170		-15.625000
171		-17.578125
172		-13.671875
173		-13.671875
174		-9.765625
175		-11.718750
176		-5.859375
177		-7.812500
178		-1.953125
179		-5.859375
180		0.000000
181		-1.953125
182		3.906250
183		1.953125
184		5.859375
185		5.859375
186		9.765625
187		7.812500
188		13.671875
189		11.718750
190		17.578125
191		15.625000
192		19.531250
193		17.578125
194		23.437500
195		21.484375
196		27.343750
197		25.390625
198		29.296875
199		27.343750
200		33.203125
201		31.250000
202		35.156250
203		33.203125
204		39.062500
205		35.156250
206		41.015625
207		39.062500
208		42.968750
209		41.015625
210		44.921875
211		44.921875
212		48.828125
213		46.875000
214		50.781250
215		48.828125
216		52.734375
217		50.781250
218		54.687500
219		52.734375
220		56.640625
221		54.687500
222		58.593750
223		56.640625
224		60.546875
225		58.593750
226		62.500000
227		60.546875
228		64.453125
229		60.546875
230		66.406250
231		62.500000
232		66.406250
233		64.453125
234		68.359375
235		66.406250
236		70.312500
237		66.406250
238		70.312500
239		68.359375
240		70.312500
241		68.359375
242		72.265625
243		70.312500
244		72.265625
245		68.359375
246		72.265625
247		68.359375
248		72.265625
249		70.312500
250		72.265625
251		70.312500
252		74.218750
253		70.312500
254		72.265625
255		68.359375
256		72.265625
257		68.359375
258		72.265625
259		68.359375
260		70.312500
261		66.406250
262		70.312500
263		66.406250
264		70.312500
265		64.453125
266		68.359375
267		64.453125
268		68.359375
269		62.500000
270		66.406250
271		60.546875
272		64.453125
273		58.593750
274		62.500000
275		56.640625
276		60.546875
277		54.687500
278		58.593750
279		52.734375
280		56.640625
281		50.781250
282		54.687500
283		48.828125
284		52.734375
285		46.875000
286		50.781250
287		42.968750
288		48.828125
289		41.015625
290		44.921875
291		39.062500
292		42.968750
293		35.156250
294		39.062500
295		33.203125
296		37.109375
297		29.296875
298		35.156250
299		25.390625
300		31.250000
301		23.437500
302		27.343750
303		19.531250
304		25.390625
305		17.578125
306		21.484375
307		13.671875
308		19.531250
309		11.718750
310		15.625000
311		7.812500
312		11.718750
313		3.906250
314		9.765625
315		0.000000
316		5.859375
317		-1.953125
318		1.953125
319		-5.859375
320		0.000000
321		-7.812500
322		-3.906250
323		-11.718750
324		-7.812500
325		-15.625000
326		-9.765625
327		-17.578125
328		-13.671875
329		-21.484375
330		-17.578125
331		-25.390625
332		-19.531250
333		-27.343750
334		-23.437500
335		-31.250000
336		-25.390625
337		-33.203125
338		-29.296875
339		-35.156250
340		-31.250000
341		-39.062500
342		-33.203125
343		-41.015625
344		-37.109375
345		-42.968750
346		-39.062500
347		-46.875000
348		-41.015625
349		-46.875000
350		-42.968750
351		-48.828125
352		-44.921875
353		-50.781250
354		-46.875000
355		-52.734375
356		-48.828125
357		-56.640625
358		-50.781250
359		-56.640625
360		-52.734375
361		-56.640625
362		-54.687500
363		-58.593750
364		-54.687500
365		-58.593750
366		-56.640625
367		-60.546875
368		-56.640625
369		-60.546875
370		-58.593750
371		-60.546875
372		-58.593750
373		-60.546875
374		-58.593750
375		-62.500000
376		-58.593750
377		-60.546875
378		-58.593750
379		-62.500000
380		-58.593750
381		-60.546875
382		-56.640625
383		-60.546875
384		-56.640625
385		-60.546875
386		-56.640625
387		-58.593750
388		-54.687500
389		-58.593750
390		-54.687500
391		-56.640625
392		-52.734375
393		-54.687500
394		-52.734375
395		-54.687500
396		-50.781250
397		-52.734375
398		-48.828125
399		-50.781250
400		-46.875000
401		-48.828125
402		-44.921875
403		-46.875000
404		-42.968750
405		-44.921875
406		-39.062500
407		-41.015625
408		-37.109375
409		-41.015625
410		-35.156250
411		-37.109375
412		-33.203125
413		-33.203125
414		-29.296875
415		-31.250000
416		-27.343750
417		-29.296875
418		-23.437500
419		-25.390625
420		-21.484375
421		-23.437500
422		-17.578125
423		-19.531250
424		-13.671875
425		-15.625000
426		-11.718750
427		-13.671875
428		-7.812500
429		-9.765625
430		-3.906250
431		-7.812500
432		-1.953125
433		-3.906250
434		1.953125
435		0.000000
436		3.906250
437		3.906250
438		7.812500
439		5.859375
440		11.718750
441		9.765625
442		15.625000
443		13.671875
444		17.578125
445		15.625000
446		21.484375
447		19.531250
448		23.437500
449		21.484375
450		27.343750
451		25.390625
452		31.250000
453		27.343750
454		33.203125
455		31.250000
456		37.109375
457		35.156250
458		39.062500
459		37.109375
460		41.015625
461		39.062500
462		42.968750
463		42.968750
464		46.875000
465		44.921875
466		48.828125
467		46.875000
468		50.781250
469		48.828125
470		54.687500
471		52.734375
472		56.640625
473		54.687500
474		58.593750
475		54.687500
476		60.546875
477		58.593750
478		62.500000
479		60.546875
480		62.500000
481		60.546875
482		66.406250
483		62.500000
484		66.406250
485		64.453125
486		68.359375
487		66.406250
488		68.359375
489		66.406250
490		70.312500
491		68.359375
492		70.312500
493		66.406250
494		72.265625
495		68.359375
496		72.265625
497		70.312500
498		72.265625
499		68.359375
500		72.265625
501		68.359375
502		72.265625
503		68.359375
504		72.265625
505		70.312500
506		72.265625
507		68.359375
508		72.265625
509		68.359375
510		72.265625
511		68.359375
512		70.312500
513		68.359375
514		70.312500
515		66.406250
516		70.312500
517		66.406250
518		70.312500
519		64.453125
520		68.359375
521		62.500000
522		66.406250
523		60.546875
524		66.406250
525		60.546875
526		64.453125
527		58.593750
528		62.500000
529		56.640625
530		60.546875
531		54.687500
532		58.593750
533		52.734375
534		56.640625
535		50.781250
536		54.687500
537		48.828125
538		52.734375
539		44.921875
540		48.828125
541		42.968750
542		46.875000
543		41.015625
544		44.921875
545		37.109375
546		41.015625
547		35.156250
548		39.062500
549		31.250000
550		37.109375
551		29.296875
552		33.203125
553		25.390625
554		31.250000
555		21.484375
556		27.343750
557		19.531250
558		23.437500
559		15.625000
560		21.484375
561		13.671875
562		17.578125
563		9.765625
564		13.671875
565		5.859375
566		11.718750
567		3.906250
568		7.812500
569		0.000000
570		5.859375
571		-3.906250
572		1.953125
573		-5.859375
574		0.000000
575		-9.765625
576		-5.859375
577		-13.671875
578		-7.812500
579		-15.625000
580		-11.718750
581		-19.531250
582		-15.625000
583		-21.484375
584		-17.578125
585		-25.390625
586		-19.531250
587		-29.296875
588		-23.437500
589		-31.250000
590		-25.390625
591		-35.156250
592		-29.296875
593		-37.109375
594		-31.250000
595		-39.062500
596		-35.156250
597		-41.015625
598		-37.109375
599		-44.921875
600		-39.062500
601		-46.875000
602		-42.968750
603		-48.828125
604		-44.921875
605		-50.781250
606		-46.875000
607		-52.734375
608		-46.875000
609		-54.687500
610		-50.781250
611		-54.687500
612		-50.781250
613		-56.640625
614		-52.734375
615		-58.593750
616		-54.687500
617		-58.593750
618		-54.687500
619		-60.546875
620		-56.640625
621		-60.546875
622		-56.640625
623		-60.546875
624		-58.593750
625		-60.546875
626		-58.593750
627		-62.500000
628		-58.593750
629		-60.546875
630		-58.593750
631		-60.546875
632		-58.593750
633		-62.500000
634		-58.593750
635		-60.546875
636		-58.593750
637		-60.546875
638		-56.640625
639		-60.546875
640		-56.640625
641		-58.593750
642		-56.640625
643		-58.593750
644		-52.734375
645		-56.640625
646		-52.734375
647		-54.687500
648		-52.734375
649		-54.687500
650		-50.781250
651		-52.734375
652		-48.828125
653		-50.781250
654		-44.921875
655		-46.875000
656		-44.921875
657		-46.875000
658		-41.015625
659		-44.921875
660		-39.062500
661		-41.015625
662		-37.109375
663		-39.062500
664		-35.156250
665		-37.109375
666		-31.250000
667		-33.203125
668		-29.296875
669		-31.250000
670		-25.390625
671		-27.343750
672		-23.437500
673		-25.390625
674		-19.531250
675		-21.484375
676		-15.625000
677		-19.531250
678		-13.671875
679		-15.625000
680		-11.718750
681		-11.718750
682		-7.812500
683		-9.765625
684		-3.906250
685		-5.859375
686		0.000000
687		-1.953125
688		1.953125
689		0.000000
690		5.859375
691		3.906250
692		7.812500
693		5.859375
694		11.718750
695		7.812500
696		15.625000
697		13.671875
698		17.578125
699		17.578125
700		21.484375
701		19.531250
702		25.390625
703		23.437500
704		27.343750
705		25.390625
706		31.250000
707		29.296875
708		33.203125
709		31.250000
710		37.109375
711		35.156250
712		39.062500
713		37.109375
714		42.968750
715		41.015625
716		44.921875
717		42.968750
718		48.828125
719		44.921875
720		48.828125
721		46.875000
722		52.734375
723		50.781250
724		54.687500
725		52.734375
726		56.640625
727		54.687500
728		58.593750
729		56.640625
730		60.546875
731		58.593750
732		62.500000
733		58.593750
734		64.453125
735		62.500000
736		66.406250
737		62.500000
738		66.406250
739		64.453125
740		68.359375
741		66.406250
742		68.359375
743		66.406250
744		70.312500
745		66.406250
746		70.312500
747		68.359375
748		70.312500
749		68.359375
750		72.265625
751		70.312500
752		72.265625
753		70.312500
754		72.265625
755		70.312500
756		72.265625
757		70.312500
758		72.265625
759		70.312500
760		72.265625
761		68.359375
762		72.265625
763		68.359375
764		70.312500
765		68.359375
766		70.312500
767		66.406250
768		70.312500
769		66.406250
770		70.312500
771		64.453125
772		68.359375
773		62.500000
774		66.406250
775		62.500000
776		66.406250
777		60.546875
778		64.453125
779		58.593750
780		64.453125
781		58.593750
782		60.546875
783		54.687500
784		58.593750
785		52.734375
786		58.593750
787		50.781250
788		54.687500
789		48.828125
790		52.734375
791		46.875000
792		50.781250
793		44.921875
794		48.828125
795		41.015625
796		46.875000
797		39.062500
798		42.968750
799		35.156250
800		41.015625
801		33.203125
802		39.062500
803		31.250000
804		35.156250
805		27.343750
806		33.203125
807		25.390625
808		29.296875
809		21.484375
810		27.343750
811		17.578125
812		23.437500
813		15.625000
814		19.531250
815		11.718750
816		15.625000
817		7.812500
818		13.671875
819		5.859375
820		9.765625
821		1.953125
822		7.812500
823		-1.953125
824		3.906250
825		-5.859375
826		0.000000
827		-7.812500
828		-3.906250
829		-11.718750
830		-5.859375
831		-13.671875
832		-9.765625
833		-17.578125
834		-11.718750
835		-21.484375
836		-15.625000
837		-23.437500
838		-19.531250
839		-27.343750
840		-21.484375
841		-29.296875
842		-25.390625
843		-33.203125
844		-27.343750
845		-35.156250
846		-29.296875
847		-37.109375
848		-33.203125
849		-39.062500
850		-35.156250
851		-42.968750
852		-39.062500
853		-44.921875
854		-41.015625
855		-46.875000
856		-42.968750
857		-48.828125
858		-44.921875
859		-50.781250
860		-46.875000
861		-52.734375
862		-48.828125
863		-54.687500
864		-48.828125
865		-56.640625
866		-52.734375
867		-58.593750
868		-52.734375
869		-58.593750
870		-54.687500
871		-58.593750
872		-56.640625
873		-60.546875
874		-56.640625
875		-60.546875
876		-56.640625
877		-60.546875
878		-58.593750
879		-62.500000
880		-58.593750
881		-62.500000
882		-58.593750
883		-62.500000
884		-58.593750
885		-62.500000
886		-58.593750
887		-60.546875
888		-58.593750
889		-60.546875
890		-58.593750
891		-60.546875
892		-56.640625
893		-58.593750
894		-54.687500
895		-60.546875
896		-54.687500
897		-56.640625
898		-54.687500
899		-56.640625
900		-52.734375
901		-54.687500
902		-50.781250
903		-52.734375
904		-48.828125
905		-50.781250
906		-46.875000
907		-48.828125
908		-44.921875
909		-46.875000
910		-42.968750
911		-44.921875
912		-41.015625
913		-42.968750
914		-39.062500
915		-41.015625
916		-35.156250
917		-37.109375
918		-33.203125
919		-35.156250
920		-31.250000
921		-33.203125
922		-27.343750
923		-29.296875
924		-25.390625
925		-27.343750
926		-21.484375
927		-23.437500
928		-19.531250
929		-21.484375
930		-15.625000
931		-17.578125
932		-11.718750
933		-15.625000
934		-9.765625
935		-11.718750
936		-5.859375
937		-7.812500
938		-1.953125
939		-3.906250
940		0.000000
941		-1.953125
942		3.906250
943		1.953125
944		5.859375
945		3.906250
946		9.765625
947		7.812500
948		13.671875
949		11.718750
950		15.625000
951		13.671875
952		19.531250
953		17.578125
954		23.437500
955		21.484375
956		25.390625
957		23.437500
958		29.296875
959		27.343750
960		31.250000
961		31.250000
962		35.156250
963		33.203125
964		37.109375
965		35.156250
966		41.015625
967		39.062500
968		44.921875
969		41.015625
970		44.921875
971		42.968750
972		48.828125
973		46.875000
974		50.781250
975		48.828125
976		52.734375
977		50.781250
978		54.687500
979		52.734375
980		58.593750
981		54.687500
982		58.593750
983		56.640625
984		60.546875
985		58.593750
986		62.500000
987		60.546875
988		64.453125
989		62.500000
990		66.406250
991		64.453125
992		66.406250
993		64.453125
994		68.359375
995		66.406250
996		70.312500
997		66.406250
998		70.312500
999		68.359375
1000		70.312500
1001		68.359375
1002		72.265625
1003		68.359375
1004		72.265625
1005		68.359375
1006		72.265625
1007		70.312500
1008		72.265625
1009		70.312500
1010		72.265625
1011		70.312500
1012		72.265625
1013		70.312500
1014		72.265625
1015		70.312500
1016		72.265625
1017		68.359375
1018		70.312500
1019		66.406250
1020		72.265625
1021		66.406250
1022		70.312500
1023		66.406250
1024		68.359375
1025		64.453125
1026		68.359375
1027		62.500000
1028		66.406250
1029		62.500000
1030		64.453125
1031		60.546875
1032		64.453125
1033		58.593750
1034		62.500000
1035		56.640625
1036		60.546875
1037		54.687500
1038		58.593750
1039		52.734375
1040		56.640625
1041		48.828125
1042		54.687500
1043		48.828125
1044		52.734375
1045		46.875000
1046		50.781250
1047		42.968750
1048		46.875000
1049		41.015625
1050		44.921875
1051		37.109375
1052		42.968750
1053		35.156250
1054		41.015625
1055		33.203125
1056		37.109375
1057		29.296875
1058		33.203125
1059		27.343750
1060		31.250000
1061		23.437500
1062		27.343750
1063		19.531250
1064		25.390625
1065		17.578125
1066		21.484375
1067		13.671875
1068		17.578125
1069		9.765625
1070		15.625000
1071		7.812500
1072		11.718750
1073		3.906250
1074		7.812500
1075		0.000000
1076		5.859375
1077		-1.953125
1078		1.953125
1079		-5.859375
1080		-1.953125
1081		-9.765625
1082		-3.906250
1083		-11.718750
1084		-7.812500
1085		-15.625000
1086		-9.765625
1087		-19.531250
1088		-13.671875
1089		-21.484375
1090		-17.578125
1091		-25.390625
1092		-19.531250
1093		-27.343750
1094		-23.437500
1095		-31.250000
1096		-25.390625
1097		-33.203125
1098		-29.296875
1099		-35.156250
1100		-31.250000
1101		-39.062500
1102		-35.156250
1103		-41.015625
1104		-35.156250
1105		-42.968750
1106		-39.062500
1107		-44.921875
1108		-41.015625
1109		-48.828125
1110		-44.921875
1111		-50.781250
1112		-46.875000
1113		-52.734375
1114		-46.875000
1115		-54.687500
1116		-48.828125
1117		-54.687500
1118		-52.734375
1119		-56.640625
1120		-52.734375
1121		-56.640625
1122		-54.687500
1123		-58.593750
1124		-54.687500
1125		-60.546875
1126		-56.640625
1127		-60.546875
1128		-56.640625
1129		-60.546875
1130		-58.593750
1131		-62.500000
1132		-58.593750
1133		-62.500000
1134		-58.593750
1135		-62.500000
1136		-58.593750
1137		-62.500000
1138		-58.593750
1139		-62.500000
1140		-58.593750
1141		-60.546875
1142		-58.593750
1143		-62.500000
1144		-56.640625
1145		-60.546875
1146		-56.640625
1147		-60.546875
1148		-54.687500
1149		-58.593750
1150		-54.687500
1151		-56.640625
1152		-54.687500
1153		-56.640625
1154		-52.734375
1155		-54.687500
1156		-50.781250
1157		-52.734375
1158		-48.828125
1159		-50.781250
1160		-46.875000
1161		-50.781250
1162		-42.968750
1163		-46.875000
1164		-41.015625
1165		-44.921875
1166		-41.015625
1167		-42.968750
1168		-39.062500
1169		-39.062500
1170		-35.156250
1171		-39.062500
1172		-31.250000
1173		-37.109375
1174		-29.296875
1175		-33.203125
1176		-25.390625
1177		-31.250000
1178		-23.437500
1179		-27.343750
1180		-19.531250
1181		-25.390625
1182		-17.578125
1183		-19.531250
1184		-15.625000
1185		-17.578125
1186		-11.718750
1187		-13.671875
1188		-7.812500
1189		-11.718750
1190		-3.906250
1191		-7.812500
1192		0.000000
1193		-5.859375
1194		1.953125
1195		-1.953125
1196		5.859375
1197		1.953125
1198		7.812500
1199		5.859375
1200		9.765625
1201		9.765625
1202		13.671875
1203		11.718750
1204		19.531250
1205		13.671875
1206		23.437500
1207		17.578125
1208		25.390625
1209		19.531250
1210		27.343750
1211		23.437500
1212		31.250000
1213		27.343750
1214		35.156250
1215		29.296875
1216		35.156250
1217		33.203125
1218		39.062500
1219		37.109375
1220		41.015625
1221		37.109375
1222		44.921875
1223		41.015625
1224		48.828125
1225		42.968750
1226		50.781250
1227		44.921875
1228		52.734375
1229		46.875000
1230		54.687500
1231		50.781250
1232		58.593750
1233		52.734375
1234		56.640625
1235		56.640625
1236		58.593750
1237		56.640625
1238		62.500000
1239		56.640625
1240		64.453125
1241		58.593750
1242		66.406250
1243		60.546875
1244		68.359375
1245		62.500000
1246		68.359375
1247		62.500000
1248		70.312500
1249		64.453125
1250		70.312500
1251		68.359375
1252		70.312500
1253		66.406250
1254		72.265625
1255		66.406250
1256		74.218750
1257		66.406250
1258		74.218750
1259		68.359375
1260		74.218750
1261		68.359375
1262		74.218750
1263		68.359375
1264		74.218750
1265		68.359375
1266		74.218750
1267		70.312500
1268		72.265625
1269		68.359375
1270		72.265625
1271		66.406250
1272		74.218750
1273		66.406250
1274		72.265625
1275		64.453125
1276		72.265625
1277		64.453125
1278		70.312500
1279		62.500000
1280		70.312500
1281		60.546875
1282		68.359375
1283		62.500000
1284		68.359375
1285		60.546875
1286		62.500000
1287		56.640625
1288		62.500000
1289		52.734375
1290		62.500000
1291		52.734375
1292		60.546875
1293		48.828125
1294		58.593750
1295		46.875000
1296		54.687500
1297		46.875000
1298		54.687500
1299		44.921875
1300		52.734375
1301		42.968750
1302		46.875000
1303		39.062500
1304		44.921875
1305		35.156250
1306		42.968750
1307		31.250000
1308		41.015625
1309		29.296875
1310		37.109375
1311		27.343750
1312		35.156250
1313		21.484375
1314		31.250000
1315		19.531250
1316		29.296875
1317		19.531250
1318		25.390625
1319		15.625000
1320		19.531250
1321		9.765625
1322		17.578125
1323		5.859375
1324		15.625000
1325		3.906250
1326		11.718750
1327		1.953125
1328		9.765625
1329		-1.953125
1330		5.859375
1331		-5.859375
1332		3.906250
1333		-7.812500
1334		0.000000
1335		-9.765625
1336		-5.859375
1337		-15.625000
1338		-7.812500
1339		-19.531250
1340		-9.765625
1341		-21.484375
1342		-13.671875
1343		-25.390625
1344		-15.625000
1345		-27.343750
1346		-19.531250
1347		-31.250000
1348		-21.484375
1349		-33.203125
1350		-25.390625
1351		-33.203125
1352		-29.296875
1353		-37.109375
1354		-33.203125
1355		-42.968750
1356		-33.203125
1357		-44.921875
1358		-35.156250
1359		-46.875000
1360		-39.062500
1361		-48.828125
1362		-41.015625
1363		-50.781250
1364		-41.015625
1365		-52.734375
1366		-44.921875
1367		-52.734375
1368		-46.875000
1369		-52.734375
1370		-50.781250
1371		-56.640625
1372		-50.781250
1373		-58.593750
1374		-50.781250
1375		-60.546875
1376		-52.734375
1377		-60.546875
1378		-54.687500
1379		-62.500000
1380		-54.687500
1381		-62.500000
1382		-54.687500
1383		-62.500000
1384		-56.640625
1385		-60.546875
1386		-58.593750
1387		-62.500000
1388		-58.593750
1389		-64.453125
1390		-56.640625
1391		-64.453125
1392		-56.640625
1393		-64.453125
1394		-56.640625
1395		-62.500000
1396		-56.640625
1397		-62.500000
1398		-56.640625
1399		-60.546875
1400		-54.687500
1401		-58.593750
1402		-54.687500
1403		-56.640625
1404		-54.687500
1405		-58.593750
1406		-50.781250
1407		-56.640625
1408		-48.828125
1409		-54.687500
1410		-48.828125
1411		-54.687500
1412		-44.921875
1413		-50.781250
1414		-44.921875
1415		-48.828125
1416		-41.015625
1417		-48.828125
1418		-41.015625
1419		-42.968750
1420		-39.062500
1421		-41.015625
1422		-37.109375
1423		-41.015625
1424		-33.203125
1425		-37.109375
1426		-29.296875
1427		-35.156250
1428		-27.343750
1429		-33.203125
1430		-23.437500
1431		-29.296875
1432		-21.484375
1433		-27.343750
1434		-19.531250
1435		-21.484375
1436		-17.578125
1437		-19.531250
1438		-13.671875
1439		-17.578125
1440		-9.765625
1441		-15.625000
1442		-5.859375
1443		-11.718750
1444		-1.953125
1445		-7.812500
1446		1.953125
1447		-3.906250
1448		3.906250
1449		-1.953125
1450		7.812500
1451		1.953125
1452		7.812500
1453		7.812500
1454		11.718750
1455		9.765625
1456		17.578125
1457		11.718750
1458		21.484375
1459		13.671875
1460		23.437500
1461		17.578125
1462		27.343750
1463		21.484375
1464		29.296875
1465		23.437500
1466		33.203125
1467		27.343750
1468		35.156250
1469		33.203125
1470		37.109375
1471		35.156250
1472		39.062500
1473		35.156250
1474		44.921875
1475		37.109375
1476		46.875000
1477		41.015625
1478		48.828125
1479		42.968750
1480		52.734375
1481		46.875000
1482		54.687500
1483		48.828125
1484		56.640625
1485		52.734375
1486		56.640625
1487		54.687500
1488		58.593750
1489		54.687500
1490		62.500000
1491		56.640625
1492		64.453125
1493		58.593750
1494		66.406250
1495		58.593750
1496		68.359375
1497		60.546875
1498		68.359375
1499		62.500000
1500		70.312500
1501		64.453125
1502		70.312500
1503		66.406250
1504		70.312500
1505		66.406250
1506		72.265625
1507		66.406250
1508		74.218750
1509		66.406250
1510		74.218750
1511		66.406250
1512		74.218750
1513		68.359375
1514		74.218750
1515		68.359375
1516		74.218750
1517		68.359375
1518		74.218750
1519		70.312500
1520		72.265625
1521		70.312500
1522		72.265625
1523		66.406250
1524		74.218750
1525		66.406250
1526		74.218750
1527		64.453125
1528		72.265625
1529		64.453125
1530		72.265625
1531		62.500000
1532		70.312500
1533		62.500000
1534		70.312500
1535		60.546875
1536		68.359375
1537		60.546875
1538		64.453125
1539		58.593750
1540		64.453125
1541		54.687500
1542		64.453125
1543		54.687500
1544		60.546875
1545		50.781250
1546		58.593750
1547		48.828125
1548		58.593750
1549		46.875000
1550		54.687500
1551		44.921875
1552		52.734375
1553		44.921875
1554		48.828125
1555		41.015625
1556		44.921875
1557		37.109375
1558		44.921875
1559		33.203125
1560		42.968750
1561		31.250000
1562		39.062500
1563		29.296875
1564		37.109375
1565		25.390625
1566		33.203125
1567		21.484375
1568		31.250000
1569		21.484375
1570		27.343750
1571		17.578125
1572		23.437500
1573		13.671875
1574		19.531250
1575		9.765625
1576		19.531250
1577		5.859375
1578		15.625000
1579		1.953125
1580		11.718750
1581		-1.953125
1582		7.812500
1583		-3.906250
1584		5.859375
1585		-3.906250
1586		1.953125
1587		-7.812500
1588		-1.953125
1589		-11.718750
1590		-5.859375
1591		-15.625000
1592		-7.812500
1593		-17.578125
1594		-11.718750
1595		-21.484375
1596		-15.625000
1597		-25.390625
1598		-17.578125
1599		-27.343750
1600		-21.484375
1601		-31.250000
1602		-23.437500
1603		-31.250000
1604		-27.343750
1605		-35.156250
1606		-31.250000
1607		-39.062500
1608		-31.250000
1609		-42.968750
1610		-33.203125
1611		-44.921875
1612		-37.109375
1613		-46.875000
1614		-39.062500
1615		-48.828125
1616		-41.015625
1617		-50.781250
1618		-42.968750
1619		-50.781250
1620		-44.921875
1621		-52.734375
1622		-48.828125
1623		-56.640625
1624		-50.781250
1625		-58.593750
1626		-50.781250
1627		-58.593750
1628		-52.734375
1629		-60.546875
1630		-52.734375
1631		-60.546875
1632		-54.687500
1633		-62.500000
1634		-54.687500
1635		-62.500000
1636		-54.687500
1637		-60.546875
1638		-58.593750
1639		-60.546875
1640		-58.593750
1641		-64.453125
1642		-56.640625
1643		-64.453125
1644		-56.640625
1645		-64.453125
1646		-56.640625
1647		-64.453125
1648		-56.640625
1649		-62.500000
1650		-56.640625
1651		-62.500000
1652		-54.687500
1653		-60.546875
1654		-54.687500
1655		-58.593750
1656		-54.687500
1657		-58.593750
1658		-52.734375
1659		-58.593750
1660		-50.781250
1661		-56.640625
1662		-48.828125
1663		-56.640625
1664		-46.875000
1665		-52.734375
1666		-44.921875
1667		-50.781250
1668		-42.968750
1669		-48.828125
1670		-42.968750
1671		-44.921875
1672		-41.015625
1673		-42.968750
1674		-39.062500
1675		-42.968750
1676		-33.203125
1677		-39.062500
1678		-31.250000
1679		-37.109375
1680		-29.296875
1681		-35.156250
1682		-25.390625
1683		-31.250000
1684		-23.437500
1685		-29.296875
1686		-19.531250
1687		-23.437500
1688		-19.531250
1689		-21.484375
1690		-15.625000
1691		-19.531250
1692		-11.718750
1693		-17.578125
1694		-7.812500
1695		-13.671875
1696		-5.859375
1697		-9.765625
1698		-1.953125
1699		-5.859375
1700		1.953125
1701		-3.906250
1702		5.859375
1703		0.000000
1704		5.859375
1705		5.859375
1706		9.765625
1707		7.812500
1708		15.625000
1709		9.765625
1710		17.578125
1711		13.671875
1712		21.484375
1713		15.625000
1714		25.390625
1715		17.578125
1716		27.343750
1717		21.484375
1718		31.250000
1719		25.390625
1720		33.203125
1721		31.250000
1722		35.156250
1723		33.203125
1724		37.109375
1725		35.156250
1726		42.968750
1727		37.109375
1728		44.921875
1729		39.062500
1730		46.875000
1731		41.015625
1732		50.781250
1733		44.921875
1734		52.734375
1735		46.875000
1736		54.687500
1737		50.781250
1738		54.687500
1739		52.734375
1740		56.640625
1741		54.687500
1742		60.546875
1743		54.687500
1744		62.500000
1745		56.640625
1746		64.453125
1747		58.593750
1748		66.406250
1749		60.546875
1750		68.359375
1751		60.546875
1752		70.312500
1753		62.500000
1754		70.312500
1755		66.406250
1756		68.359375
1757		68.359375
1758		70.312500
1759		66.406250
1760		72.265625
1761		66.406250
1762		74.218750
1763		66.406250
1764		74.218750
1765		66.406250
1766		74.218750
1767		66.406250
1768		74.218750
1769		68.359375
1770		74.218750
1771		70.312500
1772		72.265625
1773		70.312500
1774		72.265625
1775		66.406250
1776		74.218750
1777		66.406250
1778		74.218750
1779		66.406250
1780		72.265625
1781		64.453125
1782		72.265625
1783		64.453125
1784		72.265625
1785		62.500000
1786		70.312500
1787		62.500000
1788		68.359375
1789		62.500000
1790		64.453125
1791		58.593750
1792		64.453125
1793		56.640625
1794		64.453125
1795		54.687500
1796		62.500000
1797		52.734375
1798		60.546875
1799		50.781250
1800		58.593750
1801		48.828125
1802		56.640625
1803		46.875000
1804		54.687500
1805		46.875000
1806		50.781250
1807		42.968750
1808		48.828125
1809		39.062500
1810		46.875000
1811		35.156250
1812		44.921875
1813		33.203125
1814		41.015625
1815		31.250000
1816		39.062500
1817		27.343750
1818		35.156250
1819		25.390625
1820		33.203125
1821		23.437500
1822		29.296875
1823		19.531250
1824		25.390625
1825		15.625000
1826		21.484375
1827		11.718750
1828		21.484375
1829		7.812500
1830		17.578125
1831		5.859375
1832		13.671875
1833		1.953125
1834		11.718750
1835		-1.953125
1836		7.812500
1837		-3.906250
1838		3.906250
1839		-5.859375
1840		-1.953125
1841		-9.765625
1842		-3.906250
1843		-13.671875
1844		-5.859375
1845		-17.578125
1846		-7.812500
1847		-19.531250
1848		-11.718750
1849		-23.437500
1850		-15.625000
1851		-25.390625
1852		-17.578125
1853		-29.296875
1854		-21.484375
1855		-29.296875
1856		-25.390625
1857		-33.203125
1858		-29.296875
1859		-39.062500
1860		-31.250000
1861		-41.015625
1862		-33.203125
1863		-42.968750
1864		-35.156250
1865		-44.921875
1866		-37.109375
1867		-48.828125
1868		-39.062500
1869		-50.781250
1870		-41.015625
1871		-50.781250
1872		-44.921875
1873		-50.781250
1874		-48.828125
1875		-54.687500
1876		-48.828125
1877		-56.640625
1878		-48.828125
1879		-58.593750
1880		-50.781250
1881		-60.546875
1882		-52.734375
1883		-60.546875
1884		-52.734375
1885		-62.500000
1886		-54.687500
1887		-62.500000
1888		-54.687500
1889		-60.546875
1890		-58.593750
1891		-60.546875
1892		-58.593750
1893		-64.453125
1894		-56.640625
1895		-64.453125
1896		-56.640625
1897		-64.453125
1898		-56.640625
1899		-64.453125
1900		-56.640625
1901		-62.500000
1902		-56.640625
1903		-62.500000
1904		-56.640625
1905		-62.500000
1906		-54.687500
1907		-58.593750
1908		-56.640625
1909		-58.593750
1910		-52.734375
1911		-58.593750
1912		-50.781250
1913		-58.593750
1914		-50.781250
1915		-56.640625
1916		-48.828125
1917		-54.687500
1918		-46.875000
1919		-52.734375
1920		-44.921875
1921		-50.781250
1922		-42.968750
1923		-46.875000
1924		-42.968750
1925		-44.921875
1926		-39.062500
1927		-44.921875
1928		-35.156250
1929		-41.015625
1930		-33.203125
1931		-39.062500
1932		-31.250000
1933		-37.109375
1934		-27.343750
1935		-33.203125
1936		-25.390625
1937		-31.250000
1938		-21.484375
1939		-27.343750
1940		-21.484375
1941		-23.437500
1942		-17.578125
1943		-21.484375
1944		-13.671875
1945		-17.578125
1946		-9.765625
1947		-15.625000
1948		-5.859375
1949		-11.718750
1950		-3.906250
1951		-9.765625
1952		0.000000
1953		-5.859375
1954		1.953125
1955		-1.953125
1956		3.906250
1957		1.953125
1958		7.812500
1959		5.859375
1960		13.671875
1961		5.859375
1962		15.625000
1963		9.765625
1964		19.531250
1965		13.671875
1966		23.437500
1967		15.625000
1968		25.390625
1969		19.531250
1970		29.296875
1971		23.437500
1972		31.250000
1973		27.343750
1974		33.203125
1975		31.250000
1976		35.156250
1977		33.203125
1978		41.015625
1979		33.203125
1980		42.968750
1981		37.109375
1982		46.875000
1983		41.015625
1984		48.828125
1985		42.968750
1986		50.781250
1987		44.921875
1988		52.734375
1989		46.875000
1990		54.687500
1991		50.781250
1992		54.687500
1993		52.734375
1994		58.593750
1995		52.734375
1996		60.546875
1997		54.687500
1998		62.500000
1999		56.640625
2000		64.453125
2001		58.593750
2002		66.406250
2003		60.546875
2004		68.359375
2005		62.500000
2006		68.359375
2007		64.453125
2008		68.359375
2009		66.406250
2010		68.359375
2011		64.453125
2012		72.265625
2013		66.406250
2014		72.265625
2015		66.406250
2016		74.218750
2017		66.406250
2018		74.218750
2019		66.406250
2020		74.218750
2021		66.406250
2022		74.218750
2023		68.359375
2024		74.218750
2025		70.312500
2026		72.265625
2027		68.359375
2028		72.265625
2029		66.406250
2030		72.265625
2031		66.406250
2032		72.265625
2033		64.453125
2034		72.265625
2035		64.453125
2036		70.312500
2037		62.500000
2038		70.312500
2039		62.500000
2040		68.359375
2041		62.500000
2042		66.406250
2043		58.593750
2044		64.453125
2045		56.640625
2046		64.453125
2047		56.640625
2048		64.453125
2049		52.734375
2050		62.500000
2051		50.781250
2052		60.546875
2053		50.781250
2054		56.640625
2055		48.828125
2056		56.640625
2057		46.875000
2058		52.734375
2059		44.921875
2060		48.828125
2061		41.015625
2062		48.828125
2063		37.109375
2064		44.921875
2065		35.156250
2066		42.968750
2067		31.250000
2068		41.015625
2069		29.296875
2070		37.109375
2071		25.390625
2072		33.203125
2073		25.390625
2074		31.250000
2075		21.484375
2076		27.343750
2077		17.578125
2078		23.437500
2079		13.671875
2080		21.484375
2081		9.765625
2082		19.531250
2083		7.812500
2084		15.625000
2085		3.906250
2086		11.718750
2087		0.000000
2088		9.765625
2089		-1.953125
2090		5.859375
2091		-3.906250
2092		0.000000
2093		-7.812500
2094		-1.953125
2095		-13.671875
2096		-3.906250
2097		-15.625000
2098		-7.812500
2099		-19.531250
2100		-9.765625
2101		-21.484375
2102		-13.671875
2103		-25.390625
2104		-15.625000
2105		-29.296875
2106		-19.531250
2107		-29.296875
2108		-23.437500
2109		-31.250000
2110		-27.343750
2111		-37.109375
2112		-29.296875
2113		-39.062500
2114		-31.250000
2115		-41.015625
2116		-33.203125
2117		-44.921875
2118		-35.156250
2119		-46.875000
2120		-39.062500
2121		-48.828125
2122		-41.015625
2123		-48.828125
2124		-42.968750
2125		-50.781250
2126		-46.875000
2127		-54.687500
2128		-48.828125
2129		-56.640625
2130		-48.828125
2131		-58.593750
2132		-50.781250
2133		-58.593750
2134		-52.734375
2135		-60.546875
2136		-52.734375
2137		-60.546875
2138		-54.687500
2139		-62.500000
2140		-54.687500
2141		-60.546875
2142		-58.593750
2143		-60.546875
2144		-58.593750
2145		-64.453125
2146		-56.640625
2147		-64.453125
2148		-56.640625
2149		-64.453125
2150		-56.640625
2151		-64.453125
2152		-56.640625
2153		-64.453125
2154		-56.640625
2155		-62.500000
2156		-56.640625
2157		-62.500000
2158		-56.640625
2159		-60.546875
2160		-56.640625
2161		-60.546875
2162		-54.687500
2163		-60.546875
2164		-52.734375
2165		-58.593750
2166		-50.781250
2167		-56.640625
2168		-50.781250
2169		-56.640625
2170		-46.875000
2171		-54.687500
2172		-46.875000
2173		-52.734375
2174		-44.921875
2175		-48.828125
2176		-44.921875
2177		-46.875000
2178		-42.968750
2179		-46.875000
2180		-37.109375
2181		-42.968750
2182		-35.156250
2183		-41.015625
2184		-33.203125
2185		-39.062500
2186		-31.250000
2187		-35.156250
2188		-27.343750
2189		-33.203125
2190		-25.390625
2191		-31.250000
2192		-23.437500
2193		-25.390625
2194		-21.484375
2195		-23.437500
2196		-15.625000
2197		-21.484375
2198		-11.718750
2199		-17.578125
2200		-7.812500
2201		-15.625000
2202		-5.859375
2203		-11.718750
2204		-3.906250
2205		-7.812500
2206		0.000000
2207		-5.859375
2208		1.953125
2209		0.000000
2210		5.859375
2211		3.906250
2212		9.765625
2213		5.859375
2214		13.671875
2215		7.812500
2216		17.578125
2217		11.718750
2218		19.531250
2219		13.671875
2220		23.437500
2221		17.578125
2222		25.390625
2223		19.531250
2224		29.296875
2225		25.390625
2226		29.296875
2227		29.296875
2228		33.203125
2229		31.250000
2230		37.109375
2231		31.250000
2232		41.015625
2233		35.156250
2234		42.968750
2235		37.109375
2236		46.875000
2237		41.015625
2238		48.828125
2239		42.968750
2240		52.734375
2241		44.921875
2242		52.734375
2243		50.781250
2244		54.687500
2245		52.734375
2246		56.640625
2247		52.734375
2248		60.546875
2249		54.687500
2250		62.500000
2251		56.640625
2252		64.453125
2253		56.640625
2254		66.406250
2255		58.593750
2256		66.406250
2257		60.546875
2258		68.359375
2259		64.453125
2260		66.406250
2261		66.406250
2262		68.359375
2263		64.453125
2264		72.265625
2265		64.453125
2266		72.265625
2267		66.406250
2268		72.265625
2269		66.406250
2270		72.265625
2271		66.406250
2272		74.218750
2273		66.406250
2274		74.218750
2275		68.359375
2276		74.218750
2277		70.312500
2278		72.265625
2279		66.406250
2280		74.218750
2281		66.406250
2282		74.218750
2283		66.406250
2284		72.265625
2285		64.453125
2286		72.265625
2287		64.453125
2288		72.265625
2289		62.500000
2290		72.265625
2291		62.500000
2292		70.312500
2293		64.453125
2294		66.406250
2295		62.500000
2296		64.453125
2297		58.593750
2298		66.406250
2299		56.640625
2300		64.453125
2301		54.687500
2302		62.500000
2303		52.734375
2304		60.546875
2305		50.781250
2306		58.593750
2307		48.828125
2308		56.640625
2309		48.828125
2310		52.734375
2311		46.875000
2312		50.781250
2313		41.015625
2314		48.828125
2315		39.062500
2316		46.875000
2317		35.156250
2318		44.921875
2319		33.203125
2320		42.968750
2321		29.296875
2322		39.062500
2323		27.343750
2324		35.156250
2325		25.390625
2326		33.203125
2327		23.437500
2328		27.343750
2329		17.578125
2330		25.390625
2331		15.625000
2332		23.437500
2333		11.718750
2334		21.484375
2335		7.812500
2336		17.578125
2337		5.859375
2338		15.625000
2339		1.953125
2340		11.718750
2341		0.000000
2342		7.812500
2343		-1.953125
2344		1.953125
2345		-5.859375
2346		0.000000
2347		-9.765625
2348		-3.906250
2349		-13.671875
2350		-3.906250
2351		-17.578125
2352		-7.812500
2353		-19.531250
2354		-11.718750
2355		-23.437500
2356		-13.671875
2357		-27.343750
2358		-17.578125
2359		-27.343750
2360		-19.531250
2361		-31.250000
2362		-25.390625
2363		-35.156250
2364		-29.296875
2365		-37.109375
2366		-29.296875
2367		-41.015625
2368		-31.250000
2369		-42.968750
2370		-35.156250
2371		-46.875000
2372		-37.109375
2373		-48.828125
2374		-39.062500
2375		-48.828125
2376		-41.015625
2377		-50.781250
2378		-46.875000
2379		-50.781250
2380		-48.828125
2381		-54.687500
2382		-48.828125
2383		-56.640625
2384		-48.828125
2385		-58.593750
2386		-50.781250
2387		-60.546875
2388		-52.734375
2389		-60.546875
2390		-54.687500
2391		-62.500000
2392		-54.687500
2393		-60.546875
2394		-56.640625
2395		-60.546875
2396		-58.593750
2397		-64.453125
2398		-56.640625
2399		-64.453125
2400		-56.640625
2401		-64.453125
2402		-56.640625
2403		-64.453125
2404		-56.640625
2405		-64.453125
2406		-56.640625
2407		-64.453125
2408		-56.640625
2409		-62.500000
2410		-56.640625
2411		-60.546875
2412		-56.640625
2413		-60.546875
2414		-54.687500
2415		-60.546875
2416		-52.734375
2417		-58.593750
2418		-52.734375
2419		-58.593750
2420		-50.781250
2421		-56.640625
2422		-48.828125
2423		-54.687500
2424		-46.875000
2425		-54.687500
2426		-46.875000
2427		-50.781250
2428		-46.875000
2429		-46.875000
2430		-44.921875
2431		-46.875000
2432		-39.062500
2433		-44.921875
2434		-37.109375
2435		-42.968750
2436		-35.156250
2437		-41.015625
2438		-31.250000
2439		-39.062500
2440		-29.296875
2441		-35.156250
2442		-27.343750
2443		-31.250000
2444		-25.390625
2445		-27.343750
2446		-23.437500
2447		-25.390625
2448		-17.578125
2449		-23.437500
2450		-13.671875
2451		-19.531250
2452		-11.718750
2453		-17.578125
2454		-7.812500
2455		-13.671875
2456		-5.859375
2457		-9.765625
2458		-1.953125
2459		-7.812500
2460		0.000000
2461		-1.953125
2462		3.906250
2463		1.953125
2464		5.859375
2465		3.906250
2466		11.718750
2467		5.859375
2468		15.625000
2469		7.812500
2470		17.578125
2471		11.718750
2472		21.484375
2473		15.625000
2474		23.437500
2475		17.578125
2476		27.343750
2477		23.437500
2478		29.296875
2479		27.343750
2480		31.250000
2481		29.296875
2482		37.109375
2483		31.250000
2484		39.062500
2485		33.203125
2486		42.968750
2487		37.109375
2488		44.921875
2489		39.062500
2490		46.875000
2491		42.968750
2492		48.828125
2493		44.921875
2494		50.781250
2495		48.828125
2496		52.734375
2497		50.781250
2498		56.640625
2499		50.781250
2500		58.593750
2501		52.734375
2502		60.546875
2503		54.687500
2504		62.500000
2505		56.640625
2506		64.453125
2507		58.593750
2508		66.406250
2509		60.546875
2510		68.359375
2511		64.453125
2512		66.406250
2513		64.453125
2514		68.359375
2515		64.453125
2516		70.312500
2517		64.453125
2518		72.265625
2519		64.453125
2520		72.265625
2521		66.406250
2522		72.265625
2523		66.406250
2524		72.265625
2525		66.406250
2526		74.218750
2527		66.406250
2528		74.218750
2529		70.312500
2530		72.265625
2531		68.359375
2532		74.218750
2533		66.406250
2534		74.218750
2535		66.406250
2536		74.218750
2537		66.406250
2538		72.265625
2539		64.453125
2540		72.265625
2541		64.453125
2542		72.265625
2543		64.453125
2544		70.312500
2545		64.453125
2546		66.406250
2547		62.500000
2548		66.406250
2549		58.593750
2550		66.406250
2551		58.593750
2552		66.406250
2553		54.687500
2554		64.453125
2555		54.687500
2556		62.500000
2557		52.734375
2558		60.546875
2559		50.781250
2560		58.593750
2561		50.781250
2562		54.687500
2563		46.875000
2564		50.781250
2565		42.968750
2566		48.828125
2567		41.015625
2568		48.828125
2569		39.062500
2570		46.875000
2571		35.156250
2572		42.968750
2573		33.203125
2574		41.015625
2575		29.296875
2576		37.109375
2577		27.343750
2578		35.156250
2579		25.390625
2580		31.250000
2581		21.484375
2582		27.343750
2583		17.578125
2584		27.343750
2585		13.671875
2586		23.437500
2587		9.765625
2588		19.531250
2589		7.812500
2590		15.625000
2591		3.906250
2592		13.671875
2593		1.953125
2594		9.765625
2595		0.000000
2596		3.906250
2597		-3.906250
2598		1.953125
2599		-9.765625
2600		-1.953125
2601		-11.718750
2602		-3.906250
2603		-15.625000
2604		-5.859375
2605		-19.531250
2606		-9.765625
2607		-21.484375
2608		-13.671875
2609		-25.390625
2610		-15.625000
2611		-25.390625
2612		-19.531250
2613		-27.343750
2614		-23.437500
2615		-31.250000
2616		-27.343750
2617		-35.156250
2618		-27.343750
2619		-39.062500
2620		-29.296875
2621		-41.015625
2622		-33.203125
2623		-44.921875
2624		-35.156250
2625		-46.875000
2626		-39.062500
2627		-46.875000
2628		-41.015625
2629		-48.828125
2630		-44.921875
2631		-50.781250
2632		-46.875000
2633		-54.687500
2634		-46.875000
2635		-56.640625
2636		-48.828125
2637		-56.640625
2638		-50.781250
2639		-58.593750
2640		-50.781250
2641		-60.546875
2642		-52.734375
2643		-60.546875
2644		-54.687500
2645		-60.546875
2646		-54.687500
2647		-60.546875
2648		-58.593750
2649		-62.500000
2650		-56.640625
2651		-64.453125
2652		-56.640625
2653		-64.453125
2654		-56.640625
2655		-64.453125
2656		-56.640625
2657		-64.453125
2658		-56.640625
2659		-64.453125
2660		-56.640625
2661		-62.500000
2662		-56.640625
2663		-60.546875
2664		-58.593750
2665		-60.546875
2666		-56.640625
2667		-62.500000
2668		-54.687500
2669		-60.546875
2670		-52.734375
2671		-58.593750
2672		-52.734375
2673		-58.593750
2674		-50.781250
2675		-56.640625
2676		-48.828125
2677		-54.687500
2678		-46.875000
2679		-50.781250
2680		-46.875000
2681		-48.828125
2682		-44.921875
2683		-46.875000
2684		-41.015625
2685		-46.875000
2686		-39.062500
2687		-44.921875
2688		-37.109375
2689		-41.015625
2690		-33.203125
2691		-39.062500
2692		-31.250000
2693		-37.109375
2694		-27.343750
2695		-35.156250
2696		-27.343750
2697		-29.296875
2698		-23.437500
2699		-25.390625
2700		-19.531250
2701		-25.390625
2702		-15.625000
2703		-21.484375
2704		-13.671875
2705		-19.531250
2706		-9.765625
2707		-15.625000
2708		-5.859375
2709		-11.718750
2710		-3.906250
2711		-9.765625
2712		-1.953125
2713		-3.906250
2714		1.953125
2715		0.000000
2716		3.906250
2717		0.000000
2718		9.765625
2719		3.906250
2720		13.671875
2721		7.812500
2722		15.625000
2723		9.765625
2724		19.531250
2725		13.671875
2726		21.484375
2727		15.625000
2728		25.390625
2729		19.531250
2730		27.343750
2731		25.390625
2732		29.296875
2733		27.343750
2734		35.156250
2735		29.296875
2736		37.109375
2737		31.250000
2738		41.015625
2739		33.203125
2740		42.968750
2741		37.109375
2742		44.921875
2743		41.015625
2744		48.828125
2745		41.015625
2746		50.781250
2747		46.875000
2748		50.781250
2749		48.828125
2750		54.687500
2751		50.781250
2752		58.593750
2753		50.781250
2754		58.593750
2755		54.687500
2756		60.546875
2757		54.687500
2758		62.500000
2759		56.640625
2760		64.453125
2761		58.593750
2762		66.406250
2763		62.500000
2764		64.453125
2765		64.453125
2766		66.406250
2767		62.500000
2768		70.312500
2769		64.453125
2770		70.312500
2771		64.453125
2772		72.265625
2773		66.406250
2774		72.265625
2775		66.406250
2776		74.218750
2777		66.406250
2778		74.218750
2779		66.406250
2780		74.218750
2781		70.312500
2782		72.265625
2783		66.406250
2784		74.218750
2785		66.406250
2786		74.218750
2787		66.406250
2788		74.218750
2789		66.406250
2790		72.265625
2791		64.453125
2792		72.265625
2793		64.453125
2794		72.265625
2795		62.500000
2796		70.312500
2797		64.453125
2798		68.359375
2799		64.453125
2800		66.406250
2801		60.546875
2802		68.359375
2803		58.593750
2804		66.406250
2805		56.640625
2806		64.453125
2807		54.687500
2808		62.500000
2809		52.734375
2810		60.546875
2811		50.781250
2812		58.593750
2813		50.781250
2814		56.640625
2815		48.828125
2816		52.734375
2817		44.921875
2818		50.781250
2819		41.015625
2820		50.781250
2821		39.062500
2822		48.828125
2823		37.109375
2824		44.921875
2825		35.156250
2826		42.968750
2827		31.250000
2828		39.062500
2829		29.296875
2830		37.109375
2831		27.343750
2832		31.250000
2833		23.437500
2834		29.296875
2835		19.531250
2836		27.343750
2837		15.625000
2838		25.390625
2839		11.718750
2840		21.484375
2841		9.765625
2842		19.531250
2843		5.859375
2844		15.625000
2845		3.906250
2846		11.718750
2847		1.953125
2848		5.859375
2849		-1.953125
2850		3.906250
2851		-5.859375
2852		0.000000
2853		-9.765625
2854		0.000000
2855		-13.671875
2856		-3.906250
2857		-15.625000
2858		-7.812500
2859		-19.531250
2860		-11.718750
2861		-23.437500
2862		-13.671875
2863		-23.437500
2864		-17.578125
2865		-27.343750
2866		-21.484375
2867		-31.250000
2868		-25.390625
2869		-35.156250
2870		-25.390625
2871		-37.109375
2872		-29.296875
2873		-41.015625
2874		-31.250000
2875		-42.968750
2876		-33.203125
2877		-44.921875
2878		-37.109375
2879		-46.875000
2880		-39.062500
2881		-46.875000
2882		-42.968750
2883		-48.828125
2884		-44.921875
2885		-52.734375
2886		-46.875000
2887		-54.687500
2888		-46.875000
2889		-56.640625
2890		-48.828125
2891		-58.593750
2892		-50.781250
2893		-60.546875
2894		-52.734375
2895		-60.546875
2896		-52.734375
2897		-60.546875
2898		-54.687500
2899		-60.546875
2900		-56.640625
2901		-62.500000
2902		-56.640625
2903		-64.453125
2904		-56.640625
2905		-64.453125
2906		-56.640625
2907		-64.453125
2908		-56.640625
2909		-64.453125
2910		-58.593750
2911		-64.453125
2912		-56.640625
2913		-64.453125
2914		-56.640625
2915		-60.546875
2916		-58.593750
2917		-60.546875
2918		-56.640625
2919		-62.500000
2920		-54.687500
2921		-60.546875
2922		-54.687500
2923		-60.546875
2924		-52.734375
2925		-58.593750
2926		-50.781250
2927		-56.640625
2928		-48.828125
2929		-56.640625
2930		-48.828125
2931		-52.734375
2932		-48.828125
2933		-50.781250
2934		-46.875000
2935		-48.828125
2936		-42.968750
2937		-48.828125
2938		-41.015625
2939		-46.875000
2940		-37.109375
2941		-42.968750
2942		-35.156250
2943		-41.015625
2944		-33.203125
2945		-39.062500
2946		-29.296875
2947		-35.156250
2948		-29.296875
2949		-31.250000
2950		-27.343750
2951		-27.343750
2952		-21.484375
2953		-27.343750
2954		-19.531250
2955		-25.390625
2956		-15.625000
2957		-21.484375
2958		-11.718750
2959		-17.578125
2960		-7.812500
2961		-15.625000
2962		-5.859375
2963		-11.718750
2964		-3.906250
2965		-5.859375
2966		-1.953125
2967		-1.953125
2968		1.953125
2969		0.000000
2970		7.812500
2971		1.953125
2972		9.765625
2973		3.906250
2974		13.671875
2975		7.812500
2976		17.578125
2977		11.718750
2978		19.531250
2979		13.671875
2980		23.437500
2981		17.578125
2982		23.437500
2983		23.437500
2984		27.343750
2985		25.390625
2986		33.203125
2987		27.343750
2988		35.156250
2989		29.296875
2990		39.062500
2991		33.203125
2992		41.015625
2993		35.156250
2994		44.921875
2995		39.062500
2996		46.875000
2997		41.015625
2998		48.828125
2999		44.921875
3000		48.828125
3001		46.875000
3002		52.734375
3003		46.875000
3004		56.640625
3005		50.781250
3006		58.593750
3007		50.781250
3008		60.546875
3009		54.687500
3010		62.500000
3011		56.640625
3012		64.453125
3013		58.593750
3014		64.453125
3015		60.546875
3016		64.453125
3017		62.500000
3018		66.406250
3019		62.500000
3020		70.312500
3021		62.500000
3022		70.312500
3023		64.453125
3024		72.265625
3025		64.453125
3026		72.265625
3027		66.406250
3028		72.265625
3029		66.406250
3030		72.265625
3031		66.406250
3032		72.265625
3033		70.312500
3034		72.265625
3035		68.359375
3036		74.218750
3037		66.406250
3038		74.218750
3039		66.406250
3040		74.218750
3041		66.406250
3042		74.218750
3043		66.406250
3044		72.265625
3045		64.453125
3046		72.265625
3047		64.453125
3048		72.265625
3049		66.406250
3050		68.359375
3051		64.453125
3052		68.359375
3053		60.546875
3054		68.359375
3055		60.546875
3056		66.406250
3057		58.593750
3058		66.406250
3059		56.640625
3060		64.453125
3061		54.687500
3062		62.500000
3063		52.734375
3064		60.546875
3065		52.734375
3066		58.593750
3067		50.781250
3068		54.687500
3069		46.875000
3070		52.734375
3071		42.968750
3072		52.734375
3073		41.015625
3074		48.828125
3075		39.062500
3076		46.875000
3077		37.109375
3078		44.921875
3079		33.203125
3080		42.968750
3081		31.250000
3082		39.062500
3083		29.296875
3084		33.203125
3085		23.437500
3086		31.250000
3087		21.484375
3088		29.296875
3089		17.578125
3090		27.343750
3091		15.625000
3092		23.437500
3093		11.718750
3094		21.484375
3095		7.812500
3096		17.578125
3097		5.859375
3098		13.671875
3099		3.906250
3100		9.765625
3101		0.000000
3102		5.859375
3103		-3.906250
3104		3.906250
3105		-7.812500
3106		1.953125
3107		-9.765625
3108		-1.953125
3109		-13.671875
3110		-5.859375
3111		-17.578125
3112		-7.812500
3113		-21.484375
3114		-11.718750
3115		-21.484375
3116		-13.671875
3117		-23.437500
3118		-19.531250
3119		-27.343750
3120		-23.437500
3121		-33.203125
3122		-23.437500
3123		-35.156250
3124		-27.343750
3125		-37.109375
3126		-29.296875
3127		-41.015625
3128		-31.250000
3129		-42.968750
3130		-35.156250
3131		-44.921875
3132		-37.109375
3133		-44.921875
3134		-42.968750
3135		-46.875000
3136		-44.921875
3137		-52.734375
3138		-44.921875
3139		-54.687500
3140		-44.921875
3141		-56.640625
3142		-48.828125
3143		-58.593750
3144		-50.781250
3145		-58.593750
3146		-50.781250
3147		-60.546875
3148		-52.734375
3149		-60.546875
3150		-54.687500
3151		-60.546875
3152		-56.640625
3153		-62.500000
3154		-56.640625
3155		-64.453125
3156		-56.640625
3157		-64.453125
3158		-56.640625
3159		-64.453125
3160		-56.640625
3161		-64.453125
3162		-56.640625
3163		-64.453125
3164		-56.640625
3165		-64.453125
3166		-56.640625
3167		-62.500000
3168		-58.593750
3169		-62.500000
3170		-58.593750
3171		-62.500000
3172		-56.640625
3173		-62.500000
3174		-54.687500
3175		-60.546875
3176		-52.734375
3177		-60.546875
3178		-52.734375
3179		-58.593750
3180		-50.781250
3181		-56.640625
3182		-48.828125
3183		-54.687500
3184		-48.828125
3185		-50.781250
3186		-48.828125
3187		-50.781250
3188		-42.968750
3189		-50.781250
3190		-41.015625
3191		-48.828125
3192		-39.062500
3193		-44.921875
3194		-37.109375
3195		-42.968750
3196		-33.203125
3197		-41.015625
3198		-33.203125
3199		-39.062500
3200		-29.296875
3201		-33.203125
3202		-29.296875
3203		-31.250000
3204		-25.390625
3205		-29.296875
3206		-19.531250
3207		-27.343750
3208		-17.578125
3209		-23.437500
3210		-15.625000
3211		-19.531250
3212		-11.718750
3213		-17.578125
3214		-7.812500
3215		-13.671875
3216		-5.859375
3217		-7.812500
3218		-3.906250
3219		-5.859375
3220		0.000000
3221		-3.906250
3222		5.859375
3223		0.000000
3224		7.812500
3225		1.953125
3226		11.718750
3227		5.859375
3228		13.671875
3229		7.812500
3230		17.578125
3231		11.718750
3232		21.484375
3233		15.625000
3234		21.484375
3235		21.484375
3236		25.390625
3237		23.437500
3238		31.250000
3239		25.390625
3240		33.203125
3241		27.343750
3242		35.156250
3243		31.250000
3244		39.062500
3245		33.203125
3246		41.015625
3247		35.156250
3248		44.921875
3249		39.062500
3250		46.875000
3251		42.968750
3252		46.875000
3253		46.875000
3254		50.781250
3255		46.875000
3256		54.687500
3257		48.828125
3258		56.640625
3259		50.781250
3260		58.593750
3261		52.734375
3262		60.546875
3263		54.687500
3264		62.500000
3265		56.640625
3266		64.453125
3267		56.640625
3268		64.453125
3269		62.500000
3270		64.453125
3271		62.500000
3272		68.359375
3273		62.500000
3274		68.359375
3275		64.453125
3276		70.312500
3277		64.453125
3278		70.312500
3279		66.406250
3280		70.312500
3281		66.406250
3282		72.265625
3283		66.406250
3284		72.265625
3285		68.359375
3286		70.312500
3287		68.359375
3288		72.265625
3289		66.406250
3290		74.218750
3291		66.406250
3292		74.218750
3293		66.406250
3294		74.218750
3295		66.406250
3296		72.265625
3297		64.453125
3298		72.265625
3299		64.453125
3300		72.265625
3301		66.406250
3302		68.359375
3303		64.453125
3304		68.359375
3305		62.500000
3306		70.312500
3307		60.546875
3308		68.359375
3309		58.593750
3310		66.406250
3311		58.593750
3312		64.453125
3313		54.687500
3314		62.500000
3315		52.734375
3316		62.500000
3317		52.734375
3318		60.546875
3319		52.734375
3320		54.687500
3321		46.875000
3322		52.734375
3323		44.921875
3324		52.734375
3325		42.968750
3326		50.781250
3327		39.062500
3328		48.828125
3329		37.109375
3330		46.875000
3331		35.156250
3332		44.921875
3333		33.203125
3334		41.015625
3335		31.250000
3336		35.156250
3337		29.296875
3338		33.203125
3339		23.437500
3340		31.250000
3341		19.531250
3342		29.296875
3343		17.578125
3344		25.390625
3345		13.671875
3346		21.484375
3347		9.765625
3348		19.531250
3349		7.812500
3350		15.625000
3351		5.859375
3352		13.671875
3353		3.906250
3354		7.812500
3355		-1.953125
3356		3.906250
3357		-5.859375
3358		1.953125
3359		-9.765625
3360		0.000000
3361		-11.718750
3362		-3.906250
3363		-15.625000
3364		-7.812500
3365		-19.531250
3366		-9.765625
3367		-21.484375
3368		-13.671875
3369		-23.437500
3370		-17.578125
3371		-27.343750
3372		-21.484375
3373		-31.250000
3374		-23.437500
3375		-35.156250
3376		-25.390625
3377		-37.109375
3378		-29.296875
3379		-39.062500
3380		-31.250000
3381		-42.968750
3382		-33.203125
3383		-44.921875
3384		-35.156250
3385		-44.921875
3386		-41.015625
3387		-46.875000
3388		-42.968750
3389		-50.781250
3390		-42.968750
3391		-52.734375
3392		-44.921875
3393		-54.687500
3394		-46.875000
3395		-56.640625
3396		-48.828125
3397		-58.593750
3398		-50.781250
3399		-58.593750
3400		-52.734375
3401		-60.546875
3402		-52.734375
3403		-58.593750
3404		-56.640625
3405		-62.500000
3406		-56.640625
3407		-62.500000
3408		-56.640625
3409		-64.453125
3410		-56.640625
3411		-64.453125
3412		-56.640625
3413		-64.453125
3414		-58.593750
3415		-64.453125
3416		-56.640625
3417		-64.453125
3418		-58.593750
3419		-62.500000
3420		-60.546875
3421		-60.546875
3422		-58.593750
3423		-62.500000
3424		-56.640625
3425		-62.500000
3426		-54.687500
3427		-62.500000
3428		-54.687500
3429		-60.546875
3430		-54.687500
3431		-58.593750
3432		-52.734375
3433		-58.593750
3434		-50.781250
3435		-56.640625
3436		-50.781250
3437		-52.734375
3438		-48.828125
3439		-52.734375
3440		-44.921875
3441		-50.781250
3442		-42.968750
3443		-48.828125
3444		-41.015625
3445		-46.875000
3446		-39.062500
3447		-42.968750
3448		-37.109375
3449		-41.015625
3450		-33.203125
3451		-39.062500
3452		-33.203125
3453		-35.156250
3454		-31.250000
3455		-31.250000
3456		-27.343750
3457		-31.250000
3458		-21.484375
3459		-29.296875
3460		-19.531250
3461		-25.390625
3462		-17.578125
3463		-19.531250
3464		-13.671875
3465		-17.578125
3466		-11.718750
3467		-15.625000
3468		-7.812500
3469		-9.765625
3470		-5.859375
3471		-7.812500
3472		-1.953125
3473		-3.906250
3474		1.953125
3475		-1.953125
3476		5.859375
3477		1.953125
3478		7.812500
3479		3.906250
3480		9.765625
3481		9.765625
3482		13.671875
3483		11.718750
3484		19.531250
3485		13.671875
3486		21.484375
3487		19.531250
3488		23.437500
3489		21.484375
3490		29.296875
3491		23.437500
3492		31.250000
3493		25.390625
3494		33.203125
3495		29.296875
3496		35.156250
3497		33.203125
3498		39.062500
3499		37.109375
3500		41.015625
3501		39.062500
3502		44.921875
3503		42.968750
3504		46.875000
3505		44.921875
3506		48.828125
3507		44.921875
3508		52.734375
3509		48.828125
3510		54.687500
3511		48.828125
3512		54.687500
3513		54.687500
3514		58.593750
3515		54.687500
3516		60.546875
3517		56.640625
3518		62.500000
3519		58.593750
3520		62.500000
3521		60.546875
3522		64.453125
3523		62.500000
3524		68.359375
3525		62.500000
3526		68.359375
3527		64.453125
3528		68.359375
3529		66.406250
3530		68.359375
3531		66.406250
3532		70.312500
3533		66.406250
3534		70.312500
3535		68.359375
3536		72.265625
3537		68.359375
3538		70.312500
3539		68.359375
3540		72.265625
3541		68.359375
3542		72.265625
3543		68.359375
3544		72.265625
3545		68.359375
3546		72.265625
3547		68.359375
3548		72.265625
3549		68.359375
3550		70.312500
3551		66.406250
3552		70.312500
3553		66.406250
3554		70.312500
3555		66.406250
3556		68.359375
3557		64.453125
3558		68.359375
3559		62.500000
3560		66.406250
3561		62.500000
3562		66.406250
3563		60.546875
3564		64.453125
3565		58.593750
3566		62.500000
3567		56.640625
3568		60.546875
3569		54.687500
3570		60.546875
3571		52.734375
3572		56.640625
3573		50.781250
3574		54.687500
3575		48.828125
3576		52.734375
3577		46.875000
3578		50.781250
3579		44.921875
3580		48.828125
3581		41.015625
3582		46.875000
3583		39.062500
3584		42.968750
3585		35.156250
3586		41.015625
3587		33.203125
3588		37.109375
3589		31.250000
3590		35.156250
3591		27.343750
3592		33.203125
3593		23.437500
3594		29.296875
3595		21.484375
3596		25.390625
3597		17.578125
3598		23.437500
3599		15.625000
3600		19.531250
3601		9.765625
3602		15.625000
3603		7.812500
3604		13.671875
3605		3.906250
3606		9.765625
3607		1.953125
3608		5.859375
3609		-1.953125
3610		3.906250
3611		-5.859375
3612		0.000000
3613		-7.812500
3614		-3.906250
3615		-11.718750
3616		-5.859375
3617		-15.625000
3618		-9.765625
3619		-17.578125
3620		-13.671875
3621		-21.484375
3622		-15.625000
3623		-23.437500
3624		-19.531250
3625		-27.343750
3626		-21.484375
3627		-29.296875
3628		-25.390625
3629		-33.203125
3630		-29.296875
3631		-37.109375
3632		-31.250000
3633		-39.062500
3634		-33.203125
3635		-41.015625
3636		-37.109375
3637		-42.968750
3638		-39.062500
3639		-44.921875
3640		-41.015625
3641		-48.828125
3642		-42.968750
3643		-50.781250
3644		-44.921875
3645		-50.781250
3646		-48.828125
3647		-52.734375
3648		-48.828125
3649		-56.640625
3650		-50.781250
3651		-56.640625
3652		-52.734375
3653		-58.593750
3654		-54.687500
3655		-58.593750
3656		-56.640625
3657		-60.546875
3658		-56.640625
3659		-60.546875
3660		-58.593750
3661		-62.500000
3662		-58.593750
3663		-62.500000
3664		-58.593750
3665		-62.500000
3666		-58.593750
3667		-62.500000
3668		-60.546875
3669		-64.453125
3670		-58.593750
3671		-62.500000
3672		-60.546875
3673		-62.500000
3674		-60.546875
3675		-62.500000
3676		-58.593750
3677		-62.500000
3678		-58.593750
3679		-60.546875
3680		-56.640625
3681		-58.593750
3682		-56.640625
3683		-58.593750
3684		-54.687500
3685		-56.640625
3686		-54.687500
3687		-56.640625
3688		-52.734375
3689		-54.687500
3690		-50.781250
3691		-52.734375
3692		-48.828125
3693		-50.781250
3694		-46.875000
3695		-48.828125
3696		-44.921875
3697		-46.875000
3698		-42.968750
3699		-44.921875
3700		-39.062500
3701		-41.015625
3702		-37.109375
3703		-39.062500
3704		-35.156250
3705		-37.109375
3706		-33.203125
3707		-35.156250
3708		-29.296875
3709		-33.203125
3710		-27.343750
3711		-29.296875
3712		-23.437500
3713		-25.390625
3714		-21.484375
3715		-21.484375
3716		-17.578125
3717		-19.531250
3718		-15.625000
3719		-15.625000
3720		-11.718750
3721		-13.671875
3722		-7.812500
3723		-9.765625
3724		-5.859375
3725		-5.859375
3726		-1.953125
3727		-3.906250
3728		1.953125
3729		0.000000
3730		3.906250
3731		1.953125
3732		7.812500
3733		5.859375
3734		11.718750
3735		9.765625
3736		15.625000
3737		13.671875
3738		17.578125
3739		15.625000
3740		21.484375
3741		19.531250
3742		25.390625
3743		23.437500
3744		27.343750
3745		25.390625
3746		29.296875
3747		27.343750
3748		33.203125
3749		31.250000
3750		37.109375
3751		33.203125
3752		39.062500
3753		37.109375
3754		42.968750
3755		39.062500
3756		44.921875
3757		42.968750
3758		46.875000
3759		44.921875
3760		48.828125
3761		46.875000
3762		50.781250
3763		50.781250
3764		54.687500
3765		52.734375
3766		54.687500
3767		52.734375
3768		58.593750
3769		54.687500
3770		58.593750
3771		56.640625
3772		62.500000
3773		60.546875
3774		62.500000
3775		60.546875
3776		64.453125
3777		62.500000
3778		66.406250
3779		64.453125
3780		66.406250
3781		64.453125
3782		68.359375
3783		66.406250
3784		68.359375
3785		66.406250
3786		70.312500
3787		66.406250
3788		70.312500
3789		68.359375
3790		70.312500
3791		68.359375
3792		70.312500
3793		68.359375
3794		72.265625
3795		68.359375
3796		72.265625
3797		68.359375
3798		72.265625
3799		68.359375
3800		72.265625
3801		68.359375
3802		72.265625
3803		66.406250
3804		70.312500
3805		66.406250
3806		70.312500
3807		66.406250
3808		68.359375
3809		64.453125
3810		68.359375
3811		64.453125
3812		68.359375
3813		62.500000
3814		66.406250
3815		60.546875
3816		66.406250
3817		60.546875
3818		62.500000
3819		58.593750
3820		62.500000
3821		56.640625
3822		60.546875
3823		54.687500
3824		58.593750
3825		50.781250
3826		56.640625
3827		48.828125
3828		54.687500
3829		48.828125
3830		50.781250
3831		44.921875
3832		48.828125
3833		42.968750
3834		46.875000
3835		39.062500
3836		44.921875
3837		37.109375
3838		41.015625
3839		35.156250
3840		39.062500
3841		31.250000
3842		35.156250
3843		29.296875
3844		33.203125
3845		25.390625
3846		29.296875
3847		21.484375
3848		27.343750
3849		19.531250
3850		23.437500
3851		15.625000
3852		21.484375
3853		13.671875
3854		17.578125
3855		9.765625
3856		15.625000
3857		7.812500
3858		11.718750
3859		1.953125
3860		7.812500
3861		0.000000
3862		3.906250
3863		-3.906250
3864		1.953125
3865		-5.859375
3866		-1.953125
3867		-9.765625
3868		-3.906250
3869		-13.671875
3870		-7.812500
3871		-17.578125
3872		-11.718750
3873		-19.531250
3874		-15.625000
3875		-23.437500
3876		-17.578125
3877		-25.390625
3878		-19.531250
3879		-29.296875
3880		-23.437500
3881		-31.250000
3882		-27.343750
3883		-35.156250
3884		-29.296875
3885		-37.109375
3886		-33.203125
3887		-39.062500
3888		-35.156250
3889		-41.015625
3890		-37.109375
3891		-44.921875
3892		-41.015625
3893		-46.875000
3894		-42.968750
3895		-48.828125
3896		-44.921875
3897		-50.781250
3898		-46.875000
3899		-52.734375
3900		-48.828125
3901		-54.687500
3902		-50.781250
3903		-56.640625
3904		-52.734375
3905		-56.640625
3906		-52.734375
3907		-58.593750
3908		-54.687500
3909		-60.546875
3910		-56.640625
3911		-60.546875
3912		-56.640625
3913		-62.500000
3914		-58.593750
3915		-62.500000
3916		-58.593750
3917		-62.500000
3918		-60.546875
3919		-62.500000
3920		-60.546875
3921		-64.453125
3922		-60.546875
3923		-62.500000
3924		-60.546875
3925		-62.500000
3926		-60.546875
3927		-64.453125
3928		-58.593750
3929		-62.500000
3930		-58.593750
3931		-62.500000
3932		-58.593750
3933		-60.546875
3934		-56.640625
3935		-60.546875
3936		-56.640625
3937		-58.593750
3938		-54.687500
3939		-56.640625
3940		-54.687500
3941		-54.687500
3942		-52.734375
3943		-54.687500
3944		-48.828125
3945		-52.734375
3946		-48.828125
3947		-50.781250
3948		-46.875000
3949		-48.828125
3950		-44.921875
3951		-46.875000
3952		-41.015625
3953		-42.968750
3954		-39.062500
3955		-41.015625
3956		-37.109375
3957		-39.062500
3958		-35.156250
3959		-35.156250
3960		-31.250000
3961		-33.203125
3962		-29.296875
3963		-31.250000
3964		-25.390625
3965		-27.343750
3966		-23.437500
3967		-25.390625
3968		-19.531250
3969		-21.484375
3970		-17.578125
3971		-19.531250
3972		-13.671875
3973		-15.625000
3974		-11.718750
3975		-13.671875
3976		-7.812500
3977		-9.765625
3978		-3.906250
3979		-5.859375
3980		0.000000
3981		-1.953125
3982		1.953125
3983		0.000000
3984		5.859375
3985		3.906250
3986		9.765625
3987		7.812500
3988		13.671875
3989		9.765625
3990		15.625000
3991		13.671875
3992		17.578125
3993		17.578125
3994		23.437500
3995		19.531250
3996		25.390625
3997		23.437500
3998		29.296875
3999		27.343750
4000		31.250000
4001		29.296875
4002		33.203125
4003		31.250000
4004		37.109375
4005		35.156250
4006		41.015625
4007		37.109375
4008		42.968750
4009		41.015625
4010		44.921875
4011		42.968750
4012		46.875000
4013		44.921875
4014		48.828125
4015		48.828125
4016		52.734375
4017		50.781250
4018		54.687500
4019		52.734375
4020		56.640625
4021		54.687500
4022		58.593750
4023		54.687500
4024		60.546875
4025		58.593750
4026		60.546875
4027		60.546875
4028		64.453125
4029		60.546875
4030		64.453125
4031		62.500000
4032		66.406250
4033		64.453125
4034		66.406250
4035		64.453125
4036		68.359375
4037		66.406250
4038		70.312500
4039		66.406250
4040		70.312500
4041		68.359375
4042		70.312500
4043		68.359375
4044		70.312500
4045		66.406250
4046		72.265625
4047		68.359375
4048		72.265625
4049		68.359375
4050		72.265625
4051		68.359375
4052		72.265625
4053		68.359375
4054		72.265625
4055		68.359375
4056		72.265625
4057		68.359375
4058		70.312500
4059		66.406250
4060		70.312500
4061		64.453125
4062		70.312500
4063		64.453125
4064		68.359375
4065		64.453125
4066		66.406250
4067		62.500000
4068		66.406250
4069		60.546875
4070		64.453125
4071		58.593750
4072		62.500000
4073		56.640625
4074		60.546875
4075		56.640625
4076		58.593750
4077		52.734375
4078		56.640625
4079		50.781250
4080		56.640625
4081		48.828125
4082		52.734375
4083		46.875000
4084		50.781250
4085		44.921875
4086		48.828125
4087		41.015625
4088		46.875000
4089		37.109375
4090		42.968750
4091		37.109375
4092		41.015625
4093		33.203125
4094		39.062500
4095		31.250000
4096		35.156250
4097		27.343750
4098		33.203125
4099		25.390625
4100		29.296875
4101		21.484375
4102		25.390625
4103		17.578125
4104		23.437500
4105		15.625000
4106		19.531250
4107		11.718750
4108		17.578125
4109		7.812500
4110		13.671875
4111		5.859375
4112		9.765625
4113		1.953125
4114		7.812500
4115		-1.953125
4116		3.906250
4117		-3.906250
4118		0.000000
4119		-7.812500
4120		-3.906250
4121		-11.718750
4122		-5.859375
4123		-13.671875
4124		-9.765625
4125		-17.578125
4126		-13.671875
4127		-21.484375
4128		-15.625000
4129		-23.437500
4130		-19.531250
4131		-27.343750
4132		-21.484375
4133		-29.296875
4134		-23.437500
4135		-33.203125
4136		-27.343750
4137		-35.156250
4138		-31.250000
4139		-39.062500
4140		-33.203125
4141		-41.015625
4142		-35.156250
4143		-42.968750
4144		-39.062500
4145		-46.875000
4146		-41.015625
4147		-46.875000
4148		-42.968750
4149		-48.828125
4150		-44.921875
4151		-50.781250
4152		-48.828125
4153		-54.687500
4154		-50.781250
4155		-54.687500
4156		-50.781250
4157		-56.640625
4158		-52.734375
4159		-58.593750
4160		-54.687500
4161		-58.593750
4162		-56.640625
4163		-60.546875
4164		-56.640625
4165		-62.500000
4166		-58.593750
4167		-62.500000
4168		-58.593750
4169		-62.500000
4170		-58.593750
4171		-62.500000
4172		-60.546875
4173		-64.453125
4174		-60.546875
4175		-62.500000
4176		-60.546875
4177		-64.453125
4178		-60.546875
4179		-64.453125
4180		-60.546875
4181		-62.500000
4182		-58.593750
4183		-62.500000
4184		-58.593750
4185		-62.500000
4186		-58.593750
4187		-60.546875
4188		-56.640625
4189		-58.593750
4190		-56.640625
4191		-58.593750
4192		-54.687500
4193		-56.640625
4194		-54.687500
4195		-54.687500
4196		-50.781250
4197		-54.687500
4198		-48.828125
4199		-52.734375
4200		-48.828125
4201		-50.781250
4202		-46.875000
4203		-46.875000
4204		-42.968750
4205		-44.921875
4206		-41.015625
4207		-42.968750
4208		-39.062500
4209		-41.015625
4210		-37.109375
4211		-39.062500
4212		-33.203125
4213		-37.109375
4214		-31.250000
4215		-33.203125
4216		-29.296875
4217		-31.250000
4218		-25.390625
4219		-27.343750
4220		-23.437500
4221		-23.437500
4222		-19.531250
4223		-21.484375
4224		-15.625000
4225		-17.578125
4226		-13.671875
4227		-15.625000
4228		-9.765625
4229		-11.718750
4230		-5.859375
4231		-7.812500
4232		-3.906250
4233		-3.906250
4234		0.000000
4235		-1.953125
4236		3.906250
4237		0.000000
4238		5.859375
4239		5.859375
4240		9.765625
4241		7.812500
4242		13.671875
4243		11.718750
4244		15.625000
4245		15.625000
4246		19.531250
4247		15.625000
4248		23.437500
4249		19.531250
4250		25.390625
4251		23.437500
4252		29.296875
4253		27.343750
4254		31.250000
4255		29.296875
4256		35.156250
4257		33.203125
4258		39.062500
4259		35.156250
4260		41.015625
4261		39.062500
4262		42.968750
4263		41.015625
4264		44.921875
4265		42.968750
4266		48.828125
4267		46.875000
4268		50.781250
4269		46.875000
4270		52.734375
4271		50.781250
4272		54.687500
4273		52.734375
4274		56.640625
4275		54.687500
4276		58.593750
4277		56.640625
4278		60.546875
4279		58.593750
4280		62.500000
4281		58.593750
4282		62.500000
4283		60.546875
4284		64.453125
4285		62.500000
4286		66.406250
4287		64.453125
4288		68.359375
4289		64.453125
4290		68.359375
4291		66.406250
4292		70.312500
4293		66.406250
4294		70.312500
4295		68.359375
4296		70.312500
4297		68.359375
4298		72.265625
4299		68.359375
4300		70.312500
4301		68.359375
4302		72.265625
4303		68.359375
4304		72.265625
4305		68.359375
4306		70.312500
4307		68.359375
4308		70.312500
4309		66.406250
4310		70.312500
4311		66.406250
4312		68.359375
4313		64.453125
4314		68.359375
4315		64.453125
4316		68.359375
4317		62.500000
4318		68.359375
4319		62.500000
4320		66.406250
4321		60.546875
4322		64.453125
4323		60.546875
4324		64.453125
4325		58.593750
4326		62.500000
4327		56.640625
4328		60.546875
4329		54.687500
4330		58.593750
4331		52.734375
4332		56.640625
4333		48.828125
4334		54.687500
4335		48.828125
4336		52.734375
4337		44.921875
4338		48.828125
4339		42.968750
4340		48.828125
4341		41.015625
4342		44.921875
4343		39.062500
4344		42.968750
4345		35.156250
4346		39.062500
4347		31.250000
4348		37.109375
4349		29.296875
4350		35.156250
4351		27.343750
4352		31.250000
4353		23.437500
4354		27.343750
4355		19.531250
4356		25.390625
4357		17.578125
4358		21.484375
4359		13.671875
4360		19.531250
4361		11.718750
4362		15.625000
4363		7.812500
4364		11.718750
4365		3.906250
4366		9.765625
4367		0.000000
4368		5.859375
4369		-1.953125
4370		1.953125
4371		-5.859375
4372		0.000000
4373		-9.765625
4374		-3.906250
4375		-13.671875
4376		-7.812500
4377		-15.625000
4378		-11.718750
4379		-19.531250
4380		-13.671875
4381		-23.437500
4382		-17.578125
4383		-25.390625
4384		-19.531250
4385		-27.343750
4386		-23.437500
4387		-31.250000
4388		-25.390625
4389		-33.203125
4390		-29.296875
4391		-37.109375
4392		-31.250000
4393		-39.062500
4394		-33.203125
4395		-41.015625
4396		-37.109375
4397		-44.921875
4398		-41.015625
4399		-46.875000
4400		-42.968750
4401		-48.828125
4402		-44.921875
4403		-50.781250
4404		-46.875000
4405		-52.734375
4406		-48.828125
4407		-54.687500
4408		-50.781250
4409		-56.640625
4410		-50.781250
4411		-56.640625
4412		-54.687500
4413		-60.546875
4414		-54.687500
4415		-60.546875
4416		-56.640625
4417		-60.546875
4418		-56.640625
4419		-62.500000
4420		-58.593750
4421		-62.500000
4422		-58.593750
4423		-62.500000
4424		-60.546875
4425		-62.500000
4426		-60.546875
4427		-64.453125
4428		-60.546875
4429		-62.500000
4430		-60.546875
4431		-64.453125
4432		-60.546875
4433		-62.500000
4434		-60.546875
4435		-62.500000
4436		-58.593750
4437		-62.500000
4438		-58.593750
4439		-60.546875
4440		-58.593750
4441		-60.546875
4442		-56.640625
4443		-60.546875
4444		-54.687500
4445		-56.640625
4446		-54.687500
4447		-56.640625
4448		-52.734375
4449		-54.687500
4450		-50.781250
4451		-52.734375
4452		-48.828125
4453		-50.781250
4454		-46.875000
4455		-48.828125
4456		-44.921875
4457		-46.875000
4458		-42.968750
4459		-44.921875
4460		-41.015625
4461		-42.968750
4462		-39.062500
4463		-39.062500
4464		-35.156250
4465		-37.109375
4466		-33.203125
4467		-35.156250
4468		-29.296875
4469		-31.250000
4470		-27.343750
4471		-29.296875
4472		-23.437500
4473		-25.390625
4474		-21.484375
4475		-23.437500
4476		-17.578125
4477		-19.531250
4478		-15.625000
4479		-17.578125
4480		-11.718750
4481		-13.671875
4482		-7.812500
4483		-9.765625
4484		-5.859375
4485		-7.812500
4486		-1.953125
4487		-3.906250
4488		1.953125
4489		0.000000
4490		3.906250
4491		1.953125
4492		7.812500
4493		5.859375
4494		11.718750
4495		9.765625
4496		13.671875
4497		13.671875
4498		17.578125
4499		15.625000
4500		21.484375
4501		19.531250
4502		23.437500
4503		23.437500
4504		27.343750
4505		25.390625
4506		29.296875
4507		29.296875
4508		33.203125
4509		29.296875
4510		35.156250
4511		33.203125
4512		39.062500
4513		37.109375
4514		41.015625
4515		39.062500
4516		42.968750
4517		42.968750
4518		46.875000
4519		44.921875
4520		48.828125
4521		46.875000
4522		50.781250
4523		48.828125
4524		52.734375
4525		50.781250
4526		54.687500
4527		54.687500
4528		56.640625
4529		56.640625
4530		58.593750
4531		56.640625
4532		62.500000
4533		58.593750
4534		62.500000
4535		60.546875
4536		64.453125
4537		62.500000
4538		66.406250
4539		64.453125
4540		66.406250
4541		64.453125
4542		68.359375
4543		64.453125
4544		68.359375
4545		66.406250
4546		70.312500
4547		68.359375
4548		70.312500
4549		66.406250
4550		70.312500
4551		68.359375
4552		70.312500
4553		68.359375
4554		72.265625
4555		68.359375
4556		72.265625
4557		68.359375
4558		72.265625
4559		68.359375
4560		70.312500
4561		66.406250
4562		72.265625
4563		68.359375
4564		70.312500
4565		66.406250
4566		70.312500
4567		66.406250
4568		68.359375
4569		64.453125
4570		68.359375
4571		64.453125
4572		66.406250
4573		62.500000
4574		66.406250
4575		60.546875
4576		64.453125
4577		58.593750
4578		64.453125
4579		58.593750
4580		60.546875
4581		56.640625
4582		60.546875
4583		54.687500
4584		58.593750
4585		50.781250
4586		56.640625
4587		48.828125
4588		52.734375
4589		46.875000
4590		50.781250
4591		44.921875
4592		48.828125
4593		42.968750
4594		46.875000
4595		41.015625
4596		44.921875
4597		37.109375
4598		41.015625
4599		33.203125
4600		39.062500
4601		31.250000
4602		35.156250
4603		29.296875
4604		33.203125
4605		25.390625
4606		31.250000
4607		21.484375
4608		27.343750
4609		19.531250
4610		23.437500
4611		15.625000
4612		21.484375
4613		13.671875
4614		17.578125
4615		7.812500
4616		13.671875
4617		5.859375
4618		11.718750
4619		3.906250
4620		7.812500
4621		-1.953125
4622		3.906250
4623		-3.906250
4624		1.953125
4625		-7.812500
4626		-1.953125
4627		-9.765625
4628		-5.859375
4629		-13.671875
4630		-7.812500
4631		-15.625000
4632		-11.718750
4633		-19.531250
4634		-15.625000
4635		-23.437500
4636		-17.578125
4637		-25.390625
4638		-21.484375
4639		-29.296875
4640		-25.390625
4641		-31.250000
4642		-27.343750
4643		-33.203125
4644		-29.296875
4645		-37.109375
4646		-33.203125
4647		-39.062500
4648		-35.156250
4649		-42.968750
4650		-39.062500
4651		-44.921875
4652		-39.062500
4653		-46.875000
4654		-42.968750
4655		-48.828125
4656		-44.921875
4657		-50.781250
4658		-46.875000
4659		-52.734375
4660		-48.828125
4661		-54.687500
4662		-50.781250
4663		-56.640625
4664		-52.734375
4665		-56.640625
4666		-54.687500
4667		-58.593750
4668		-54.687500
4669		-60.546875
4670		-56.640625
4671		-60.546875
4672		-58.593750
4673		-62.500000
4674		-58.593750
4675		-62.500000
4676		-58.593750
4677		-62.500000
4678		-58.593750
4679		-64.453125
4680		-60.546875
4681		-62.500000
4682		-60.546875
4683		-64.453125
4684		-60.546875
4685		-62.500000
4686		-60.546875
4687		-62.500000
4688		-60.546875
4689		-62.500000
4690		-58.593750
4691		-60.546875
4692		-58.593750
4693		-60.546875
4694		-56.640625
4695		-60.546875
4696		-56.640625
4697		-58.593750
4698		-54.687500
4699		-56.640625
4700		-52.734375
4701		-56.640625
4702		-52.734375
4703		-54.687500
4704		-50.781250
4705		-52.734375
4706		-48.828125
4707		-50.781250
4708		-46.875000
4709		-48.828125
4710		-42.968750
4711		-46.875000
4712		-41.015625
4713		-42.968750
4714		-39.062500
4715		-41.015625
4716		-37.109375
4717		-39.062500
4718		-35.156250
4719		-37.109375
4720		-31.250000
4721		-33.203125
4722		-29.296875
4723		-31.250000
4724		-25.390625
4725		-27.343750
4726		-23.437500
4727		-25.390625
4728		-19.531250
4729		-21.484375
4730		-17.578125
4731		-17.578125
4732		-13.671875
4733		-15.625000
4734		-9.765625
4735		-11.718750
4736		-7.812500
4737		-9.765625
4738		-3.906250
4739		-5.859375
4740		-1.953125
4741		-1.953125
4742		1.953125
4743		1.953125
4744		5.859375
4745		3.906250
4746		9.765625
4747		7.812500
4748		11.718750
4749		9.765625
4750		15.625000
4751		13.671875
4752		19.531250
4753		17.578125
4754		21.484375
4755		19.531250
4756		25.390625
4757		23.437500
4758		27.343750
4759		27.343750
4760		31.250000
4761		29.296875
4762		33.203125
4763		31.250000
4764		37.109375
4765		35.156250
4766		39.062500
4767		37.109375
4768		42.968750
4769		39.062500
4770		44.921875
4771		42.968750
4772		48.828125
4773		44.921875
4774		50.781250
4775		48.828125
4776		52.734375
4777		48.828125
4778		54.687500
4779		52.734375
4780		56.640625
4781		54.687500
4782		58.593750
4783		56.640625
4784		58.593750
4785		58.593750
4786		62.500000
4787		58.593750
4788		62.500000
4789		60.546875
4790		66.406250
4791		62.500000
4792		66.406250
4793		64.453125
4794		68.359375
4795		64.453125
4796		68.359375
4797		66.406250
4798		68.359375
4799		66.406250
4800		70.312500
4801		66.406250
4802		70.312500
4803		66.406250
4804		70.312500
4805		68.359375
4806		70.312500
4807		68.359375
4808		72.265625
4809		68.359375
4810		72.265625
4811		68.359375
4812		72.265625
4813		68.359375
4814		72.265625
4815		68.359375
4816		70.312500
4817		66.406250
4818		70.312500
4819		66.406250
4820		70.312500
4821		66.406250
4822		68.359375
4823		64.453125
4824		68.359375
4825		62.500000
4826		66.406250
4827		62.500000
4828		64.453125
4829		60.546875
4830		64.453125
4831		58.593750
4832		62.500000
4833		56.640625
4834		60.546875
4835		54.687500
4836		60.546875
4837		52.734375
4838		56.640625
4839		50.781250
4840		54.687500
4841		48.828125
4842		52.734375
4843		46.875000
4844		50.781250
4845		42.968750
4846		48.828125
4847		41.015625
4848		46.875000
4849		39.062500
4850		42.968750
4851		37.109375
4852		41.015625
4853		33.203125
4854		37.109375
4855		31.250000
4856		35.156250
4857		27.343750
4858		31.250000
4859		25.390625
4860		29.296875
4861		21.484375
4862		25.390625
4863		17.578125
4864		23.437500
4865		15.625000
4866		19.531250
4867		11.718750
4868		15.625000
4869		7.812500
4870		13.671875
4871		5.859375
4872		9.765625
4873		1.953125
4874		5.859375
4875		-1.953125
4876		3.906250
4877		-5.859375
4878		0.000000
4879		-7.812500
4880		-1.953125
4881		-11.718750
4882		-5.859375
4883		-15.625000
4884		-9.765625
4885		-17.578125
4886		-13.671875
4887		-21.484375
4888		-15.625000
4889		-23.437500
4890		-19.531250
4891		-27.343750
4892		-21.484375
4893		-29.296875
4894		-25.390625
4895		-33.203125
4896		-27.343750
4897		-35.156250
4898		-31.250000
4899		-37.109375
4900		-33.203125
4901		-41.015625
4902		-37.109375
4903		-42.968750
4904		-37.109375
4905		-44.921875
4906		-41.015625
4907		-46.875000
4908		-42.968750
4909		-48.828125
4910		-44.921875
4911		-52.734375
4912		-46.875000
4913		-54.687500
4914		-48.828125
4915		-54.687500
4916		-50.781250
4917		-56.640625
4918		-52.734375
4919		-58.593750
4920		-54.687500
4921		-58.593750
4922		-56.640625
4923		-60.546875
4924		-56.640625
4925		-62.500000
4926		-58.593750
4927		-62.500000
4928		-58.593750
4929		-62.500000
4930		-58.593750
4931		-62.500000
4932		-58.593750
4933		-62.500000
4934		-60.546875
4935		-64.453125
4936		-60.546875
4937		-64.453125
4938		-60.546875
4939		-62.500000
4940		-60.546875
4941		-62.500000
4942		-60.546875
4943		-62.500000
4944		-58.593750
4945		-60.546875
4946		-58.593750
4947		-60.546875
4948		-56.640625
4949		-58.593750
4950		-56.640625
4951		-58.593750
4952		-54.687500
4953		-58.593750
4954		-52.734375
4955		-54.687500
4956		-50.781250
4957		-52.734375
4958		-50.781250
4959		-52.734375
4960		-48.828125
4961		-48.828125
4962		-46.875000
4963		-46.875000
4964		-42.968750
4965		-44.921875
4966		-41.015625
4967		-42.968750
4968		-39.062500
4969		-41.015625
4970		-35.156250
4971		-39.062500
4972		-33.203125
4973		-35.156250
4974		-31.250000
4975		-33.203125
4976		-27.343750
4977		-29.296875
4978		-25.390625
4979		-27.343750
4980		-21.484375
4981		-23.437500
4982		-19.531250
4983		-19.531250
4984		-15.625000
4985		-17.578125
4986		-11.718750
4987		-13.671875
4988		-9.765625
4989		-11.718750
4990		-5.859375
4991		-7.812500
4992		-3.906250
4993		-3.906250
4994		0.000000
4995		-1.953125
4996		3.906250
4997		1.953125
4998		7.812500
4999		5.859375
5000		9.765625
5001		7.812500
5002		13.671875
5003		11.718750
5004		17.578125
5005		15.625000
5006		19.531250
5007		17.578125
5008		23.437500
5009		21.484375
5010		25.390625
5011		23.437500
5012		29.296875
5013		27.343750
5014		31.250000
5015		29.296875
5016		35.156250
5017		33.203125
5018		37.109375
5019		37.109375
5020		41.015625
5021		39.062500
5022		42.968750
5023		41.015625
5024		46.875000
5025		44.921875
5026		48.828125
5027		46.875000
5028		50.781250
5029		48.828125
5030		52.734375
5031		50.781250
5032		54.687500
5033		52.734375
5034		56.640625
5035		54.687500
5036		58.593750
5037		56.640625
5038		60.546875
5039		58.593750
5040		62.500000
5041		60.546875
5042		64.453125
5043		62.500000
5044		66.406250
5045		62.500000
5046		66.406250
5047		64.453125
5048		68.359375
5049		64.453125
5050		68.359375
5051		66.406250
5052		68.359375
5053		66.406250
5054		70.312500
5055		68.359375
5056		70.312500
5057		68.359375
5058		70.312500
5059		68.359375
5060		72.265625
5061		68.359375
5062		72.265625
5063		68.359375
5064		72.265625
5065		68.359375
5066		72.265625
5067		68.359375
5068		70.312500
5069		66.406250
5070		70.312500
5071		66.406250
5072		70.312500
5073		66.406250
5074		70.312500
5075		64.453125
5076		68.359375
5077		64.453125
5078		66.406250
5079		62.500000
5080		66.406250
5081		60.546875
5082		64.453125
5083		60.546875
5084		62.500000
5085		58.593750
5086		62.500000
5087		56.640625
5088		60.546875
5089		54.687500
5090		58.593750
5091		52.734375
5092		56.640625
5093		50.781250
5094		54.687500
5095		48.828125
5096		52.734375
5097		44.921875
5098		50.781250
5099		42.968750
5100		48.828125
5101		41.015625
5102		44.921875
5103		37.109375
5104		42.968750
5105		35.156250
5106		39.062500
5107		31.250000
5108		37.109375
5109		29.296875
5110		33.203125
5111		25.390625
5112		31.250000
5113		23.437500
5114		27.343750
5115		19.531250
5116		25.390625
5117		17.578125
5118		21.484375
5119		13.671875
5120		19.531250
5121		9.765625
5122		17.578125
5123		5.859375
5124		11.718750
5125		3.906250
5126		9.765625
5127		0.000000
5128		5.859375
5129		-1.953125
5130		1.953125
5131		-5.859375
5132		0.000000
5133		-9.765625
5134		-3.906250
5135		-11.718750
5136		-7.812500
5137		-15.625000
5138		-9.765625
5139		-19.531250
5140		-13.671875
5141		-21.484375
5142		-17.578125
5143		-25.390625
5144		-19.531250
5145		-27.343750
5146		-23.437500
5147		-31.250000
5148		-25.390625
5149		-33.203125
5150		-29.296875
5151		-35.156250
5152		-31.250000
5153		-41.015625
5154		-35.156250
5155		-41.015625
5156		-37.109375
5157		-42.968750
5158		-39.062500
5159		-46.875000
5160		-42.968750
5161		-48.828125
5162		-44.921875
5163		-50.781250
5164		-46.875000
5165		-52.734375
5166		-48.828125
5167		-54.687500
5168		-50.781250
5169		-54.687500
5170		-52.734375
5171		-58.593750
5172		-52.734375
5173		-58.593750
5174		-54.687500
5175		-60.546875
5176		-56.640625
5177		-60.546875
5178		-56.640625
5179		-60.546875
5180		-58.593750
5181		-62.500000
5182		-58.593750
5183		-62.500000
5184		-58.593750
5185		-62.500000
5186		-60.546875
5187		-62.500000
5188		-60.546875
5189		-64.453125
5190		-60.546875
5191		-62.500000
5192		-60.546875
5193		-62.500000
5194		-60.546875
5195		-62.500000
5196		-58.593750
5197		-62.500000
5198		-58.593750
5199		-60.546875
5200		-56.640625
5201		-58.593750
5202		-56.640625
5203		-58.593750
5204		-54.687500
5205		-56.640625
5206		-52.734375
5207		-56.640625
5208		-52.734375
5209		-54.687500
5210		-50.781250
5211		-52.734375
5212		-48.828125
5213		-50.781250
5214		-46.875000
5215		-48.828125
5216		-44.921875
5217		-48.828125
5218		-42.968750
5219		-44.921875
5220		-41.015625
5221		-42.968750
5222		-37.109375
5223		-39.062500
5224		-35.156250
5225		-37.109375
5226		-33.203125
5227		-35.156250
5228		-29.296875
5229		-31.250000
5230		-27.343750
5231		-27.343750
5232		-23.437500
5233		-25.390625
5234		-21.484375
5235		-23.437500
5236		-17.578125
5237		-19.531250
5238		-13.671875
5239		-15.625000
5240		-11.718750
5241		-13.671875
5242		-7.812500
5243		-9.765625
5244		-3.906250
5245		-5.859375
5246		-1.953125
5247		-3.906250
5248		1.953125
5249		0.000000
5250		5.859375
5251		3.906250
5252		7.812500
5253		7.812500
5254		11.718750
5255		9.765625
5256		15.625000
5257		13.671875
5258		17.578125
5259		15.625000
5260		21.484375
5261		19.531250
5262		23.437500
5263		23.437500
5264		27.343750
5265		25.390625
5266		31.250000
5267		27.343750
5268		33.203125
5269		31.250000
5270		37.109375
5271		35.156250
5272		39.062500
5273		37.109375
5274		42.968750
5275		41.015625
5276		44.921875
5277		42.968750
5278		46.875000
5279		44.921875
5280		48.828125
5281		46.875000
5282		52.734375
5283		48.828125
5284		54.687500
5285		52.734375
5286		54.687500
5287		54.687500
5288		58.593750
5289		54.687500
5290		60.546875
5291		56.640625
5292		60.546875
5293		58.593750
5294		62.500000
5295		60.546875
5296		64.453125
5297		62.500000
5298		66.406250
5299		62.500000
5300		68.359375
5301		64.453125
5302		68.359375
5303		66.406250
5304		68.359375
5305		66.406250
5306		70.312500
5307		68.359375
5308		70.312500
5309		68.359375
5310		70.312500
5311		68.359375
5312		70.312500
5313		68.359375
5314		72.265625
5315		68.359375
5316		72.265625
5317		68.359375
5318		72.265625
5319		68.359375
5320		70.312500
5321		68.359375
5322		70.312500
5323		66.406250
5324		70.312500
5325		66.406250
5326		70.312500
5327		66.406250
5328		68.359375
5329		64.453125
5330		68.359375
5331		62.500000
5332		68.359375
5333		60.546875
5334		66.406250
5335		60.546875
5336		64.453125
5337		58.593750
5338		62.500000
5339		56.640625
5340		62.500000
5341		56.640625
5342		60.546875
5343		54.687500
5344		58.593750
5345		52.734375
5346		56.640625
5347		48.828125
5348		54.687500
5349		46.875000
5350		50.781250
5351		44.921875
5352		48.828125
5353		42.968750
5354		46.875000
5355		39.062500
5356		44.921875
5357		37.109375
5358		41.015625
5359		35.156250
5360		39.062500
5361		31.250000
5362		37.109375
5363		27.343750
5364		33.203125
5365		25.390625
5366		31.250000
5367		21.484375
5368		27.343750
5369		19.531250
5370		23.437500
5371		15.625000
5372		21.484375
5373		13.671875
5374		17.578125
5375		9.765625
5376		15.625000
5377		5.859375
5378		11.718750
5379		1.953125
5380		7.812500
5381		0.000000
5382		5.859375
5383		-3.906250
5384		1.953125
5385		-5.859375
5386		-1.953125
5387		-9.765625
5388		-5.859375
5389		-13.671875
5390		-7.812500
5391		-15.625000
5392		-11.718750
5393		-19.531250
5394		-13.671875
5395		-23.437500
5396		-17.578125
5397		-25.390625
5398		-21.484375
5399		-29.296875
5400		-23.437500
5401		-31.250000
5402		-27.343750
5403		-33.203125
5404		-29.296875
5405		-37.109375
5406		-33.203125
5407		-39.062500
5408		-35.156250
5409		-42.968750
5410		-37.109375
5411		-44.921875
5412		-39.062500
5413		-46.875000
5414		-42.968750
5415		-48.828125
5416		-44.921875
5417		-52.734375
5418		-46.875000
5419		-52.734375
5420		-48.828125
5421		-54.687500
5422		-50.781250
5423		-56.640625
5424		-50.781250
5425		-58.593750
5426		-54.687500
5427		-58.593750
5428		-54.687500
5429		-60.546875
5430		-54.687500
5431		-60.546875
5432		-56.640625
5433		-60.546875
5434		-58.593750
5435		-62.500000
5436		-58.593750
5437		-62.500000
5438		-60.546875
5439		-64.453125
5440		-58.593750
5441		-62.500000
5442		-60.546875
5443		-62.500000
5444		-60.546875
5445		-62.500000
5446		-60.546875
5447		-62.500000
5448		-58.593750
5449		-62.500000
5450		-58.593750
5451		-60.546875
5452		-56.640625
5453		-60.546875
5454		-56.640625
5455		-58.593750
5456		-56.640625
5457		-58.593750
5458		-54.687500
5459		-56.640625
5460		-52.734375
5461		-56.640625
5462		-50.781250
5463		-54.687500
5464		-50.781250
5465		-52.734375
5466		-48.828125
5467		-48.828125
5468		-44.921875
5469		-48.828125
5470		-44.921875
5471		-46.875000
5472		-41.015625
5473		-42.968750
5474		-39.062500
5475		-41.015625
5476		-37.109375
5477		-39.062500
5478		-33.203125
5479		-35.156250
5480		-31.250000
5481		-33.203125
5482		-29.296875
5483		-29.296875
5484		-25.390625
5485		-27.343750
5486		-23.437500
5487		-23.437500
5488		-19.531250
5489		-21.484375
5490		-15.625000
5491		-19.531250
5492		-13.671875
5493		-15.625000
5494		-9.765625
5495		-11.718750
5496		-7.812500
5497		-7.812500
5498		-3.906250
5499		-5.859375
5500		0.000000
5501		-1.953125
5502		3.906250
5503		0.000000
5504		5.859375
5505		3.906250
5506		9.765625
5507		7.812500
5508		11.718750
5509		11.718750
5510		15.625000
5511		13.671875
5512		19.531250
5513		17.578125
5514		23.437500
5515		21.484375
5516		25.390625
5517		23.437500
5518		29.296875
5519		27.343750
5520		31.250000
5521		29.296875
5522		35.156250
5523		33.203125
5524		37.109375
5525		35.156250
5526		41.015625
5527		39.062500
5528		42.968750
5529		41.015625
5530		44.921875
5531		42.968750
5532		46.875000
5533		44.921875
5534		50.781250
5535		48.828125
5536		52.734375
5537		50.781250
5538		54.687500
5539		52.734375
5540		56.640625
5541		54.687500
5542		58.593750
5543		56.640625
5544		60.546875
5545		58.593750
5546		62.500000
5547		60.546875
5548		62.500000
5549		60.546875
5550		64.453125
5551		62.500000
5552		66.406250
5553		62.500000
5554		66.406250
5555		66.406250
5556		68.359375
5557		66.406250
5558		70.312500
5559		66.406250
5560		70.312500
5561		68.359375
5562		70.312500
5563		68.359375
5564		70.312500
5565		68.359375
5566		70.312500
5567		68.359375
5568		72.265625
5569		68.359375
5570		72.265625
5571		68.359375
5572		70.312500
5573		68.359375
5574		70.312500
5575		66.406250
5576		72.265625
5577		66.406250
5578		70.312500
5579		66.406250
5580		70.312500
5581		64.453125
5582		68.359375
5583		64.453125
5584		68.359375
5585		62.500000
5586		66.406250
5587		62.500000
5588		66.406250
5589		60.546875
5590		64.453125
5591		58.593750
5592		62.500000
5593		56.640625
5594		60.546875
5595		54.687500
5596		58.593750
5597		52.734375
5598		56.640625
5599		50.781250
5600		54.687500
5601		48.828125
5602		54.687500
5603		46.875000
5604		50.781250
5605		44.921875
5606		48.828125
5607		41.015625
5608		44.921875
5609		39.062500
5610		42.968750
5611		37.109375
5612		41.015625
5613		33.203125
5614		39.062500
5615		31.250000
5616		35.156250
5617		27.343750
5618		33.203125
5619		23.437500
5620		29.296875
5621		21.484375
5622		25.390625
5623		17.578125
5624		23.437500
5625		15.625000
5626		19.531250
5627		11.718750
5628		15.625000
5629		7.812500
5630		13.671875
5631		5.859375
5632		9.765625
5633		1.953125
5634		7.812500
5635		-1.953125
5636		3.906250
5637		-3.906250
5638		0.000000
5639		-7.812500
5640		-3.906250
5641		-11.718750
5642		-5.859375
5643		-15.625000
5644		-9.765625
5645		-17.578125
5646		-13.671875
5647		-21.484375
5648		-15.625000
5649		-23.437500
5650		-19.531250
5651		-27.343750
5652		-23.437500
5653		-29.296875
5654		-25.390625
5655		-33.203125
5656		-29.296875
5657		-35.156250
5658		-31.250000
5659		-39.062500
5660		-33.203125
5661		-41.015625
5662		-37.109375
5663		-42.968750
5664		-39.062500
5665		-44.921875
5666		-41.015625
5667		-48.828125
5668		-42.968750
5669		-50.781250
5670		-44.921875
5671		-50.781250
5672		-46.875000
5673		-54.687500
5674		-50.781250
5675		-56.640625
5676		-50.781250
5677		-58.593750
5678		-52.734375
5679		-58.593750
5680		-54.687500
5681		-60.546875
5682		-54.687500
5683		-60.546875
5684		-56.640625
5685		-62.500000
5686		-56.640625
5687		-62.500000
5688		-58.593750
5689		-62.500000
5690		-60.546875
5691		-62.500000
5692		-60.546875
5693		-64.453125
5694		-60.546875
5695		-64.453125
5696		-60.546875
5697		-64.453125
5698		-60.546875
5699		-64.453125
5700		-58.593750
5701		-62.500000
5702		-58.593750
5703		-62.500000
5704		-58.593750
5705		-60.546875
5706		-58.593750
5707		-60.546875
5708		-56.640625
5709		-60.546875
5710		-56.640625
5711		-58.593750
5712		-54.687500
5713		-56.640625
5714		-52.734375
5715		-54.687500
5716		-50.781250
5717		-54.687500
5718		-48.828125
5719		-52.734375
5720		-46.875000
5721		-50.781250
5722		-46.875000
5723		-46.875000
5724		-42.968750
5725		-44.921875
5726		-39.062500
5727		-44.921875
5728		-37.109375
5729		-41.015625
5730		-35.156250
5731		-39.062500
5732		-33.203125
5733		-35.156250
5734		-29.296875
5735		-33.203125
5736		-27.343750
5737		-31.250000
5738		-25.390625
5739		-25.390625
5740		-21.484375
5741		-23.437500
5742		-19.531250
5743		-21.484375
5744		-13.671875
5745		-17.578125
5746		-11.718750
5747		-15.625000
5748		-7.812500
5749		-11.718750
5750		-5.859375
5751		-7.812500
5752		-1.953125
5753		-5.859375
5754		1.953125
5755		-1.953125
5756		3.906250
5757		1.953125
5758		7.812500
5759		5.859375
5760		11.718750
5761		7.812500
5762		15.625000
5763		11.718750
5764		17.578125
5765		13.671875
5766		21.484375
5767		17.578125
5768		23.437500
5769		19.531250
5770		27.343750
5771		23.437500
5772		29.296875
5773		27.343750
5774		31.250000
5775		31.250000
5776		35.156250
5777		33.203125
5778		39.062500
5779		35.156250
5780		41.015625
5781		39.062500
5782		44.921875
5783		41.015625
5784		46.875000
5785		42.968750
5786		48.828125
5787		44.921875
5788		50.781250
5789		48.828125
5790		52.734375
5791		50.781250
5792		54.687500
5793		52.734375
5794		56.640625
5795		54.687500
5796		58.593750
5797		56.640625
5798		60.546875
5799		58.593750
5800		62.500000
5801		60.546875
5802		64.453125
5803		62.500000
5804		64.453125
5805		62.500000
5806		66.406250
5807		64.453125
5808		66.406250
5809		64.453125
5810		68.359375
5811		66.406250
5812		68.359375
5813		66.406250
5814		70.312500
5815		68.359375
5816		70.312500
5817		68.359375
5818		70.312500
5819		68.359375
5820		70.312500
5821		68.359375
5822		72.265625
5823		68.359375
5824		70.312500
5825		68.359375
5826		70.312500
5827		68.359375
5828		70.312500
5829		68.359375
5830		70.312500
5831		66.406250
5832		70.312500
5833		66.406250
5834		68.359375
5835		64.453125
5836		68.359375
5837		64.453125
5838		66.406250
5839		62.500000
5840		66.406250
5841		60.546875
5842		64.453125
5843		60.546875
5844		62.500000
5845		58.593750
5846		60.546875
5847		56.640625
5848		60.546875
5849		54.687500
5850		58.593750
5851		52.734375
5852		56.640625
5853		50.781250
5854		54.687500
5855		48.828125
5856		50.781250
5857		44.921875
5858		48.828125
5859		42.968750
5860		46.875000
5861		41.015625
5862		44.921875
5863		39.062500
5864		42.968750
5865		35.156250
5866		39.062500
5867		33.203125
5868		37.109375
5869		29.296875
5870		33.203125
5871		27.343750
5872		31.250000
5873		23.437500
5874		27.343750
5875		19.531250
5876		25.390625
5877		17.578125
5878		21.484375
5879		13.671875
5880		17.578125
5881		9.765625
5882		15.625000
5883		7.812500
5884		11.718750
5885		3.906250
5886		7.812500
5887		0.000000
5888		5.859375
5889		-1.953125
5890		1.953125
5891		-5.859375
5892		-1.953125
5893		-11.718750
5894		-3.906250
5895		-15.625000
5896		-5.859375
5897		-17.578125
5898		-7.812500
5899		-19.531250
5900		-11.718750
5901		-21.484375
5902		-17.578125
5903		-25.390625
5904		-19.531250
5905		-27.343750
5906		-23.437500
5907		-31.250000
5908		-25.390625
5909		-33.203125
5910		-29.296875
5911		-39.062500
5912		-29.296875
5913		-41.015625
5914		-31.250000
5915		-42.968750
5916		-33.203125
5917		-44.921875
5918		-39.062500
5919		-46.875000
5920		-42.968750
5921		-48.828125
5922		-44.921875
5923		-50.781250
5924		-46.875000
5925		-52.734375
5926		-48.828125
5927		-56.640625
5928		-46.875000
5929		-58.593750
5930		-48.828125
5931		-60.546875
5932		-50.781250
5933		-58.593750
5934		-54.687500
5935		-58.593750
5936		-56.640625
5937		-60.546875
5938		-56.640625
5939		-60.546875
5940		-58.593750
5941		-62.500000
5942		-58.593750
5943		-62.500000
5944		-60.546875
5945		-66.406250
5946		-56.640625
5947		-66.406250
5948		-56.640625
5949		-66.406250
5950		-56.640625
5951		-62.500000
5952		-60.546875
5953		-62.500000
5954		-60.546875
5955		-62.500000
5956		-58.593750
5957		-60.546875
5958		-58.593750
5959		-60.546875
5960		-56.640625
5961		-62.500000
5962		-52.734375
5963		-60.546875
5964		-52.734375
5965		-60.546875
5966		-50.781250
5967		-56.640625
5968		-52.734375
5969		-54.687500
5970		-50.781250
5971		-52.734375
5972		-48.828125
5973		-50.781250
5974		-46.875000
5975		-48.828125
5976		-44.921875
5977		-48.828125
5978		-39.062500
5979		-46.875000
5980		-37.109375
5981		-44.921875
5982		-33.203125
5983		-42.968750
5984		-33.203125
5985		-37.109375
5986		-33.203125
5987		-33.203125
5988		-29.296875
5989		-31.250000
5990		-27.343750
5991		-29.296875
5992		-23.437500
5993		-25.390625
5994		-21.484375
5995		-25.390625
5996		-15.625000
5997		-21.484375
5998		-11.718750
5999		-19.531250
6000		-7.812500
6001		-13.671875
6002		-7.812500
6003		-9.765625
6004		-3.906250
6005		-5.859375
6006		-1.953125
6007		-3.906250
6008		1.953125
6009		0.000000
6010		5.859375
6011		1.953125
6012		11.718750
6013		3.906250
6014		15.625000
6015		7.812500
6016		17.578125
6017		11.718750
6018		17.578125
6019		17.578125
6020		21.484375
6021		19.531250
6022		25.390625
6023		21.484375
6024		27.343750
6025		25.390625
6026		29.296875
6027		29.296875
6028		33.203125
6029		27.343750
6030		39.062500
6031		31.250000
6032		41.015625
6033		35.156250
6034		42.968750
6035		41.015625
6036		44.921875
6037		42.968750
6038		46.875000
6039		44.921875
6040		48.828125
6041		46.875000
6042		50.781250
6043		50.781250
6044		52.734375
6045		48.828125
6046		60.546875
6047		52.734375
6048		60.546875
6049		52.734375
6050		62.500000
6051		58.593750
6052		60.546875
6053		60.546875
6054		62.500000
6055		60.546875
6056		64.453125
6057		62.500000
6058		64.453125
6059		64.453125
6060		66.406250
6061		62.500000
6062		72.265625
6063		62.500000
6064		72.265625
6065		64.453125
6066		72.265625
6067		64.453125
6068		72.265625
6069		68.359375
6070		70.312500
6071		68.359375
6072		70.312500
6073		68.359375
6074		70.312500
6075		68.359375
6076		70.312500
6077		68.359375
6078		70.312500
6079		68.359375
6080		70.312500
6081		64.453125
6082		72.265625
6083		66.406250
6084		70.312500
6085		66.406250
6086		70.312500
6087		66.406250
6088		68.359375
6089		64.453125
6090		68.359375
6091		64.453125
6092		66.406250
6093		62.500000
6094		66.406250
6095		60.546875
6096		64.453125
6097		56.640625
6098		64.453125
6099		54.687500
6100		64.453125
6101		56.640625
6102		60.546875
6103		54.687500
6104		56.640625
6105		52.734375
6106		56.640625
6107		50.781250
6108		52.734375
6109		46.875000
6110		50.781250
6111		44.921875
6112		48.828125
6113		42.968750
6114		46.875000
6115		39.062500
6116		46.875000
6117		37.109375
6118		42.968750
6119		35.156250
6120		39.062500
6121		31.250000
6122		35.156250
6123		29.296875
6124		33.203125
6125		25.390625
6126		29.296875
6127		21.484375
6128		27.343750
6129		19.531250
6130		23.437500
6131		15.625000
6132		19.531250
6133		11.718750
6134		17.578125
6135		9.765625
6136		13.671875
6137		5.859375
6138		11.718750
6139		3.906250
6140		7.812500
6141		0.000000
6142		3.906250
6143		-3.906250
6144		1.953125
6145		-7.812500
6146		-1.953125
6147		-9.765625
6148		-5.859375
6149		-13.671875
6150		-7.812500
6151		-17.578125
6152		-11.718750
6153		-19.531250
6154		-15.625000
6155		-23.437500
6156		-17.578125
6157		-25.390625
6158		-21.484375
6159		-29.296875
6160		-25.390625
6161		-31.250000
6162		-27.343750
6163		-35.156250
6164		-29.296875
6165		-37.109375
6166		-33.203125
6167		-39.062500
6168		-35.156250
6169		-42.968750
6170		-37.109375
6171		-44.921875
6172		-39.062500
6173		-46.875000
6174		-42.968750
6175		-48.828125
6176		-44.921875
6177		-50.781250
6178		-46.875000
6179		-52.734375
6180		-48.828125
6181		-54.687500
6182		-50.781250
6183		-56.640625
6184		-52.734375
6185		-58.593750
6186		-54.687500
6187		-58.593750
6188		-54.687500
6189		-60.546875
6190		-56.640625
6191		-60.546875
6192		-58.593750
6193		-60.546875
6194		-58.593750
6195		-62.500000
6196		-58.593750
6197		-62.500000
6198		-58.593750
6199		-62.500000
6200		-60.546875
6201		-62.500000
6202		-60.546875
6203		-64.453125
6204		-58.593750
6205		-62.500000
6206		-60.546875
6207		-62.500000
6208		-60.546875
6209		-60.546875
6210		-58.593750
6211		-60.546875
6212		-58.593750
6213		-60.546875
6214		-56.640625
6215		-58.593750
6216		-56.640625
6217		-58.593750
6218		-54.687500
6219		-56.640625
6220		-52.734375
6221		-54.687500
6222		-50.781250
6223		-52.734375
6224		-50.781250
6225		-52.734375
6226		-48.828125
6227		-50.781250
6228		-46.875000
6229		-48.828125
6230		-42.968750
6231		-46.875000
6232		-41.015625
6233		-44.921875
6234		-39.062500
6235		-41.015625
6236		-37.109375
6237		-39.062500
6238		-33.203125
6239		-37.109375
6240		-31.250000
6241		-33.203125
6242		-29.296875
6243		-29.296875
6244		-25.390625
6245		-27.343750
6246		-23.437500
6247		-25.390625
6248		-19.531250
6249		-21.484375
6250		-17.578125
6251		-17.578125
6252		-13.671875
6253		-15.625000
6254		-9.765625
6255		-11.718750
6256		-7.812500
6257		-7.812500
6258		-3.906250
6259		-5.859375
6260		0.000000
6261		-1.953125
6262		3.906250
6263		1.953125
6264		7.812500
6265		3.906250
6266		9.765625
6267		7.812500
6268		11.718750
6269		11.718750
6270		15.625000
6271		13.671875
6272		19.531250
6273		17.578125
6274		21.484375
6275		21.484375
6276		25.390625
6277		23.437500
6278		29.296875
6279		27.343750
6280		31.250000
6281		27.343750
6282		35.156250
6283		31.250000
6284		37.109375
6285		35.156250
6286		41.015625
6287		39.062500
6288		42.968750
6289		41.015625
6290		44.921875
6291		42.968750
6292		46.875000
6293		46.875000
6294		50.781250
6295		48.828125
6296		52.734375
6297		48.828125
6298		54.687500
6299		52.734375
6300		56.640625
6301		54.687500
6302		58.593750
6303		56.640625
6304		60.546875
6305		58.593750
6306		62.500000
6307		60.546875
6308		62.500000
6309		62.500000
6310		64.453125
6311		62.500000
6312		66.406250
6313		62.500000
6314		68.359375
6315		64.453125
6316		68.359375
6317		66.406250
6318		68.359375
6319		68.359375
6320		70.312500
6321		66.406250
6322		70.312500
6323		66.406250
6324		72.265625
6325		68.359375
6326		70.312500
6327		68.359375
6328		70.312500
6329		68.359375
6330		70.312500
6331		68.359375
6332		72.265625
6333		68.359375
6334		72.265625
6335		68.359375
6336		70.312500
6337		66.406250
6338		70.312500
6339		66.406250
6340		70.312500
6341		66.406250
6342		68.359375
6343		64.453125
6344		68.359375
6345		62.500000
6346		66.406250
6347		62.500000
6348		66.406250
6349		60.546875
6350		64.453125
6351		58.593750
6352		62.500000
6353		56.640625
6354		60.546875
6355		54.687500
6356		58.593750
6357		52.734375
6358		56.640625
6359		50.781250
6360		54.687500
6361		48.828125
6362		52.734375
6363		46.875000
6364		50.781250
6365		44.921875
6366		48.828125
6367		41.015625
6368		44.921875
6369		39.062500
6370		42.968750
6371		35.156250
6372		41.015625
6373		33.203125
6374		37.109375
6375		29.296875
6376		35.156250
6377		27.343750
6378		31.250000
6379		23.437500
6380		29.296875
6381		21.484375
6382		25.390625
6383		17.578125
6384		21.484375
6385		15.625000
6386		19.531250
6387		11.718750
6388		15.625000
6389		7.812500
6390		13.671875
6391		5.859375
6392		9.765625
6393		1.953125
6394		5.859375
6395		-1.953125
6396		3.906250
6397		-5.859375
6398		0.000000
6399		-7.812500
6400		-3.906250
6401		-11.718750
6402		-5.859375
6403		-15.625000
6404		-9.765625
6405		-17.578125
6406		-13.671875
6407		-21.484375
6408		-15.625000
6409		-23.437500
6410		-19.531250
6411		-27.343750
6412		-21.484375
6413		-29.296875
6414		-25.390625
6415		-33.203125
6416		-29.296875
6417		-35.156250
6418		-31.250000
6419		-39.062500
6420		-35.156250
6421		-41.015625
6422		-37.109375
6423		-42.968750
6424		-39.062500
6425		-44.921875
6426		-41.015625
6427		-46.875000
6428		-44.921875
6429		-50.781250
6430		-44.921875
6431		-50.781250
6432		-46.875000
6433		-52.734375
6434		-50.781250
6435		-54.687500
6436		-50.781250
6437		-56.640625
6438		-52.734375
6439		-58.593750
6440		-54.687500
6441		-58.593750
6442		-56.640625
6443		-60.546875
6444		-56.640625
6445		-60.546875
6446		-58.593750
6447		-62.500000
6448		-58.593750
6449		-62.500000
6450		-60.546875
6451		-62.500000
6452		-60.546875
6453		-62.500000
6454		-60.546875
6455		-62.500000
6456		-60.546875
6457		-62.500000
6458		-60.546875
6459		-62.500000
6460		-60.546875
6461		-62.500000
6462		-60.546875
6463		-62.500000
6464		-58.593750
6465		-60.546875
6466		-58.593750
6467		-60.546875
6468		-56.640625
6469		-58.593750
6470		-56.640625
6471		-56.640625
6472		-54.687500
6473		-56.640625
6474		-52.734375
6475		-54.687500
6476		-50.781250
6477		-52.734375
6478		-48.828125
6479		-50.781250
6480		-46.875000
6481		-48.828125
6482		-42.968750
6483		-46.875000
6484		-42.968750
6485		-44.921875
6486		-41.015625
6487		-42.968750
6488		-39.062500
6489		-39.062500
6490		-35.156250
6491		-37.109375
6492		-33.203125
6493		-35.156250
6494		-29.296875
6495		-31.250000
6496		-27.343750
6497		-29.296875
6498		-23.437500
6499		-25.390625
6500		-21.484375
6501		-23.437500
6502		-17.578125
6503		-19.531250
6504		-15.625000
6505		-15.625000
6506		-11.718750
6507		-13.671875
6508		-9.765625
6509		-9.765625
6510		-5.859375
6511		-7.812500
6512		-1.953125
6513		-3.906250
6514		1.953125
6515		0.000000
6516		5.859375
6517		1.953125
6518		9.765625
6519		5.859375
6520		9.765625
6521		9.765625
6522		13.671875
6523		11.718750
6524		17.578125
6525		15.625000
6526		21.484375
6527		19.531250
6528		23.437500
6529		21.484375
6530		27.343750
6531		25.390625
6532		29.296875
6533		25.390625
6534		35.156250
6535		29.296875
6536		35.156250
6537		35.156250
6538		39.062500
6539		37.109375
6540		41.015625
6541		39.062500
6542		42.968750
6543		42.968750
6544		46.875000
6545		44.921875
6546		48.828125
6547		46.875000
6548		50.781250
6549		48.828125
6550		54.687500
6551		50.781250
6552		56.640625
6553		54.687500
6554		56.640625
6555		56.640625
6556		58.593750
6557		56.640625
6558		60.546875
6559		58.593750
6560		62.500000
6561		60.546875
6562		64.453125
6563		62.500000
6564		64.453125
6565		62.500000
6566		70.312500
6567		62.500000
6568		70.312500
6569		64.453125
6570		68.359375
6571		66.406250
6572		70.312500
6573		68.359375
6574		70.312500
6575		68.359375
6576		70.312500
6577		68.359375
6578		70.312500
6579		68.359375
6580		70.312500
6581		68.359375
6582		72.265625
6583		66.406250
6584		72.265625
6585		66.406250
6586		72.265625
6587		68.359375
6588		70.312500
6589		68.359375
6590		70.312500
6591		66.406250
6592		70.312500
6593		66.406250
6594		68.359375
6595		64.453125
6596		68.359375
6597		64.453125
6598		66.406250
6599		60.546875
6600		66.406250
6601		60.546875
6602		66.406250
6603		60.546875
6604		62.500000
6605		58.593750
6606		62.500000
6607		56.640625
6608		60.546875
6609		54.687500
6610		58.593750
6611		52.734375
6612		56.640625
6613		50.781250
6614		54.687500
6615		48.828125
6616		52.734375
6617		44.921875
6618		50.781250
6619		42.968750
6620		48.828125
6621		41.015625
6622		44.921875
6623		37.109375
6624		42.968750
6625		35.156250
6626		39.062500
6627		33.203125
6628		37.109375
6629		29.296875
6630		33.203125
6631		27.343750
6632		31.250000
6633		21.484375
6634		27.343750
6635		19.531250
6636		25.390625
6637		17.578125
6638		21.484375
6639		13.671875
6640		17.578125
6641		9.765625
6642		15.625000
6643		7.812500
6644		11.718750
6645		3.906250
6646		7.812500
6647		0.000000
6648		5.859375
6649		-3.906250
6650		1.953125
6651		-7.812500
6652		0.000000
6653		-9.765625
6654		-1.953125
6655		-11.718750
6656		-7.812500
6657		-15.625000
6658		-9.765625
6659		-17.578125
6660		-13.671875
6661		-21.484375
6662		-17.578125
6663		-25.390625
6664		-21.484375
6665		-27.343750
6666		-23.437500
6667		-31.250000
6668		-25.390625
6669		-33.203125
6670		-27.343750
6671		-37.109375
6672		-31.250000
6673		-39.062500
6674		-35.156250
6675		-41.015625
6676		-37.109375
6677		-42.968750
6678		-39.062500
6679		-46.875000
6680		-42.968750
6681		-48.828125
6682		-44.921875
6683		-52.734375
6684		-46.875000
6685		-54.687500
6686		-46.875000
6687		-54.687500
6688		-50.781250
6689		-54.687500
6690		-52.734375
6691		-56.640625
6692		-54.687500
6693		-58.593750
6694		-54.687500
6695		-60.546875
6696		-56.640625
6697		-60.546875
6698		-58.593750
6699		-60.546875
6700		-58.593750
6701		-62.500000
6702		-58.593750
6703		-62.500000
6704		-60.546875
6705		-62.500000
6706		-60.546875
6707		-62.500000
6708		-60.546875
6709		-62.500000
6710		-60.546875
6711		-62.500000
6712		-60.546875
6713		-62.500000
6714		-60.546875
6715		-62.500000
6716		-58.593750
6717		-62.500000
6718		-58.593750
6719		-60.546875
6720		-56.640625
6721		-60.546875
6722		-56.640625
6723		-58.593750
6724		-54.687500
6725		-56.640625
6726		-54.687500
6727		-56.640625
6728		-52.734375
6729		-54.687500
6730		-50.781250
6731		-52.734375
6732		-48.828125
6733		-50.781250
6734		-46.875000
6735		-48.828125
6736		-44.921875
6737		-46.875000
6738		-42.968750
6739		-42.968750
6740		-41.015625
6741		-41.015625
6742		-37.109375
6743		-39.062500
6744		-35.156250
6745		-37.109375
6746		-33.203125
6747		-33.203125
6748		-29.296875
6749		-31.250000
6750		-25.390625
6751		-27.343750
6752		-23.437500
6753		-25.390625
6754		-21.484375
6755		-21.484375
6756		-17.578125
6757		-19.531250
6758		-13.671875
6759		-15.625000
6760		-11.718750
6761		-13.671875
6762		-7.812500
6763		-9.765625
6764		-3.906250
6765		-5.859375
6766		-1.953125
6767		-1.953125
6768		1.953125
6769		0.000000
6770		5.859375
6771		3.906250
6772		7.812500
6773		7.812500
6774		11.718750
6775		9.765625
6776		15.625000
6777		13.671875
6778		17.578125
6779		17.578125
6780		21.484375
6781		19.531250
6782		25.390625
6783		23.437500
6784		27.343750
6785		25.390625
6786		31.250000
6787		29.296875
6788		33.203125
6789		31.250000
6790		37.109375
6791		35.156250
6792		39.062500
6793		37.109375
6794		41.015625
6795		39.062500
6796		44.921875
6797		42.968750
6798		46.875000
6799		44.921875
6800		48.828125
6801		48.828125
6802		50.781250
6803		50.781250
6804		54.687500
6805		52.734375
6806		56.640625
6807		54.687500
6808		58.593750
6809		56.640625
6810		58.593750
6811		58.593750
6812		60.546875
6813		60.546875
6814		62.500000
6815		60.546875
6816		64.453125
6817		62.500000
6818		66.406250
6819		64.453125
6820		66.406250
6821		64.453125
6822		68.359375
6823		66.406250
6824		68.359375
6825		66.406250
6826		70.312500
6827		68.359375
6828		70.312500
6829		68.359375
6830		70.312500
6831		68.359375
6832		70.312500
6833		68.359375
6834		70.312500
6835		68.359375
6836		70.312500
6837		68.359375
6838		70.312500
6839		68.359375
6840		70.312500
6841		68.359375
6842		70.312500
6843		68.359375
6844		70.312500
6845		66.406250
6846		70.312500
6847		66.406250
6848		68.359375
6849		64.453125
6850		68.359375
6851		64.453125
6852		66.406250
6853		62.500000
6854		66.406250
6855		60.546875
6856		64.453125
6857		60.546875
6858		62.500000
6859		58.593750
6860		60.546875
6861		56.640625
6862		58.593750
6863		54.687500
6864		58.593750
6865		52.734375
6866		56.640625
6867		48.828125
6868		52.734375
6869		46.875000
6870		50.781250
6871		44.921875
6872		48.828125
6873		42.968750
6874		46.875000
6875		41.015625
6876		44.921875
6877		37.109375
6878		41.015625
6879		35.156250
6880		39.062500
6881		31.250000
6882		35.156250
6883		29.296875
6884		33.203125
6885		25.390625
6886		31.250000
6887		23.437500
6888		27.343750
6889		19.531250
6890		23.437500
6891		15.625000
6892		21.484375
6893		13.671875
6894		17.578125
6895		9.765625
6896		15.625000
6897		5.859375
6898		11.718750
6899		3.906250
6900		7.812500
6901		0.000000
6902		3.906250
6903		-3.906250
6904		1.953125
6905		-5.859375
6906		-1.953125
6907		-9.765625
6908		-5.859375
6909		-13.671875
6910		-7.812500
6911		-17.578125
6912		-11.718750
6913		-19.531250
6914		-15.625000
6915		-21.484375
6916		-17.578125
6917		-25.390625
6918		-21.484375
6919		-29.296875
6920		-25.390625
6921		-31.250000
6922		-27.343750
6923		-35.156250
6924		-29.296875
6925		-37.109375
6926		-33.203125
6927		-39.062500
6928		-35.156250
6929		-41.015625
6930		-37.109375
6931		-44.921875
6932		-41.015625
6933		-46.875000
6934		-42.968750
6935		-48.828125
6936		-44.921875
6937		-50.781250
6938		-46.875000
6939		-52.734375
6940		-48.828125
6941		-54.687500
6942		-50.781250
6943		-56.640625
6944		-52.734375
6945		-56.640625
6946		-52.734375
6947		-58.593750
6948		-54.687500
6949		-58.593750
6950		-56.640625
6951		-60.546875
6952		-56.640625
6953		-60.546875
6954		-58.593750
6955		-62.500000
6956		-58.593750
6957		-62.500000
6958		-60.546875
6959		-62.500000
6960		-60.546875
6961		-62.500000
6962		-60.546875
6963		-62.500000
6964		-60.546875
6965		-62.500000
6966		-60.546875
6967		-62.500000
6968		-60.546875
6969		-62.500000
6970		-58.593750
6971		-60.546875
6972		-58.593750
6973		-60.546875
6974		-56.640625
6975		-58.593750
6976		-56.640625
6977		-58.593750
6978		-54.687500
6979		-56.640625
6980		-52.734375
6981		-54.687500
6982		-50.781250
6983		-52.734375
6984		-50.781250
6985		-50.781250
6986		-46.875000
6987		-50.781250
6988		-46.875000
6989		-46.875000
6990		-42.968750
6991		-44.921875
6992		-41.015625
6993		-42.968750
6994		-39.062500
6995		-41.015625
6996		-37.109375
6997		-37.109375
6998		-33.203125
6999		-35.156250
7000		-31.250000
7001		-33.203125
7002		-29.296875
7003		-29.296875
7004		-25.390625
7005		-27.343750
7006		-21.484375
7007		-23.437500
7008		-19.531250
7009		-19.531250
7010		-15.625000
7011		-17.578125
7012		-13.671875
7013		-13.671875
7014		-9.765625
7015		-11.718750
7016		-5.859375
7017		-7.812500
7018		-3.906250
7019		-3.906250
7020		0.000000
7021		-1.953125
7022		3.906250
7023		1.953125
7024		5.859375
7025		5.859375
7026		9.765625
7027		7.812500
7028		13.671875
7029		11.718750
7030		15.625000
7031		15.625000
7032		19.531250
7033		17.578125
7034		23.437500
7035		21.484375
7036		25.390625
7037		23.437500
7038		29.296875
7039		27.343750
7040		31.250000
7041		31.250000
7042		35.156250
7043		33.203125
7044		37.109375
7045		35.156250
7046		41.015625
7047		39.062500
7048		42.968750
7049		41.015625
7050		44.921875
7051		44.921875
7052		48.828125
7053		46.875000
7054		50.781250
7055		48.828125
7056		52.734375
7057		50.781250
7058		54.687500
7059		52.734375
7060		56.640625
7061		54.687500
7062		58.593750
7063		56.640625
7064		60.546875
7065		58.593750
7066		62.500000
7067		60.546875
7068		64.453125
7069		62.500000
7070		66.406250
7071		64.453125
7072		66.406250
7073		64.453125
7074		66.406250
7075		66.406250
7076		68.359375
7077		66.406250
7078		68.359375
7079		68.359375
7080		70.312500
7081		68.359375
7082		70.312500
7083		68.359375
7084		70.312500
7085		68.359375
7086		70.312500
7087		68.359375
7088		72.265625
7089		68.359375
7090		72.265625
7091		68.359375
7092		72.265625
7093		68.359375
7094		70.312500
7095		68.359375
7096		70.312500
7097		68.359375
7098		70.312500
7099		66.406250
7100		70.312500
7101		66.406250
7102		68.359375
7103		64.453125
7104		68.359375
7105		64.453125
7106		66.406250
7107		62.500000
7108		64.453125
7109		60.546875
7110		64.453125
7111		58.593750
7112		62.500000
7113		56.640625
7114		60.546875
7115		54.687500
7116		58.593750
7117		52.734375
7118		56.640625
7119		50.781250
7120		54.687500
7121		48.828125
7122		52.734375
7123		46.875000
7124		50.781250
7125		44.921875
7126		48.828125
7127		41.015625
7128		44.921875
7129		39.062500
7130		42.968750
7131		37.109375
7132		41.015625
7133		33.203125
7134		37.109375
7135		31.250000
7136		35.156250
7137		27.343750
7138		31.250000
7139		23.437500
7140		29.296875
7141		21.484375
7142		25.390625
7143		17.578125
7144		23.437500
7145		15.625000
7146		19.531250
7147		11.718750
7148		17.578125
7149		7.812500
7150		13.671875
7151		5.859375
7152		9.765625
7153		1.953125
7154		5.859375
7155		-1.953125
7156		3.906250
7157		-3.906250
7158		0.000000
7159		-7.812500
7160		-3.906250
7161		-11.718750
7162		-5.859375
7163		-13.671875
7164		-9.765625
7165		-17.578125
7166		-13.671875
7167		-19.531250
7168		-15.625000
7169		-23.437500
7170		-19.531250
7171		-27.343750
7172		-21.484375
7173		-29.296875
7174		-25.390625
7175		-33.203125
7176		-27.343750
7177		-35.156250
7178		-31.250000
7179		-37.109375
7180		-33.203125
7181		-41.015625
7182		-37.109375
7183		-42.968750
7184		-39.062500
7185		-44.921875
7186		-41.015625
7187		-46.875000
7188		-42.968750
7189		-48.828125
7190		-44.921875
7191		-50.781250
7192		-48.828125
7193		-52.734375
7194		-48.828125
7195		-54.687500
7196		-50.781250
7197		-56.640625
7198		-52.734375
7199		-56.640625
7200		-54.687500
7201		-58.593750
7202		-56.640625
7203		-60.546875
7204		-56.640625
7205		-60.546875
7206		-58.593750
7207		-60.546875
7208		-58.593750
7209		-62.500000
7210		-58.593750
7211		-62.500000
7212		-60.546875
7213		-62.500000
7214		-60.546875
7215		-62.500000
7216		-60.546875
7217		-62.500000
7218		-60.546875
7219		-62.500000
7220		-58.593750
7221		-62.500000
7222		-58.593750
7223		-60.546875
7224		-58.593750
7225		-60.546875
7226		-58.593750
7227		-58.593750
7228		-56.640625
7229		-58.593750
7230		-56.640625
7231		-56.640625
7232		-54.687500
7233		-56.640625
7234		-52.734375
7235		-54.687500
7236		-50.781250
7237		-52.734375
7238		-48.828125
7239		-50.781250
7240		-46.875000
7241		-48.828125
7242		-44.921875
7243		-46.875000
7244		-42.968750
7245		-44.921875
7246		-41.015625
7247		-42.968750
7248		-39.062500
7249		-39.062500
7250		-35.156250
7251		-37.109375
7252		-33.203125
7253		-35.156250
7254		-29.296875
7255		-31.250000
7256		-27.343750
7257		-29.296875
7258		-23.437500
7259		-25.390625
7260		-21.484375
7261		-23.437500
7262		-17.578125
7263		-19.531250
7264		-15.625000
7265		-17.578125
7266		-11.718750
7267		-13.671875
7268		-7.812500
7269		-9.765625
7270		-5.859375
7271		-5.859375
7272		-1.953125
7273		-3.906250
7274		1.953125
7275		0.000000
7276		3.906250
7277		3.906250
7278		7.812500
7279		5.859375
7280		11.718750
7281		9.765625
7282		13.671875
7283		13.671875
7284		17.578125
7285		15.625000
7286		21.484375
7287		19.531250
7288		23.437500
7289		21.484375
7290		27.343750
7291		25.390625
7292		29.296875
7293		29.296875
7294		33.203125
7295		31.250000
7296		35.156250
7297		35.156250
7298		39.062500
7299		37.109375
7300		41.015625
7301		39.062500
7302		44.921875
7303		42.968750
7304		46.875000
7305		44.921875
7306		48.828125
7307		46.875000
7308		52.734375
7309		48.828125
7310		52.734375
7311		52.734375
7312		54.687500
7313		54.687500
7314		56.640625
7315		56.640625
7316		58.593750
7317		58.593750
7318		60.546875
7319		58.593750
7320		62.500000
7321		60.546875
7322		64.453125
7323		62.500000
7324		66.406250
7325		64.453125
7326		66.406250
7327		64.453125
7328		68.359375
7329		66.406250
7330		68.359375
7331		66.406250
7332		70.312500
7333		68.359375
7334		70.312500
7335		68.359375
7336		70.312500
7337		68.359375
7338		70.312500
7339		68.359375
7340		72.265625
7341		68.359375
7342		72.265625
7343		68.359375
7344		72.265625
7345		68.359375
7346		72.265625
7347		68.359375
7348		70.312500
7349		68.359375
7350		70.312500
7351		66.406250
7352		70.312500
7353		66.406250
7354		68.359375
7355		64.453125
7356		68.359375
7357		64.453125
7358		66.406250
7359		62.500000
7360		66.406250
7361		62.500000
7362		64.453125
7363		60.546875
7364		64.453125
7365		58.593750
7366		62.500000
7367		56.640625
7368		60.546875
7369		54.687500
7370		58.593750
7371		52.734375
7372		56.640625
7373		50.781250
7374		54.687500
7375		48.828125
7376		52.734375
7377		46.875000
7378		50.781250
7379		42.968750
7380		46.875000
7381		41.015625
7382		44.921875
7383		39.062500
7384		42.968750
7385		35.156250
7386		39.062500
7387		33.203125
7388		37.109375
7389		29.296875
7390		33.203125
7391		27.343750
7392		31.250000
7393		23.437500
7394		27.343750
7395		21.484375
7396		25.390625
7397		17.578125
7398		21.484375
7399		13.671875
7400		19.531250
7401		11.718750
7402		15.625000
7403		7.812500
7404		11.718750
7405		3.906250
7406		9.765625
7407		0.000000
7408		5.859375
7409		-1.953125
7410		1.953125
7411		-5.859375
7412		-1.953125
7413		-9.765625
7414		-3.906250
7415		-11.718750
7416		-7.812500
7417		-15.625000
7418		-9.765625
7419		-17.578125
7420		-13.671875
7421		-21.484375
7422		-17.578125
7423		-25.390625
7424		-19.531250
7425		-27.343750
7426		-23.437500
7427		-29.296875
7428		-25.390625
7429		-33.203125
7430		-29.296875
7431		-37.109375
7432		-33.203125
7433		-39.062500
7434		-35.156250
7435		-41.015625
7436		-37.109375
7437		-42.968750
7438		-39.062500
7439		-44.921875
7440		-42.968750
7441		-48.828125
7442		-44.921875
7443		-50.781250
7444		-46.875000
7445		-52.734375
7446		-48.828125
7447		-54.687500
7448		-50.781250
7449		-54.687500
7450		-52.734375
7451		-56.640625
7452		-52.734375
7453		-58.593750
7454		-54.687500
7455		-58.593750
7456		-56.640625
7457		-60.546875
7458		-56.640625
7459		-60.546875
7460		-58.593750
7461		-62.500000
7462		-58.593750
7463		-62.500000
7464		-60.546875
7465		-62.500000
7466		-60.546875
7467		-62.500000
7468		-60.546875
7469		-62.500000
7470		-60.546875
7471		-62.500000
7472		-60.546875
7473		-62.500000
7474		-58.593750
7475		-62.500000
7476		-58.593750
7477		-60.546875
7478		-58.593750
7479		-60.546875
7480		-56.640625
7481		-58.593750
7482		-56.640625
7483		-58.593750
7484		-54.687500
7485		-56.640625
7486		-52.734375
7487		-54.687500
7488		-52.734375
7489		-52.734375
7490		-50.781250
7491		-52.734375
7492		-48.828125
7493		-50.781250
7494		-46.875000
7495		-48.828125
7496		-44.921875
7497		-46.875000
7498		-42.968750
7499		-42.968750
7500		-39.062500
7501		-41.015625
7502		-37.109375
7503		-39.062500
7504		-35.156250
7505		-35.156250
7506		-31.250000
7507		-33.203125
7508		-29.296875
7509		-29.296875
7510		-25.390625
7511		-27.343750
7512		-23.437500
7513		-25.390625
7514		-19.531250
7515		-21.484375
7516		-17.578125
7517		-17.578125
7518		-13.671875
7519		-15.625000
7520		-9.765625
7521		-11.718750
7522		-7.812500
7523		-7.812500
7524		-3.906250
7525		-5.859375
7526		0.000000
7527		-1.953125
7528		1.953125
7529		1.953125
7530		5.859375
7531		3.906250
7532		7.812500
7533		7.812500
7534		11.718750
7535		11.718750
7536		15.625000
7537		13.671875
7538		19.531250
7539		17.578125
7540		21.484375
7541		19.531250
7542		25.390625
7543		23.437500
7544		29.296875
7545		25.390625
7546		31.250000
7547		29.296875
7548		33.203125
7549		31.250000
7550		37.109375
7551		35.156250
7552		39.062500
7553		37.109375
7554		42.968750
7555		41.015625
7556		44.921875
7557		42.968750
7558		46.875000
7559		44.921875
7560		50.781250
7561		46.875000
7562		54.687500
7563		48.828125
7564		54.687500
7565		52.734375
7566		56.640625
7567		52.734375
7568		58.593750
7569		54.687500
7570		62.500000
7571		58.593750
7572		62.500000
7573		60.546875
7574		62.500000
7575		60.546875
7576		64.453125
7577		62.500000
7578		66.406250
7579		64.453125
7580		68.359375
7581		66.406250
7582		68.359375
7583		66.406250
7584		72.265625
7585		68.359375
7586		70.312500
7587		66.406250
7588		72.265625
7589		68.359375
7590		70.312500
7591		68.359375
7592		72.265625
7593		68.359375
7594		74.218750
7595		66.406250
7596		72.265625
7597		68.359375
7598		72.265625
7599		66.406250
7600		72.265625
7601		68.359375
7602		70.312500
7603		66.406250
7604		72.265625
7605		66.406250
7606		70.312500
7607		66.406250
7608		68.359375
7609		64.453125
7610		68.359375
7611		62.500000
7612		70.312500
7613		62.500000
7614		66.406250
7615		60.546875
7616		64.453125
7617		58.593750
7618		64.453125
7619		54.687500
7620		62.500000
7621		56.640625
7622		60.546875
7623		54.687500
7624		56.640625
7625		50.781250
7626		54.687500
7627		48.828125
7628		54.687500
7629		46.875000
7630		52.734375
7631		44.921875
7632		48.828125
7633		39.062500
7634		48.828125
7635		39.062500
7636		46.875000
7637		37.109375
7638		44.921875
7639		35.156250
7640		39.062500
7641		31.250000
7642		35.156250
7643		25.390625
7644		33.203125
7645		25.390625
7646		31.250000
7647		21.484375
7648		27.343750
7649		19.531250
7650		23.437500
7651		15.625000
7652		23.437500
7653		9.765625
7654		17.578125
7655		9.765625
7656		13.671875
7657		5.859375
7658		11.718750
7659		1.953125
7660		7.812500
7661		-3.906250
7662		7.812500
7663		-3.906250
7664		1.953125
7665		-7.812500
7666		-1.953125
7667		-13.671875
7668		-3.906250
7669		-13.671875
7670		-7.812500
7671		-17.578125
7672		-7.812500
7673		-19.531250
7674		-15.625000
7675		-23.437500
7676		-17.578125
7677		-29.296875
7678		-19.531250
7679		-31.250000
7680		-23.437500
7681		-31.250000
7682		-27.343750
7683		-37.109375
7684		-29.296875
7685		-39.062500
7686		-29.296875
7687		-42.968750
7688		-33.203125
7689		-41.015625
7690		-39.062500
7691		-44.921875
7692		-39.062500
7693		-48.828125
7694		-42.968750
7695		-50.781250
7696		-41.015625
7697		-50.781250
7698		-44.921875
7699		-52.734375
7700		-48.828125
7701		-58.593750
7702		-46.875000
7703		-58.593750
7704		-50.781250
7705		-56.640625
7706		-52.734375
7707		-58.593750
7708		-54.687500
7709		-60.546875
7710		-56.640625
7711		-64.453125
7712		-54.687500
7713		-62.500000
7714		-56.640625
7715		-60.546875
7716		-58.593750
7717		-64.453125
7718		-56.640625
7719		-66.406250
7720		-56.640625
7721		-64.453125
7722		-56.640625
7723		-62.500000
7724		-60.546875
7725		-62.500000
7726		-60.546875
7727		-62.500000
7728		-56.640625
7729		-64.453125
7730		-56.640625
7731		-60.546875
7732		-58.593750
7733		-60.546875
7734		-54.687500
7735		-60.546875
7736		-52.734375
7737		-58.593750
7738		-50.781250
7739		-56.640625
7740		-52.734375
7741		-54.687500
7742		-50.781250
7743		-52.734375
7744		-48.828125
7745		-52.734375
7746		-44.921875
7747		-50.781250
7748		-44.921875
7749		-46.875000
7750		-42.968750
7751		-46.875000
7752		-37.109375
7753		-44.921875
7754		-37.109375
7755		-42.968750
7756		-35.156250
7757		-37.109375
7758		-33.203125
7759		-35.156250
7760		-29.296875
7761		-33.203125
7762		-25.390625
7763		-31.250000
7764		-23.437500
7765		-25.390625
7766		-21.484375
7767		-23.437500
7768		-15.625000
7769		-23.437500
7770		-13.671875
7771		-17.578125
7772		-9.765625
7773		-13.671875
7774		-9.765625
7775		-11.718750
7776		-5.859375
7777		-7.812500
7778		0.000000
7779		-5.859375
7780		1.953125
7781		-1.953125
7782		3.906250
7783		1.953125
7784		7.812500
7785		3.906250
7786		13.671875
7787		7.812500
7788		13.671875
7789		11.718750
7790		17.578125
7791		15.625000
7792		19.531250
7793		17.578125
7794		23.437500
7795		21.484375
7796		29.296875
7797		23.437500
7798		29.296875
7799		27.343750
7800		33.203125
7801		29.296875
7802		39.062500
7803		29.296875
7804		39.062500
7805		35.156250
7806		41.015625
7807		39.062500
7808		42.968750
7809		41.015625
7810		44.921875
7811		42.968750
7812		48.828125
7813		44.921875
7814		52.734375
7815		48.828125
7816		52.734375
7817		50.781250
7818		56.640625
7819		50.781250
7820		56.640625
7821		52.734375
7822		62.500000
7823		56.640625
7824		60.546875
7825		58.593750
7826		62.500000
7827		60.546875
7828		64.453125
7829		60.546875
7830		68.359375
7831		62.500000
7832		68.359375
7833		64.453125
7834		68.359375
7835		64.453125
7836		70.312500
7837		66.406250
7838		70.312500
7839		66.406250
7840		70.312500
7841		68.359375
7842		70.312500
7843		68.359375
7844		70.312500
7845		68.359375
7846		72.265625
7847		68.359375
7848		74.218750
7849		70.312500
7850		72.265625
7851		66.406250
7852		74.218750
7853		68.359375
7854		72.265625
7855		68.359375
7856		70.312500
7857		68.359375
7858		70.312500
7859		66.406250
7860		70.312500
7861		66.406250
7862		68.359375
7863		64.453125
7864		68.359375
7865		64.453125
7866		66.406250
7867		62.500000
7868		66.406250
7869		60.546875
7870		64.453125
7871		58.593750
7872		62.500000
7873		56.640625
7874		62.500000
7875		54.687500
7876		58.593750
7877		52.734375
7878		56.640625
7879		50.781250
7880		54.687500
7881		48.828125
7882		52.734375
7883		46.875000
7884		50.781250
7885		44.921875
7886		48.828125
7887		41.015625
7888		44.921875
7889		39.062500
7890		42.968750
7891		37.109375
7892		41.015625
7893		33.203125
7894		37.109375
7895		29.296875
7896		35.156250
7897		27.343750
7898		33.203125
7899		23.437500
7900		29.296875
7901		21.484375
7902		27.343750
7903		17.578125
7904		23.437500
7905		13.671875
7906		21.484375
7907		11.718750
7908		17.578125
7909		7.812500
7910		13.671875
7911		5.859375
7912		9.765625
7913		1.953125
7914		7.812500
7915		-1.953125
7916		3.906250
7917		-5.859375
7918		1.953125
7919		-9.765625
7920		-1.953125
7921		-11.718750
7922		-5.859375
7923		-13.671875
7924		-9.765625
7925		-17.578125
7926		-13.671875
7927		-21.484375
7928		-15.625000
7929		-25.390625
7930		-17.578125
7931		-27.343750
7932		-21.484375
7933		-31.250000
7934		-23.437500
7935		-33.203125
7936		-27.343750
7937		-37.109375
7938		-29.296875
7939		-37.109375
7940		-33.203125
7941		-41.015625
7942		-37.109375
7943		-42.968750
7944		-39.062500
7945		-44.921875
7946		-41.015625
7947		-48.828125
7948		-42.968750
7949		-50.781250
7950		-44.921875
7951		-52.734375
7952		-46.875000
7953		-52.734375
7954		-48.828125
7955		-56.640625
7956		-50.781250
7957		-56.640625
7958		-50.781250
7959		-56.640625
7960		-54.687500
7961		-60.546875
7962		-54.687500
7963		-60.546875
7964		-54.687500
7965		-60.546875
7966		-56.640625
7967		-64.453125
7968		-56.640625
7969		-62.500000
7970		-58.593750
7971		-62.500000
7972		-58.593750
7973		-64.453125
7974		-58.593750
7975		-62.500000
7976		-60.546875
7977		-62.500000
7978		-60.546875
7979		-62.500000
7980		-58.593750
7981		-62.500000
7982		-58.593750
7983		-62.500000
7984		-56.640625
7985		-62.500000
7986		-56.640625
7987		-60.546875
7988		-54.687500
7989		-58.593750
7990		-54.687500
7991		-58.593750
7992		-54.687500
7993		-54.687500
7994		-52.734375
7995		-54.687500
7996		-50.781250
7997		-52.734375
7998		-46.875000
7999		-50.781250
8000		-46.875000
8001		-50.781250
8002		-42.968750
8003		-46.875000
8004		-42.968750
8005		-44.921875
8006		-39.062500
8007		-42.968750
8008		-37.109375
8009		-39.062500
8010		-35.156250
8011		-37.109375
8012		-31.250000
8013		-35.156250
8014		-29.296875
8015		-31.250000
8016		-27.343750
8017		-29.296875
8018		-21.484375
8019		-25.390625
8020		-21.484375
8021		-23.437500
8022		-17.578125
8023		-19.531250
8024		-13.671875
8025		-15.625000
8026		-11.718750
8027		-13.671875
8028		-7.812500
8029		-9.765625
8030		-3.906250
8031		-5.859375
8032		-1.953125
8033		-3.906250
8034		1.953125
8035		-1.953125
8036		3.906250
8037		3.906250
8038		7.812500
8039		5.859375
8040		11.718750
8041		9.765625
8042		13.671875
8043		13.671875
8044		17.578125
8045		15.625000
8046		21.484375
8047		19.531250
8048		23.437500
8049		21.484375
8050		27.343750
8051		25.390625
8052		31.250000
8053		27.343750
8054		33.203125
8055		31.250000
8056		37.109375
8057		33.203125
8058		39.062500
8059		37.109375
8060		41.015625
8061		39.062500
8062		42.968750
8063		41.015625
8064		46.875000
8065		44.921875
8066		48.828125
8067		46.875000
8068		50.781250
8069		46.875000
8070		54.687500
8071		50.781250
8072		56.640625
8073		52.734375
8074		58.593750
8075		54.687500
8076		58.593750
8077		58.593750
8078		60.546875
8079		58.593750
8080		62.500000
8081		60.546875
8082		64.453125
8083		62.500000
8084		66.406250
8085		64.453125
8086		68.359375
8087		64.453125
8088		68.359375
8089		66.406250
8090		68.359375
8091		66.406250
8092		70.312500
8093		68.359375
8094		70.312500
8095		68.359375
8096		72.265625
8097		68.359375
8098		72.265625
8099		68.359375
8100		72.265625
8101		68.359375
8102		74.218750
8103		68.359375
8104		72.265625
8105		68.359375
8106		72.265625
8107		68.359375
8108		72.265625
8109		68.359375
8110		70.312500
8111		68.359375
8112		70.312500
8113		66.406250
8114		70.312500
8115		64.453125
8116		68.359375
8117		64.453125
8118		68.359375
8119		62.500000
8120		66.406250
8121		60.546875
8122		66.406250
8123		60.546875
8124		64.453125
8125		58.593750
8126		62.500000
8127		56.640625
8128		60.546875
8129		52.734375
8130		58.593750
8131		52.734375
8132		56.640625
8133		50.781250
8134		54.687500
8135		48.828125
8136		52.734375
8137		44.921875
8138		50.781250
8139		42.968750
8140		46.875000
8141		41.015625
8142		44.921875
8143		37.109375
8144		42.968750
8145		35.156250
8146		39.062500
8147		33.203125
8148		37.109375
8149		29.296875
8150		35.156250
8151		27.343750
8152		31.250000
8153		23.437500
8154		27.343750
8155		19.531250
8156		25.390625
8157		15.625000
8158		21.484375
8159		11.718750
8160		19.531250
8161		11.718750
8162		15.625000
8163		7.812500
8164		11.718750
8165		3.906250
8166		7.812500
8167		0.000000
8168		5.859375
8169		-3.906250
8170		1.953125
8171		-5.859375
8172		0.000000
8173		-9.765625
8174		-3.906250
8175		-11.718750
8176		-7.812500
8177		-15.625000
8178		-11.718750
8179		-19.531250
8180		-13.671875
8181		-21.484375
8182		-17.578125
8183		-25.390625
8184		-19.531250
8185		-27.343750
8186		-23.437500
8187		-31.250000
8188		-25.390625
8189		-33.203125
8190		-29.296875
8191		-37.109375
8192		-31.250000
8193		-39.062500
8194		-35.156250
8195		-41.015625
8196		-37.109375
8197		-42.968750
8198		-39.062500
8199		-44.921875
8200		-41.015625
8201		-48.828125
8202		-42.968750
8203		-50.781250
8204		-46.875000
8205		-52.734375
8206		-46.875000
8207		-54.687500
8208		-48.828125
8209		-54.687500
8210		-50.781250
8211		-56.640625
8212		-52.734375
8213		-58.593750
8214		-54.687500
8215		-60.546875
8216		-54.687500
8217		-60.546875
8218		-56.640625
8219		-60.546875
8220		-58.593750
8221		-62.500000
8222		-58.593750
8223		-62.500000
8224		-58.593750
8225		-62.500000
8226		-58.593750
8227		-62.500000
8228		-60.546875
8229		-62.500000
8230		-60.546875
8231		-62.500000
8232		-58.593750
8233		-62.500000
8234		-58.593750
8235		-60.546875
8236		-58.593750
8237		-60.546875
8238		-56.640625
8239		-60.546875
8240		-56.640625
8241		-60.546875
8242		-56.640625
8243		-58.593750
8244		-54.687500
8245		-56.640625
8246		-52.734375
8247		-54.687500
8248		-50.781250
8249		-52.734375
8250		-50.781250
8251		-52.734375
8252		-46.875000
8253		-50.781250
8254		-44.921875
8255		-48.828125
8256		-44.921875
8257		-46.875000
8258		-41.015625
8259		-42.968750
8260		-39.062500
8261		-41.015625
8262		-37.109375
8263		-39.062500
8264		-33.203125
8265		-35.156250
8266		-31.250000
8267		-33.203125
8268		-29.296875
8269		-31.250000
8270		-25.390625
8271		-27.343750
8272		-23.437500
8273		-25.390625
8274		-19.531250
8275		-21.484375
8276		-15.625000
8277		-17.578125
8278		-13.671875
8279		-15.625000
8280		-9.765625
8281		-11.718750
8282		-7.812500
8283		-7.812500
8284		-3.906250
8285		-5.859375
8286		0.000000
8287		-1.953125
8288		1.953125
8289		0.000000
8290		5.859375
8291		3.906250
8292		9.765625
8293		7.812500
8294		11.718750
8295		11.718750
8296		15.625000
8297		13.671875
8298		19.531250
8299		17.578125
8300		21.484375
8301		19.531250
8302		25.390625
8303		23.437500
8304		29.296875
8305		27.343750
8306		31.250000
8307		29.296875
8308		35.156250
8309		31.250000
8310		37.109375
8311		35.156250
8312		41.015625
8313		39.062500
8314		42.968750
8315		41.015625
8316		44.921875
8317		42.968750
8318		48.828125
8319		44.921875
8320		50.781250
8321		48.828125
8322		52.734375
8323		50.781250
8324		54.687500
8325		52.734375
8326		56.640625
8327		52.734375
8328		58.593750
8329		56.640625
8330		60.546875
8331		58.593750
8332		62.500000
8333		60.546875
8334		64.453125
8335		60.546875
8336		66.406250
8337		62.500000
8338		66.406250
8339		64.453125
8340		68.359375
8341		64.453125
8342		68.359375
8343		66.406250
8344		70.312500
8345		68.359375
8346		70.312500
8347		66.406250
8348		72.265625
8349		66.406250
8350		70.312500
8351		68.359375
8352		72.265625
8353		68.359375
8354		72.265625
8355		70.312500
8356		72.265625
8357		68.359375
8358		72.265625
8359		68.359375
8360		72.265625
8361		68.359375
8362		70.312500
8363		68.359375
8364		70.312500
8365		66.406250
8366		70.312500
8367		66.406250
8368		68.359375
8369		64.453125
8370		68.359375
8371		64.453125
8372		68.359375
8373		62.500000
8374		66.406250
8375		60.546875
8376		64.453125
8377		58.593750
8378		64.453125
8379		58.593750
8380		60.546875
8381		56.640625
8382		60.546875
8383		52.734375
8384		58.593750
8385		52.734375
8386		56.640625
8387		50.781250
8388		54.687500
8389		46.875000
8390		50.781250
8391		44.921875
8392		48.828125
8393		41.015625
8394		46.875000
8395		39.062500
8396		44.921875
8397		37.109375
8398		41.015625
8399		35.156250
8400		39.062500
8401		31.250000
8402		37.109375
8403		29.296875
8404		33.203125
8405		25.390625
8406		31.250000
8407		21.484375
8408		27.343750
8409		19.531250
8410		23.437500
8411		15.625000
8412		21.484375
8413		13.671875
8414		17.578125
8415		9.765625
8416		13.671875
8417		5.859375
8418		11.718750
8419		3.906250
8420		7.812500
8421		0.000000
8422		3.906250
8423		-3.906250
8424		1.953125
8425		-7.812500
8426		-1.953125
8427		-9.765625
8428		-5.859375
8429		-13.671875
8430		-7.812500
8431		-15.625000
8432		-11.718750
8433		-19.531250
8434		-13.671875
8435		-23.437500
8436		-17.578125
8437		-25.390625
8438		-21.484375
8439		-29.296875
8440		-23.437500
8441		-31.250000
8442		-27.343750
8443		-35.156250
8444		-29.296875
8445		-37.109375
8446		-33.203125
8447		-39.062500
8448		-35.156250
8449		-42.968750
8450		-37.109375
8451		-44.921875
8452		-41.015625
8453		-46.875000
8454		-42.968750
8455		-48.828125
8456		-44.921875
8457		-50.781250
8458		-46.875000
8459		-52.734375
8460		-48.828125
8461		-54.687500
8462		-50.781250
8463		-56.640625
8464		-52.734375
8465		-58.593750
8466		-54.687500
8467		-58.593750
8468		-54.687500
8469		-58.593750
8470		-56.640625
8471		-60.546875
8472		-56.640625
8473		-60.546875
8474		-58.593750
8475		-62.500000
8476		-58.593750
8477		-62.500000
8478		-58.593750
8479		-62.500000
8480		-60.546875
8481		-62.500000
8482		-60.546875
8483		-64.453125
8484		-58.593750
8485		-62.500000
8486		-58.593750
8487		-62.500000
8488		-58.593750
8489		-60.546875
8490		-58.593750
8491		-60.546875
8492		-56.640625
8493		-60.546875
8494		-56.640625
8495		-58.593750
8496		-54.687500
8497		-56.640625
8498		-54.687500
8499		-56.640625
8500		-52.734375
8501		-54.687500
8502		-50.781250
8503		-52.734375
8504		-48.828125
8505		-50.781250
8506		-46.875000
8507		-48.828125
8508		-44.921875
8509		-46.875000
8510		-41.015625
8511		-44.921875
8512		-41.015625
8513		-42.968750
8514		-39.062500
8515		-39.062500
8516		-35.156250
8517		-39.062500
8518		-33.203125
8519		-35.156250
8520		-29.296875
8521		-33.203125
8522		-27.343750
8523		-29.296875
8524		-23.437500
8525		-25.390625
8526		-21.484375
8527		-23.437500
8528		-17.578125
8529		-21.484375
8530		-15.625000
8531		-17.578125
8532		-11.718750
8533		-13.671875
8534		-9.765625
8535		-11.718750
8536		-5.859375
8537		-7.812500
8538		-1.953125
8539		-3.906250
8540		0.000000
8541		-1.953125
8542		3.906250
8543		1.953125
8544		7.812500
8545		5.859375
8546		9.765625
8547		9.765625
8548		13.671875
8549		11.718750
8550		17.578125
8551		15.625000
8552		19.531250
8553		17.578125
8554		23.437500
8555		21.484375
8556		25.390625
8557		23.437500
8558		29.296875
8559		27.343750
8560		33.203125
8561		31.250000
8562		35.156250
8563		33.203125
8564		37.109375
8565		37.109375
8566		41.015625
8567		39.062500
8568		42.968750
8569		41.015625
8570		46.875000
8571		44.921875
8572		48.828125
8573		46.875000
8574		50.781250
8575		48.828125
8576		52.734375
8577		50.781250
8578		54.687500
8579		52.734375
8580		56.640625
8581		56.640625
8582		58.593750
8583		56.640625
8584		62.500000
8585		58.593750
8586		62.500000
8587		60.546875
8588		64.453125
8589		62.500000
8590		66.406250
8591		62.500000
8592		68.359375
8593		64.453125
8594		68.359375
8595		64.453125
8596		70.312500
8597		66.406250
8598		70.312500
8599		68.359375
8600		70.312500
8601		68.359375
8602		72.265625
8603		68.359375
8604		72.265625
8605		68.359375
8606		72.265625
8607		68.359375
8608		72.265625
8609		68.359375
8610		72.265625
8611		68.359375
8612		72.265625
8613		68.359375
8614		72.265625
8615		68.359375
8616		72.265625
8617		66.406250
8618		70.312500
8619		66.406250
8620		70.312500
8621		66.406250
8622		68.359375
8623		64.453125
8624		68.359375
8625		64.453125
8626		66.406250
8627		62.500000
8628		66.406250
8629		60.546875
8630		64.453125
8631		58.593750
8632		62.500000
8633		56.640625
8634		60.546875
8635		54.687500
8636		58.593750
8637		52.734375
8638		56.640625
8639		50.781250
8640		54.687500
8641		48.828125
8642		52.734375
8643		46.875000
8644		50.781250
8645		42.968750
8646		48.828125
8647		41.015625
8648		44.921875
8649		39.062500
8650		42.968750
8651		37.109375
8652		41.015625
8653		33.203125
8654		39.062500
8655		31.250000
8656		35.156250
8657		27.343750
8658		31.250000
8659		23.437500
8660		29.296875
8661		21.484375
8662		27.343750
8663		17.578125
8664		23.437500
8665		15.625000
8666		19.531250
8667		11.718750
8668		17.578125
8669		7.812500
8670		13.671875
8671		5.859375
8672		11.718750
8673		1.953125
8674		5.859375
8675		-1.953125
8676		3.906250
8677		-3.906250
8678		0.000000
8679		-7.812500
8680		-1.953125
8681		-11.718750
8682		-5.859375
8683		-13.671875
8684		-9.765625
8685		-17.578125
8686		-11.718750
8687		-21.484375
8688		-15.625000
8689		-23.437500
8690		-19.531250
8691		-27.343750
8692		-21.484375
8693		-29.296875
8694		-25.390625
8695		-31.250000
8696		-27.343750
8697		-35.156250
8698		-29.296875
8699		-37.109375
8700		-33.203125
8701		-41.015625
8702		-35.156250
8703		-42.968750
8704		-39.062500
8705		-46.875000
8706		-41.015625
8707		-46.875000
8708		-42.968750
8709		-48.828125
8710		-44.921875
8711		-50.781250
8712		-46.875000
8713		-52.734375
8714		-48.828125
8715		-54.687500
8716		-50.781250
8717		-56.640625
8718		-52.734375
8719		-56.640625
8720		-52.734375
8721		-58.593750
8722		-54.687500
8723		-58.593750
8724		-56.640625
8725		-60.546875
8726		-56.640625
8727		-60.546875
8728		-58.593750
8729		-62.500000
8730		-58.593750
8731		-62.500000
8732		-58.593750
8733		-62.500000
8734		-60.546875
8735		-62.500000
8736		-58.593750
8737		-62.500000
8738		-60.546875
8739		-62.500000
8740		-58.593750
8741		-60.546875
8742		-58.593750
8743		-60.546875
8744		-58.593750
8745		-60.546875
8746		-56.640625
8747		-58.593750
8748		-56.640625
8749		-58.593750
8750		-54.687500
8751		-56.640625
8752		-52.734375
8753		-54.687500
8754		-50.781250
8755		-54.687500
8756		-48.828125
8757		-52.734375
8758		-48.828125
8759		-50.781250
8760		-46.875000
8761		-48.828125
8762		-44.921875
8763		-46.875000
8764		-41.015625
8765		-42.968750
8766		-39.062500
8767		-41.015625
8768		-37.109375
8769		-41.015625
8770		-35.156250
8771		-37.109375
8772		-31.250000
8773		-33.203125
8774		-29.296875
8775		-31.250000
8776		-25.390625
8777		-27.343750
8778		-23.437500
8779		-25.390625
8780		-19.531250
8781		-21.484375
8782		-17.578125
8783		-19.531250
8784		-13.671875
8785		-15.625000
8786		-9.765625
8787		-13.671875
8788		-7.812500
8789		-9.765625
8790		-3.906250
8791		-5.859375
8792		-1.953125
8793		-1.953125
8794		1.953125
8795		0.000000
8796		5.859375
8797		3.906250
8798		7.812500
8799		7.812500
8800		11.718750
8801		9.765625
8802		15.625000
8803		13.671875
8804		19.531250
8805		17.578125
8806		21.484375
8807		19.531250
8808		25.390625
8809		23.437500
8810		27.343750
8811		25.390625
8812		31.250000
8813		29.296875
8814		35.156250
8815		33.203125
8816		37.109375
8817		35.156250
8818		39.062500
8819		37.109375
8820		42.968750
8821		41.015625
8822		44.921875
8823		42.968750
8824		46.875000
8825		44.921875
8826		48.828125
8827		46.875000
8828		52.734375
8829		50.781250
8830		54.687500
8831		52.734375
8832		56.640625
8833		54.687500
8834		58.593750
8835		56.640625
8836		60.546875
8837		58.593750
8838		62.500000
8839		58.593750
8840		64.453125
8841		60.546875
8842		64.453125
8843		62.500000
8844		66.406250
8845		64.453125
8846		68.359375
8847		64.453125
8848		68.359375
8849		66.406250
8850		68.359375
8851		68.359375
8852		70.312500
8853		68.359375
8854		72.265625
8855		68.359375
8856		72.265625
8857		70.312500
8858		72.265625
8859		68.359375
8860		72.265625
8861		70.312500
8862		72.265625
8863		70.312500
8864		72.265625
8865		68.359375
8866		72.265625
8867		68.359375
8868		72.265625
8869		68.359375
8870		72.265625
8871		68.359375
8872		70.312500
8873		66.406250
8874		70.312500
8875		66.406250
8876		68.359375
8877		64.453125
8878		68.359375
8879		62.500000
8880		66.406250
8881		60.546875
8882		66.406250
8883		60.546875
8884		64.453125
8885		56.640625
8886		62.500000
8887		56.640625
8888		60.546875
8889		54.687500
8890		60.546875
8891		52.734375
8892		56.640625
8893		50.781250
8894		54.687500
8895		48.828125
8896		52.734375
8897		44.921875
8898		50.781250
8899		44.921875
8900		46.875000
8901		41.015625
8902		44.921875
8903		39.062500
8904		42.968750
8905		35.156250
8906		39.062500
8907		31.250000
8908		37.109375
8909		29.296875
8910		35.156250
8911		27.343750
8912		33.203125
8913		23.437500
8914		27.343750
8915		21.484375
8916		25.390625
8917		17.578125
8918		21.484375
8919		13.671875
8920		19.531250
8921		11.718750
8922		15.625000
8923		7.812500
8924		11.718750
8925		3.906250
8926		9.765625
8927		0.000000
8928		5.859375
8929		-1.953125
8930		1.953125
8931		-5.859375
8932		0.000000
8933		-7.812500
8934		-3.906250
8935		-11.718750
8936		-7.812500
8937		-15.625000
8938		-9.765625
8939		-17.578125
8940		-13.671875
8941		-21.484375
8942		-15.625000
8943		-25.390625
8944		-19.531250
8945		-27.343750
8946		-23.437500
8947		-29.296875
8948		-25.390625
8949		-33.203125
8950		-27.343750
8951		-35.156250
8952		-31.250000
8953		-37.109375
8954		-33.203125
8955		-41.015625
8956		-37.109375
8957		-44.921875
8958		-37.109375
8959		-46.875000
8960		-41.015625
8961		-46.875000
8962		-42.968750
8963		-48.828125
8964		-44.921875
8965		-50.781250
8966		-46.875000
8967		-52.734375
8968		-48.828125
8969		-54.687500
8970		-50.781250
8971		-56.640625
8972		-52.734375
8973		-56.640625
8974		-52.734375
8975		-58.593750
8976		-54.687500
8977		-58.593750
8978		-56.640625
8979		-60.546875
8980		-56.640625
8981		-60.546875
8982		-56.640625
8983		-60.546875
8984		-58.593750
8985		-60.546875
8986		-58.593750
8987		-62.500000
8988		-58.593750
8989		-62.500000
8990		-58.593750
8991		-60.546875
8992		-58.593750
8993		-60.546875
8994		-58.593750
8995		-60.546875
8996		-56.640625
8997		-58.593750
8998		-56.640625
8999		-60.546875
9000		-54.687500
9001		-56.640625
9002		-54.687500
9003		-56.640625
9004		-52.734375
9005		-56.640625
9006		-50.781250
9007		-52.734375
9008		-50.781250
9009		-52.734375
9010		-48.828125
9011		-50.781250
9012		-46.875000
9013		-48.828125
9014		-44.921875
9015		-46.875000
9016		-41.015625
9017		-42.968750
9018		-39.062500
9019		-41.015625
9020		-37.109375
9021		-39.062500
9022		-33.203125
9023		-37.109375
9024		-33.203125
9025		-35.156250
9026		-29.296875
9027		-31.250000
9028		-25.390625
9029		-27.343750
9030		-23.437500
9031		-25.390625
9032		-21.484375
9033		-21.484375
9034		-17.578125
9035		-19.531250
9036		-15.625000
9037		-15.625000
9038		-11.718750
9039		-13.671875
9040		-7.812500
9041		-9.765625
9042		-3.906250
9043		-5.859375
9044		-1.953125
9045		-3.906250
9046		1.953125
9047		0.000000
9048		5.859375
9049		3.906250
9050		7.812500
9051		5.859375
9052		11.718750
9053		9.765625
9054		13.671875
9055		11.718750
9056		17.578125
9057		15.625000
9058		21.484375
9059		19.531250
9060		23.437500
9061		23.437500
9062		27.343750
9063		25.390625
9064		31.250000
9065		29.296875
9066		33.203125
9067		31.250000
9068		35.156250
9069		35.156250
9070		39.062500
9071		37.109375
9072		41.015625
9073		39.062500
9074		44.921875
9075		42.968750
9076		46.875000
9077		44.921875
9078		50.781250
9079		46.875000
9080		52.734375
9081		50.781250
9082		54.687500
9083		50.781250
9084		56.640625
9085		54.687500
9086		58.593750
9087		56.640625
9088		60.546875
9089		58.593750
9090		62.500000
9091		60.546875
9092		64.453125
9093		60.546875
9094		64.453125
9095		62.500000
9096		66.406250
9097		64.453125
9098		68.359375
9099		64.453125
9100		70.312500
9101		66.406250
9102		70.312500
9103		68.359375
9104		70.312500
9105		68.359375
9106		72.265625
9107		68.359375
9108		72.265625
9109		68.359375
9110		72.265625
9111		70.312500
9112		72.265625
9113		70.312500
9114		72.265625
9115		70.312500
9116		74.218750
9117		70.312500
9118		74.218750
9119		70.312500
9120		72.265625
9121		68.359375
9122		72.265625
9123		68.359375
9124		72.265625
9125		68.359375
9126		72.265625
9127		66.406250
9128		70.312500
9129		66.406250
9130		70.312500
9131		64.453125
9132		68.359375
9133		62.500000
9134		66.406250
9135		62.500000
9136		64.453125
9137		60.546875
9138		64.453125
9139		58.593750
9140		64.453125
9141		56.640625
9142		60.546875
9143		54.687500
9144		58.593750
9145		52.734375
9146		56.640625
9147		50.781250
9148		54.687500
9149		48.828125
9150		52.734375
9151		46.875000
9152		50.781250
9153		42.968750
9154		46.875000
9155		41.015625
9156		44.921875
9157		37.109375
9158		42.968750
9159		35.156250
9160		39.062500
9161		33.203125
9162		37.109375
9163		29.296875
9164		33.203125
9165		25.390625
9166		31.250000
9167		23.437500
9168		29.296875
9169		19.531250
9170		25.390625
9171		15.625000
9172		21.484375
9173		13.671875
9174		17.578125
9175		9.765625
9176		15.625000
9177		7.812500
9178		11.718750
9179		3.906250
9180		9.765625
9181		0.000000
9182		5.859375
9183		-1.953125
9184		1.953125
9185		-5.859375
9186		-1.953125
9187		-9.765625
9188		-3.906250
9189		-13.671875
9190		-7.812500
9191		-15.625000
9192		-9.765625
9193		-19.531250
9194		-13.671875
9195		-21.484375
9196		-17.578125
9197		-25.390625
9198		-19.531250
9199		-29.296875
9200		-23.437500
9201		-31.250000
9202		-25.390625
9203		-33.203125
9204		-29.296875
9205		-37.109375
9206		-31.250000
9207		-39.062500
9208		-35.156250
9209		-41.015625
9210		-37.109375
9211		-42.968750
9212		-39.062500
9213		-44.921875
9214		-41.015625
9215		-46.875000
9216		-42.968750
9217		-50.781250
9218		-44.921875
9219		-50.781250
9220		-48.828125
9221		-52.734375
9222		-48.828125
9223		-54.687500
9224		-50.781250
9225		-56.640625
9226		-52.734375
9227		-56.640625
9228		-52.734375
9229		-58.593750
9230		-54.687500
9231		-58.593750
9232		-56.640625
9233		-58.593750
9234		-54.687500
9235		-60.546875
9236		-56.640625
9237		-60.546875
9238		-58.593750
9239		-60.546875
9240		-58.593750
9241		-60.546875
9242		-56.640625
9243		-60.546875
9244		-56.640625
9245		-60.546875
9246		-56.640625
9247		-60.546875
9248		-56.640625
9249		-58.593750
9250		-56.640625
9251		-58.593750
9252		-54.687500
9253		-56.640625
9254		-54.687500
9255		-56.640625
9256		-52.734375
9257		-56.640625
9258		-52.734375
9259		-54.687500
9260		-50.781250
9261		-52.734375
9262		-48.828125
9263		-50.781250
9264		-46.875000
9265		-48.828125
9266		-44.921875
9267		-46.875000
9268		-42.968750
9269		-44.921875
9270		-41.015625
9271		-42.968750
9272		-39.062500
9273		-41.015625
9274		-35.156250
9275		-37.109375
9276		-33.203125
9277		-35.156250
9278		-31.250000
9279		-31.250000
9280		-27.343750
9281		-29.296875
9282		-25.390625
9283		-27.343750
9284		-21.484375
9285		-25.390625
9286		-19.531250
9287		-21.484375
9288		-15.625000
9289		-17.578125
9290		-13.671875
9291		-13.671875
9292		-9.765625
9293		-11.718750
9294		-5.859375
9295		-7.812500
9296		-3.906250
9297		-5.859375
9298		0.000000
9299		-1.953125
9300		3.906250
9301		0.000000
9302		7.812500
9303		3.906250
9304		9.765625
9305		7.812500
9306		11.718750
9307		9.765625
9308		17.578125
9309		13.671875
9310		19.531250
9311		17.578125
9312		23.437500
9313		21.484375
9314		25.390625
9315		23.437500
9316		29.296875
9317		25.390625
9318		31.250000
9319		29.296875
9320		35.156250
9321		33.203125
9322		37.109375
9323		35.156250
9324		41.015625
9325		39.062500
9326		42.968750
9327		41.015625
9328		44.921875
9329		42.968750
9330		48.828125
9331		46.875000
9332		50.781250
9333		48.828125
9334		52.734375
9335		50.781250
9336		54.687500
9337		52.734375
9338		56.640625
9339		54.687500
9340		60.546875
9341		56.640625
9342		60.546875
9343		58.593750
9344		62.500000
9345		60.546875
9346		64.453125
9347		62.500000
9348		66.406250
9349		64.453125
9350		68.359375
9351		64.453125
9352		70.312500
9353		66.406250
9354		70.312500
9355		68.359375
9356		70.312500
9357		68.359375
9358		72.265625
9359		68.359375
9360		72.265625
9361		70.312500
9362		72.265625
9363		70.312500
9364		74.218750
9365		70.312500
9366		74.218750
9367		70.312500
9368		74.218750
9369		70.312500
9370		74.218750
9371		70.312500
9372		72.265625
9373		70.312500
9374		74.218750
9375		70.312500
9376		72.265625
9377		68.359375
9378		72.265625
9379		68.359375
9380		72.265625
9381		66.406250
9382		70.312500
9383		66.406250
9384		70.312500
9385		64.453125
9386		68.359375
9387		64.453125
9388		66.406250
9389		62.500000
9390		66.406250
9391		60.546875
9392		64.453125
9393		58.593750
9394		62.500000
9395		56.640625
9396		60.546875
9397		54.687500
9398		58.593750
9399		52.734375
9400		56.640625
9401		50.781250
9402		54.687500
9403		48.828125
9404		52.734375
9405		46.875000
9406		50.781250
9407		42.968750
9408		46.875000
9409		41.015625
9410		44.921875
9411		37.109375
9412		41.015625
9413		35.156250
9414		39.062500
9415		31.250000
9416		37.109375
9417		27.343750
9418		35.156250
9419		25.390625
9420		31.250000
9421		23.437500
9422		27.343750
9423		19.531250
9424		23.437500
9425		15.625000
9426		21.484375
9427		13.671875
9428		17.578125
9429		9.765625
9430		15.625000
9431		5.859375
9432		11.718750
9433		1.953125
9434		7.812500
9435		-1.953125
9436		3.906250
9437		-3.906250
9438		1.953125
9439		-5.859375
9440		-1.953125
9441		-9.765625
9442		-5.859375
9443		-13.671875
9444		-7.812500
9445		-17.578125
9446		-11.718750
9447		-19.531250
9448		-15.625000
9449		-23.437500
9450		-17.578125
9451		-25.390625
9452		-19.531250
9453		-27.343750
9454		-23.437500
9455		-31.250000
9456		-25.390625
9457		-35.156250
9458		-29.296875
9459		-37.109375
9460		-31.250000
9461		-39.062500
9462		-35.156250
9463		-41.015625
9464		-37.109375
9465		-42.968750
9466		-39.062500
9467		-44.921875
9468		-41.015625
9469		-48.828125
9470		-42.968750
9471		-48.828125
9472		-44.921875
9473		-50.781250
9474		-46.875000
9475		-52.734375
9476		-48.828125
9477		-54.687500
9478		-50.781250
9479		-54.687500
9480		-52.734375
9481		-56.640625
9482		-52.734375
9483		-58.593750
9484		-54.687500
9485		-58.593750
9486		-54.687500
9487		-58.593750
9488		-54.687500
9489		-58.593750
9490		-56.640625
9491		-60.546875
9492		-56.640625
9493		-60.546875
9494		-56.640625
9495		-60.546875
9496		-56.640625
9497		-60.546875
9498		-56.640625
9499		-60.546875
9500		-56.640625
9501		-60.546875
9502		-56.640625
9503		-60.546875
9504		-54.687500
9505		-56.640625
9506		-54.687500
9507		-56.640625
9508		-52.734375
9509		-54.687500
9510		-52.734375
9511		-54.687500
9512		-50.781250
9513		-52.734375
9514		-48.828125
9515		-50.781250
9516		-46.875000
9517		-48.828125
9518		-44.921875
9519		-46.875000
9520		-42.968750
9521		-44.921875
9522		-41.015625
9523		-42.968750
9524		-39.062500
9525		-42.968750
9526		-37.109375
9527		-39.062500
9528		-35.156250
9529		-37.109375
9530		-31.250000
9531		-33.203125
9532		-29.296875
9533		-31.250000
9534		-25.390625
9535		-27.343750
9536		-23.437500
9537		-25.390625
9538		-21.484375
9539		-21.484375
9540		-17.578125
9541		-19.531250
9542		-13.671875
9543		-17.578125
9544		-11.718750
9545		-13.671875
9546		-7.812500
9547		-9.765625
9548		-5.859375
9549		-5.859375
9550		-1.953125
9551		-3.906250
9552		1.953125
9553		0.000000
9554		5.859375
9555		3.906250
9556		7.812500
9557		5.859375
9558		11.718750
9559		9.765625
9560		15.625000
9561		13.671875
9562		17.578125
9563		15.625000
9564		21.484375
9565		19.531250
9566		25.390625
9567		21.484375
9568		27.343750
9569		25.390625
9570		31.250000
9571		27.343750
9572		33.203125
9573		31.250000
9574		37.109375
9575		35.156250
9576		39.062500
9577		37.109375
9578		41.015625
9579		41.015625
9580		44.921875
9581		42.968750
9582		46.875000
9583		44.921875
9584		48.828125
9585		48.828125
9586		52.734375
9587		50.781250
9588		54.687500
9589		52.734375
9590		56.640625
9591		54.687500
9592		58.593750
9593		54.687500
9594		60.546875
9595		58.593750
9596		62.500000
9597		60.546875
9598		64.453125
9599		62.500000
9600		66.406250
9601		62.500000
9602		66.406250
9603		64.453125
9604		70.312500
9605		66.406250
9606		68.359375
9607		68.359375
9608		70.312500
9609		68.359375
9610		72.265625
9611		68.359375
9612		72.265625
9613		70.312500
9614		74.218750
9615		70.312500
9616		74.218750
9617		70.312500
9618		74.218750
9619		70.312500
9620		74.218750
9621		70.312500
9622		74.218750
9623		72.265625
9624		74.218750
9625		70.312500
9626		74.218750
9627		70.312500
9628		74.218750
9629		70.312500
9630		72.265625
9631		68.359375
9632		72.265625
9633		68.359375
9634		72.265625
9635		66.406250
9636		70.312500
9637		64.453125
9638		70.312500
9639		64.453125
9640		68.359375
9641		64.453125
9642		66.406250
9643		60.546875
9644		66.406250
9645		60.546875
9646		64.453125
9647		56.640625
9648		62.500000
9649		56.640625
9650		60.546875
9651		54.687500
9652		58.593750
9653		52.734375
9654		56.640625
9655		50.781250
9656		54.687500
9657		46.875000
9658		50.781250
9659		44.921875
9660		48.828125
9661		42.968750
9662		46.875000
9663		39.062500
9664		44.921875
9665		37.109375
9666		41.015625
9667		33.203125
9668		39.062500
9669		31.250000
9670		35.156250
9671		29.296875
9672		33.203125
9673		25.390625
9674		29.296875
9675		21.484375
9676		27.343750
9677		19.531250
9678		23.437500
9679		15.625000
9680		19.531250
9681		11.718750
9682		17.578125
9683		9.765625
9684		13.671875
9685		5.859375
9686		9.765625
9687		0.000000
9688		7.812500
9689		0.000000
9690		3.906250
9691		-3.906250
9692		0.000000
9693		-7.812500
9694		-1.953125
9695		-9.765625
9696		-5.859375
9697		-13.671875
9698		-9.765625
9699		-17.578125
9700		-11.718750
9701		-19.531250
9702		-15.625000
9703		-23.437500
9704		-17.578125
9705		-25.390625
9706		-21.484375
9707		-29.296875
9708		-23.437500
9709		-31.250000
9710		-27.343750
9711		-35.156250
9712		-29.296875
9713		-37.109375
9714		-33.203125
9715		-39.062500
9716		-35.156250
9717		-42.968750
9718		-37.109375
9719		-44.921875
9720		-39.062500
9721		-46.875000
9722		-41.015625
9723		-46.875000
9724		-42.968750
9725		-48.828125
9726		-46.875000
9727		-50.781250
9728		-46.875000
9729		-52.734375
9730		-48.828125
9731		-54.687500
9732		-50.781250
9733		-54.687500
9734		-52.734375
9735		-56.640625
9736		-52.734375
9737		-58.593750
9738		-54.687500
9739		-58.593750
9740		-54.687500
9741		-58.593750
9742		-56.640625
9743		-60.546875
9744		-56.640625
9745		-60.546875
9746		-56.640625
9747		-60.546875
9748		-56.640625
9749		-60.546875
9750		-56.640625
9751		-60.546875
9752		-56.640625
9753		-58.593750
9754		-56.640625
9755		-58.593750
9756		-54.687500
9757		-56.640625
9758		-54.687500
9759		-56.640625
9760		-52.734375
9761		-56.640625
9762		-52.734375
9763		-54.687500
9764		-50.781250
9765		-52.734375
9766		-50.781250
9767		-52.734375
9768		-46.875000
9769		-50.781250
9770		-46.875000
9771		-48.828125
9772		-44.921875
9773		-46.875000
9774		-42.968750
9775		-44.921875
9776		-41.015625
9777		-42.968750
9778		-39.062500
9779		-41.015625
9780		-35.156250
9781		-39.062500
9782		-33.203125
9783		-35.156250
9784		-31.250000
9785		-33.203125
9786		-27.343750
9787		-29.296875
9788		-25.390625
9789		-27.343750
9790		-21.484375
9791		-23.437500
9792		-19.531250
9793		-21.484375
9794		-15.625000
9795		-17.578125
9796		-11.718750
9797		-13.671875
9798		-9.765625
9799		-11.718750
9800		-5.859375
9801		-7.812500
9802		-3.906250
9803		-5.859375
9804		0.000000
9805		-1.953125
9806		3.906250
9807		1.953125
9808		5.859375
9809		5.859375
9810		9.765625
9811		7.812500
9812		13.671875
9813		11.718750
9814		15.625000
9815		13.671875
9816		19.531250
9817		17.578125
9818		21.484375
9819		19.531250
9820		25.390625
9821		23.437500
9822		29.296875
9823		27.343750
9824		31.250000
9825		31.250000
9826		35.156250
9827		33.203125
9828		39.062500
9829		35.156250
9830		41.015625
9831		37.109375
9832		42.968750
9833		41.015625
9834		44.921875
9835		44.921875
9836		48.828125
9837		46.875000
9838		50.781250
9839		48.828125
9840		52.734375
9841		50.781250
9842		54.687500
9843		54.687500
9844		56.640625
9845		54.687500
9846		60.546875
9847		56.640625
9848		62.500000
9849		58.593750
9850		64.453125
9851		60.546875
9852		64.453125
9853		62.500000
9854		66.406250
9855		62.500000
9856		68.359375
9857		64.453125
9858		68.359375
9859		66.406250
9860		70.312500
9861		66.406250
9862		70.312500
9863		68.359375
9864		72.265625
9865		70.312500
9866		72.265625
9867		70.312500
9868		74.218750
9869		70.312500
9870		74.218750
9871		70.312500
9872		74.218750
9873		72.265625
9874		74.218750
9875		72.265625
9876		74.218750
9877		70.312500
9878		74.218750
9879		70.312500
9880		74.218750
9881		70.312500
9882		74.218750
9883		70.312500
9884		72.265625
9885		68.359375
9886		72.265625
9887		68.359375
9888		72.265625
9889		66.406250
9890		70.312500
9891		66.406250
9892		68.359375
9893		64.453125
9894		68.359375
9895		62.500000
9896		68.359375
9897		62.500000
9898		64.453125
9899		60.546875
9900		64.453125
9901		58.593750
9902		62.500000
9903		54.687500
9904		60.546875
9905		54.687500
9906		58.593750
9907		52.734375
9908		56.640625
9909		48.828125
9910		52.734375
9911		44.921875
9912		50.781250
9913		44.921875
9914		48.828125
9915		41.015625
9916		46.875000
9917		39.062500
9918		42.968750
9919		35.156250
9920		41.015625
9921		33.203125
9922		37.109375
9923		29.296875
9924		35.156250
9925		27.343750
9926		31.250000
9927		23.437500
9928		29.296875
9929		21.484375
9930		25.390625
9931		17.578125
9932		23.437500
9933		15.625000
9934		19.531250
9935		9.765625
9936		15.625000
9937		7.812500
9938		13.671875
9939		5.859375
9940		9.765625
9941		1.953125
9942		7.812500
9943		-1.953125
9944		3.906250
9945		-5.859375
9946		0.000000
9947		-9.765625
9948		-3.906250
9949		-11.718750
9950		-5.859375
9951		-13.671875
9952		-9.765625
9953		-17.578125
9954		-13.671875
9955		-21.484375
9956		-15.625000
9957		-23.437500
9958		-19.531250
9959		-27.343750
9960		-21.484375
9961		-31.250000
9962		-25.390625
9963		-33.203125
9964		-27.343750
9965		-35.156250
9966		-31.250000
9967		-37.109375
9968		-33.203125
9969		-41.015625
9970		-35.156250
9971		-42.968750
9972		-39.062500
9973		-44.921875
9974		-39.062500
9975		-46.875000
9976		-42.968750
9977		-48.828125
9978		-44.921875
9979		-50.781250
9980		-46.875000
9981		-52.734375
9982		-48.828125
9983		-52.734375
9984		-50.781250
9985		-56.640625
9986		-50.781250
9987		-56.640625
9988		-50.781250
9989		-58.593750
9990		-52.734375
9991		-58.593750
9992		-54.687500
9993		-58.593750
9994		-56.640625
9995		-60.546875
9996		-54.687500
9997		-62.500000
9998		-54.687500
9999		-62.500000
10000		-54.687500
