Channel              :		CH1
Frequency            :		1.973kHz
Period               :		0.507ms
PK-PK                :		169.9mV
Probe attenuation    :		1X
Voltage per ADC value:		0.122070mV
Time interval        :		2.00000us

index		CH1_Voltage(mV)
1		85.937500
2		85.937500
3		82.031250
4		85.937500
5		82.031250
6		83.984375
7		80.078125
8		85.937500
9		80.078125
10		83.984375
11		80.078125
12		83.984375
13		78.125000
14		82.031250
15		76.171875
16		80.078125
17		76.171875
18		80.078125
19		74.218750
20		78.125000
21		72.265625
22		76.171875
23		70.312500
24		74.218750
25		68.359375
26		72.265625
27		64.453125
28		70.312500
29		62.500000
30		66.406250
31		60.546875
32		64.453125
33		56.640625
34		62.500000
35		52.734375
36		58.593750
37		50.781250
38		56.640625
39		48.828125
40		52.734375
41		44.921875
42		50.781250
43		41.015625
44		46.875000
45		37.109375
46		42.968750
47		35.156250
48		41.015625
49		31.250000
50		37.109375
51		27.343750
52		33.203125
53		23.437500
54		29.296875
55		19.531250
56		25.390625
57		15.625000
58		21.484375
59		11.718750
60		17.578125
61		7.812500
62		13.671875
63		3.906250
64		9.765625
65		0.000000
66		5.859375
67		-3.906250
68		1.953125
69		-7.812500
70		-1.953125
71		-11.718750
72		-5.859375
73		-15.625000
74		-9.765625
75		-19.531250
76		-13.671875
77		-23.437500
78		-17.578125
79		-27.343750
80		-19.531250
81		-31.250000
82		-25.390625
83		-33.203125
84		-29.296875
85		-39.062500
86		-31.250000
87		-41.015625
88		-35.156250
89		-42.968750
90		-39.062500
91		-46.875000
92		-42.968750
93		-50.781250
94		-44.921875
95		-52.734375
96		-46.875000
97		-56.640625
98		-50.781250
99		-58.593750
100		-52.734375
101		-60.546875
102		-54.687500
103		-62.500000
104		-58.593750
105		-64.453125
106		-60.546875
107		-66.406250
108		-62.500000
109		-68.359375
110		-64.453125
111		-70.312500
112		-66.406250
113		-70.312500
114		-68.359375
115		-72.265625
116		-68.359375
117		-74.218750
118		-70.312500
119		-74.218750
120		-70.312500
121		-74.218750
122		-72.265625
123		-74.218750
124		-72.265625
125		-76.171875
126		-72.265625
127		-74.218750
128		-72.265625
129		-74.218750
130		-70.312500
131		-74.218750
132		-70.312500
133		-74.218750
134		-70.312500
135		-72.265625
136		-68.359375
137		-72.265625
138		-68.359375
139		-70.312500
140		-66.406250
141		-68.359375
142		-64.453125
143		-68.359375
144		-62.500000
145		-64.453125
146		-60.546875
147		-64.453125
148		-58.593750
149		-60.546875
150		-56.640625
151		-58.593750
152		-54.687500
153		-56.640625
154		-50.781250
155		-52.734375
156		-48.828125
157		-50.781250
158		-46.875000
159		-46.875000
160		-42.968750
161		-44.921875
162		-39.062500
163		-41.015625
164		-37.109375
165		-37.109375
166		-33.203125
167		-35.156250
168		-29.296875
169		-31.250000
170		-25.390625
171		-27.343750
172		-21.484375
173		-23.437500
174		-17.578125
175		-19.531250
176		-13.671875
177		-15.625000
178		-9.765625
179		-13.671875
180		-5.859375
181		-7.812500
182		-1.953125
183		-3.906250
184		1.953125
185		0.000000
186		5.859375
187		3.906250
188		9.765625
189		7.812500
190		13.671875
191		11.718750
192		17.578125
193		13.671875
194		21.484375
195		19.531250
196		25.390625
197		23.437500
198		27.343750
199		27.343750
200		33.203125
201		29.296875
202		37.109375
203		33.203125
204		41.015625
205		37.109375
206		42.968750
207		41.015625
208		46.875000
209		44.921875
210		48.828125
211		46.875000
212		52.734375
213		50.781250
214		54.687500
215		52.734375
216		58.593750
217		56.640625
218		62.500000
219		58.593750
220		64.453125
221		62.500000
222		66.406250
223		64.453125
224		68.359375
225		66.406250
226		72.265625
227		68.359375
228		74.218750
229		70.312500
230		74.218750
231		72.265625
232		76.171875
233		74.218750
234		80.078125
235		76.171875
236		80.078125
237		76.171875
238		82.031250
239		78.125000
240		82.031250
241		80.078125
242		82.031250
243		80.078125
244		83.984375
245		82.031250
246		83.984375
247		82.031250
248		85.937500
249		82.031250
250		85.937500
251		82.031250
252		85.937500
253		82.031250
254		85.937500
255		82.031250
256		85.937500
257		82.031250
258		85.937500
259		80.078125
260		83.984375
261		80.078125
262		83.984375
263		80.078125
264		83.984375
265		80.078125
266		82.031250
267		78.125000
268		82.031250
269		76.171875
270		80.078125
271		74.218750
272		78.125000
273		72.265625
274		76.171875
275		72.265625
276		74.218750
277		68.359375
278		74.218750
279		66.406250
280		72.265625
281		64.453125
282		68.359375
283		62.500000
284		66.406250
285		58.593750
286		64.453125
287		56.640625
288		60.546875
289		52.734375
290		58.593750
291		50.781250
292		54.687500
293		46.875000
294		52.734375
295		44.921875
296		48.828125
297		41.015625
298		44.921875
299		37.109375
300		42.968750
301		33.203125
302		39.062500
303		29.296875
304		35.156250
305		25.390625
306		31.250000
307		23.437500
308		27.343750
309		17.578125
310		23.437500
311		13.671875
312		19.531250
313		9.765625
314		15.625000
315		5.859375
316		13.671875
317		3.906250
318		7.812500
319		-1.953125
320		3.906250
321		-5.859375
322		0.000000
323		-7.812500
324		-3.906250
325		-13.671875
326		-7.812500
327		-17.578125
328		-11.718750
329		-21.484375
330		-15.625000
331		-25.390625
332		-19.531250
333		-27.343750
334		-23.437500
335		-31.250000
336		-25.390625
337		-35.156250
338		-29.296875
339		-39.062500
340		-33.203125
341		-41.015625
342		-37.109375
343		-46.875000
344		-41.015625
345		-48.828125
346		-42.968750
347		-50.781250
348		-46.875000
349		-54.687500
350		-50.781250
351		-56.640625
352		-50.781250
353		-60.546875
354		-54.687500
355		-62.500000
356		-56.640625
357		-64.453125
358		-60.546875
359		-66.406250
360		-62.500000
361		-68.359375
362		-62.500000
363		-70.312500
364		-66.406250
365		-70.312500
366		-66.406250
367		-72.265625
368		-68.359375
369		-72.265625
370		-70.312500
371		-74.218750
372		-70.312500
373		-76.171875
374		-70.312500
375		-74.218750
376		-72.265625
377		-74.218750
378		-72.265625
379		-76.171875
380		-72.265625
381		-76.171875
382		-72.265625
383		-76.171875
384		-72.265625
385		-74.218750
386		-72.265625
387		-74.218750
388		-70.312500
389		-72.265625
390		-70.312500
391		-72.265625
392		-68.359375
393		-70.312500
394		-66.406250
395		-68.359375
396		-64.453125
397		-66.406250
398		-64.453125
399		-66.406250
400		-62.500000
401		-62.500000
402		-58.593750
403		-60.546875
404		-56.640625
405		-58.593750
406		-54.687500
407		-56.640625
408		-52.734375
409		-52.734375
410		-48.828125
411		-50.781250
412		-44.921875
413		-48.828125
414		-42.968750
415		-44.921875
416		-39.062500
417		-41.015625
418		-35.156250
419		-37.109375
420		-33.203125
421		-33.203125
422		-29.296875
423		-31.250000
424		-25.390625
425		-27.343750
426		-21.484375
427		-23.437500
428		-17.578125
429		-19.531250
430		-13.671875
431		-15.625000
432		-9.765625
433		-11.718750
434		-5.859375
435		-9.765625
436		-1.953125
437		-3.906250
438		1.953125
439		0.000000
440		5.859375
441		3.906250
442		9.765625
443		7.812500
444		13.671875
445		11.718750
446		17.578125
447		15.625000
448		21.484375
449		19.531250
450		25.390625
451		23.437500
452		29.296875
453		27.343750
454		33.203125
455		31.250000
456		37.109375
457		33.203125
458		39.062500
459		39.062500
460		42.968750
461		41.015625
462		46.875000
463		44.921875
464		50.781250
465		48.828125
466		52.734375
467		50.781250
468		56.640625
469		54.687500
470		58.593750
471		56.640625
472		62.500000
473		60.546875
474		64.453125
475		62.500000
476		66.406250
477		64.453125
478		70.312500
479		66.406250
480		72.265625
481		68.359375
482		74.218750
483		70.312500
484		74.218750
485		72.265625
486		76.171875
487		74.218750
488		78.125000
489		76.171875
490		80.078125
491		78.125000
492		80.078125
493		80.078125
494		82.031250
495		80.078125
496		83.984375
497		82.031250
498		83.984375
499		80.078125
500		83.984375
501		82.031250
502		83.984375
503		82.031250
504		85.937500
505		82.031250
506		85.937500
507		82.031250
508		85.937500
509		82.031250
510		83.984375
511		80.078125
512		85.937500
513		80.078125
514		83.984375
515		80.078125
516		83.984375
517		80.078125
518		82.031250
519		78.125000
520		82.031250
521		76.171875
522		80.078125
523		76.171875
524		80.078125
525		74.218750
526		78.125000
527		72.265625
528		76.171875
529		70.312500
530		74.218750
531		68.359375
532		72.265625
533		66.406250
534		70.312500
535		62.500000
536		66.406250
537		60.546875
538		64.453125
539		58.593750
540		62.500000
541		54.687500
542		60.546875
543		52.734375
544		56.640625
545		48.828125
546		54.687500
547		44.921875
548		50.781250
549		42.968750
550		48.828125
551		39.062500
552		44.921875
553		35.156250
554		41.015625
555		31.250000
556		37.109375
557		27.343750
558		33.203125
559		25.390625
560		29.296875
561		19.531250
562		27.343750
563		15.625000
564		21.484375
565		13.671875
566		19.531250
567		9.765625
568		15.625000
569		5.859375
570		11.718750
571		0.000000
572		7.812500
573		-3.906250
574		3.906250
575		-5.859375
576		0.000000
577		-9.765625
578		-3.906250
579		-13.671875
580		-9.765625
581		-17.578125
582		-11.718750
583		-21.484375
584		-15.625000
585		-25.390625
586		-19.531250
587		-29.296875
588		-23.437500
589		-33.203125
590		-27.343750
591		-37.109375
592		-31.250000
593		-39.062500
594		-35.156250
595		-42.968750
596		-39.062500
597		-46.875000
598		-41.015625
599		-50.781250
600		-44.921875
601		-52.734375
602		-46.875000
603		-54.687500
604		-50.781250
605		-56.640625
606		-52.734375
607		-60.546875
608		-54.687500
609		-62.500000
610		-58.593750
611		-64.453125
612		-60.546875
613		-66.406250
614		-62.500000
615		-68.359375
616		-64.453125
617		-70.312500
618		-66.406250
619		-72.265625
620		-66.406250
621		-72.265625
622		-68.359375
623		-74.218750
624		-70.312500
625		-74.218750
626		-70.312500
627		-74.218750
628		-72.265625
629		-76.171875
630		-70.312500
631		-76.171875
632		-72.265625
633		-76.171875
634		-72.265625
635		-74.218750
636		-72.265625
637		-74.218750
638		-72.265625
639		-74.218750
640		-70.312500
641		-74.218750
642		-70.312500
643		-72.265625
644		-68.359375
645		-70.312500
646		-66.406250
647		-70.312500
648		-66.406250
649		-68.359375
650		-64.453125
651		-66.406250
652		-62.500000
653		-64.453125
654		-60.546875
655		-62.500000
656		-56.640625
657		-58.593750
658		-54.687500
659		-56.640625
660		-52.734375
661		-54.687500
662		-50.781250
663		-52.734375
664		-46.875000
665		-48.828125
666		-44.921875
667		-44.921875
668		-41.015625
669		-42.968750
670		-37.109375
671		-39.062500
672		-35.156250
673		-37.109375
674		-31.250000
675		-31.250000
676		-27.343750
677		-29.296875
678		-23.437500
679		-25.390625
680		-19.531250
681		-21.484375
682		-15.625000
683		-17.578125
684		-11.718750
685		-13.671875
686		-7.812500
687		-9.765625
688		-3.906250
689		-5.859375
690		0.000000
691		-1.953125
692		3.906250
693		1.953125
694		7.812500
695		5.859375
696		11.718750
697		9.765625
698		15.625000
699		13.671875
700		19.531250
701		17.578125
702		23.437500
703		21.484375
704		27.343750
705		25.390625
706		31.250000
707		29.296875
708		35.156250
709		31.250000
710		37.109375
711		37.109375
712		41.015625
713		39.062500
714		44.921875
715		42.968750
716		48.828125
717		46.875000
718		50.781250
719		50.781250
720		54.687500
721		52.734375
722		56.640625
723		54.687500
724		60.546875
725		58.593750
726		62.500000
727		60.546875
728		64.453125
729		64.453125
730		68.359375
731		64.453125
732		70.312500
733		68.359375
734		72.265625
735		70.312500
736		74.218750
737		72.265625
738		76.171875
739		74.218750
740		78.125000
741		76.171875
742		80.078125
743		78.125000
744		80.078125
745		80.078125
746		82.031250
747		80.078125
748		83.984375
749		80.078125
750		83.984375
751		82.031250
752		83.984375
753		82.031250
754		85.937500
755		82.031250
756		85.937500
757		82.031250
758		85.937500
759		83.984375
760		85.937500
761		83.984375
762		85.937500
763		82.031250
764		85.937500
765		82.031250
766		85.937500
767		82.031250
768		85.937500
769		80.078125
770		83.984375
771		80.078125
772		83.984375
773		78.125000
774		82.031250
775		76.171875
776		80.078125
777		76.171875
778		78.125000
779		74.218750
780		78.125000
781		72.265625
782		76.171875
783		70.312500
784		74.218750
785		68.359375
786		72.265625
787		66.406250
788		70.312500
789		64.453125
790		66.406250
791		60.546875
792		64.453125
793		58.593750
794		62.500000
795		54.687500
796		58.593750
797		50.781250
798		56.640625
799		48.828125
800		54.687500
801		44.921875
802		50.781250
803		42.968750
804		46.875000
805		39.062500
806		44.921875
807		33.203125
808		41.015625
809		31.250000
810		37.109375
811		27.343750
812		33.203125
813		23.437500
814		29.296875
815		19.531250
816		27.343750
817		17.578125
818		23.437500
819		13.671875
820		17.578125
821		7.812500
822		13.671875
823		3.906250
824		9.765625
825		0.000000
826		7.812500
827		-3.906250
828		3.906250
829		-7.812500
830		-1.953125
831		-11.718750
832		-5.859375
833		-15.625000
834		-9.765625
835		-17.578125
836		-13.671875
837		-23.437500
838		-17.578125
839		-27.343750
840		-21.484375
841		-31.250000
842		-23.437500
843		-33.203125
844		-27.343750
845		-37.109375
846		-31.250000
847		-41.015625
848		-35.156250
849		-44.921875
850		-39.062500
851		-46.875000
852		-42.968750
853		-48.828125
854		-44.921875
855		-52.734375
856		-48.828125
857		-56.640625
858		-50.781250
859		-58.593750
860		-52.734375
861		-60.546875
862		-56.640625
863		-62.500000
864		-58.593750
865		-66.406250
866		-60.546875
867		-68.359375
868		-62.500000
869		-68.359375
870		-64.453125
871		-70.312500
872		-66.406250
873		-72.265625
874		-68.359375
875		-72.265625
876		-68.359375
877		-74.218750
878		-70.312500
879		-74.218750
880		-72.265625
881		-76.171875
882		-72.265625
883		-76.171875
884		-72.265625
885		-76.171875
886		-72.265625
887		-76.171875
888		-72.265625
889		-74.218750
890		-72.265625
891		-74.218750
892		-70.312500
893		-74.218750
894		-70.312500
895		-72.265625
896		-70.312500
897		-72.265625
898		-68.359375
899		-72.265625
900		-66.406250
901		-70.312500
902		-66.406250
903		-68.359375
904		-64.453125
905		-66.406250
906		-62.500000
907		-64.453125
908		-60.546875
909		-62.500000
910		-56.640625
911		-60.546875
912		-54.687500
913		-56.640625
914		-52.734375
915		-54.687500
916		-48.828125
917		-52.734375
918		-46.875000
919		-48.828125
920		-42.968750
921		-44.921875
922		-41.015625
923		-41.015625
924		-37.109375
925		-39.062500
926		-33.203125
927		-35.156250
928		-31.250000
929		-31.250000
930		-27.343750
931		-27.343750
932		-21.484375
933		-23.437500
934		-17.578125
935		-21.484375
936		-15.625000
937		-17.578125
938		-11.718750
939		-11.718750
940		-7.812500
941		-9.765625
942		-3.906250
943		-3.906250
944		1.953125
945		-1.953125
946		3.906250
947		1.953125
948		7.812500
949		5.859375
950		13.671875
951		9.765625
952		17.578125
953		13.671875
954		19.531250
955		17.578125
956		23.437500
957		21.484375
958		27.343750
959		25.390625
960		31.250000
961		29.296875
962		35.156250
963		33.203125
964		39.062500
965		37.109375
966		42.968750
967		39.062500
968		46.875000
969		42.968750
970		48.828125
971		46.875000
972		50.781250
973		48.828125
974		54.687500
975		52.734375
976		58.593750
977		56.640625
978		60.546875
979		58.593750
980		62.500000
981		60.546875
982		66.406250
983		62.500000
984		70.312500
985		64.453125
986		72.265625
987		66.406250
988		74.218750
989		70.312500
990		76.171875
991		72.265625
992		78.125000
993		72.265625
994		80.078125
995		74.218750
996		80.078125
997		78.125000
998		80.078125
999		78.125000
1000		83.984375
1001		78.125000
1002		85.937500
1003		78.125000
1004		85.937500
1005		82.031250
1006		85.937500
1007		80.078125
1008		85.937500
1009		80.078125
1010		85.937500
1011		80.078125
1012		87.890625
1013		83.984375
1014		85.937500
1015		80.078125
1016		85.937500
1017		80.078125
1018		85.937500
1019		80.078125
1020		85.937500
1021		78.125000
1022		85.937500
1023		78.125000
1024		83.984375
1025		76.171875
1026		83.984375
1027		76.171875
1028		83.984375
1029		76.171875
1030		80.078125
1031		74.218750
1032		78.125000
1033		70.312500
1034		78.125000
1035		70.312500
1036		76.171875
1037		68.359375
1038		74.218750
1039		66.406250
1040		72.265625
1041		62.500000
1042		70.312500
1043		60.546875
1044		68.359375
1045		58.593750
1046		66.406250
1047		56.640625
1048		60.546875
1049		52.734375
1050		58.593750
1051		48.828125
1052		58.593750
1053		44.921875
1054		54.687500
1055		42.968750
1056		50.781250
1057		39.062500
1058		46.875000
1059		35.156250
1060		44.921875
1061		33.203125
1062		41.015625
1063		31.250000
1064		35.156250
1065		27.343750
1066		31.250000
1067		21.484375
1068		31.250000
1069		17.578125
1070		27.343750
1071		13.671875
1072		21.484375
1073		9.765625
1074		17.578125
1075		5.859375
1076		15.625000
1077		1.953125
1078		9.765625
1079		0.000000
1080		5.859375
1081		-3.906250
1082		1.953125
1083		-11.718750
1084		-1.953125
1085		-13.671875
1086		-5.859375
1087		-17.578125
1088		-7.812500
1089		-21.484375
1090		-11.718750
1091		-25.390625
1092		-17.578125
1093		-29.296875
1094		-19.531250
1095		-31.250000
1096		-23.437500
1097		-35.156250
1098		-29.296875
1099		-39.062500
1100		-33.203125
1101		-42.968750
1102		-33.203125
1103		-48.828125
1104		-37.109375
1105		-50.781250
1106		-41.015625
1107		-52.734375
1108		-44.921875
1109		-56.640625
1110		-46.875000
1111		-58.593750
1112		-48.828125
1113		-58.593750
1114		-54.687500
1115		-60.546875
1116		-56.640625
1117		-66.406250
1118		-58.593750
1119		-66.406250
1120		-58.593750
1121		-70.312500
1122		-60.546875
1123		-70.312500
1124		-62.500000
1125		-72.265625
1126		-64.453125
1127		-74.218750
1128		-66.406250
1129		-74.218750
1130		-66.406250
1131		-72.265625
1132		-70.312500
1133		-76.171875
1134		-70.312500
1135		-78.125000
1136		-68.359375
1137		-76.171875
1138		-70.312500
1139		-78.125000
1140		-70.312500
1141		-78.125000
1142		-70.312500
1143		-76.171875
1144		-70.312500
1145		-76.171875
1146		-68.359375
1147		-72.265625
1148		-70.312500
1149		-72.265625
1150		-68.359375
1151		-72.265625
1152		-66.406250
1153		-72.265625
1154		-64.453125
1155		-70.312500
1156		-62.500000
1157		-68.359375
1158		-60.546875
1159		-66.406250
1160		-58.593750
1161		-64.453125
1162		-56.640625
1163		-60.546875
1164		-56.640625
1165		-58.593750
1166		-54.687500
1167		-56.640625
1168		-48.828125
1169		-56.640625
1170		-46.875000
1171		-52.734375
1172		-42.968750
1173		-48.828125
1174		-39.062500
1175		-44.921875
1176		-37.109375
1177		-42.968750
1178		-33.203125
1179		-39.062500
1180		-31.250000
1181		-33.203125
1182		-29.296875
1183		-31.250000
1184		-23.437500
1185		-29.296875
1186		-19.531250
1187		-25.390625
1188		-15.625000
1189		-21.484375
1190		-11.718750
1191		-17.578125
1192		-7.812500
1193		-13.671875
1194		-3.906250
1195		-9.765625
1196		0.000000
1197		-3.906250
1198		1.953125
1199		0.000000
1200		5.859375
1201		3.906250
1202		11.718750
1203		5.859375
1204		15.625000
1205		9.765625
1206		19.531250
1207		13.671875
1208		23.437500
1209		17.578125
1210		27.343750
1211		21.484375
1212		31.250000
1213		25.390625
1214		33.203125
1215		31.250000
1216		37.109375
1217		35.156250
1218		41.015625
1219		37.109375
1220		44.921875
1221		39.062500
1222		48.828125
1223		42.968750
1224		52.734375
1225		46.875000
1226		54.687500
1227		48.828125
1228		58.593750
1229		52.734375
1230		60.546875
1231		56.640625
1232		62.500000
1233		60.546875
1234		64.453125
1235		60.546875
1236		68.359375
1237		62.500000
1238		70.312500
1239		64.453125
1240		72.265625
1241		68.359375
1242		74.218750
1243		68.359375
1244		76.171875
1245		72.265625
1246		78.125000
1247		74.218750
1248		78.125000
1249		76.171875
1250		80.078125
1251		76.171875
1252		83.984375
1253		76.171875
1254		83.984375
1255		78.125000
1256		85.937500
1257		78.125000
1258		85.937500
1259		80.078125
1260		87.890625
1261		80.078125
1262		87.890625
1263		80.078125
1264		87.890625
1265		83.984375
1266		85.937500
1267		83.984375
1268		85.937500
1269		80.078125
1270		87.890625
1271		80.078125
1272		87.890625
1273		80.078125
1274		85.937500
1275		80.078125
1276		85.937500
1277		78.125000
1278		85.937500
1279		76.171875
1280		83.984375
1281		78.125000
1282		80.078125
1283		76.171875
1284		80.078125
1285		72.265625
1286		80.078125
1287		70.312500
1288		78.125000
1289		68.359375
1290		76.171875
1291		66.406250
1292		74.218750
1293		64.453125
1294		72.265625
1295		60.546875
1296		70.312500
1297		60.546875
1298		68.359375
1299		58.593750
1300		62.500000
1301		52.734375
1302		60.546875
1303		50.781250
1304		58.593750
1305		48.828125
1306		56.640625
1307		44.921875
1308		54.687500
1309		41.015625
1310		50.781250
1311		39.062500
1312		46.875000
1313		35.156250
1314		42.968750
1315		33.203125
1316		37.109375
1317		29.296875
1318		35.156250
1319		23.437500
1320		31.250000
1321		19.531250
1322		29.296875
1323		15.625000
1324		25.390625
1325		11.718750
1326		21.484375
1327		7.812500
1328		17.578125
1329		3.906250
1330		13.671875
1331		1.953125
1332		9.765625
1333		-1.953125
1334		3.906250
1335		-7.812500
1336		0.000000
1337		-11.718750
1338		-1.953125
1339		-15.625000
1340		-5.859375
1341		-19.531250
1342		-9.765625
1343		-23.437500
1344		-13.671875
1345		-27.343750
1346		-17.578125
1347		-29.296875
1348		-21.484375
1349		-33.203125
1350		-27.343750
1351		-35.156250
1352		-31.250000
1353		-41.015625
1354		-31.250000
1355		-44.921875
1356		-35.156250
1357		-46.875000
1358		-39.062500
1359		-50.781250
1360		-42.968750
1361		-54.687500
1362		-44.921875
1363		-56.640625
1364		-48.828125
1365		-56.640625
1366		-52.734375
1367		-60.546875
1368		-54.687500
1369		-64.453125
1370		-56.640625
1371		-66.406250
1372		-58.593750
1373		-68.359375
1374		-60.546875
1375		-70.312500
1376		-62.500000
1377		-72.265625
1378		-64.453125
1379		-74.218750
1380		-66.406250
1381		-74.218750
1382		-66.406250
1383		-72.265625
1384		-70.312500
1385		-76.171875
1386		-70.312500
1387		-76.171875
1388		-70.312500
1389		-78.125000
1390		-70.312500
1391		-78.125000
1392		-70.312500
1393		-78.125000
1394		-70.312500
1395		-78.125000
1396		-70.312500
1397		-76.171875
1398		-70.312500
1399		-74.218750
1400		-72.265625
1401		-72.265625
1402		-70.312500
1403		-74.218750
1404		-66.406250
1405		-74.218750
1406		-66.406250
1407		-72.265625
1408		-64.453125
1409		-70.312500
1410		-62.500000
1411		-68.359375
1412		-60.546875
1413		-66.406250
1414		-58.593750
1415		-64.453125
1416		-58.593750
1417		-60.546875
1418		-56.640625
1419		-58.593750
1420		-50.781250
1421		-56.640625
1422		-48.828125
1423		-54.687500
1424		-44.921875
1425		-52.734375
1426		-42.968750
1427		-48.828125
1428		-39.062500
1429		-44.921875
1430		-37.109375
1431		-42.968750
1432		-35.156250
1433		-37.109375
1434		-31.250000
1435		-33.203125
1436		-27.343750
1437		-31.250000
1438		-21.484375
1439		-27.343750
1440		-19.531250
1441		-23.437500
1442		-15.625000
1443		-19.531250
1444		-9.765625
1445		-17.578125
1446		-7.812500
1447		-11.718750
1448		-3.906250
1449		-5.859375
1450		-1.953125
1451		-1.953125
1452		1.953125
1453		1.953125
1454		7.812500
1455		3.906250
1456		13.671875
1457		7.812500
1458		17.578125
1459		11.718750
1460		19.531250
1461		15.625000
1462		23.437500
1463		19.531250
1464		27.343750
1465		21.484375
1466		29.296875
1467		29.296875
1468		33.203125
1469		31.250000
1470		39.062500
1471		33.203125
1472		42.968750
1473		37.109375
1474		46.875000
1475		41.015625
1476		48.828125
1477		44.921875
1478		52.734375
1479		46.875000
1480		56.640625
1481		50.781250
1482		58.593750
1483		54.687500
1484		58.593750
1485		58.593750
1486		62.500000
1487		58.593750
1488		66.406250
1489		60.546875
1490		68.359375
1491		64.453125
1492		72.265625
1493		66.406250
1494		74.218750
1495		68.359375
1496		76.171875
1497		70.312500
1498		78.125000
1499		72.265625
1500		78.125000
1501		76.171875
1502		78.125000
1503		76.171875
1504		82.031250
1505		76.171875
1506		83.984375
1507		78.125000
1508		83.984375
1509		78.125000
1510		85.937500
1511		80.078125
1512		85.937500
1513		80.078125
1514		85.937500
1515		80.078125
1516		87.890625
1517		83.984375
1518		85.937500
1519		83.984375
1520		85.937500
1521		80.078125
1522		87.890625
1523		80.078125
1524		87.890625
1525		80.078125
1526		87.890625
1527		80.078125
1528		85.937500
1529		78.125000
1530		85.937500
1531		78.125000
1532		85.937500
1533		78.125000
1534		82.031250
1535		78.125000
1536		80.078125
1537		74.218750
1538		80.078125
1539		72.265625
1540		80.078125
1541		70.312500
1542		78.125000
1543		68.359375
1544		76.171875
1545		66.406250
1546		74.218750
1547		64.453125
1548		72.265625
1549		62.500000
1550		70.312500
1551		60.546875
1552		64.453125
1553		56.640625
1554		62.500000
1555		52.734375
1556		62.500000
1557		50.781250
1558		58.593750
1559		46.875000
1560		56.640625
1561		44.921875
1562		52.734375
1563		41.015625
1564		48.828125
1565		37.109375
1566		46.875000
1567		35.156250
1568		41.015625
1569		33.203125
1570		37.109375
1571		25.390625
1572		35.156250
1573		21.484375
1574		31.250000
1575		19.531250
1576		27.343750
1577		13.671875
1578		25.390625
1579		11.718750
1580		21.484375
1581		7.812500
1582		17.578125
1583		5.859375
1584		13.671875
1585		1.953125
1586		7.812500
1587		-3.906250
1588		1.953125
1589		-7.812500
1590		1.953125
1591		-11.718750
1592		-1.953125
1593		-15.625000
1594		-7.812500
1595		-19.531250
1596		-9.765625
1597		-23.437500
1598		-15.625000
1599		-25.390625
1600		-19.531250
1601		-29.296875
1602		-23.437500
1603		-33.203125
1604		-27.343750
1605		-39.062500
1606		-29.296875
1607		-41.015625
1608		-33.203125
1609		-44.921875
1610		-37.109375
1611		-48.828125
1612		-39.062500
1613		-50.781250
1614		-42.968750
1615		-54.687500
1616		-44.921875
1617		-54.687500
1618		-48.828125
1619		-56.640625
1620		-52.734375
1621		-60.546875
1622		-56.640625
1623		-62.500000
1624		-56.640625
1625		-64.453125
1626		-58.593750
1627		-66.406250
1628		-60.546875
1629		-70.312500
1630		-62.500000
1631		-72.265625
1632		-64.453125
1633		-70.312500
1634		-66.406250
1635		-72.265625
1636		-68.359375
1637		-74.218750
1638		-68.359375
1639		-76.171875
1640		-68.359375
1641		-76.171875
1642		-68.359375
1643		-76.171875
1644		-70.312500
1645		-76.171875
1646		-70.312500
1647		-76.171875
1648		-68.359375
1649		-76.171875
1650		-68.359375
1651		-72.265625
1652		-70.312500
1653		-72.265625
1654		-70.312500
1655		-74.218750
1656		-66.406250
1657		-74.218750
1658		-66.406250
1659		-72.265625
1660		-64.453125
1661		-70.312500
1662		-62.500000
1663		-68.359375
1664		-60.546875
1665		-66.406250
1666		-58.593750
1667		-64.453125
1668		-58.593750
1669		-60.546875
1670		-56.640625
1671		-58.593750
1672		-52.734375
1673		-58.593750
1674		-48.828125
1675		-56.640625
1676		-46.875000
1677		-52.734375
1678		-42.968750
1679		-50.781250
1680		-41.015625
1681		-46.875000
1682		-37.109375
1683		-44.921875
1684		-35.156250
1685		-37.109375
1686		-33.203125
1687		-35.156250
1688		-29.296875
1689		-33.203125
1690		-23.437500
1691		-29.296875
1692		-19.531250
1693		-25.390625
1694		-15.625000
1695		-21.484375
1696		-11.718750
1697		-17.578125
1698		-7.812500
1699		-13.671875
1700		-3.906250
1701		-9.765625
1702		-1.953125
1703		-3.906250
1704		1.953125
1705		-1.953125
1706		7.812500
1707		1.953125
1708		11.718750
1709		5.859375
1710		15.625000
1711		9.765625
1712		19.531250
1713		13.671875
1714		23.437500
1715		17.578125
1716		27.343750
1717		21.484375
1718		27.343750
1719		27.343750
1720		31.250000
1721		31.250000
1722		39.062500
1723		31.250000
1724		41.015625
1725		35.156250
1726		44.921875
1727		39.062500
1728		48.828125
1729		42.968750
1730		50.781250
1731		44.921875
1732		54.687500
1733		48.828125
1734		56.640625
1735		54.687500
1736		58.593750
1737		56.640625
1738		60.546875
1739		58.593750
1740		66.406250
1741		60.546875
1742		68.359375
1743		62.500000
1744		72.265625
1745		64.453125
1746		72.265625
1747		66.406250
1748		76.171875
1749		68.359375
1750		78.125000
1751		72.265625
1752		78.125000
1753		76.171875
1754		78.125000
1755		76.171875
1756		82.031250
1757		76.171875
1758		83.984375
1759		76.171875
1760		85.937500
1761		78.125000
1762		85.937500
1763		80.078125
1764		85.937500
1765		80.078125
1766		87.890625
1767		80.078125
1768		87.890625
1769		83.984375
1770		85.937500
1771		83.984375
1772		85.937500
1773		80.078125
1774		87.890625
1775		82.031250
1776		87.890625
1777		80.078125
1778		87.890625
1779		80.078125
1780		87.890625
1781		80.078125
1782		87.890625
1783		78.125000
1784		85.937500
1785		80.078125
1786		85.937500
1787		78.125000
1788		82.031250
1789		74.218750
1790		82.031250
1791		74.218750
1792		82.031250
1793		72.265625
1794		80.078125
1795		70.312500
1796		78.125000
1797		68.359375
1798		76.171875
1799		66.406250
1800		74.218750
1801		64.453125
1802		72.265625
1803		62.500000
1804		66.406250
1805		58.593750
1806		64.453125
1807		54.687500
1808		64.453125
1809		52.734375
1810		60.546875
1811		48.828125
1812		58.593750
1813		46.875000
1814		54.687500
1815		42.968750
1816		52.734375
1817		41.015625
1818		48.828125
1819		39.062500
1820		42.968750
1821		35.156250
1822		39.062500
1823		29.296875
1824		37.109375
1825		25.390625
1826		35.156250
1827		21.484375
1828		31.250000
1829		17.578125
1830		27.343750
1831		13.671875
1832		23.437500
1833		9.765625
1834		19.531250
1835		7.812500
1836		15.625000
1837		3.906250
1838		9.765625
1839		-1.953125
1840		5.859375
1841		-5.859375
1842		3.906250
1843		-9.765625
1844		0.000000
1845		-13.671875
1846		-3.906250
1847		-17.578125
1848		-7.812500
1849		-21.484375
1850		-11.718750
1851		-23.437500
1852		-15.625000
1853		-27.343750
1854		-21.484375
1855		-29.296875
1856		-25.390625
1857		-35.156250
1858		-27.343750
1859		-39.062500
1860		-31.250000
1861		-42.968750
1862		-33.203125
1863		-46.875000
1864		-37.109375
1865		-48.828125
1866		-41.015625
1867		-52.734375
1868		-42.968750
1869		-52.734375
1870		-46.875000
1871		-54.687500
1872		-50.781250
1873		-60.546875
1874		-52.734375
1875		-62.500000
1876		-54.687500
1877		-64.453125
1878		-56.640625
1879		-66.406250
1880		-58.593750
1881		-68.359375
1882		-60.546875
1883		-70.312500
1884		-62.500000
1885		-70.312500
1886		-64.453125
1887		-70.312500
1888		-68.359375
1889		-72.265625
1890		-68.359375
1891		-76.171875
1892		-68.359375
1893		-76.171875
1894		-68.359375
1895		-76.171875
1896		-70.312500
1897		-76.171875
1898		-70.312500
1899		-76.171875
1900		-70.312500
1901		-76.171875
1902		-70.312500
1903		-74.218750
1904		-72.265625
1905		-74.218750
1906		-70.312500
1907		-74.218750
1908		-68.359375
1909		-74.218750
1910		-66.406250
1911		-74.218750
1912		-66.406250
1913		-72.265625
1914		-64.453125
1915		-70.312500
1916		-62.500000
1917		-68.359375
1918		-60.546875
1919		-66.406250
1920		-60.546875
1921		-62.500000
1922		-58.593750
1923		-60.546875
1924		-54.687500
1925		-60.546875
1926		-52.734375
1927		-56.640625
1928		-48.828125
1929		-54.687500
1930		-46.875000
1931		-52.734375
1932		-42.968750
1933		-48.828125
1934		-39.062500
1935		-46.875000
1936		-37.109375
1937		-41.015625
1938		-35.156250
1939		-37.109375
1940		-31.250000
1941		-35.156250
1942		-27.343750
1943		-33.203125
1944		-23.437500
1945		-29.296875
1946		-19.531250
1947		-25.390625
1948		-15.625000
1949		-21.484375
1950		-11.718750
1951		-17.578125
1952		-7.812500
1953		-11.718750
1954		-5.859375
1955		-7.812500
1956		-1.953125
1957		-3.906250
1958		3.906250
1959		0.000000
1960		7.812500
1961		1.953125
1962		11.718750
1963		5.859375
1964		15.625000
1965		9.765625
1966		19.531250
1967		13.671875
1968		23.437500
1969		17.578125
1970		25.390625
1971		23.437500
1972		29.296875
1973		27.343750
1974		33.203125
1975		29.296875
1976		39.062500
1977		33.203125
1978		42.968750
1979		37.109375
1980		44.921875
1981		39.062500
1982		48.828125
1983		42.968750
1984		52.734375
1985		46.875000
1986		54.687500
1987		50.781250
1988		56.640625
1989		54.687500
1990		58.593750
1991		56.640625
1992		64.453125
1993		58.593750
1994		66.406250
1995		60.546875
1996		68.359375
1997		62.500000
1998		70.312500
1999		64.453125
2000		74.218750
2001		66.406250
2002		76.171875
2003		70.312500
2004		76.171875
2005		74.218750
2006		78.125000
2007		74.218750
2008		80.078125
2009		76.171875
2010		82.031250
2011		76.171875
2012		83.984375
2013		78.125000
2014		85.937500
2015		78.125000
2016		85.937500
2017		80.078125
2018		85.937500
2019		80.078125
2020		87.890625
2021		83.984375
2022		85.937500
2023		83.984375
2024		85.937500
2025		82.031250
2026		87.890625
2027		82.031250
2028		87.890625
2029		82.031250
2030		87.890625
2031		82.031250
2032		87.890625
2033		80.078125
2034		87.890625
2035		80.078125
2036		87.890625
2037		80.078125
2038		85.937500
2039		80.078125
2040		82.031250
2041		76.171875
2042		83.984375
2043		74.218750
2044		82.031250
2045		72.265625
2046		80.078125
2047		72.265625
2048		80.078125
2049		68.359375
2050		78.125000
2051		66.406250
2052		76.171875
2053		66.406250
2054		74.218750
2055		64.453125
2056		68.359375
2057		62.500000
2058		66.406250
2059		58.593750
2060		66.406250
2061		54.687500
2062		62.500000
2063		52.734375
2064		60.546875
2065		48.828125
2066		56.640625
2067		44.921875
2068		54.687500
2069		42.968750
2070		50.781250
2071		41.015625
2072		48.828125
2073		37.109375
2074		42.968750
2075		31.250000
2076		39.062500
2077		27.343750
2078		37.109375
2079		23.437500
2080		35.156250
2081		21.484375
2082		31.250000
2083		17.578125
2084		25.390625
2085		13.671875
2086		23.437500
2087		11.718750
2088		19.531250
2089		7.812500
2090		13.671875
2091		1.953125
2092		9.765625
2093		-1.953125
2094		7.812500
2095		-5.859375
2096		1.953125
2097		-9.765625
2098		0.000000
2099		-13.671875
2100		-5.859375
2101		-17.578125
2102		-7.812500
2103		-19.531250
2104		-11.718750
2105		-23.437500
2106		-17.578125
2107		-27.343750
2108		-21.484375
2109		-35.156250
2110		-25.390625
2111		-37.109375
2112		-27.343750
2113		-39.062500
2114		-31.250000
2115		-42.968750
2116		-33.203125
2117		-46.875000
2118		-37.109375
2119		-48.828125
2120		-41.015625
2121		-50.781250
2122		-42.968750
2123		-52.734375
2124		-48.828125
2125		-58.593750
2126		-50.781250
2127		-60.546875
2128		-52.734375
2129		-62.500000
2130		-52.734375
2131		-64.453125
2132		-56.640625
2133		-66.406250
2134		-58.593750
2135		-68.359375
2136		-60.546875
2137		-70.312500
2138		-62.500000
2139		-68.359375
2140		-66.406250
2141		-72.265625
2142		-66.406250
2143		-74.218750
2144		-66.406250
2145		-74.218750
2146		-68.359375
2147		-74.218750
2148		-68.359375
2149		-76.171875
2150		-68.359375
2151		-76.171875
2152		-68.359375
2153		-76.171875
2154		-68.359375
2155		-74.218750
2156		-70.312500
2157		-72.265625
2158		-70.312500
2159		-74.218750
2160		-66.406250
2161		-74.218750
2162		-66.406250
2163		-74.218750
2164		-66.406250
2165		-72.265625
2166		-64.453125
2167		-70.312500
2168		-62.500000
2169		-68.359375
2170		-60.546875
2171		-66.406250
2172		-60.546875
2173		-62.500000
2174		-58.593750
2175		-60.546875
2176		-54.687500
2177		-60.546875
2178		-52.734375
2179		-58.593750
2180		-50.781250
2181		-56.640625
2182		-46.875000
2183		-52.734375
2184		-44.921875
2185		-50.781250
2186		-41.015625
2187		-46.875000
2188		-39.062500
2189		-42.968750
2190		-37.109375
2191		-39.062500
2192		-33.203125
2193		-37.109375
2194		-27.343750
2195		-35.156250
2196		-23.437500
2197		-29.296875
2198		-21.484375
2199		-27.343750
2200		-15.625000
2201		-21.484375
2202		-13.671875
2203		-19.531250
2204		-9.765625
2205		-15.625000
2206		-7.812500
2207		-9.765625
2208		-3.906250
2209		-5.859375
2210		1.953125
2211		-3.906250
2212		5.859375
2213		0.000000
2214		9.765625
2215		3.906250
2216		13.671875
2217		9.765625
2218		17.578125
2219		11.718750
2220		21.484375
2221		15.625000
2222		23.437500
2223		21.484375
2224		27.343750
2225		25.390625
2226		31.250000
2227		27.343750
2228		37.109375
2229		31.250000
2230		41.015625
2231		35.156250
2232		44.921875
2233		39.062500
2234		46.875000
2235		41.015625
2236		50.781250
2237		44.921875
2238		52.734375
2239		48.828125
2240		54.687500
2241		52.734375
2242		58.593750
2243		54.687500
2244		62.500000
2245		56.640625
2246		66.406250
2247		58.593750
2248		68.359375
2249		62.500000
2250		70.312500
2251		64.453125
2252		72.265625
2253		68.359375
2254		76.171875
2255		70.312500
2256		76.171875
2257		72.265625
2258		76.171875
2259		74.218750
2260		80.078125
2261		74.218750
2262		82.031250
2263		76.171875
2264		83.984375
2265		78.125000
2266		83.984375
2267		78.125000
2268		85.937500
2269		80.078125
2270		85.937500
2271		80.078125
2272		87.890625
2273		83.984375
2274		85.937500
2275		83.984375
2276		85.937500
2277		82.031250
2278		89.843750
2279		82.031250
2280		87.890625
2281		82.031250
2282		87.890625
2283		82.031250
2284		87.890625
2285		80.078125
2286		87.890625
2287		80.078125
2288		87.890625
2289		80.078125
2290		87.890625
2291		82.031250
2292		83.984375
2293		80.078125
2294		83.984375
2295		76.171875
2296		83.984375
2297		74.218750
2298		82.031250
2299		74.218750
2300		80.078125
2301		70.312500
2302		80.078125
2303		70.312500
2304		78.125000
2305		68.359375
2306		74.218750
2307		68.359375
2308		70.312500
2309		64.453125
2310		68.359375
2311		60.546875
2312		68.359375
2313		56.640625
2314		66.406250
2315		54.687500
2316		62.500000
2317		50.781250
2318		60.546875
2319		48.828125
2320		58.593750
2321		44.921875
2322		54.687500
2323		44.921875
2324		50.781250
2325		41.015625
2326		44.921875
2327		35.156250
2328		42.968750
2329		31.250000
2330		41.015625
2331		27.343750
2332		37.109375
2333		23.437500
2334		33.203125
2335		21.484375
2336		29.296875
2337		17.578125
2338		25.390625
2339		13.671875
2340		21.484375
2341		11.718750
2342		15.625000
2343		5.859375
2344		11.718750
2345		0.000000
2346		11.718750
2347		-3.906250
2348		5.859375
2349		-7.812500
2350		1.953125
2351		-9.765625
2352		-1.953125
2353		-13.671875
2354		-5.859375
2355		-17.578125
2356		-9.765625
2357		-19.531250
2358		-15.625000
2359		-25.390625
2360		-19.531250
2361		-29.296875
2362		-21.484375
2363		-33.203125
2364		-25.390625
2365		-37.109375
2366		-29.296875
2367		-41.015625
2368		-31.250000
2369		-44.921875
2370		-35.156250
2371		-46.875000
2372		-37.109375
2373		-46.875000
2374		-41.015625
2375		-50.781250
2376		-46.875000
2377		-56.640625
2378		-48.828125
2379		-58.593750
2380		-48.828125
2381		-60.546875
2382		-52.734375
2383		-62.500000
2384		-54.687500
2385		-64.453125
2386		-56.640625
2387		-68.359375
2388		-58.593750
2389		-68.359375
2390		-60.546875
2391		-68.359375
2392		-64.453125
2393		-70.312500
2394		-66.406250
2395		-74.218750
2396		-66.406250
2397		-74.218750
2398		-66.406250
2399		-74.218750
2400		-68.359375
2401		-76.171875
2402		-68.359375
2403		-76.171875
2404		-68.359375
2405		-76.171875
2406		-68.359375
2407		-76.171875
2408		-68.359375
2409		-72.265625
2410		-70.312500
2411		-74.218750
2412		-68.359375
2413		-74.218750
2414		-66.406250
2415		-74.218750
2416		-66.406250
2417		-72.265625
2418		-66.406250
2419		-72.265625
2420		-64.453125
2421		-70.312500
2422		-62.500000
2423		-68.359375
2424		-60.546875
2425		-64.453125
2426		-60.546875
2427		-62.500000
2428		-56.640625
2429		-62.500000
2430		-54.687500
2431		-60.546875
2432		-50.781250
2433		-56.640625
2434		-48.828125
2435		-54.687500
2436		-46.875000
2437		-52.734375
2438		-42.968750
2439		-48.828125
2440		-41.015625
2441		-44.921875
2442		-39.062500
2443		-41.015625
2444		-35.156250
2445		-39.062500
2446		-31.250000
2447		-37.109375
2448		-27.343750
2449		-33.203125
2450		-23.437500
2451		-29.296875
2452		-19.531250
2453		-25.390625
2454		-15.625000
2455		-21.484375
2456		-11.718750
2457		-17.578125
2458		-9.765625
2459		-11.718750
2460		-5.859375
2461		-7.812500
2462		0.000000
2463		-5.859375
2464		3.906250
2465		-1.953125
2466		7.812500
2467		1.953125
2468		11.718750
2469		5.859375
2470		15.625000
2471		9.765625
2472		17.578125
2473		13.671875
2474		21.484375
2475		19.531250
2476		25.390625
2477		23.437500
2478		29.296875
2479		25.390625
2480		35.156250
2481		29.296875
2482		39.062500
2483		33.203125
2484		42.968750
2485		35.156250
2486		44.921875
2487		39.062500
2488		48.828125
2489		42.968750
2490		50.781250
2491		46.875000
2492		52.734375
2493		50.781250
2494		56.640625
2495		54.687500
2496		60.546875
2497		54.687500
2498		62.500000
2499		58.593750
2500		66.406250
2501		60.546875
2502		68.359375
2503		62.500000
2504		70.312500
2505		64.453125
2506		74.218750
2507		68.359375
2508		74.218750
2509		72.265625
2510		76.171875
2511		74.218750
2512		78.125000
2513		74.218750
2514		82.031250
2515		76.171875
2516		82.031250
2517		76.171875
2518		85.937500
2519		78.125000
2520		85.937500
2521		80.078125
2522		85.937500
2523		80.078125
2524		87.890625
2525		83.984375
2526		85.937500
2527		83.984375
2528		85.937500
2529		82.031250
2530		87.890625
2531		82.031250
2532		89.843750
2533		82.031250
2534		87.890625
2535		82.031250
2536		89.843750
2537		82.031250
2538		87.890625
2539		80.078125
2540		87.890625
2541		80.078125
2542		87.890625
2543		82.031250
2544		83.984375
2545		80.078125
2546		85.937500
2547		78.125000
2548		85.937500
2549		76.171875
2550		83.984375
2551		74.218750
2552		82.031250
2553		72.265625
2554		80.078125
2555		70.312500
2556		78.125000
2557		70.312500
2558		76.171875
2559		68.359375
2560		72.265625
2561		66.406250
2562		70.312500
2563		62.500000
2564		68.359375
2565		60.546875
2566		68.359375
2567		56.640625
2568		66.406250
2569		52.734375
2570		62.500000
2571		50.781250
2572		58.593750
2573		46.875000
2574		56.640625
2575		46.875000
2576		52.734375
2577		42.968750
2578		48.828125
2579		39.062500
2580		44.921875
2581		35.156250
2582		42.968750
2583		31.250000
2584		41.015625
2585		27.343750
2586		37.109375
2587		23.437500
2588		33.203125
2589		19.531250
2590		29.296875
2591		17.578125
2592		25.390625
2593		13.671875
2594		19.531250
2595		9.765625
2596		15.625000
2597		3.906250
2598		13.671875
2599		0.000000
2600		9.765625
2601		-3.906250
2602		5.859375
2603		-7.812500
2604		0.000000
2605		-11.718750
2606		-1.953125
2607		-15.625000
2608		-5.859375
2609		-17.578125
2610		-11.718750
2611		-21.484375
2612		-15.625000
2613		-27.343750
2614		-19.531250
2615		-31.250000
2616		-21.484375
2617		-35.156250
2618		-25.390625
2619		-37.109375
2620		-29.296875
2621		-41.015625
2622		-31.250000
2623		-44.921875
2624		-35.156250
2625		-44.921875
2626		-39.062500
2627		-48.828125
2628		-42.968750
2629		-52.734375
2630		-46.875000
2631		-54.687500
2632		-46.875000
2633		-58.593750
2634		-48.828125
2635		-60.546875
2636		-52.734375
2637		-62.500000
2638		-54.687500
2639		-66.406250
2640		-56.640625
2641		-66.406250
2642		-58.593750
2643		-66.406250
2644		-62.500000
2645		-68.359375
2646		-64.453125
2647		-70.312500
2648		-64.453125
2649		-72.265625
2650		-64.453125
2651		-72.265625
2652		-66.406250
2653		-74.218750
2654		-66.406250
2655		-74.218750
2656		-66.406250
2657		-74.218750
2658		-66.406250
2659		-74.218750
2660		-68.359375
2661		-72.265625
2662		-70.312500
2663		-74.218750
2664		-68.359375
2665		-74.218750
2666		-66.406250
2667		-72.265625
2668		-66.406250
2669		-72.265625
2670		-64.453125
2671		-72.265625
2672		-64.453125
2673		-70.312500
2674		-62.500000
2675		-68.359375
2676		-60.546875
2677		-64.453125
2678		-60.546875
2679		-62.500000
2680		-58.593750
2681		-62.500000
2682		-54.687500
2683		-60.546875
2684		-52.734375
2685		-58.593750
2686		-50.781250
2687		-54.687500
2688		-46.875000
2689		-52.734375
2690		-44.921875
2691		-50.781250
2692		-41.015625
2693		-46.875000
2694		-41.015625
2695		-42.968750
2696		-37.109375
2697		-39.062500
2698		-31.250000
2699		-37.109375
2700		-27.343750
2701		-33.203125
2702		-25.390625
2703		-31.250000
2704		-21.484375
2705		-27.343750
2706		-17.578125
2707		-23.437500
2708		-13.671875
2709		-19.531250
2710		-11.718750
2711		-13.671875
2712		-7.812500
2713		-9.765625
2714		-1.953125
2715		-7.812500
2716		1.953125
2717		-3.906250
2718		5.859375
2719		0.000000
2720		9.765625
2721		3.906250
2722		13.671875
2723		7.812500
2724		17.578125
2725		11.718750
2726		21.484375
2727		17.578125
2728		23.437500
2729		21.484375
2730		27.343750
2731		23.437500
2732		31.250000
2733		27.343750
2734		37.109375
2735		29.296875
2736		41.015625
2737		33.203125
2738		44.921875
2739		37.109375
2740		46.875000
2741		41.015625
2742		50.781250
2743		44.921875
2744		50.781250
2745		48.828125
2746		54.687500
2747		52.734375
2748		58.593750
2749		54.687500
2750		62.500000
2751		56.640625
2752		64.453125
2753		60.546875
2754		68.359375
2755		62.500000
2756		72.265625
2757		64.453125
2758		72.265625
2759		66.406250
2760		74.218750
2761		72.265625
2762		74.218750
2763		74.218750
2764		76.171875
2765		74.218750
2766		80.078125
2767		74.218750
2768		82.031250
2769		76.171875
2770		83.984375
2771		76.171875
2772		85.937500
2773		78.125000
2774		85.937500
2775		80.078125
2776		87.890625
2777		82.031250
2778		85.937500
2779		83.984375
2780		85.937500
2781		82.031250
2782		89.843750
2783		82.031250
2784		89.843750
2785		82.031250
2786		89.843750
2787		82.031250
2788		89.843750
2789		82.031250
2790		89.843750
2791		82.031250
2792		89.843750
2793		82.031250
2794		87.890625
2795		83.984375
2796		85.937500
2797		80.078125
2798		85.937500
2799		78.125000
2800		85.937500
2801		78.125000
2802		85.937500
2803		76.171875
2804		83.984375
2805		74.218750
2806		82.031250
2807		72.265625
2808		80.078125
2809		70.312500
2810		78.125000
2811		70.312500
2812		74.218750
2813		68.359375
2814		72.265625
2815		64.453125
2816		72.265625
2817		62.500000
2818		70.312500
2819		58.593750
2820		68.359375
2821		54.687500
2822		64.453125
2823		52.734375
2824		62.500000
2825		50.781250
2826		58.593750
2827		48.828125
2828		56.640625
2829		44.921875
2830		50.781250
2831		41.015625
2832		46.875000
2833		37.109375
2834		46.875000
2835		33.203125
2836		42.968750
2837		29.296875
2838		39.062500
2839		25.390625
2840		35.156250
2841		21.484375
2842		31.250000
2843		19.531250
2844		27.343750
2845		17.578125
2846		21.484375
2847		13.671875
2848		17.578125
2849		7.812500
2850		15.625000
2851		3.906250
2852		11.718750
2853		0.000000
2854		7.812500
2855		-5.859375
2856		3.906250
2857		-9.765625
2858		0.000000
2859		-13.671875
2860		-3.906250
2861		-13.671875
2862		-7.812500
2863		-17.578125
2864		-13.671875
2865		-25.390625
2866		-17.578125
2867		-29.296875
2868		-17.578125
2869		-31.250000
2870		-21.484375
2871		-35.156250
2872		-27.343750
2873		-39.062500
2874		-29.296875
2875		-42.968750
2876		-33.203125
2877		-42.968750
2878		-37.109375
2879		-46.875000
2880		-41.015625
2881		-50.781250
2882		-44.921875
2883		-54.687500
2884		-44.921875
2885		-56.640625
2886		-48.828125
2887		-58.593750
2888		-50.781250
2889		-60.546875
2890		-52.734375
2891		-64.453125
2892		-54.687500
2893		-66.406250
2894		-56.640625
2895		-64.453125
2896		-60.546875
2897		-66.406250
2898		-64.453125
2899		-70.312500
2900		-62.500000
2901		-72.265625
2902		-64.453125
2903		-72.265625
2904		-66.406250
2905		-74.218750
2906		-66.406250
2907		-74.218750
2908		-66.406250
2909		-74.218750
2910		-66.406250
2911		-74.218750
2912		-68.359375
2913		-72.265625
2914		-70.312500
2915		-74.218750
2916		-68.359375
2917		-74.218750
2918		-68.359375
2919		-74.218750
2920		-66.406250
2921		-72.265625
2922		-66.406250
2923		-72.265625
2924		-64.453125
2925		-70.312500
2926		-64.453125
2927		-70.312500
2928		-62.500000
2929		-66.406250
2930		-62.500000
2931		-64.453125
2932		-60.546875
2933		-64.453125
2934		-56.640625
2935		-62.500000
2936		-54.687500
2937		-60.546875
2938		-52.734375
2939		-58.593750
2940		-48.828125
2941		-54.687500
2942		-46.875000
2943		-52.734375
2944		-44.921875
2945		-48.828125
2946		-42.968750
2947		-44.921875
2948		-39.062500
2949		-41.015625
2950		-35.156250
2951		-41.015625
2952		-31.250000
2953		-37.109375
2954		-27.343750
2955		-33.203125
2956		-23.437500
2957		-29.296875
2958		-19.531250
2959		-25.390625
2960		-15.625000
2961		-21.484375
2962		-13.671875
2963		-15.625000
2964		-11.718750
2965		-11.718750
2966		-5.859375
2967		-11.718750
2968		-1.953125
2969		-5.859375
2970		1.953125
2971		-3.906250
2972		5.859375
2973		0.000000
2974		9.765625
2975		3.906250
2976		13.671875
2977		7.812500
2978		17.578125
2979		15.625000
2980		21.484375
2981		19.531250
2982		23.437500
2983		21.484375
2984		29.296875
2985		23.437500
2986		33.203125
2987		27.343750
2988		37.109375
2989		31.250000
2990		41.015625
2991		35.156250
2992		44.921875
2993		37.109375
2994		46.875000
2995		41.015625
2996		48.828125
2997		46.875000
2998		52.734375
2999		50.781250
3000		58.593750
3001		52.734375
3002		60.546875
3003		54.687500
3004		62.500000
3005		56.640625
3006		66.406250
3007		60.546875
3008		68.359375
3009		62.500000
3010		70.312500
3011		66.406250
3012		72.265625
3013		70.312500
3014		74.218750
3015		72.265625
3016		76.171875
3017		72.265625
3018		80.078125
3019		74.218750
3020		82.031250
3021		74.218750
3022		82.031250
3023		76.171875
3024		83.984375
3025		78.125000
3026		85.937500
3027		80.078125
3028		85.937500
3029		80.078125
3030		85.937500
3031		83.984375
3032		85.937500
3033		82.031250
3034		89.843750
3035		82.031250
3036		89.843750
3037		82.031250
3038		89.843750
3039		82.031250
3040		89.843750
3041		82.031250
3042		89.843750
3043		82.031250
3044		89.843750
3045		82.031250
3046		89.843750
3047		83.984375
3048		85.937500
3049		82.031250
3050		85.937500
3051		80.078125
3052		87.890625
3053		78.125000
3054		85.937500
3055		78.125000
3056		83.984375
3057		76.171875
3058		83.984375
3059		74.218750
3060		82.031250
3061		72.265625
3062		80.078125
3063		72.265625
3064		76.171875
3065		70.312500
3066		74.218750
3067		66.406250
3068		72.265625
3069		64.453125
3070		72.265625
3071		60.546875
3072		68.359375
3073		58.593750
3074		66.406250
3075		54.687500
3076		64.453125
3077		52.734375
3078		62.500000
3079		50.781250
3080		58.593750
3081		48.828125
3082		52.734375
3083		42.968750
3084		50.781250
3085		39.062500
3086		48.828125
3087		37.109375
3088		44.921875
3089		33.203125
3090		41.015625
3091		29.296875
3092		39.062500
3093		25.390625
3094		35.156250
3095		21.484375
3096		31.250000
3097		19.531250
3098		25.390625
3099		15.625000
3100		21.484375
3101		9.765625
3102		19.531250
3103		5.859375
3104		15.625000
3105		1.953125
3106		11.718750
3107		-1.953125
3108		7.812500
3109		-5.859375
3110		3.906250
3111		-9.765625
3112		0.000000
3113		-11.718750
3114		-3.906250
3115		-15.625000
3116		-9.765625
3117		-21.484375
3118		-13.671875
3119		-25.390625
3120		-15.625000
3121		-29.296875
3122		-19.531250
3123		-31.250000
3124		-23.437500
3125		-35.156250
3126		-27.343750
3127		-39.062500
3128		-29.296875
3129		-41.015625
3130		-33.203125
3131		-42.968750
3132		-39.062500
3133		-46.875000
3134		-41.015625
3135		-52.734375
3136		-42.968750
3137		-54.687500
3138		-46.875000
3139		-56.640625
3140		-48.828125
3141		-58.593750
3142		-50.781250
3143		-60.546875
3144		-52.734375
3145		-64.453125
3146		-56.640625
3147		-62.500000
3148		-58.593750
3149		-64.453125
3150		-62.500000
3151		-68.359375
3152		-62.500000
3153		-70.312500
3154		-62.500000
3155		-70.312500
3156		-64.453125
3157		-72.265625
3158		-64.453125
3159		-74.218750
3160		-66.406250
3161		-74.218750
3162		-66.406250
3163		-74.218750
3164		-66.406250
3165		-72.265625
3166		-70.312500
3167		-72.265625
3168		-68.359375
3169		-74.218750
3170		-66.406250
3171		-74.218750
3172		-66.406250
3173		-72.265625
3174		-66.406250
3175		-72.265625
3176		-64.453125
3177		-70.312500
3178		-64.453125
3179		-70.312500
3180		-62.500000
3181		-66.406250
3182		-62.500000
3183		-64.453125
3184		-60.546875
3185		-64.453125
3186		-56.640625
3187		-62.500000
3188		-54.687500
3189		-60.546875
3190		-52.734375
3191		-58.593750
3192		-50.781250
3193		-56.640625
3194		-46.875000
3195		-52.734375
3196		-44.921875
3197		-50.781250
3198		-44.921875
3199		-46.875000
3200		-41.015625
3201		-42.968750
3202		-37.109375
3203		-41.015625
3204		-33.203125
3205		-39.062500
3206		-29.296875
3207		-35.156250
3208		-25.390625
3209		-31.250000
3210		-21.484375
3211		-27.343750
3212		-17.578125
3213		-23.437500
3214		-15.625000
3215		-17.578125
3216		-13.671875
3217		-13.671875
3218		-9.765625
3219		-11.718750
3220		-3.906250
3221		-9.765625
3222		0.000000
3223		-5.859375
3224		5.859375
3225		0.000000
3226		9.765625
3227		3.906250
3228		13.671875
3229		7.812500
3230		15.625000
3231		11.718750
3232		17.578125
3233		15.625000
3234		21.484375
3235		21.484375
3236		29.296875
3237		23.437500
3238		31.250000
3239		25.390625
3240		35.156250
3241		29.296875
3242		39.062500
3243		33.203125
3244		42.968750
3245		37.109375
3246		46.875000
3247		41.015625
3248		46.875000
3249		46.875000
3250		50.781250
3251		48.828125
3252		54.687500
3253		50.781250
3254		58.593750
3255		52.734375
3256		62.500000
3257		56.640625
3258		64.453125
3259		58.593750
3260		66.406250
3261		62.500000
3262		70.312500
3263		64.453125
3264		72.265625
3265		68.359375
3266		72.265625
3267		70.312500
3268		74.218750
3269		70.312500
3270		78.125000
3271		72.265625
3272		80.078125
3273		74.218750
3274		82.031250
3275		76.171875
3276		83.984375
3277		78.125000
3278		85.937500
3279		78.125000
3280		85.937500
3281		80.078125
3282		85.937500
3283		83.984375
3284		85.937500
3285		82.031250
3286		87.890625
3287		82.031250
3288		89.843750
3289		83.984375
3290		89.843750
3291		82.031250
3292		89.843750
3293		83.984375
3294		89.843750
3295		82.031250
3296		89.843750
3297		82.031250
3298		89.843750
3299		83.984375
3300		85.937500
3301		83.984375
3302		85.937500
3303		82.031250
3304		87.890625
3305		80.078125
3306		85.937500
3307		80.078125
3308		85.937500
3309		78.125000
3310		83.984375
3311		76.171875
3312		82.031250
3313		74.218750
3314		80.078125
3315		74.218750
3316		78.125000
3317		72.265625
3318		76.171875
3319		68.359375
3320		74.218750
3321		66.406250
3322		74.218750
3323		62.500000
3324		70.312500
3325		60.546875
3326		70.312500
3327		58.593750
3328		66.406250
3329		54.687500
3330		62.500000
3331		52.734375
3332		60.546875
3333		50.781250
3334		54.687500
3335		46.875000
3336		52.734375
3337		42.968750
3338		52.734375
3339		39.062500
3340		48.828125
3341		35.156250
3342		44.921875
3343		31.250000
3344		41.015625
3345		27.343750
3346		37.109375
3347		25.390625
3348		33.203125
3349		21.484375
3350		27.343750
3351		19.531250
3352		23.437500
3353		13.671875
3354		19.531250
3355		7.812500
3356		19.531250
3357		3.906250
3358		15.625000
3359		0.000000
3360		9.765625
3361		-3.906250
3362		5.859375
3363		-7.812500
3364		1.953125
3365		-9.765625
3366		-1.953125
3367		-13.671875
3368		-7.812500
3369		-19.531250
3370		-11.718750
3371		-21.484375
3372		-13.671875
3373		-25.390625
3374		-17.578125
3375		-29.296875
3376		-19.531250
3377		-33.203125
3378		-23.437500
3379		-37.109375
3380		-27.343750
3381		-39.062500
3382		-31.250000
3383		-41.015625
3384		-37.109375
3385		-44.921875
3386		-41.015625
3387		-50.781250
3388		-41.015625
3389		-52.734375
3390		-42.968750
3391		-54.687500
3392		-46.875000
3393		-58.593750
3394		-48.828125
3395		-60.546875
3396		-50.781250
3397		-62.500000
3398		-54.687500
3399		-62.500000
3400		-56.640625
3401		-64.453125
3402		-60.546875
3403		-68.359375
3404		-62.500000
3405		-70.312500
3406		-62.500000
3407		-70.312500
3408		-62.500000
3409		-72.265625
3410		-64.453125
3411		-72.265625
3412		-66.406250
3413		-74.218750
3414		-66.406250
3415		-74.218750
3416		-66.406250
3417		-72.265625
3418		-70.312500
3419		-72.265625
3420		-70.312500
3421		-74.218750
3422		-66.406250
3423		-74.218750
3424		-66.406250
3425		-74.218750
3426		-66.406250
3427		-74.218750
3428		-66.406250
3429		-72.265625
3430		-64.453125
3431		-70.312500
3432		-64.453125
3433		-68.359375
3434		-64.453125
3435		-66.406250
3436		-62.500000
3437		-66.406250
3438		-58.593750
3439		-64.453125
3440		-56.640625
3441		-62.500000
3442		-54.687500
3443		-60.546875
3444		-52.734375
3445		-58.593750
3446		-50.781250
3447		-56.640625
3448		-46.875000
3449		-52.734375
3450		-46.875000
3451		-48.828125
3452		-42.968750
3453		-44.921875
3454		-39.062500
3455		-44.921875
3456		-35.156250
3457		-41.015625
3458		-33.203125
3459		-37.109375
3460		-29.296875
3461		-35.156250
3462		-25.390625
3463		-31.250000
3464		-21.484375
3465		-27.343750
3466		-19.531250
3467		-21.484375
3468		-15.625000
3469		-17.578125
3470		-11.718750
3471		-15.625000
3472		-5.859375
3473		-11.718750
3474		-1.953125
3475		-7.812500
3476		0.000000
3477		-3.906250
3478		5.859375
3479		0.000000
3480		9.765625
3481		3.906250
3482		13.671875
3483		7.812500
3484		15.625000
3485		13.671875
3486		19.531250
3487		17.578125
3488		25.390625
3489		19.531250
3490		29.296875
3491		23.437500
3492		33.203125
3493		27.343750
3494		37.109375
3495		31.250000
3496		39.062500
3497		35.156250
3498		42.968750
3499		37.109375
3500		44.921875
3501		42.968750
3502		48.828125
3503		46.875000
3504		52.734375
3505		46.875000
3506		56.640625
3507		50.781250
3508		58.593750
3509		52.734375
3510		62.500000
3511		56.640625
3512		64.453125
3513		58.593750
3514		68.359375
3515		62.500000
3516		70.312500
3517		66.406250
3518		70.312500
3519		68.359375
3520		72.265625
3521		70.312500
3522		78.125000
3523		70.312500
3524		78.125000
3525		74.218750
3526		80.078125
3527		74.218750
3528		82.031250
3529		76.171875
3530		83.984375
3531		78.125000
3532		85.937500
3533		80.078125
3534		85.937500
3535		82.031250
3536		85.937500
3537		82.031250
3538		87.890625
3539		82.031250
3540		87.890625
3541		82.031250
3542		89.843750
3543		82.031250
3544		89.843750
3545		83.984375
3546		89.843750
3547		82.031250
3548		89.843750
3549		82.031250
3550		89.843750
3551		83.984375
3552		87.890625
3553		83.984375
3554		85.937500
3555		80.078125
3556		87.890625
3557		80.078125
3558		87.890625
3559		80.078125
3560		85.937500
3561		78.125000
3562		85.937500
3563		76.171875
3564		83.984375
3565		76.171875
3566		82.031250
3567		74.218750
3568		82.031250
3569		74.218750
3570		76.171875
3571		68.359375
3572		76.171875
3573		68.359375
3574		76.171875
3575		66.406250
3576		74.218750
3577		62.500000
3578		70.312500
3579		60.546875
3580		68.359375
3581		58.593750
3582		66.406250
3583		54.687500
3584		64.453125
3585		52.734375
3586		58.593750
3587		48.828125
3588		54.687500
3589		44.921875
3590		54.687500
3591		41.015625
3592		50.781250
3593		37.109375
3594		46.875000
3595		35.156250
3596		44.921875
3597		31.250000
3598		39.062500
3599		25.390625
3600		37.109375
3601		25.390625
3602		31.250000
3603		21.484375
3604		27.343750
3605		15.625000
3606		23.437500
3607		11.718750
3608		21.484375
3609		7.812500
3610		17.578125
3611		3.906250
3612		13.671875
3613		0.000000
3614		9.765625
3615		-3.906250
3616		5.859375
3617		-5.859375
3618		1.953125
3619		-9.765625
3620		-3.906250
3621		-15.625000
3622		-7.812500
3623		-19.531250
3624		-9.765625
3625		-23.437500
3626		-13.671875
3627		-27.343750
3628		-17.578125
3629		-31.250000
3630		-21.484375
3631		-35.156250
3632		-25.390625
3633		-37.109375
3634		-27.343750
3635		-39.062500
3636		-33.203125
3637		-41.015625
3638		-37.109375
3639		-46.875000
3640		-39.062500
3641		-48.828125
3642		-42.968750
3643		-52.734375
3644		-44.921875
3645		-54.687500
3646		-46.875000
3647		-58.593750
3648		-50.781250
3649		-60.546875
3650		-52.734375
3651		-60.546875
3652		-54.687500
3653		-62.500000
3654		-58.593750
3655		-66.406250
3656		-58.593750
3657		-68.359375
3658		-58.593750
3659		-70.312500
3660		-62.500000
3661		-70.312500
3662		-64.453125
3663		-72.265625
3664		-64.453125
3665		-72.265625
3666		-66.406250
3667		-72.265625
3668		-66.406250
3669		-70.312500
3670		-68.359375
3671		-72.265625
3672		-68.359375
3673		-74.218750
3674		-66.406250
3675		-74.218750
3676		-66.406250
3677		-72.265625
3678		-66.406250
3679		-72.265625
3680		-66.406250
3681		-72.265625
3682		-64.453125
3683		-72.265625
3684		-64.453125
3685		-68.359375
3686		-64.453125
3687		-66.406250
3688		-62.500000
3689		-66.406250
3690		-60.546875
3691		-64.453125
3692		-58.593750
3693		-64.453125
3694		-56.640625
3695		-62.500000
3696		-52.734375
3697		-58.593750
3698		-50.781250
3699		-56.640625
3700		-48.828125
3701		-52.734375
3702		-46.875000
3703		-48.828125
3704		-44.921875
3705		-46.875000
3706		-39.062500
3707		-44.921875
3708		-37.109375
3709		-41.015625
3710		-33.203125
3711		-39.062500
3712		-29.296875
3713		-35.156250
3714		-27.343750
3715		-31.250000
3716		-23.437500
3717		-27.343750
3718		-21.484375
3719		-23.437500
3720		-17.578125
3721		-19.531250
3722		-13.671875
3723		-15.625000
3724		-7.812500
3725		-13.671875
3726		-3.906250
3727		-9.765625
3728		0.000000
3729		-5.859375
3730		1.953125
3731		-1.953125
3732		5.859375
3733		3.906250
3734		9.765625
3735		7.812500
3736		13.671875
3737		11.718750
3738		17.578125
3739		15.625000
3740		23.437500
3741		17.578125
3742		27.343750
3743		21.484375
3744		29.296875
3745		25.390625
3746		35.156250
3747		29.296875
3748		37.109375
3749		33.203125
3750		41.015625
3751		37.109375
3752		42.968750
3753		41.015625
3754		46.875000
3755		44.921875
3756		50.781250
3757		46.875000
3758		52.734375
3759		50.781250
3760		56.640625
3761		54.687500
3762		58.593750
3763		56.640625
3764		64.453125
3765		58.593750
3766		64.453125
3767		62.500000
3768		68.359375
3769		66.406250
3770		68.359375
3771		68.359375
3772		72.265625
3773		70.312500
3774		74.218750
3775		72.265625
3776		76.171875
3777		74.218750
3778		78.125000
3779		76.171875
3780		80.078125
3781		76.171875
3782		83.984375
3783		80.078125
3784		83.984375
3785		80.078125
3786		83.984375
3787		82.031250
3788		83.984375
3789		83.984375
3790		85.937500
3791		83.984375
3792		85.937500
3793		83.984375
3794		87.890625
3795		83.984375
3796		89.843750
3797		83.984375
3798		89.843750
3799		85.937500
3800		87.890625
3801		85.937500
3802		87.890625
3803		85.937500
3804		87.890625
3805		83.984375
3806		87.890625
3807		83.984375
3808		87.890625
3809		83.984375
3810		85.937500
3811		82.031250
3812		85.937500
3813		80.078125
3814		85.937500
3815		78.125000
3816		85.937500
3817		78.125000
3818		82.031250
3819		76.171875
3820		82.031250
3821		76.171875
3822		78.125000
3823		72.265625
3824		76.171875
3825		70.312500
3826		74.218750
3827		68.359375
3828		72.265625
3829		66.406250
3830		70.312500
3831		64.453125
3832		68.359375
3833		60.546875
3834		66.406250
3835		58.593750
3836		62.500000
3837		54.687500
3838		60.546875
3839		52.734375
3840		56.640625
3841		48.828125
3842		54.687500
3843		44.921875
3844		50.781250
3845		42.968750
3846		46.875000
3847		39.062500
3848		44.921875
3849		35.156250
3850		41.015625
3851		31.250000
3852		37.109375
3853		27.343750
3854		33.203125
3855		23.437500
3856		29.296875
3857		19.531250
3858		25.390625
3859		15.625000
3860		21.484375
3861		11.718750
3862		17.578125
3863		9.765625
3864		13.671875
3865		3.906250
3866		9.765625
3867		0.000000
3868		5.859375
3869		-3.906250
3870		1.953125
3871		-7.812500
3872		-1.953125
3873		-11.718750
3874		-5.859375
3875		-15.625000
3876		-9.765625
3877		-19.531250
3878		-13.671875
3879		-23.437500
3880		-15.625000
3881		-27.343750
3882		-21.484375
3883		-29.296875
3884		-23.437500
3885		-35.156250
3886		-27.343750
3887		-37.109375
3888		-31.250000
3889		-39.062500
3890		-35.156250
3891		-42.968750
3892		-39.062500
3893		-46.875000
3894		-41.015625
3895		-48.828125
3896		-44.921875
3897		-50.781250
3898		-46.875000
3899		-54.687500
3900		-50.781250
3901		-56.640625
3902		-52.734375
3903		-58.593750
3904		-54.687500
3905		-60.546875
3906		-56.640625
3907		-64.453125
3908		-58.593750
3909		-64.453125
3910		-60.546875
3911		-66.406250
3912		-62.500000
3913		-68.359375
3914		-64.453125
3915		-68.359375
3916		-66.406250
3917		-70.312500
3918		-66.406250
3919		-72.265625
3920		-66.406250
3921		-70.312500
3922		-68.359375
3923		-72.265625
3924		-70.312500
3925		-74.218750
3926		-68.359375
3927		-72.265625
3928		-68.359375
3929		-72.265625
3930		-68.359375
3931		-72.265625
3932		-68.359375
3933		-70.312500
3934		-68.359375
3935		-70.312500
3936		-66.406250
3937		-70.312500
3938		-66.406250
3939		-68.359375
3940		-64.453125
3941		-66.406250
3942		-62.500000
3943		-66.406250
3944		-60.546875
3945		-62.500000
3946		-60.546875
3947		-62.500000
3948		-56.640625
3949		-58.593750
3950		-54.687500
3951		-58.593750
3952		-52.734375
3953		-54.687500
3954		-50.781250
3955		-52.734375
3956		-46.875000
3957		-48.828125
3958		-42.968750
3959		-46.875000
3960		-41.015625
3961		-42.968750
3962		-37.109375
3963		-41.015625
3964		-35.156250
3965		-37.109375
3966		-31.250000
3967		-33.203125
3968		-27.343750
3969		-29.296875
3970		-25.390625
3971		-25.390625
3972		-21.484375
3973		-21.484375
3974		-17.578125
3975		-17.578125
3976		-13.671875
3977		-15.625000
3978		-9.765625
3979		-11.718750
3980		-5.859375
3981		-5.859375
3982		-1.953125
3983		-3.906250
3984		1.953125
3985		0.000000
3986		7.812500
3987		3.906250
3988		9.765625
3989		7.812500
3990		13.671875
3991		13.671875
3992		17.578125
3993		17.578125
3994		21.484375
3995		19.531250
3996		25.390625
3997		23.437500
3998		29.296875
3999		27.343750
4000		33.203125
4001		31.250000
4002		37.109375
4003		35.156250
4004		41.015625
4005		39.062500
4006		42.968750
4007		42.968750
4008		46.875000
4009		44.921875
4010		50.781250
4011		48.828125
4012		54.687500
4013		52.734375
4014		56.640625
4015		54.687500
4016		60.546875
4017		58.593750
4018		62.500000
4019		60.546875
4020		66.406250
4021		62.500000
4022		68.359375
4023		66.406250
4024		70.312500
4025		68.359375
4026		72.265625
4027		70.312500
4028		74.218750
4029		72.265625
4030		76.171875
4031		74.218750
4032		78.125000
4033		76.171875
4034		80.078125
4035		78.125000
4036		82.031250
4037		78.125000
4038		83.984375
4039		80.078125
4040		83.984375
4041		82.031250
4042		85.937500
4043		83.984375
4044		85.937500
4045		83.984375
4046		85.937500
4047		83.984375
4048		87.890625
4049		83.984375
4050		87.890625
4051		85.937500
4052		87.890625
4053		83.984375
4054		89.843750
4055		85.937500
4056		87.890625
4057		83.984375
4058		87.890625
4059		83.984375
4060		87.890625
4061		83.984375
4062		85.937500
4063		82.031250
4064		85.937500
4065		82.031250
4066		85.937500
4067		80.078125
4068		83.984375
4069		80.078125
4070		83.984375
4071		78.125000
4072		82.031250
4073		76.171875
4074		80.078125
4075		74.218750
4076		78.125000
4077		72.265625
4078		76.171875
4079		70.312500
4080		74.218750
4081		68.359375
4082		72.265625
4083		64.453125
4084		70.312500
4085		62.500000
4086		66.406250
4087		60.546875
4088		64.453125
4089		56.640625
4090		62.500000
4091		54.687500
4092		58.593750
4093		50.781250
4094		56.640625
4095		46.875000
4096		52.734375
4097		44.921875
4098		48.828125
4099		41.015625
4100		46.875000
4101		37.109375
4102		42.968750
4103		33.203125
4104		39.062500
4105		31.250000
4106		37.109375
4107		27.343750
4108		31.250000
4109		23.437500
4110		27.343750
4111		19.531250
4112		25.390625
4113		15.625000
4114		21.484375
4115		9.765625
4116		17.578125
4117		7.812500
4118		11.718750
4119		3.906250
4120		9.765625
4121		0.000000
4122		5.859375
4123		-3.906250
4124		1.953125
4125		-7.812500
4126		-3.906250
4127		-11.718750
4128		-5.859375
4129		-15.625000
4130		-9.765625
4131		-19.531250
4132		-13.671875
4133		-23.437500
4134		-17.578125
4135		-27.343750
4136		-21.484375
4137		-31.250000
4138		-25.390625
4139		-33.203125
4140		-29.296875
4141		-37.109375
4142		-33.203125
4143		-41.015625
4144		-35.156250
4145		-42.968750
4146		-39.062500
4147		-46.875000
4148		-42.968750
4149		-48.828125
4150		-44.921875
4151		-52.734375
4152		-48.828125
4153		-54.687500
4154		-50.781250
4155		-56.640625
4156		-52.734375
4157		-58.593750
4158		-56.640625
4159		-62.500000
4160		-56.640625
4161		-62.500000
4162		-60.546875
4163		-64.453125
4164		-60.546875
4165		-66.406250
4166		-62.500000
4167		-68.359375
4168		-64.453125
4169		-68.359375
4170		-66.406250
4171		-70.312500
4172		-66.406250
4173		-70.312500
4174		-68.359375
4175		-72.265625
4176		-68.359375
4177		-72.265625
4178		-68.359375
4179		-72.265625
4180		-68.359375
4181		-72.265625
4182		-68.359375
4183		-72.265625
4184		-68.359375
4185		-70.312500
4186		-68.359375
4187		-70.312500
4188		-66.406250
4189		-70.312500
4190		-66.406250
4191		-68.359375
4192		-64.453125
4193		-66.406250
4194		-62.500000
4195		-66.406250
4196		-62.500000
4197		-64.453125
4198		-60.546875
4199		-62.500000
4200		-58.593750
4201		-60.546875
4202		-56.640625
4203		-58.593750
4204		-52.734375
4205		-56.640625
4206		-50.781250
4207		-52.734375
4208		-48.828125
4209		-50.781250
4210		-44.921875
4211		-48.828125
4212		-42.968750
4213		-44.921875
4214		-41.015625
4215		-41.015625
4216		-37.109375
4217		-39.062500
4218		-33.203125
4219		-35.156250
4220		-29.296875
4221		-31.250000
4222		-27.343750
4223		-27.343750
4224		-23.437500
4225		-23.437500
4226		-19.531250
4227		-21.484375
4228		-15.625000
4229		-17.578125
4230		-11.718750
4231		-13.671875
4232		-5.859375
4233		-9.765625
4234		-3.906250
4235		-5.859375
4236		0.000000
4237		-1.953125
4238		3.906250
4239		1.953125
4240		7.812500
4241		5.859375
4242		11.718750
4243		9.765625
4244		15.625000
4245		13.671875
4246		19.531250
4247		17.578125
4248		23.437500
4249		21.484375
4250		27.343750
4251		25.390625
4252		31.250000
4253		29.296875
4254		35.156250
4255		33.203125
4256		39.062500
4257		37.109375
4258		41.015625
4259		41.015625
4260		44.921875
4261		42.968750
4262		48.828125
4263		46.875000
4264		52.734375
4265		50.781250
4266		54.687500
4267		52.734375
4268		58.593750
4269		56.640625
4270		60.546875
4271		58.593750
4272		62.500000
4273		60.546875
4274		66.406250
4275		64.453125
4276		68.359375
4277		66.406250
4278		70.312500
4279		70.312500
4280		74.218750
4281		70.312500
4282		76.171875
4283		72.265625
4284		78.125000
4285		76.171875
4286		80.078125
4287		78.125000
4288		80.078125
4289		78.125000
4290		82.031250
4291		80.078125
4292		83.984375
4293		82.031250
4294		85.937500
4295		82.031250
4296		85.937500
4297		83.984375
4298		85.937500
4299		83.984375
4300		87.890625
4301		85.937500
4302		87.890625
4303		83.984375
4304		87.890625
4305		83.984375
4306		87.890625
4307		85.937500
4308		87.890625
4309		85.937500
4310		87.890625
4311		83.984375
4312		89.843750
4313		83.984375
4314		87.890625
4315		83.984375
4316		87.890625
4317		82.031250
4318		85.937500
4319		82.031250
4320		85.937500
4321		80.078125
4322		83.984375
4323		80.078125
4324		82.031250
4325		78.125000
4326		80.078125
4327		76.171875
4328		80.078125
4329		74.218750
4330		78.125000
4331		72.265625
4332		76.171875
4333		70.312500
4334		74.218750
4335		66.406250
4336		72.265625
4337		64.453125
4338		68.359375
4339		62.500000
4340		66.406250
4341		58.593750
4342		64.453125
4343		56.640625
4344		60.546875
4345		52.734375
4346		58.593750
4347		50.781250
4348		54.687500
4349		46.875000
4350		52.734375
4351		42.968750
4352		48.828125
4353		41.015625
4354		44.921875
4355		37.109375
4356		42.968750
4357		33.203125
4358		39.062500
4359		29.296875
4360		35.156250
4361		25.390625
4362		31.250000
4363		21.484375
4364		27.343750
4365		17.578125
4366		23.437500
4367		13.671875
4368		19.531250
4369		9.765625
4370		15.625000
4371		5.859375
4372		11.718750
4373		1.953125
4374		7.812500
4375		-1.953125
4376		3.906250
4377		-5.859375
4378		0.000000
4379		-9.765625
4380		-1.953125
4381		-13.671875
4382		-7.812500
4383		-17.578125
4384		-11.718750
4385		-21.484375
4386		-15.625000
4387		-25.390625
4388		-19.531250
4389		-29.296875
4390		-23.437500
4391		-31.250000
4392		-27.343750
4393		-35.156250
4394		-31.250000
4395		-39.062500
4396		-33.203125
4397		-41.015625
4398		-37.109375
4399		-44.921875
4400		-39.062500
4401		-46.875000
4402		-42.968750
4403		-50.781250
4404		-46.875000
4405		-54.687500
4406		-48.828125
4407		-54.687500
4408		-50.781250
4409		-58.593750
4410		-54.687500
4411		-62.500000
4412		-56.640625
4413		-62.500000
4414		-58.593750
4415		-64.453125
4416		-60.546875
4417		-66.406250
4418		-62.500000
4419		-68.359375
4420		-64.453125
4421		-68.359375
4422		-64.453125
4423		-70.312500
4424		-66.406250
4425		-70.312500
4426		-68.359375
4427		-70.312500
4428		-68.359375
4429		-72.265625
4430		-68.359375
4431		-72.265625
4432		-68.359375
4433		-72.265625
4434		-68.359375
4435		-72.265625
4436		-68.359375
4437		-72.265625
4438		-68.359375
4439		-70.312500
4440		-68.359375
4441		-70.312500
4442		-66.406250
4443		-68.359375
4444		-66.406250
4445		-68.359375
4446		-64.453125
4447		-68.359375
4448		-62.500000
4449		-66.406250
4450		-62.500000
4451		-64.453125
4452		-60.546875
4453		-62.500000
4454		-58.593750
4455		-60.546875
4456		-54.687500
4457		-58.593750
4458		-52.734375
4459		-54.687500
4460		-50.781250
4461		-52.734375
4462		-48.828125
4463		-50.781250
4464		-44.921875
4465		-46.875000
4466		-42.968750
4467		-44.921875
4468		-39.062500
4469		-41.015625
4470		-35.156250
4471		-37.109375
4472		-31.250000
4473		-33.203125
4474		-27.343750
4475		-33.203125
4476		-25.390625
4477		-27.343750
4478		-21.484375
4479		-23.437500
4480		-17.578125
4481		-19.531250
4482		-13.671875
4483		-15.625000
4484		-9.765625
4485		-11.718750
4486		-5.859375
4487		-7.812500
4488		-1.953125
4489		-3.906250
4490		1.953125
4491		0.000000
4492		3.906250
4493		3.906250
4494		7.812500
4495		7.812500
4496		13.671875
4497		11.718750
4498		17.578125
4499		15.625000
4500		19.531250
4501		19.531250
4502		23.437500
4503		23.437500
4504		29.296875
4505		25.390625
4506		31.250000
4507		29.296875
4508		35.156250
4509		33.203125
4510		39.062500
4511		37.109375
4512		42.968750
4513		41.015625
4514		46.875000
4515		44.921875
4516		48.828125
4517		46.875000
4518		52.734375
4519		50.781250
4520		56.640625
4521		54.687500
4522		58.593750
4523		56.640625
4524		62.500000
4525		58.593750
4526		64.453125
4527		62.500000
4528		66.406250
4529		64.453125
4530		70.312500
4531		68.359375
4532		72.265625
4533		70.312500
4534		74.218750
4535		72.265625
4536		76.171875
4537		74.218750
4538		78.125000
4539		76.171875
4540		80.078125
4541		78.125000
4542		82.031250
4543		80.078125
4544		82.031250
4545		82.031250
4546		83.984375
4547		82.031250
4548		85.937500
4549		82.031250
4550		85.937500
4551		83.984375
4552		87.890625
4553		83.984375
4554		87.890625
4555		85.937500
4556		87.890625
4557		85.937500
4558		87.890625
4559		85.937500
4560		89.843750
4561		85.937500
4562		87.890625
4563		83.984375
4564		89.843750
4565		85.937500
4566		87.890625
4567		83.984375
4568		87.890625
4569		83.984375
4570		87.890625
4571		83.984375
4572		85.937500
4573		82.031250
4574		85.937500
4575		80.078125
4576		83.984375
4577		80.078125
4578		82.031250
4579		76.171875
4580		80.078125
4581		76.171875
4582		80.078125
4583		74.218750
4584		78.125000
4585		72.265625
4586		76.171875
4587		70.312500
4588		74.218750
4589		68.359375
4590		72.265625
4591		62.500000
4592		68.359375
4593		62.500000
4594		66.406250
4595		58.593750
4596		64.453125
4597		56.640625
4598		60.546875
4599		52.734375
4600		58.593750
4601		50.781250
4602		54.687500
4603		46.875000
4604		50.781250
4605		42.968750
4606		48.828125
4607		41.015625
4608		44.921875
4609		37.109375
4610		42.968750
4611		33.203125
4612		37.109375
4613		29.296875
4614		35.156250
4615		25.390625
4616		31.250000
4617		21.484375
4618		27.343750
4619		17.578125
4620		23.437500
4621		13.671875
4622		19.531250
4623		9.765625
4624		15.625000
4625		5.859375
4626		11.718750
4627		1.953125
4628		7.812500
4629		-1.953125
4630		3.906250
4631		-5.859375
4632		0.000000
4633		-9.765625
4634		-3.906250
4635		-13.671875
4636		-7.812500
4637		-17.578125
4638		-11.718750
4639		-21.484375
4640		-15.625000
4641		-25.390625
4642		-19.531250
4643		-27.343750
4644		-21.484375
4645		-31.250000
4646		-27.343750
4647		-35.156250
4648		-29.296875
4649		-39.062500
4650		-33.203125
4651		-41.015625
4652		-37.109375
4653		-44.921875
4654		-39.062500
4655		-46.875000
4656		-42.968750
4657		-50.781250
4658		-44.921875
4659		-52.734375
4660		-48.828125
4661		-54.687500
4662		-50.781250
4663		-58.593750
4664		-54.687500
4665		-60.546875
4666		-56.640625
4667		-62.500000
4668		-58.593750
4669		-62.500000
4670		-60.546875
4671		-64.453125
4672		-60.546875
4673		-66.406250
4674		-62.500000
4675		-68.359375
4676		-64.453125
4677		-68.359375
4678		-66.406250
4679		-68.359375
4680		-66.406250
4681		-70.312500
4682		-66.406250
4683		-70.312500
4684		-68.359375
4685		-72.265625
4686		-68.359375
4687		-70.312500
4688		-68.359375
4689		-70.312500
4690		-68.359375
4691		-70.312500
4692		-66.406250
4693		-70.312500
4694		-66.406250
4695		-68.359375
4696		-66.406250
4697		-68.359375
4698		-64.453125
4699		-66.406250
4700		-62.500000
4701		-66.406250
4702		-62.500000
4703		-64.453125
4704		-60.546875
4705		-62.500000
4706		-58.593750
4707		-60.546875
4708		-56.640625
4709		-58.593750
4710		-54.687500
4711		-54.687500
4712		-52.734375
4713		-52.734375
4714		-48.828125
4715		-52.734375
4716		-44.921875
4717		-48.828125
4718		-42.968750
4719		-44.921875
4720		-41.015625
4721		-42.968750
4722		-37.109375
4723		-39.062500
4724		-33.203125
4725		-35.156250
4726		-31.250000
4727		-33.203125
4728		-27.343750
4729		-29.296875
4730		-23.437500
4731		-25.390625
4732		-19.531250
4733		-21.484375
4734		-15.625000
4735		-17.578125
4736		-11.718750
4737		-13.671875
4738		-7.812500
4739		-9.765625
4740		-5.859375
4741		-7.812500
4742		0.000000
4743		-1.953125
4744		1.953125
4745		1.953125
4746		7.812500
4747		5.859375
4748		11.718750
4749		9.765625
4750		15.625000
4751		13.671875
4752		17.578125
4753		17.578125
4754		21.484375
4755		21.484375
4756		25.390625
4757		25.390625
4758		31.250000
4759		29.296875
4760		33.203125
4761		33.203125
4762		37.109375
4763		35.156250
4764		41.015625
4765		39.062500
4766		44.921875
4767		42.968750
4768		46.875000
4769		46.875000
4770		52.734375
4771		48.828125
4772		54.687500
4773		52.734375
4774		56.640625
4775		56.640625
4776		60.546875
4777		58.593750
4778		62.500000
4779		60.546875
4780		66.406250
4781		64.453125
4782		70.312500
4783		66.406250
4784		70.312500
4785		68.359375
4786		74.218750
4787		70.312500
4788		74.218750
4789		74.218750
4790		78.125000
4791		76.171875
4792		78.125000
4793		76.171875
4794		82.031250
4795		80.078125
4796		82.031250
4797		80.078125
4798		83.984375
4799		80.078125
4800		85.937500
4801		83.984375
4802		85.937500
4803		83.984375
4804		85.937500
4805		83.984375
4806		87.890625
4807		85.937500
4808		87.890625
4809		85.937500
4810		89.843750
4811		85.937500
4812		89.843750
4813		85.937500
4814		87.890625
4815		85.937500
4816		87.890625
4817		85.937500
4818		87.890625
4819		83.984375
4820		87.890625
4821		83.984375
4822		87.890625
4823		83.984375
4824		87.890625
4825		82.031250
4826		85.937500
4827		80.078125
4828		83.984375
4829		80.078125
4830		83.984375
4831		78.125000
4832		82.031250
4833		76.171875
4834		82.031250
4835		76.171875
4836		80.078125
4837		74.218750
4838		76.171875
4839		70.312500
4840		74.218750
4841		68.359375
4842		74.218750
4843		66.406250
4844		70.312500
4845		64.453125
4846		68.359375
4847		60.546875
4848		66.406250
4849		58.593750
4850		62.500000
4851		54.687500
4852		60.546875
4853		50.781250
4854		56.640625
4855		48.828125
4856		52.734375
4857		44.921875
4858		50.781250
4859		42.968750
4860		46.875000
4861		39.062500
4862		44.921875
4863		35.156250
4864		41.015625
4865		31.250000
4866		37.109375
4867		27.343750
4868		33.203125
4869		23.437500
4870		29.296875
4871		19.531250
4872		25.390625
4873		15.625000
4874		21.484375
4875		11.718750
4876		17.578125
4877		7.812500
4878		13.671875
4879		3.906250
4880		9.765625
4881		0.000000
4882		5.859375
4883		-3.906250
4884		1.953125
4885		-7.812500
4886		-1.953125
4887		-11.718750
4888		-5.859375
4889		-15.625000
4890		-9.765625
4891		-19.531250
4892		-13.671875
4893		-21.484375
4894		-17.578125
4895		-25.390625
4896		-19.531250
4897		-29.296875
4898		-25.390625
4899		-33.203125
4900		-29.296875
4901		-37.109375
4902		-31.250000
4903		-39.062500
4904		-35.156250
4905		-42.968750
4906		-39.062500
4907		-44.921875
4908		-41.015625
4909		-48.828125
4910		-44.921875
4911		-50.781250
4912		-46.875000
4913		-54.687500
4914		-50.781250
4915		-56.640625
4916		-52.734375
4917		-58.593750
4918		-54.687500
4919		-60.546875
4920		-56.640625
4921		-62.500000
4922		-58.593750
4923		-64.453125
4924		-60.546875
4925		-66.406250
4926		-62.500000
4927		-68.359375
4928		-64.453125
4929		-68.359375
4930		-66.406250
4931		-68.359375
4932		-66.406250
4933		-70.312500
4934		-66.406250
4935		-70.312500
4936		-68.359375
4937		-70.312500
4938		-68.359375
4939		-70.312500
4940		-68.359375
4941		-72.265625
4942		-68.359375
4943		-70.312500
4944		-68.359375
4945		-72.265625
4946		-68.359375
4947		-70.312500
4948		-66.406250
4949		-68.359375
4950		-66.406250
4951		-68.359375
4952		-64.453125
4953		-66.406250
4954		-64.453125
4955		-66.406250
4956		-62.500000
4957		-64.453125
4958		-60.546875
4959		-62.500000
4960		-58.593750
4961		-60.546875
4962		-56.640625
4963		-58.593750
4964		-52.734375
4965		-56.640625
4966		-50.781250
4967		-54.687500
4968		-48.828125
4969		-50.781250
4970		-46.875000
4971		-48.828125
4972		-42.968750
4973		-44.921875
4974		-39.062500
4975		-41.015625
4976		-37.109375
4977		-39.062500
4978		-33.203125
4979		-35.156250
4980		-29.296875
4981		-31.250000
4982		-27.343750
4983		-27.343750
4984		-23.437500
4985		-23.437500
4986		-19.531250
4987		-21.484375
4988		-15.625000
4989		-17.578125
4990		-11.718750
4991		-13.671875
4992		-7.812500
4993		-9.765625
4994		-3.906250
4995		-5.859375
4996		0.000000
4997		-1.953125
4998		3.906250
4999		1.953125
5000		7.812500
5001		5.859375
5002		11.718750
5003		9.765625
5004		15.625000
5005		13.671875
5006		19.531250
5007		17.578125
5008		23.437500
5009		21.484375
5010		27.343750
5011		25.390625
5012		31.250000
5013		29.296875
5014		35.156250
5015		33.203125
5016		39.062500
5017		37.109375
5018		41.015625
5019		39.062500
5020		44.921875
5021		42.968750
5022		48.828125
5023		46.875000
5024		52.734375
5025		50.781250
5026		54.687500
5027		52.734375
5028		58.593750
5029		56.640625
5030		60.546875
5031		58.593750
5032		64.453125
5033		62.500000
5034		66.406250
5035		64.453125
5036		68.359375
5037		66.406250
5038		70.312500
5039		68.359375
5040		74.218750
5041		72.265625
5042		76.171875
5043		74.218750
5044		78.125000
5045		76.171875
5046		80.078125
5047		78.125000
5048		80.078125
5049		80.078125
5050		82.031250
5051		80.078125
5052		83.984375
5053		82.031250
5054		85.937500
5055		82.031250
5056		85.937500
5057		83.984375
5058		87.890625
5059		83.984375
5060		87.890625
5061		85.937500
5062		87.890625
5063		85.937500
5064		87.890625
5065		85.937500
5066		89.843750
5067		85.937500
5068		89.843750
5069		85.937500
5070		89.843750
5071		85.937500
5072		89.843750
5073		83.984375
5074		87.890625
5075		83.984375
5076		87.890625
5077		83.984375
5078		87.890625
5079		82.031250
5080		85.937500
5081		82.031250
5082		83.984375
5083		80.078125
5084		83.984375
5085		78.125000
5086		82.031250
5087		76.171875
5088		80.078125
5089		76.171875
5090		78.125000
5091		72.265625
5092		76.171875
5093		70.312500
5094		74.218750
5095		66.406250
5096		72.265625
5097		66.406250
5098		70.312500
5099		62.500000
5100		68.359375
5101		60.546875
5102		64.453125
5103		56.640625
5104		62.500000
5105		54.687500
5106		58.593750
5107		50.781250
5108		56.640625
5109		48.828125
5110		52.734375
5111		44.921875
5112		50.781250
5113		41.015625
5114		46.875000
5115		39.062500
5116		42.968750
5117		33.203125
5118		39.062500
5119		31.250000
5120		37.109375
5121		27.343750
5122		33.203125
5123		23.437500
5124		29.296875
5125		19.531250
5126		25.390625
5127		15.625000
5128		21.484375
5129		11.718750
5130		17.578125
5131		7.812500
5132		13.671875
5133		3.906250
5134		9.765625
5135		0.000000
5136		5.859375
5137		-3.906250
5138		1.953125
5139		-7.812500
5140		-1.953125
5141		-11.718750
5142		-5.859375
5143		-15.625000
5144		-9.765625
5145		-19.531250
5146		-13.671875
5147		-23.437500
5148		-17.578125
5149		-27.343750
5150		-21.484375
5151		-31.250000
5152		-25.390625
5153		-33.203125
5154		-29.296875
5155		-37.109375
5156		-31.250000
5157		-39.062500
5158		-35.156250
5159		-42.968750
5160		-37.109375
5161		-46.875000
5162		-41.015625
5163		-50.781250
5164		-44.921875
5165		-50.781250
5166		-46.875000
5167		-54.687500
5168		-50.781250
5169		-56.640625
5170		-50.781250
5171		-58.593750
5172		-54.687500
5173		-60.546875
5174		-56.640625
5175		-62.500000
5176		-58.593750
5177		-64.453125
5178		-60.546875
5179		-66.406250
5180		-60.546875
5181		-68.359375
5182		-62.500000
5183		-68.359375
5184		-64.453125
5185		-70.312500
5186		-66.406250
5187		-70.312500
5188		-66.406250
5189		-70.312500
5190		-66.406250
5191		-70.312500
5192		-66.406250
5193		-70.312500
5194		-68.359375
5195		-70.312500
5196		-68.359375
5197		-70.312500
5198		-66.406250
5199		-68.359375
5200		-66.406250
5201		-68.359375
5202		-66.406250
5203		-68.359375
5204		-64.453125
5205		-66.406250
5206		-62.500000
5207		-66.406250
5208		-62.500000
5209		-64.453125
5210		-60.546875
5211		-62.500000
5212		-58.593750
5213		-60.546875
5214		-56.640625
5215		-58.593750
5216		-54.687500
5217		-56.640625
5218		-52.734375
5219		-54.687500
5220		-48.828125
5221		-50.781250
5222		-46.875000
5223		-48.828125
5224		-44.921875
5225		-46.875000
5226		-41.015625
5227		-42.968750
5228		-39.062500
5229		-41.015625
5230		-35.156250
5231		-37.109375
5232		-31.250000
5233		-33.203125
5234		-27.343750
5235		-29.296875
5236		-23.437500
5237		-27.343750
5238		-21.484375
5239		-23.437500
5240		-17.578125
5241		-19.531250
5242		-13.671875
5243		-15.625000
5244		-9.765625
5245		-11.718750
5246		-5.859375
5247		-7.812500
5248		-1.953125
5249		-3.906250
5250		1.953125
5251		0.000000
5252		5.859375
5253		3.906250
5254		9.765625
5255		7.812500
5256		13.671875
5257		11.718750
5258		17.578125
5259		15.625000
5260		21.484375
5261		19.531250
5262		25.390625
5263		23.437500
5264		29.296875
5265		27.343750
5266		33.203125
5267		31.250000
5268		35.156250
5269		35.156250
5270		39.062500
5271		37.109375
5272		42.968750
5273		41.015625
5274		46.875000
5275		44.921875
5276		50.781250
5277		48.828125
5278		52.734375
5279		50.781250
5280		56.640625
5281		54.687500
5282		58.593750
5283		56.640625
5284		62.500000
5285		60.546875
5286		66.406250
5287		62.500000
5288		68.359375
5289		66.406250
5290		70.312500
5291		68.359375
5292		72.265625
5293		70.312500
5294		74.218750
5295		72.265625
5296		76.171875
5297		74.218750
5298		80.078125
5299		76.171875
5300		80.078125
5301		78.125000
5302		82.031250
5303		78.125000
5304		83.984375
5305		80.078125
5306		83.984375
5307		82.031250
5308		85.937500
5309		83.984375
5310		85.937500
5311		83.984375
5312		87.890625
5313		83.984375
5314		87.890625
5315		85.937500
5316		87.890625
5317		85.937500
5318		87.890625
5319		85.937500
5320		89.843750
5321		85.937500
5322		87.890625
5323		85.937500
5324		89.843750
5325		83.984375
5326		87.890625
5327		83.984375
5328		87.890625
5329		83.984375
5330		85.937500
5331		82.031250
5332		85.937500
5333		82.031250
5334		85.937500
5335		80.078125
5336		83.984375
5337		78.125000
5338		83.984375
5339		76.171875
5340		82.031250
5341		76.171875
5342		80.078125
5343		74.218750
5344		78.125000
5345		72.265625
5346		76.171875
5347		70.312500
5348		74.218750
5349		66.406250
5350		72.265625
5351		64.453125
5352		68.359375
5353		62.500000
5354		66.406250
5355		58.593750
5356		64.453125
5357		56.640625
5358		60.546875
5359		52.734375
5360		58.593750
5361		50.781250
5362		54.687500
5363		46.875000
5364		52.734375
5365		42.968750
5366		48.828125
5367		41.015625
5368		44.921875
5369		35.156250
5370		41.015625
5371		31.250000
5372		39.062500
5373		29.296875
5374		35.156250
5375		25.390625
5376		31.250000
5377		21.484375
5378		27.343750
5379		17.578125
5380		23.437500
5381		13.671875
5382		19.531250
5383		9.765625
5384		15.625000
5385		5.859375
5386		11.718750
5387		1.953125
5388		7.812500
5389		-1.953125
5390		3.906250
5391		-5.859375
5392		0.000000
5393		-9.765625
5394		-3.906250
5395		-13.671875
5396		-7.812500
5397		-17.578125
5398		-11.718750
5399		-21.484375
5400		-15.625000
5401		-25.390625
5402		-19.531250
5403		-29.296875
5404		-23.437500
5405		-31.250000
5406		-27.343750
5407		-35.156250
5408		-29.296875
5409		-39.062500
5410		-33.203125
5411		-42.968750
5412		-37.109375
5413		-44.921875
5414		-39.062500
5415		-48.828125
5416		-42.968750
5417		-50.781250
5418		-46.875000
5419		-52.734375
5420		-48.828125
5421		-56.640625
5422		-50.781250
5423		-58.593750
5424		-54.687500
5425		-60.546875
5426		-56.640625
5427		-62.500000
5428		-58.593750
5429		-64.453125
5430		-60.546875
5431		-66.406250
5432		-62.500000
5433		-66.406250
5434		-62.500000
5435		-68.359375
5436		-64.453125
5437		-70.312500
5438		-66.406250
5439		-70.312500
5440		-66.406250
5441		-72.265625
5442		-68.359375
5443		-72.265625
5444		-68.359375
5445		-72.265625
5446		-68.359375
5447		-72.265625
5448		-68.359375
5449		-72.265625
5450		-68.359375
5451		-70.312500
5452		-68.359375
5453		-70.312500
5454		-66.406250
5455		-70.312500
5456		-66.406250
5457		-68.359375
5458		-64.453125
5459		-68.359375
5460		-64.453125
5461		-66.406250
5462		-62.500000
5463		-64.453125
5464		-60.546875
5465		-62.500000
5466		-58.593750
5467		-60.546875
5468		-56.640625
5469		-58.593750
5470		-54.687500
5471		-56.640625
5472		-52.734375
5473		-54.687500
5474		-50.781250
5475		-52.734375
5476		-46.875000
5477		-48.828125
5478		-44.921875
5479		-46.875000
5480		-41.015625
5481		-42.968750
5482		-39.062500
5483		-41.015625
5484		-35.156250
5485		-37.109375
5486		-31.250000
5487		-33.203125
5488		-27.343750
5489		-31.250000
5490		-23.437500
5491		-25.390625
5492		-21.484375
5493		-21.484375
5494		-17.578125
5495		-19.531250
5496		-13.671875
5497		-15.625000
5498		-9.765625
5499		-11.718750
5500		-5.859375
5501		-7.812500
5502		-1.953125
5503		-3.906250
5504		1.953125
5505		0.000000
5506		5.859375
5507		3.906250
5508		9.765625
5509		7.812500
5510		13.671875
5511		11.718750
5512		17.578125
5513		15.625000
5514		21.484375
5515		19.531250
5516		25.390625
5517		23.437500
5518		29.296875
5519		27.343750
5520		33.203125
5521		31.250000
5522		37.109375
5523		35.156250
5524		39.062500
5525		37.109375
5526		42.968750
5527		41.015625
5528		48.828125
5529		44.921875
5530		50.781250
5531		48.828125
5532		54.687500
5533		52.734375
5534		56.640625
5535		54.687500
5536		60.546875
5537		58.593750
5538		62.500000
5539		58.593750
5540		64.453125
5541		62.500000
5542		68.359375
5543		66.406250
5544		70.312500
5545		68.359375
5546		72.265625
5547		70.312500
5548		76.171875
5549		72.265625
5550		78.125000
5551		74.218750
5552		78.125000
5553		76.171875
5554		80.078125
5555		78.125000
5556		82.031250
5557		80.078125
5558		83.984375
5559		82.031250
5560		83.984375
5561		82.031250
5562		85.937500
5563		83.984375
5564		85.937500
5565		83.984375
5566		87.890625
5567		83.984375
5568		87.890625
5569		85.937500
5570		87.890625
5571		85.937500
5572		87.890625
5573		85.937500
5574		89.843750
5575		85.937500
5576		87.890625
5577		85.937500
5578		87.890625
5579		85.937500
5580		87.890625
5581		83.984375
5582		87.890625
5583		83.984375
5584		85.937500
5585		83.984375
5586		85.937500
5587		82.031250
5588		83.984375
5589		80.078125
5590		83.984375
5591		78.125000
5592		83.984375
5593		76.171875
5594		80.078125
5595		74.218750
5596		78.125000
5597		74.218750
5598		78.125000
5599		70.312500
5600		76.171875
5601		68.359375
5602		74.218750
5603		66.406250
5604		70.312500
5605		64.453125
5606		68.359375
5607		62.500000
5608		66.406250
5609		58.593750
5610		64.453125
5611		54.687500
5612		60.546875
5613		52.734375
5614		56.640625
5615		48.828125
5616		54.687500
5617		44.921875
5618		50.781250
5619		42.968750
5620		46.875000
5621		39.062500
5622		44.921875
5623		35.156250
5624		41.015625
5625		31.250000
5626		37.109375
5627		27.343750
5628		33.203125
5629		25.390625
5630		31.250000
5631		21.484375
5632		25.390625
5633		15.625000
5634		21.484375
5635		13.671875
5636		17.578125
5637		9.765625
5638		13.671875
5639		3.906250
5640		9.765625
5641		1.953125
5642		7.812500
5643		-1.953125
5644		1.953125
5645		-5.859375
5646		0.000000
5647		-11.718750
5648		-3.906250
5649		-13.671875
5650		-7.812500
5651		-17.578125
5652		-11.718750
5653		-21.484375
5654		-17.578125
5655		-27.343750
5656		-21.484375
5657		-29.296875
5658		-23.437500
5659		-33.203125
5660		-27.343750
5661		-37.109375
5662		-31.250000
5663		-39.062500
5664		-33.203125
5665		-42.968750
5666		-37.109375
5667		-44.921875
5668		-41.015625
5669		-48.828125
5670		-42.968750
5671		-50.781250
5672		-46.875000
5673		-54.687500
5674		-48.828125
5675		-56.640625
5676		-52.734375
5677		-58.593750
5678		-54.687500
5679		-60.546875
5680		-56.640625
5681		-62.500000
5682		-58.593750
5683		-64.453125
5684		-60.546875
5685		-64.453125
5686		-60.546875
5687		-66.406250
5688		-64.453125
5689		-68.359375
5690		-64.453125
5691		-68.359375
5692		-64.453125
5693		-70.312500
5694		-66.406250
5695		-70.312500
5696		-66.406250
5697		-72.265625
5698		-68.359375
5699		-70.312500
5700		-68.359375
5701		-72.265625
5702		-68.359375
5703		-70.312500
5704		-68.359375
5705		-70.312500
5706		-68.359375
5707		-70.312500
5708		-66.406250
5709		-70.312500
5710		-64.453125
5711		-68.359375
5712		-64.453125
5713		-68.359375
5714		-62.500000
5715		-66.406250
5716		-60.546875
5717		-64.453125
5718		-58.593750
5719		-62.500000
5720		-58.593750
5721		-60.546875
5722		-56.640625
5723		-58.593750
5724		-52.734375
5725		-56.640625
5726		-50.781250
5727		-52.734375
5728		-48.828125
5729		-50.781250
5730		-44.921875
5731		-48.828125
5732		-42.968750
5733		-44.921875
5734		-39.062500
5735		-41.015625
5736		-37.109375
5737		-39.062500
5738		-33.203125
5739		-35.156250
5740		-29.296875
5741		-33.203125
5742		-25.390625
5743		-27.343750
5744		-23.437500
5745		-25.390625
5746		-19.531250
5747		-21.484375
5748		-15.625000
5749		-17.578125
5750		-11.718750
5751		-13.671875
5752		-7.812500
5753		-9.765625
5754		-3.906250
5755		-5.859375
5756		0.000000
5757		-1.953125
5758		3.906250
5759		1.953125
5760		9.765625
5761		3.906250
5762		11.718750
5763		7.812500
5764		15.625000
5765		13.671875
5766		21.484375
5767		17.578125
5768		25.390625
5769		21.484375
5770		27.343750
5771		25.390625
5772		31.250000
5773		29.296875
5774		35.156250
5775		31.250000
5776		39.062500
5777		35.156250
5778		42.968750
5779		39.062500
5780		46.875000
5781		42.968750
5782		48.828125
5783		44.921875
5784		52.734375
5785		48.828125
5786		54.687500
5787		52.734375
5788		56.640625
5789		56.640625
5790		60.546875
5791		58.593750
5792		64.453125
5793		60.546875
5794		68.359375
5795		62.500000
5796		68.359375
5797		66.406250
5798		72.265625
5799		68.359375
5800		74.218750
5801		70.312500
5802		76.171875
5803		72.265625
5804		76.171875
5805		76.171875
5806		80.078125
5807		76.171875
5808		82.031250
5809		78.125000
5810		83.984375
5811		80.078125
5812		85.937500
5813		80.078125
5814		85.937500
5815		82.031250
5816		87.890625
5817		83.984375
5818		87.890625
5819		83.984375
5820		87.890625
5821		85.937500
5822		87.890625
5823		85.937500
5824		87.890625
5825		85.937500
5826		87.890625
5827		85.937500
5828		87.890625
5829		85.937500
5830		87.890625
5831		85.937500
5832		87.890625
5833		83.984375
5834		87.890625
5835		82.031250
5836		87.890625
5837		83.984375
5838		85.937500
5839		82.031250
5840		83.984375
5841		80.078125
5842		85.937500
5843		80.078125
5844		82.031250
5845		78.125000
5846		82.031250
5847		76.171875
5848		80.078125
5849		74.218750
5850		78.125000
5851		72.265625
5852		76.171875
5853		70.312500
5854		74.218750
5855		68.359375
5856		72.265625
5857		64.453125
5858		68.359375
5859		62.500000
5860		66.406250
5861		60.546875
5862		64.453125
5863		56.640625
5864		60.546875
5865		54.687500
5866		58.593750
5867		50.781250
5868		54.687500
5869		46.875000
5870		52.734375
5871		44.921875
5872		48.828125
5873		41.015625
5874		46.875000
5875		37.109375
5876		42.968750
5877		33.203125
5878		39.062500
5879		29.296875
5880		35.156250
5881		25.390625
5882		31.250000
5883		23.437500
5884		27.343750
5885		19.531250
5886		23.437500
5887		15.625000
5888		19.531250
5889		11.718750
5890		15.625000
5891		7.812500
5892		11.718750
5893		3.906250
5894		7.812500
5895		-1.953125
5896		3.906250
5897		-5.859375
5898		0.000000
5899		-9.765625
5900		-3.906250
5901		-11.718750
5902		-7.812500
5903		-15.625000
5904		-11.718750
5905		-19.531250
5906		-15.625000
5907		-23.437500
5908		-19.531250
5909		-27.343750
5910		-23.437500
5911		-31.250000
5912		-25.390625
5913		-35.156250
5914		-29.296875
5915		-37.109375
5916		-33.203125
5917		-41.015625
5918		-37.109375
5919		-44.921875
5920		-39.062500
5921		-46.875000
5922		-42.968750
5923		-50.781250
5924		-46.875000
5925		-54.687500
5926		-44.921875
5927		-58.593750
5928		-48.828125
5929		-60.546875
5930		-50.781250
5931		-60.546875
5932		-56.640625
5933		-62.500000
5934		-56.640625
5935		-64.453125
5936		-60.546875
5937		-64.453125
5938		-62.500000
5939		-66.406250
5940		-64.453125
5941		-72.265625
5942		-62.500000
5943		-72.265625
5944		-64.453125
5945		-74.218750
5946		-64.453125
5947		-74.218750
5948		-66.406250
5949		-70.312500
5950		-68.359375
5951		-72.265625
5952		-70.312500
5953		-72.265625
5954		-70.312500
5955		-72.265625
5956		-70.312500
5957		-72.265625
5958		-68.359375
5959		-74.218750
5960		-64.453125
5961		-72.265625
5962		-64.453125
5963		-72.265625
5964		-64.453125
5965		-68.359375
5966		-64.453125
5967		-66.406250
5968		-64.453125
5969		-66.406250
5970		-62.500000
5971		-64.453125
5972		-60.546875
5973		-62.500000
5974		-58.593750
5975		-62.500000
5976		-52.734375
5977		-60.546875
5978		-50.781250
5979		-58.593750
5980		-48.828125
5981		-52.734375
5982		-48.828125
5983		-50.781250
5984		-46.875000
5985		-46.875000
5986		-42.968750
5987		-44.921875
5988		-39.062500
5989		-41.015625
5990		-37.109375
5991		-39.062500
5992		-31.250000
5993		-37.109375
5994		-27.343750
5995		-35.156250
5996		-23.437500
5997		-31.250000
5998		-21.484375
5999		-23.437500
6000		-19.531250
6001		-19.531250
6002		-15.625000
6003		-17.578125
6004		-11.718750
6005		-13.671875
6006		-7.812500
6007		-7.812500
6008		-3.906250
6009		-5.859375
6010		3.906250
6011		-3.906250
6012		5.859375
6013		0.000000
6014		11.718750
6015		5.859375
6016		11.718750
6017		9.765625
6018		15.625000
6019		13.671875
6020		19.531250
6021		17.578125
6022		23.437500
6023		21.484375
6024		27.343750
6025		25.390625
6026		35.156250
6027		27.343750
6028		39.062500
6029		29.296875
6030		41.015625
6031		33.203125
6032		42.968750
6033		41.015625
6034		44.921875
6035		44.921875
6036		48.828125
6037		46.875000
6038		52.734375
6039		50.781250
6040		54.687500
6041		52.734375
6042		58.593750
6043		52.734375
6044		64.453125
6045		56.640625
6046		66.406250
6047		58.593750
6048		68.359375
6049		64.453125
6050		68.359375
6051		66.406250
6052		72.265625
6053		70.312500
6054		74.218750
6055		72.265625
6056		76.171875
6057		74.218750
6058		78.125000
6059		72.265625
6060		83.984375
6061		74.218750
6062		83.984375
6063		76.171875
6064		85.937500
6065		80.078125
6066		83.984375
6067		82.031250
6068		85.937500
6069		82.031250
6070		85.937500
6071		83.984375
6072		85.937500
6073		83.984375
6074		87.890625
6075		83.984375
6076		89.843750
6077		82.031250
6078		91.796875
6079		82.031250
6080		91.796875
6081		82.031250
6082		91.796875
6083		85.937500
6084		87.890625
6085		85.937500
6086		87.890625
6087		83.984375
6088		87.890625
6089		83.984375
6090		85.937500
6091		83.984375
6092		85.937500
6093		78.125000
6094		87.890625
6095		78.125000
6096		85.937500
6097		76.171875
6098		85.937500
6099		78.125000
6100		82.031250
6101		76.171875
6102		78.125000
6103		74.218750
6104		78.125000
6105		72.265625
6106		76.171875
6107		70.312500
6108		74.218750
6109		68.359375
6110		70.312500
6111		64.453125
6112		68.359375
6113		60.546875
6114		68.359375
6115		58.593750
6116		64.453125
6117		56.640625
6118		60.546875
6119		52.734375
6120		58.593750
6121		50.781250
6122		54.687500
6123		46.875000
6124		50.781250
6125		42.968750
6126		48.828125
6127		41.015625
6128		44.921875
6129		35.156250
6130		44.921875
6131		33.203125
6132		41.015625
6133		29.296875
6134		35.156250
6135		25.390625
6136		31.250000
6137		21.484375
6138		27.343750
6139		17.578125
6140		23.437500
6141		13.671875
6142		19.531250
6143		9.765625
6144		15.625000
6145		5.859375
6146		11.718750
6147		1.953125
6148		7.812500
6149		-1.953125
6150		3.906250
6151		-5.859375
6152		0.000000
6153		-9.765625
6154		-3.906250
6155		-13.671875
6156		-7.812500
6157		-17.578125
6158		-11.718750
6159		-21.484375
6160		-15.625000
6161		-25.390625
6162		-19.531250
6163		-29.296875
6164		-23.437500
6165		-31.250000
6166		-27.343750
6167		-35.156250
6168		-31.250000
6169		-39.062500
6170		-33.203125
6171		-41.015625
6172		-37.109375
6173		-44.921875
6174		-41.015625
6175		-48.828125
6176		-42.968750
6177		-50.781250
6178		-46.875000
6179		-52.734375
6180		-48.828125
6181		-54.687500
6182		-50.781250
6183		-58.593750
6184		-54.687500
6185		-60.546875
6186		-56.640625
6187		-62.500000
6188		-58.593750
6189		-64.453125
6190		-60.546875
6191		-64.453125
6192		-62.500000
6193		-66.406250
6194		-64.453125
6195		-68.359375
6196		-64.453125
6197		-68.359375
6198		-66.406250
6199		-70.312500
6200		-68.359375
6201		-72.265625
6202		-68.359375
6203		-70.312500
6204		-68.359375
6205		-70.312500
6206		-68.359375
6207		-72.265625
6208		-68.359375
6209		-70.312500
6210		-68.359375
6211		-70.312500
6212		-68.359375
6213		-70.312500
6214		-68.359375
6215		-70.312500
6216		-66.406250
6217		-68.359375
6218		-64.453125
6219		-68.359375
6220		-64.453125
6221		-66.406250
6222		-62.500000
6223		-64.453125
6224		-60.546875
6225		-62.500000
6226		-60.546875
6227		-60.546875
6228		-56.640625
6229		-58.593750
6230		-54.687500
6231		-56.640625
6232		-52.734375
6233		-54.687500
6234		-50.781250
6235		-52.734375
6236		-46.875000
6237		-48.828125
6238		-44.921875
6239		-46.875000
6240		-41.015625
6241		-42.968750
6242		-39.062500
6243		-41.015625
6244		-33.203125
6245		-37.109375
6246		-31.250000
6247		-35.156250
6248		-27.343750
6249		-29.296875
6250		-25.390625
6251		-27.343750
6252		-19.531250
6253		-23.437500
6254		-17.578125
6255		-19.531250
6256		-13.671875
6257		-15.625000
6258		-9.765625
6259		-11.718750
6260		-5.859375
6261		-7.812500
6262		-1.953125
6263		-3.906250
6264		1.953125
6265		0.000000
6266		5.859375
6267		3.906250
6268		9.765625
6269		7.812500
6270		13.671875
6271		11.718750
6272		17.578125
6273		15.625000
6274		21.484375
6275		19.531250
6276		25.390625
6277		23.437500
6278		29.296875
6279		25.390625
6280		33.203125
6281		31.250000
6282		35.156250
6283		35.156250
6284		41.015625
6285		37.109375
6286		42.968750
6287		41.015625
6288		46.875000
6289		44.921875
6290		50.781250
6291		48.828125
6292		52.734375
6293		50.781250
6294		56.640625
6295		54.687500
6296		58.593750
6297		56.640625
6298		62.500000
6299		60.546875
6300		64.453125
6301		62.500000
6302		68.359375
6303		64.453125
6304		70.312500
6305		68.359375
6306		72.265625
6307		70.312500
6308		74.218750
6309		72.265625
6310		76.171875
6311		72.265625
6312		80.078125
6313		76.171875
6314		80.078125
6315		78.125000
6316		80.078125
6317		80.078125
6318		83.984375
6319		80.078125
6320		83.984375
6321		82.031250
6322		83.984375
6323		83.984375
6324		85.937500
6325		83.984375
6326		85.937500
6327		82.031250
6328		89.843750
6329		83.984375
6330		87.890625
6331		83.984375
6332		87.890625
6333		85.937500
6334		87.890625
6335		83.984375
6336		87.890625
6337		83.984375
6338		87.890625
6339		83.984375
6340		87.890625
6341		83.984375
6342		85.937500
6343		83.984375
6344		85.937500
6345		80.078125
6346		85.937500
6347		80.078125
6348		83.984375
6349		80.078125
6350		83.984375
6351		78.125000
6352		82.031250
6353		76.171875
6354		80.078125
6355		74.218750
6356		78.125000
6357		72.265625
6358		76.171875
6359		70.312500
6360		74.218750
6361		68.359375
6362		72.265625
6363		66.406250
6364		70.312500
6365		62.500000
6366		68.359375
6367		60.546875
6368		64.453125
6369		56.640625
6370		62.500000
6371		54.687500
6372		60.546875
6373		52.734375
6374		56.640625
6375		48.828125
6376		52.734375
6377		44.921875
6378		50.781250
6379		41.015625
6380		46.875000
6381		39.062500
6382		44.921875
6383		35.156250
6384		39.062500
6385		31.250000
6386		35.156250
6387		27.343750
6388		33.203125
6389		23.437500
6390		29.296875
6391		19.531250
6392		25.390625
6393		15.625000
6394		21.484375
6395		11.718750
6396		17.578125
6397		7.812500
6398		13.671875
6399		3.906250
6400		9.765625
6401		0.000000
6402		5.859375
6403		-3.906250
6404		1.953125
6405		-7.812500
6406		-1.953125
6407		-11.718750
6408		-5.859375
6409		-15.625000
6410		-9.765625
6411		-19.531250
6412		-13.671875
6413		-23.437500
6414		-17.578125
6415		-27.343750
6416		-21.484375
6417		-29.296875
6418		-25.390625
6419		-33.203125
6420		-29.296875
6421		-37.109375
6422		-33.203125
6423		-41.015625
6424		-35.156250
6425		-42.968750
6426		-39.062500
6427		-46.875000
6428		-41.015625
6429		-48.828125
6430		-44.921875
6431		-52.734375
6432		-48.828125
6433		-54.687500
6434		-50.781250
6435		-56.640625
6436		-52.734375
6437		-60.546875
6438		-54.687500
6439		-62.500000
6440		-56.640625
6441		-62.500000
6442		-60.546875
6443		-64.453125
6444		-62.500000
6445		-66.406250
6446		-62.500000
6447		-68.359375
6448		-64.453125
6449		-68.359375
6450		-66.406250
6451		-70.312500
6452		-68.359375
6453		-70.312500
6454		-68.359375
6455		-72.265625
6456		-68.359375
6457		-72.265625
6458		-68.359375
6459		-72.265625
6460		-70.312500
6461		-72.265625
6462		-70.312500
6463		-72.265625
6464		-70.312500
6465		-72.265625
6466		-68.359375
6467		-70.312500
6468		-68.359375
6469		-70.312500
6470		-66.406250
6471		-68.359375
6472		-66.406250
6473		-68.359375
6474		-64.453125
6475		-66.406250
6476		-62.500000
6477		-64.453125
6478		-60.546875
6479		-62.500000
6480		-58.593750
6481		-60.546875
6482		-56.640625
6483		-58.593750
6484		-54.687500
6485		-56.640625
6486		-52.734375
6487		-54.687500
6488		-50.781250
6489		-50.781250
6490		-46.875000
6491		-48.828125
6492		-44.921875
6493		-44.921875
6494		-41.015625
6495		-42.968750
6496		-39.062500
6497		-39.062500
6498		-35.156250
6499		-37.109375
6500		-31.250000
6501		-33.203125
6502		-27.343750
6503		-29.296875
6504		-23.437500
6505		-25.390625
6506		-21.484375
6507		-21.484375
6508		-17.578125
6509		-17.578125
6510		-11.718750
6511		-15.625000
6512		-9.765625
6513		-9.765625
6514		-5.859375
6515		-5.859375
6516		-1.953125
6517		-1.953125
6518		1.953125
6519		1.953125
6520		5.859375
6521		5.859375
6522		9.765625
6523		9.765625
6524		13.671875
6525		13.671875
6526		17.578125
6527		17.578125
6528		21.484375
6529		21.484375
6530		27.343750
6531		23.437500
6532		29.296875
6533		29.296875
6534		33.203125
6535		33.203125
6536		37.109375
6537		35.156250
6538		41.015625
6539		39.062500
6540		44.921875
6541		42.968750
6542		46.875000
6543		46.875000
6544		50.781250
6545		48.828125
6546		54.687500
6547		50.781250
6548		56.640625
6549		54.687500
6550		60.546875
6551		58.593750
6552		62.500000
6553		60.546875
6554		64.453125
6555		64.453125
6556		68.359375
6557		66.406250
6558		70.312500
6559		68.359375
6560		72.265625
6561		72.265625
6562		74.218750
6563		72.265625
6564		78.125000
6565		74.218750
6566		80.078125
6567		76.171875
6568		80.078125
6569		78.125000
6570		82.031250
6571		80.078125
6572		83.984375
6573		82.031250
6574		83.984375
6575		82.031250
6576		85.937500
6577		83.984375
6578		85.937500
6579		83.984375
6580		87.890625
6581		82.031250
6582		89.843750
6583		83.984375
6584		87.890625
6585		85.937500
6586		87.890625
6587		85.937500
6588		87.890625
6589		85.937500
6590		87.890625
6591		85.937500
6592		87.890625
6593		85.937500
6594		87.890625
6595		83.984375
6596		85.937500
6597		82.031250
6598		87.890625
6599		80.078125
6600		85.937500
6601		80.078125
6602		83.984375
6603		80.078125
6604		82.031250
6605		78.125000
6606		82.031250
6607		76.171875
6608		80.078125
6609		74.218750
6610		78.125000
6611		72.265625
6612		76.171875
6613		70.312500
6614		74.218750
6615		66.406250
6616		74.218750
6617		66.406250
6618		72.265625
6619		62.500000
6620		68.359375
6621		60.546875
6622		64.453125
6623		58.593750
6624		62.500000
6625		54.687500
6626		58.593750
6627		50.781250
6628		56.640625
6629		48.828125
6630		52.734375
6631		44.921875
6632		50.781250
6633		41.015625
6634		46.875000
6635		37.109375
6636		42.968750
6637		35.156250
6638		39.062500
6639		31.250000
6640		35.156250
6641		27.343750
6642		31.250000
6643		23.437500
6644		29.296875
6645		19.531250
6646		25.390625
6647		13.671875
6648		21.484375
6649		9.765625
6650		19.531250
6651		7.812500
6652		13.671875
6653		3.906250
6654		9.765625
6655		0.000000
6656		5.859375
6657		-3.906250
6658		1.953125
6659		-7.812500
6660		-1.953125
6661		-11.718750
6662		-5.859375
6663		-15.625000
6664		-9.765625
6665		-21.484375
6666		-13.671875
6667		-23.437500
6668		-15.625000
6669		-27.343750
6670		-21.484375
6671		-29.296875
6672		-25.390625
6673		-33.203125
6674		-29.296875
6675		-37.109375
6676		-33.203125
6677		-41.015625
6678		-35.156250
6679		-42.968750
6680		-39.062500
6681		-48.828125
6682		-41.015625
6683		-50.781250
6684		-44.921875
6685		-52.734375
6686		-46.875000
6687		-54.687500
6688		-50.781250
6689		-56.640625
6690		-52.734375
6691		-58.593750
6692		-54.687500
6693		-60.546875
6694		-58.593750
6695		-62.500000
6696		-58.593750
6697		-66.406250
6698		-60.546875
6699		-66.406250
6700		-62.500000
6701		-68.359375
6702		-62.500000
6703		-68.359375
6704		-66.406250
6705		-70.312500
6706		-66.406250
6707		-70.312500
6708		-68.359375
6709		-70.312500
6710		-68.359375
6711		-70.312500
6712		-68.359375
6713		-70.312500
6714		-68.359375
6715		-72.265625
6716		-66.406250
6717		-72.265625
6718		-66.406250
6719		-70.312500
6720		-68.359375
6721		-70.312500
6722		-66.406250
6723		-68.359375
6724		-66.406250
6725		-68.359375
6726		-64.453125
6727		-66.406250
6728		-64.453125
6729		-64.453125
6730		-62.500000
6731		-64.453125
6732		-58.593750
6733		-62.500000
6734		-58.593750
6735		-60.546875
6736		-56.640625
6737		-58.593750
6738		-52.734375
6739		-54.687500
6740		-50.781250
6741		-52.734375
6742		-48.828125
6743		-50.781250
6744		-44.921875
6745		-46.875000
6746		-42.968750
6747		-44.921875
6748		-39.062500
6749		-42.968750
6750		-37.109375
6751		-39.062500
6752		-33.203125
6753		-35.156250
6754		-29.296875
6755		-31.250000
6756		-27.343750
6757		-27.343750
6758		-21.484375
6759		-23.437500
6760		-19.531250
6761		-19.531250
6762		-15.625000
6763		-15.625000
6764		-11.718750
6765		-13.671875
6766		-7.812500
6767		-9.765625
6768		-3.906250
6769		-5.859375
6770		0.000000
6771		0.000000
6772		3.906250
6773		1.953125
6774		7.812500
6775		5.859375
6776		11.718750
6777		9.765625
6778		15.625000
6779		13.671875
6780		19.531250
6781		17.578125
6782		23.437500
6783		21.484375
6784		27.343750
6785		25.390625
6786		31.250000
6787		29.296875
6788		35.156250
6789		33.203125
6790		39.062500
6791		37.109375
6792		42.968750
6793		41.015625
6794		44.921875
6795		42.968750
6796		48.828125
6797		46.875000
6798		50.781250
6799		50.781250
6800		54.687500
6801		52.734375
6802		58.593750
6803		56.640625
6804		60.546875
6805		58.593750
6806		64.453125
6807		62.500000
6808		66.406250
6809		64.453125
6810		68.359375
6811		66.406250
6812		70.312500
6813		68.359375
6814		74.218750
6815		72.265625
6816		76.171875
6817		74.218750
6818		76.171875
6819		76.171875
6820		78.125000
6821		78.125000
6822		80.078125
6823		80.078125
6824		82.031250
6825		80.078125
6826		83.984375
6827		82.031250
6828		83.984375
6829		82.031250
6830		85.937500
6831		83.984375
6832		85.937500
6833		83.984375
6834		85.937500
6835		85.937500
6836		87.890625
6837		85.937500
6838		87.890625
6839		85.937500
6840		87.890625
6841		85.937500
6842		87.890625
6843		85.937500
6844		87.890625
6845		85.937500
6846		87.890625
6847		83.984375
6848		85.937500
6849		83.984375
6850		85.937500
6851		82.031250
6852		85.937500
6853		82.031250
6854		83.984375
6855		80.078125
6856		83.984375
6857		78.125000
6858		82.031250
6859		78.125000
6860		80.078125
6861		76.171875
6862		78.125000
6863		74.218750
6864		78.125000
6865		72.265625
6866		76.171875
6867		70.312500
6868		74.218750
6869		66.406250
6870		70.312500
6871		64.453125
6872		68.359375
6873		62.500000
6874		66.406250
6875		58.593750
6876		62.500000
6877		56.640625
6878		60.546875
6879		52.734375
6880		56.640625
6881		50.781250
6882		54.687500
6883		46.875000
6884		50.781250
6885		42.968750
6886		48.828125
6887		41.015625
6888		44.921875
6889		35.156250
6890		41.015625
6891		33.203125
6892		39.062500
6893		29.296875
6894		33.203125
6895		25.390625
6896		31.250000
6897		21.484375
6898		27.343750
6899		17.578125
6900		23.437500
6901		13.671875
6902		19.531250
6903		9.765625
6904		15.625000
6905		5.859375
6906		11.718750
6907		1.953125
6908		7.812500
6909		-1.953125
6910		3.906250
6911		-5.859375
6912		0.000000
6913		-9.765625
6914		-3.906250
6915		-13.671875
6916		-7.812500
6917		-17.578125
6918		-11.718750
6919		-21.484375
6920		-15.625000
6921		-25.390625
6922		-19.531250
6923		-29.296875
6924		-23.437500
6925		-31.250000
6926		-27.343750
6927		-35.156250
6928		-31.250000
6929		-39.062500
6930		-33.203125
6931		-42.968750
6932		-37.109375
6933		-44.921875
6934		-41.015625
6935		-48.828125
6936		-42.968750
6937		-50.781250
6938		-46.875000
6939		-52.734375
6940		-48.828125
6941		-56.640625
6942		-52.734375
6943		-58.593750
6944		-54.687500
6945		-60.546875
6946		-56.640625
6947		-62.500000
6948		-58.593750
6949		-64.453125
6950		-60.546875
6951		-66.406250
6952		-62.500000
6953		-66.406250
6954		-64.453125
6955		-68.359375
6956		-64.453125
6957		-68.359375
6958		-66.406250
6959		-70.312500
6960		-68.359375
6961		-70.312500
6962		-68.359375
6963		-70.312500
6964		-68.359375
6965		-72.265625
6966		-68.359375
6967		-72.265625
6968		-68.359375
6969		-72.265625
6970		-68.359375
6971		-70.312500
6972		-68.359375
6973		-70.312500
6974		-68.359375
6975		-70.312500
6976		-66.406250
6977		-68.359375
6978		-66.406250
6979		-68.359375
6980		-64.453125
6981		-66.406250
6982		-64.453125
6983		-64.453125
6984		-62.500000
6985		-62.500000
6986		-60.546875
6987		-62.500000
6988		-58.593750
6989		-60.546875
6990		-54.687500
6991		-56.640625
6992		-52.734375
6993		-54.687500
6994		-50.781250
6995		-52.734375
6996		-48.828125
6997		-48.828125
6998		-44.921875
6999		-46.875000
7000		-42.968750
7001		-42.968750
7002		-39.062500
7003		-41.015625
7004		-35.156250
7005		-37.109375
7006		-31.250000
7007		-33.203125
7008		-29.296875
7009		-29.296875
7010		-25.390625
7011		-27.343750
7012		-21.484375
7013		-23.437500
7014		-17.578125
7015		-19.531250
7016		-13.671875
7017		-15.625000
7018		-9.765625
7019		-11.718750
7020		-5.859375
7021		-7.812500
7022		-1.953125
7023		-3.906250
7024		1.953125
7025		0.000000
7026		5.859375
7027		3.906250
7028		9.765625
7029		7.812500
7030		13.671875
7031		11.718750
7032		17.578125
7033		15.625000
7034		21.484375
7035		19.531250
7036		25.390625
7037		23.437500
7038		27.343750
7039		27.343750
7040		31.250000
7041		31.250000
7042		35.156250
7043		35.156250
7044		39.062500
7045		37.109375
7046		42.968750
7047		41.015625
7048		46.875000
7049		44.921875
7050		48.828125
7051		48.828125
7052		52.734375
7053		50.781250
7054		56.640625
7055		54.687500
7056		58.593750
7057		58.593750
7058		62.500000
7059		60.546875
7060		64.453125
7061		62.500000
7062		66.406250
7063		66.406250
7064		70.312500
7065		68.359375
7066		72.265625
7067		70.312500
7068		74.218750
7069		72.265625
7070		76.171875
7071		74.218750
7072		78.125000
7073		76.171875
7074		80.078125
7075		78.125000
7076		82.031250
7077		80.078125
7078		82.031250
7079		80.078125
7080		83.984375
7081		82.031250
7082		85.937500
7083		83.984375
7084		85.937500
7085		83.984375
7086		87.890625
7087		83.984375
7088		87.890625
7089		85.937500
7090		87.890625
7091		85.937500
7092		87.890625
7093		85.937500
7094		87.890625
7095		85.937500
7096		87.890625
7097		85.937500
7098		87.890625
7099		83.984375
7100		87.890625
7101		83.984375
7102		87.890625
7103		83.984375
7104		85.937500
7105		82.031250
7106		85.937500
7107		82.031250
7108		83.984375
7109		80.078125
7110		83.984375
7111		78.125000
7112		82.031250
7113		78.125000
7114		80.078125
7115		76.171875
7116		80.078125
7117		74.218750
7118		78.125000
7119		72.265625
7120		76.171875
7121		70.312500
7122		74.218750
7123		66.406250
7124		70.312500
7125		64.453125
7126		68.359375
7127		62.500000
7128		66.406250
7129		58.593750
7130		62.500000
7131		56.640625
7132		60.546875
7133		52.734375
7134		56.640625
7135		50.781250
7136		54.687500
7137		46.875000
7138		50.781250
7139		42.968750
7140		46.875000
7141		39.062500
7142		44.921875
7143		35.156250
7144		41.015625
7145		33.203125
7146		37.109375
7147		29.296875
7148		33.203125
7149		25.390625
7150		29.296875
7151		21.484375
7152		27.343750
7153		17.578125
7154		23.437500
7155		13.671875
7156		17.578125
7157		9.765625
7158		13.671875
7159		5.859375
7160		9.765625
7161		1.953125
7162		7.812500
7163		-1.953125
7164		1.953125
7165		-5.859375
7166		-1.953125
7167		-9.765625
7168		-5.859375
7169		-13.671875
7170		-7.812500
7171		-17.578125
7172		-13.671875
7173		-21.484375
7174		-15.625000
7175		-25.390625
7176		-19.531250
7177		-29.296875
7178		-23.437500
7179		-31.250000
7180		-27.343750
7181		-35.156250
7182		-31.250000
7183		-39.062500
7184		-35.156250
7185		-42.968750
7186		-37.109375
7187		-44.921875
7188		-41.015625
7189		-48.828125
7190		-42.968750
7191		-50.781250
7192		-46.875000
7193		-52.734375
7194		-48.828125
7195		-56.640625
7196		-52.734375
7197		-58.593750
7198		-54.687500
7199		-60.546875
7200		-56.640625
7201		-62.500000
7202		-58.593750
7203		-64.453125
7204		-60.546875
7205		-66.406250
7206		-62.500000
7207		-66.406250
7208		-62.500000
7209		-68.359375
7210		-66.406250
7211		-70.312500
7212		-66.406250
7213		-70.312500
7214		-68.359375
7215		-70.312500
7216		-68.359375
7217		-70.312500
7218		-68.359375
7219		-70.312500
7220		-68.359375
7221		-72.265625
7222		-68.359375
7223		-70.312500
7224		-68.359375
7225		-70.312500
7226		-68.359375
7227		-70.312500
7228		-68.359375
7229		-70.312500
7230		-66.406250
7231		-68.359375
7232		-66.406250
7233		-66.406250
7234		-64.453125
7235		-66.406250
7236		-62.500000
7237		-64.453125
7238		-60.546875
7239		-62.500000
7240		-58.593750
7241		-60.546875
7242		-56.640625
7243		-58.593750
7244		-54.687500
7245		-56.640625
7246		-52.734375
7247		-54.687500
7248		-50.781250
7249		-50.781250
7250		-46.875000
7251		-48.828125
7252		-44.921875
7253		-44.921875
7254		-41.015625
7255		-42.968750
7256		-39.062500
7257		-39.062500
7258		-35.156250
7259		-37.109375
7260		-31.250000
7261		-33.203125
7262		-27.343750
7263		-29.296875
7264		-25.390625
7265		-25.390625
7266		-21.484375
7267		-21.484375
7268		-17.578125
7269		-17.578125
7270		-13.671875
7271		-15.625000
7272		-9.765625
7273		-11.718750
7274		-5.859375
7275		-7.812500
7276		-1.953125
7277		-3.906250
7278		1.953125
7279		1.953125
7280		5.859375
7281		5.859375
7282		9.765625
7283		9.765625
7284		13.671875
7285		13.671875
7286		17.578125
7287		15.625000
7288		21.484375
7289		19.531250
7290		25.390625
7291		23.437500
7292		29.296875
7293		27.343750
7294		33.203125
7295		31.250000
7296		37.109375
7297		35.156250
7298		39.062500
7299		39.062500
7300		44.921875
7301		41.015625
7302		46.875000
7303		44.921875
7304		50.781250
7305		48.828125
7306		52.734375
7307		52.734375
7308		56.640625
7309		54.687500
7310		58.593750
7311		58.593750
7312		62.500000
7313		60.546875
7314		64.453125
7315		62.500000
7316		68.359375
7317		66.406250
7318		70.312500
7319		68.359375
7320		72.265625
7321		70.312500
7322		74.218750
7323		72.265625
7324		76.171875
7325		74.218750
7326		78.125000
7327		76.171875
7328		80.078125
7329		78.125000
7330		82.031250
7331		80.078125
7332		82.031250
7333		80.078125
7334		83.984375
7335		82.031250
7336		83.984375
7337		83.984375
7338		85.937500
7339		83.984375
7340		85.937500
7341		83.984375
7342		85.937500
7343		85.937500
7344		87.890625
7345		85.937500
7346		87.890625
7347		85.937500
7348		87.890625
7349		83.984375
7350		87.890625
7351		85.937500
7352		87.890625
7353		83.984375
7354		87.890625
7355		83.984375
7356		85.937500
7357		82.031250
7358		85.937500
7359		82.031250
7360		83.984375
7361		80.078125
7362		83.984375
7363		80.078125
7364		82.031250
7365		78.125000
7366		82.031250
7367		76.171875
7368		80.078125
7369		74.218750
7370		78.125000
7371		72.265625
7372		76.171875
7373		70.312500
7374		74.218750
7375		68.359375
7376		72.265625
7377		66.406250
7378		70.312500
7379		62.500000
7380		66.406250
7381		60.546875
7382		64.453125
7383		56.640625
7384		62.500000
7385		54.687500
7386		58.593750
7387		50.781250
7388		56.640625
7389		48.828125
7390		52.734375
7391		44.921875
7392		48.828125
7393		41.015625
7394		46.875000
7395		37.109375
7396		42.968750
7397		33.203125
7398		39.062500
7399		31.250000
7400		35.156250
7401		27.343750
7402		31.250000
7403		23.437500
7404		27.343750
7405		19.531250
7406		23.437500
7407		15.625000
7408		19.531250
7409		11.718750
7410		15.625000
7411		7.812500
7412		11.718750
7413		3.906250
7414		7.812500
7415		0.000000
7416		3.906250
7417		-3.906250
7418		0.000000
7419		-7.812500
7420		-1.953125
7421		-11.718750
7422		-7.812500
7423		-15.625000
7424		-11.718750
7425		-19.531250
7426		-13.671875
7427		-23.437500
7428		-17.578125
7429		-27.343750
7430		-21.484375
7431		-31.250000
7432		-25.390625
7433		-35.156250
7434		-29.296875
7435		-37.109375
7436		-33.203125
7437		-41.015625
7438		-37.109375
7439		-44.921875
7440		-39.062500
7441		-46.875000
7442		-42.968750
7443		-50.781250
7444		-44.921875
7445		-52.734375
7446		-48.828125
7447		-54.687500
7448		-50.781250
7449		-58.593750
7450		-54.687500
7451		-60.546875
7452		-56.640625
7453		-62.500000
7454		-58.593750
7455		-64.453125
7456		-60.546875
7457		-66.406250
7458		-62.500000
7459		-66.406250
7460		-64.453125
7461		-68.359375
7462		-66.406250
7463		-70.312500
7464		-66.406250
7465		-70.312500
7466		-68.359375
7467		-70.312500
7468		-68.359375
7469		-72.265625
7470		-68.359375
7471		-72.265625
7472		-70.312500
7473		-72.265625
7474		-70.312500
7475		-72.265625
7476		-70.312500
7477		-72.265625
7478		-70.312500
7479		-72.265625
7480		-68.359375
7481		-70.312500
7482		-68.359375
7483		-70.312500
7484		-66.406250
7485		-68.359375
7486		-66.406250
7487		-68.359375
7488		-64.453125
7489		-66.406250
7490		-62.500000
7491		-64.453125
7492		-60.546875
7493		-62.500000
7494		-58.593750
7495		-60.546875
7496		-56.640625
7497		-58.593750
7498		-54.687500
7499		-56.640625
7500		-52.734375
7501		-54.687500
7502		-48.828125
7503		-50.781250
7504		-46.875000
7505		-48.828125
7506		-44.921875
7507		-44.921875
7508		-41.015625
7509		-42.968750
7510		-37.109375
7511		-39.062500
7512		-35.156250
7513		-35.156250
7514		-31.250000
7515		-33.203125
7516		-27.343750
7517		-29.296875
7518		-23.437500
7519		-25.390625
7520		-19.531250
7521		-21.484375
7522		-15.625000
7523		-17.578125
7524		-13.671875
7525		-13.671875
7526		-7.812500
7527		-9.765625
7528		-3.906250
7529		-7.812500
7530		0.000000
7531		-1.953125
7532		3.906250
7533		1.953125
7534		7.812500
7535		5.859375
7536		11.718750
7537		9.765625
7538		15.625000
7539		13.671875
7540		19.531250
7541		17.578125
7542		23.437500
7543		21.484375
7544		25.390625
7545		25.390625
7546		29.296875
7547		29.296875
7548		33.203125
7549		33.203125
7550		37.109375
7551		35.156250
7552		41.015625
7553		39.062500
7554		44.921875
7555		42.968750
7556		46.875000
7557		46.875000
7558		50.781250
7559		48.828125
7560		54.687500
7561		52.734375
7562		56.640625
7563		56.640625
7564		60.546875
7565		58.593750
7566		62.500000
7567		60.546875
7568		66.406250
7569		64.453125
7570		68.359375
7571		66.406250
7572		70.312500
7573		68.359375
7574		72.265625
7575		70.312500
7576		76.171875
7577		72.265625
7578		76.171875
7579		76.171875
7580		80.078125
7581		74.218750
7582		80.078125
7583		78.125000
7584		82.031250
7585		80.078125
7586		82.031250
7587		80.078125
7588		83.984375
7589		82.031250
7590		85.937500
7591		83.984375
7592		85.937500
7593		83.984375
7594		87.890625
7595		83.984375
7596		87.890625
7597		83.984375
7598		89.843750
7599		85.937500
7600		87.890625
7601		83.984375
7602		91.796875
7603		85.937500
7604		87.890625
7605		83.984375
7606		87.890625
7607		83.984375
7608		87.890625
7609		83.984375
7610		87.890625
7611		82.031250
7612		85.937500
7613		80.078125
7614		85.937500
7615		80.078125
7616		85.937500
7617		78.125000
7618		83.984375
7619		78.125000
7620		82.031250
7621		76.171875
7622		80.078125
7623		72.265625
7624		78.125000
7625		72.265625
7626		76.171875
7627		70.312500
7628		74.218750
7629		68.359375
7630		72.265625
7631		64.453125
7632		70.312500
7633		62.500000
7634		66.406250
7635		58.593750
7636		66.406250
7637		56.640625
7638		60.546875
7639		52.734375
7640		58.593750
7641		48.828125
7642		56.640625
7643		46.875000
7644		52.734375
7645		42.968750
7646		48.828125
7647		37.109375
7648		44.921875
7649		37.109375
7650		41.015625
7651		31.250000
7652		39.062500
7653		29.296875
7654		35.156250
7655		25.390625
7656		31.250000
7657		21.484375
7658		27.343750
7659		17.578125
7660		25.390625
7661		13.671875
7662		19.531250
7663		9.765625
7664		17.578125
7665		3.906250
7666		13.671875
7667		0.000000
7668		7.812500
7669		-1.953125
7670		3.906250
7671		-5.859375
7672		0.000000
7673		-9.765625
7674		-3.906250
7675		-15.625000
7676		-5.859375
7677		-17.578125
7678		-11.718750
7679		-21.484375
7680		-15.625000
7681		-27.343750
7682		-19.531250
7683		-27.343750
7684		-19.531250
7685		-33.203125
7686		-25.390625
7687		-35.156250
7688		-29.296875
7689		-39.062500
7690		-33.203125
7691		-44.921875
7692		-35.156250
7693		-46.875000
7694		-37.109375
7695		-46.875000
7696		-42.968750
7697		-50.781250
7698		-46.875000
7699		-56.640625
7700		-44.921875
7701		-58.593750
7702		-48.828125
7703		-58.593750
7704		-54.687500
7705		-60.546875
7706		-56.640625
7707		-62.500000
7708		-58.593750
7709		-66.406250
7710		-58.593750
7711		-66.406250
7712		-60.546875
7713		-66.406250
7714		-64.453125
7715		-72.265625
7716		-62.500000
7717		-72.265625
7718		-64.453125
7719		-74.218750
7720		-62.500000
7721		-70.312500
7722		-68.359375
7723		-72.265625
7724		-68.359375
7725		-74.218750
7726		-66.406250
7727		-74.218750
7728		-66.406250
7729		-72.265625
7730		-68.359375
7731		-72.265625
7732		-66.406250
7733		-74.218750
7734		-64.453125
7735		-72.265625
7736		-64.453125
7737		-70.312500
7738		-66.406250
7739		-68.359375
7740		-64.453125
7741		-68.359375
7742		-60.546875
7743		-68.359375
7744		-58.593750
7745		-64.453125
7746		-60.546875
7747		-62.500000
7748		-58.593750
7749		-62.500000
7750		-52.734375
7751		-58.593750
7752		-50.781250
7753		-54.687500
7754		-50.781250
7755		-52.734375
7756		-48.828125
7757		-50.781250
7758		-44.921875
7759		-48.828125
7760		-41.015625
7761		-44.921875
7762		-39.062500
7763		-41.015625
7764		-37.109375
7765		-39.062500
7766		-29.296875
7767		-39.062500
7768		-29.296875
7769		-33.203125
7770		-25.390625
7771		-27.343750
7772		-21.484375
7773		-23.437500
7774		-17.578125
7775		-21.484375
7776		-11.718750
7777		-19.531250
7778		-9.765625
7779		-13.671875
7780		-7.812500
7781		-7.812500
7782		-3.906250
7783		-7.812500
7784		1.953125
7785		-1.953125
7786		7.812500
7787		3.906250
7788		7.812500
7789		5.859375
7790		11.718750
7791		11.718750
7792		17.578125
7793		11.718750
7794		21.484375
7795		17.578125
7796		23.437500
7797		23.437500
7798		27.343750
7799		25.390625
7800		35.156250
7801		27.343750
7802		35.156250
7803		31.250000
7804		39.062500
7805		37.109375
7806		42.968750
7807		41.015625
7808		46.875000
7809		42.968750
7810		52.734375
7811		46.875000
7812		52.734375
7813		50.781250
7814		54.687500
7815		52.734375
7816		60.546875
7817		54.687500
7818		62.500000
7819		58.593750
7820		66.406250
7821		62.500000
7822		66.406250
7823		64.453125
7824		68.359375
7825		66.406250
7826		72.265625
7827		66.406250
7828		74.218750
7829		72.265625
7830		76.171875
7831		74.218750
7832		78.125000
7833		72.265625
7834		82.031250
7835		76.171875
7836		83.984375
7837		78.125000
7838		82.031250
7839		80.078125
7840		82.031250
7841		82.031250
7842		85.937500
7843		80.078125
7844		87.890625
7845		82.031250
7846		87.890625
7847		83.984375
7848		85.937500
7849		82.031250
7850		89.843750
7851		85.937500
7852		87.890625
7853		82.031250
7854		89.843750
7855		83.984375
7856		87.890625
7857		83.984375
7858		87.890625
7859		83.984375
7860		85.937500
7861		82.031250
7862		89.843750
7863		82.031250
7864		85.937500
7865		82.031250
7866		85.937500
7867		80.078125
7868		85.937500
7869		80.078125
7870		82.031250
7871		78.125000
7872		82.031250
7873		76.171875
7874		80.078125
7875		74.218750
7876		78.125000
7877		72.265625
7878		76.171875
7879		70.312500
7880		76.171875
7881		68.359375
7882		72.265625
7883		66.406250
7884		72.265625
7885		64.453125
7886		68.359375
7887		60.546875
7888		64.453125
7889		58.593750
7890		62.500000
7891		54.687500
7892		60.546875
7893		52.734375
7894		56.640625
7895		48.828125
7896		52.734375
7897		44.921875
7898		50.781250
7899		41.015625
7900		46.875000
7901		39.062500
7902		42.968750
7903		35.156250
7904		41.015625
7905		31.250000
7906		37.109375
7907		27.343750
7908		33.203125
7909		23.437500
7910		29.296875
7911		19.531250
7912		25.390625
7913		15.625000
7914		21.484375
7915		11.718750
7916		17.578125
7917		7.812500
7918		13.671875
7919		3.906250
7920		9.765625
7921		0.000000
7922		7.812500
7923		-3.906250
7924		1.953125
7925		-7.812500
7926		-1.953125
7927		-11.718750
7928		-3.906250
7929		-15.625000
7930		-7.812500
7931		-19.531250
7932		-13.671875
7933		-23.437500
7934		-17.578125
7935		-27.343750
7936		-19.531250
7937		-29.296875
7938		-23.437500
7939		-33.203125
7940		-29.296875
7941		-37.109375
7942		-31.250000
7943		-41.015625
7944		-33.203125
7945		-44.921875
7946		-37.109375
7947		-48.828125
7948		-39.062500
7949		-50.781250
7950		-42.968750
7951		-54.687500
7952		-46.875000
7953		-54.687500
7954		-48.828125
7955		-56.640625
7956		-52.734375
7957		-58.593750
7958		-54.687500
7959		-62.500000
7960		-56.640625
7961		-64.453125
7962		-58.593750
7963		-66.406250
7964		-60.546875
7965		-68.359375
7966		-62.500000
7967		-68.359375
7968		-64.453125
7969		-70.312500
7970		-64.453125
7971		-70.312500
7972		-66.406250
7973		-70.312500
7974		-68.359375
7975		-74.218750
7976		-68.359375
7977		-72.265625
7978		-68.359375
7979		-74.218750
7980		-68.359375
7981		-74.218750
7982		-68.359375
7983		-72.265625
7984		-68.359375
7985		-74.218750
7986		-68.359375
7987		-72.265625
7988		-66.406250
7989		-70.312500
7990		-68.359375
7991		-70.312500
7992		-66.406250
7993		-68.359375
7994		-64.453125
7995		-68.359375
7996		-64.453125
7997		-66.406250
7998		-60.546875
7999		-66.406250
8000		-58.593750
8001		-62.500000
8002		-56.640625
8003		-60.546875
8004		-54.687500
8005		-58.593750
8006		-52.734375
8007		-54.687500
8008		-50.781250
8009		-52.734375
8010		-46.875000
8011		-50.781250
8012		-44.921875
8013		-46.875000
8014		-41.015625
8015		-44.921875
8016		-37.109375
8017		-41.015625
8018		-35.156250
8019		-37.109375
8020		-31.250000
8021		-33.203125
8022		-29.296875
8023		-29.296875
8024		-25.390625
8025		-25.390625
8026		-21.484375
8027		-23.437500
8028		-17.578125
8029		-19.531250
8030		-13.671875
8031		-15.625000
8032		-7.812500
8033		-13.671875
8034		-5.859375
8035		-7.812500
8036		0.000000
8037		-3.906250
8038		1.953125
8039		0.000000
8040		5.859375
8041		3.906250
8042		9.765625
8043		7.812500
8044		13.671875
8045		11.718750
8046		17.578125
8047		15.625000
8048		21.484375
8049		19.531250
8050		25.390625
8051		23.437500
8052		29.296875
8053		27.343750
8054		33.203125
8055		31.250000
8056		37.109375
8057		35.156250
8058		39.062500
8059		39.062500
8060		44.921875
8061		41.015625
8062		46.875000
8063		44.921875
8064		50.781250
8065		48.828125
8066		54.687500
8067		50.781250
8068		56.640625
8069		54.687500
8070		58.593750
8071		56.640625
8072		62.500000
8073		60.546875
8074		64.453125
8075		62.500000
8076		68.359375
8077		66.406250
8078		70.312500
8079		68.359375
8080		72.265625
8081		70.312500
8082		74.218750
8083		70.312500
8084		76.171875
8085		74.218750
8086		78.125000
8087		76.171875
8088		80.078125
8089		78.125000
8090		82.031250
8091		80.078125
8092		82.031250
8093		82.031250
8094		83.984375
8095		82.031250
8096		85.937500
8097		82.031250
8098		85.937500
8099		82.031250
8100		87.890625
8101		83.984375
8102		87.890625
8103		83.984375
8104		87.890625
8105		83.984375
8106		87.890625
8107		85.937500
8108		87.890625
8109		85.937500
8110		87.890625
8111		83.984375
8112		87.890625
8113		83.984375
8114		87.890625
8115		83.984375
8116		87.890625
8117		82.031250
8118		87.890625
8119		82.031250
8120		85.937500
8121		80.078125
8122		83.984375
8123		80.078125
8124		83.984375
8125		78.125000
8126		82.031250
8127		76.171875
8128		80.078125
8129		74.218750
8130		78.125000
8131		72.265625
8132		76.171875
8133		70.312500
8134		76.171875
8135		68.359375
8136		72.265625
8137		66.406250
8138		70.312500
8139		62.500000
8140		68.359375
8141		60.546875
8142		64.453125
8143		58.593750
8144		62.500000
8145		54.687500
8146		60.546875
8147		52.734375
8148		56.640625
8149		48.828125
8150		54.687500
8151		44.921875
8152		50.781250
8153		41.015625
8154		46.875000
8155		37.109375
8156		42.968750
8157		35.156250
8158		39.062500
8159		31.250000
8160		37.109375
8161		27.343750
8162		33.203125
8163		23.437500
8164		29.296875
8165		19.531250
8166		25.390625
8167		15.625000
8168		21.484375
8169		11.718750
8170		17.578125
8171		7.812500
8172		13.671875
8173		3.906250
8174		9.765625
8175		0.000000
8176		5.859375
8177		-3.906250
8178		1.953125
8179		-7.812500
8180		-1.953125
8181		-11.718750
8182		-5.859375
8183		-15.625000
8184		-9.765625
8185		-19.531250
8186		-13.671875
8187		-23.437500
8188		-17.578125
8189		-27.343750
8190		-21.484375
8191		-31.250000
8192		-25.390625
8193		-33.203125
8194		-29.296875
8195		-37.109375
8196		-31.250000
8197		-41.015625
8198		-35.156250
8199		-42.968750
8200		-39.062500
8201		-46.875000
8202		-42.968750
8203		-48.828125
8204		-44.921875
8205		-52.734375
8206		-46.875000
8207		-54.687500
8208		-48.828125
8209		-56.640625
8210		-52.734375
8211		-58.593750
8212		-54.687500
8213		-62.500000
8214		-56.640625
8215		-62.500000
8216		-58.593750
8217		-64.453125
8218		-60.546875
8219		-66.406250
8220		-62.500000
8221		-68.359375
8222		-64.453125
8223		-70.312500
8224		-64.453125
8225		-70.312500
8226		-66.406250
8227		-72.265625
8228		-68.359375
8229		-72.265625
8230		-68.359375
8231		-72.265625
8232		-68.359375
8233		-72.265625
8234		-68.359375
8235		-72.265625
8236		-68.359375
8237		-72.265625
8238		-68.359375
8239		-72.265625
8240		-66.406250
8241		-70.312500
8242		-66.406250
8243		-70.312500
8244		-66.406250
8245		-70.312500
8246		-64.453125
8247		-68.359375
8248		-64.453125
8249		-66.406250
8250		-62.500000
8251		-64.453125
8252		-60.546875
8253		-62.500000
8254		-58.593750
8255		-60.546875
8256		-56.640625
8257		-58.593750
8258		-54.687500
8259		-56.640625
8260		-52.734375
8261		-52.734375
8262		-48.828125
8263		-50.781250
8264		-46.875000
8265		-48.828125
8266		-42.968750
8267		-44.921875
8268		-41.015625
8269		-42.968750
8270		-37.109375
8271		-39.062500
8272		-33.203125
8273		-37.109375
8274		-29.296875
8275		-33.203125
8276		-27.343750
8277		-29.296875
8278		-23.437500
8279		-25.390625
8280		-19.531250
8281		-21.484375
8282		-15.625000
8283		-17.578125
8284		-13.671875
8285		-13.671875
8286		-7.812500
8287		-9.765625
8288		-3.906250
8289		-7.812500
8290		0.000000
8291		-3.906250
8292		1.953125
8293		1.953125
8294		7.812500
8295		5.859375
8296		11.718750
8297		9.765625
8298		15.625000
8299		13.671875
8300		19.531250
8301		15.625000
8302		21.484375
8303		21.484375
8304		27.343750
8305		25.390625
8306		29.296875
8307		29.296875
8308		33.203125
8309		33.203125
8310		37.109375
8311		35.156250
8312		41.015625
8313		39.062500
8314		44.921875
8315		42.968750
8316		46.875000
8317		46.875000
8318		50.781250
8319		48.828125
8320		54.687500
8321		52.734375
8322		56.640625
8323		56.640625
8324		60.546875
8325		58.593750
8326		62.500000
8327		60.546875
8328		66.406250
8329		62.500000
8330		68.359375
8331		66.406250
8332		70.312500
8333		68.359375
8334		72.265625
8335		70.312500
8336		74.218750
8337		72.265625
8338		78.125000
8339		74.218750
8340		78.125000
8341		76.171875
8342		80.078125
8343		78.125000
8344		82.031250
8345		80.078125
8346		83.984375
8347		80.078125
8348		83.984375
8349		82.031250
8350		85.937500
8351		83.984375
8352		85.937500
8353		83.984375
8354		85.937500
8355		83.984375
8356		87.890625
8357		83.984375
8358		87.890625
8359		85.937500
8360		87.890625
8361		85.937500
8362		87.890625
8363		83.984375
8364		87.890625
8365		83.984375
8366		87.890625
8367		83.984375
8368		87.890625
8369		83.984375
8370		87.890625
8371		82.031250
8372		85.937500
8373		82.031250
8374		85.937500
8375		80.078125
8376		83.984375
8377		80.078125
8378		82.031250
8379		76.171875
8380		82.031250
8381		76.171875
8382		80.078125
8383		74.218750
8384		78.125000
8385		72.265625
8386		76.171875
8387		70.312500
8388		74.218750
8389		66.406250
8390		72.265625
8391		64.453125
8392		68.359375
8393		62.500000
8394		66.406250
8395		58.593750
8396		64.453125
8397		56.640625
8398		60.546875
8399		52.734375
8400		58.593750
8401		50.781250
8402		54.687500
8403		46.875000
8404		52.734375
8405		42.968750
8406		48.828125
8407		39.062500
8408		44.921875
8409		37.109375
8410		42.968750
8411		33.203125
8412		39.062500
8413		29.296875
8414		35.156250
8415		25.390625
8416		31.250000
8417		21.484375
8418		27.343750
8419		17.578125
8420		23.437500
8421		13.671875
8422		19.531250
8423		9.765625
8424		15.625000
8425		5.859375
8426		11.718750
8427		1.953125
8428		7.812500
8429		-1.953125
8430		3.906250
8431		-5.859375
8432		0.000000
8433		-9.765625
8434		-3.906250
8435		-13.671875
8436		-7.812500
8437		-17.578125
8438		-11.718750
8439		-21.484375
8440		-15.625000
8441		-23.437500
8442		-19.531250
8443		-27.343750
8444		-23.437500
8445		-31.250000
8446		-27.343750
8447		-35.156250
8448		-29.296875
8449		-39.062500
8450		-33.203125
8451		-41.015625
8452		-37.109375
8453		-44.921875
8454		-41.015625
8455		-48.828125
8456		-42.968750
8457		-50.781250
8458		-46.875000
8459		-52.734375
8460		-48.828125
8461		-54.687500
8462		-50.781250
8463		-58.593750
8464		-54.687500
8465		-60.546875
8466		-56.640625
8467		-62.500000
8468		-58.593750
8469		-64.453125
8470		-60.546875
8471		-66.406250
8472		-62.500000
8473		-68.359375
8474		-62.500000
8475		-68.359375
8476		-64.453125
8477		-68.359375
8478		-66.406250
8479		-70.312500
8480		-66.406250
8481		-72.265625
8482		-68.359375
8483		-72.265625
8484		-68.359375
8485		-72.265625
8486		-68.359375
8487		-72.265625
8488		-68.359375
8489		-72.265625
8490		-68.359375
8491		-72.265625
8492		-68.359375
8493		-70.312500
8494		-68.359375
8495		-70.312500
8496		-68.359375
8497		-70.312500
8498		-66.406250
8499		-70.312500
8500		-64.453125
8501		-66.406250
8502		-64.453125
8503		-66.406250
8504		-62.500000
8505		-64.453125
8506		-60.546875
8507		-62.500000
8508		-58.593750
8509		-60.546875
8510		-56.640625
8511		-56.640625
8512		-54.687500
8513		-54.687500
8514		-50.781250
8515		-52.734375
8516		-48.828125
8517		-50.781250
8518		-44.921875
8519		-46.875000
8520		-42.968750
8521		-44.921875
8522		-39.062500
8523		-41.015625
8524		-37.109375
8525		-39.062500
8526		-33.203125
8527		-35.156250
8528		-29.296875
8529		-31.250000
8530		-25.390625
8531		-27.343750
8532		-21.484375
8533		-23.437500
8534		-17.578125
8535		-21.484375
8536		-15.625000
8537		-15.625000
8538		-9.765625
8539		-13.671875
8540		-7.812500
8541		-7.812500
8542		-1.953125
8543		-5.859375
8544		0.000000
8545		0.000000
8546		3.906250
8547		3.906250
8548		9.765625
8549		5.859375
8550		11.718750
8551		9.765625
8552		15.625000
8553		15.625000
8554		21.484375
8555		19.531250
8556		23.437500
8557		21.484375
8558		29.296875
8559		25.390625
8560		31.250000
8561		31.250000
8562		35.156250
8563		33.203125
8564		39.062500
8565		37.109375
8566		42.968750
8567		41.015625
8568		44.921875
8569		44.921875
8570		48.828125
8571		46.875000
8572		52.734375
8573		50.781250
8574		56.640625
8575		52.734375
8576		58.593750
8577		56.640625
8578		60.546875
8579		60.546875
8580		64.453125
8581		62.500000
8582		66.406250
8583		64.453125
8584		70.312500
8585		68.359375
8586		72.265625
8587		70.312500
8588		74.218750
8589		72.265625
8590		76.171875
8591		74.218750
8592		78.125000
8593		76.171875
8594		80.078125
8595		78.125000
8596		82.031250
8597		80.078125
8598		82.031250
8599		80.078125
8600		83.984375
8601		82.031250
8602		85.937500
8603		82.031250
8604		85.937500
8605		83.984375
8606		87.890625
8607		83.984375
8608		87.890625
8609		85.937500
8610		89.843750
8611		85.937500
8612		87.890625
8613		85.937500
8614		87.890625
8615		83.984375
8616		89.843750
8617		85.937500
8618		87.890625
8619		83.984375
8620		87.890625
8621		83.984375
8622		87.890625
8623		83.984375
8624		87.890625
8625		82.031250
8626		85.937500
8627		82.031250
8628		85.937500
8629		80.078125
8630		83.984375
8631		78.125000
8632		82.031250
8633		78.125000
8634		80.078125
8635		74.218750
8636		80.078125
8637		72.265625
8638		78.125000
8639		72.265625
8640		76.171875
8641		70.312500
8642		74.218750
8643		66.406250
8644		70.312500
8645		64.453125
8646		68.359375
8647		62.500000
8648		66.406250
8649		58.593750
8650		64.453125
8651		54.687500
8652		60.546875
8653		52.734375
8654		58.593750
8655		50.781250
8656		54.687500
8657		46.875000
8658		52.734375
8659		42.968750
8660		48.828125
8661		39.062500
8662		44.921875
8663		37.109375
8664		41.015625
8665		33.203125
8666		37.109375
8667		29.296875
8668		35.156250
8669		25.390625
8670		31.250000
8671		21.484375
8672		27.343750
8673		15.625000
8674		23.437500
8675		13.671875
8676		19.531250
8677		9.765625
8678		15.625000
8679		5.859375
8680		11.718750
8681		1.953125
8682		7.812500
8683		-1.953125
8684		3.906250
8685		-5.859375
8686		0.000000
8687		-9.765625
8688		-3.906250
8689		-13.671875
8690		-7.812500
8691		-17.578125
8692		-11.718750
8693		-23.437500
8694		-15.625000
8695		-25.390625
8696		-19.531250
8697		-29.296875
8698		-23.437500
8699		-33.203125
8700		-27.343750
8701		-35.156250
8702		-31.250000
8703		-39.062500
8704		-33.203125
8705		-42.968750
8706		-37.109375
8707		-44.921875
8708		-41.015625
8709		-48.828125
8710		-42.968750
8711		-50.781250
8712		-44.921875
8713		-52.734375
8714		-48.828125
8715		-56.640625
8716		-52.734375
8717		-58.593750
8718		-54.687500
8719		-60.546875
8720		-56.640625
8721		-62.500000
8722		-58.593750
8723		-64.453125
8724		-60.546875
8725		-66.406250
8726		-62.500000
8727		-68.359375
8728		-64.453125
8729		-68.359375
8730		-66.406250
8731		-70.312500
8732		-66.406250
8733		-70.312500
8734		-66.406250
8735		-72.265625
8736		-68.359375
8737		-72.265625
8738		-68.359375
8739		-72.265625
8740		-68.359375
8741		-72.265625
8742		-68.359375
8743		-72.265625
8744		-68.359375
8745		-72.265625
8746		-68.359375
8747		-70.312500
8748		-68.359375
8749		-70.312500
8750		-66.406250
8751		-70.312500
8752		-66.406250
8753		-68.359375
8754		-64.453125
8755		-66.406250
8756		-62.500000
8757		-64.453125
8758		-60.546875
8759		-62.500000
8760		-58.593750
8761		-62.500000
8762		-56.640625
8763		-58.593750
8764		-54.687500
8765		-56.640625
8766		-52.734375
8767		-54.687500
8768		-50.781250
8769		-52.734375
8770		-46.875000
8771		-48.828125
8772		-44.921875
8773		-46.875000
8774		-41.015625
8775		-42.968750
8776		-39.062500
8777		-41.015625
8778		-35.156250
8779		-37.109375
8780		-33.203125
8781		-33.203125
8782		-29.296875
8783		-31.250000
8784		-25.390625
8785		-27.343750
8786		-21.484375
8787		-23.437500
8788		-17.578125
8789		-19.531250
8790		-13.671875
8791		-15.625000
8792		-9.765625
8793		-11.718750
8794		-5.859375
8795		-7.812500
8796		-1.953125
8797		-3.906250
8798		1.953125
8799		0.000000
8800		5.859375
8801		3.906250
8802		9.765625
8803		7.812500
8804		13.671875
8805		11.718750
8806		17.578125
8807		15.625000
8808		21.484375
8809		19.531250
8810		25.390625
8811		23.437500
8812		29.296875
8813		27.343750
8814		33.203125
8815		31.250000
8816		35.156250
8817		33.203125
8818		39.062500
8819		37.109375
8820		42.968750
8821		41.015625
8822		46.875000
8823		44.921875
8824		50.781250
8825		48.828125
8826		52.734375
8827		50.781250
8828		56.640625
8829		52.734375
8830		58.593750
8831		56.640625
8832		62.500000
8833		60.546875
8834		64.453125
8835		62.500000
8836		68.359375
8837		66.406250
8838		70.312500
8839		68.359375
8840		72.265625
8841		70.312500
8842		74.218750
8843		72.265625
8844		76.171875
8845		74.218750
8846		78.125000
8847		76.171875
8848		80.078125
8849		78.125000
8850		82.031250
8851		78.125000
8852		83.984375
8853		80.078125
8854		83.984375
8855		82.031250
8856		85.937500
8857		82.031250
8858		85.937500
8859		83.984375
8860		87.890625
8861		83.984375
8862		87.890625
8863		83.984375
8864		87.890625
8865		85.937500
8866		87.890625
8867		83.984375
8868		87.890625
8869		85.937500
8870		87.890625
8871		83.984375
8872		87.890625
8873		83.984375
8874		87.890625
8875		83.984375
8876		87.890625
8877		83.984375
8878		85.937500
8879		82.031250
8880		85.937500
8881		82.031250
8882		83.984375
8883		78.125000
8884		83.984375
8885		78.125000
8886		82.031250
8887		76.171875
8888		80.078125
8889		76.171875
8890		78.125000
8891		72.265625
8892		78.125000
8893		70.312500
8894		74.218750
8895		68.359375
8896		74.218750
8897		66.406250
8898		70.312500
8899		64.453125
8900		68.359375
8901		60.546875
8902		66.406250
8903		58.593750
8904		62.500000
8905		54.687500
8906		60.546875
8907		50.781250
8908		56.640625
8909		48.828125
8910		54.687500
8911		44.921875
8912		50.781250
8913		42.968750
8914		48.828125
8915		39.062500
8916		42.968750
8917		35.156250
8918		41.015625
8919		31.250000
8920		37.109375
8921		27.343750
8922		33.203125
8923		23.437500
8924		29.296875
8925		19.531250
8926		25.390625
8927		15.625000
8928		21.484375
8929		11.718750
8930		17.578125
8931		7.812500
8932		13.671875
8933		3.906250
8934		9.765625
8935		0.000000
8936		5.859375
8937		-3.906250
8938		1.953125
8939		-7.812500
8940		-1.953125
8941		-11.718750
8942		-5.859375
8943		-15.625000
8944		-9.765625
8945		-19.531250
8946		-13.671875
8947		-23.437500
8948		-17.578125
8949		-25.390625
8950		-21.484375
8951		-29.296875
8952		-23.437500
8953		-33.203125
8954		-27.343750
8955		-37.109375
8956		-31.250000
8957		-39.062500
8958		-35.156250
8959		-42.968750
8960		-39.062500
8961		-46.875000
8962		-41.015625
8963		-48.828125
8964		-42.968750
8965		-50.781250
8966		-46.875000
8967		-54.687500
8968		-50.781250
8969		-56.640625
8970		-52.734375
8971		-58.593750
8972		-54.687500
8973		-60.546875
8974		-56.640625
8975		-62.500000
8976		-58.593750
8977		-64.453125
8978		-60.546875
8979		-66.406250
8980		-62.500000
8981		-68.359375
8982		-64.453125
8983		-68.359375
8984		-66.406250
8985		-70.312500
8986		-66.406250
8987		-70.312500
8988		-66.406250
8989		-72.265625
8990		-68.359375
8991		-72.265625
8992		-68.359375
8993		-72.265625
8994		-68.359375
8995		-72.265625
8996		-68.359375
8997		-72.265625
8998		-68.359375
8999		-72.265625
9000		-68.359375
9001		-70.312500
9002		-66.406250
9003		-70.312500
9004		-66.406250
9005		-68.359375
9006		-64.453125
9007		-68.359375
9008		-64.453125
9009		-66.406250
9010		-62.500000
9011		-64.453125
9012		-60.546875
9013		-62.500000
9014		-58.593750
9015		-60.546875
9016		-56.640625
9017		-58.593750
9018		-54.687500
9019		-56.640625
9020		-52.734375
9021		-54.687500
9022		-48.828125
9023		-50.781250
9024		-46.875000
9025		-48.828125
9026		-44.921875
9027		-46.875000
9028		-41.015625
9029		-42.968750
9030		-37.109375
9031		-39.062500
9032		-35.156250
9033		-37.109375
9034		-31.250000
9035		-33.203125
9036		-25.390625
9037		-29.296875
9038		-23.437500
9039		-25.390625
9040		-19.531250
9041		-21.484375
9042		-15.625000
9043		-17.578125
9044		-11.718750
9045		-13.671875
9046		-7.812500
9047		-11.718750
9048		-5.859375
9049		-5.859375
9050		0.000000
9051		-1.953125
9052		3.906250
9053		1.953125
9054		7.812500
9055		5.859375
9056		11.718750
9057		9.765625
9058		15.625000
9059		13.671875
9060		19.531250
9061		17.578125
9062		23.437500
9063		19.531250
9064		25.390625
9065		25.390625
9066		29.296875
9067		29.296875
9068		33.203125
9069		31.250000
9070		37.109375
9071		35.156250
9072		41.015625
9073		39.062500
9074		44.921875
9075		42.968750
9076		48.828125
9077		46.875000
9078		50.781250
9079		48.828125
9080		54.687500
9081		52.734375
9082		56.640625
9083		56.640625
9084		60.546875
9085		58.593750
9086		64.453125
9087		62.500000
9088		66.406250
9089		64.453125
9090		68.359375
9091		66.406250
9092		72.265625
9093		68.359375
9094		72.265625
9095		70.312500
9096		76.171875
9097		74.218750
9098		78.125000
9099		76.171875
9100		78.125000
9101		78.125000
9102		82.031250
9103		78.125000
9104		82.031250
9105		80.078125
9106		83.984375
9107		82.031250
9108		85.937500
9109		82.031250
9110		85.937500
9111		83.984375
9112		87.890625
9113		83.984375
9114		87.890625
9115		83.984375
9116		87.890625
9117		85.937500
9118		87.890625
9119		85.937500
9120		89.843750
9121		85.937500
9122		87.890625
9123		85.937500
9124		87.890625
9125		85.937500
9126		87.890625
9127		83.984375
9128		87.890625
9129		83.984375
9130		87.890625
9131		82.031250
9132		87.890625
9133		82.031250
9134		85.937500
9135		80.078125
9136		83.984375
9137		80.078125
9138		83.984375
9139		78.125000
9140		82.031250
9141		76.171875
9142		80.078125
9143		74.218750
9144		78.125000
9145		72.265625
9146		76.171875
9147		70.312500
9148		74.218750
9149		68.359375
9150		72.265625
9151		66.406250
9152		70.312500
9153		64.453125
9154		68.359375
9155		60.546875
9156		66.406250
9157		58.593750
9158		62.500000
9159		54.687500
9160		58.593750
9161		50.781250
9162		56.640625
9163		48.828125
9164		52.734375
9165		44.921875
9166		50.781250
9167		41.015625
9168		46.875000
9169		37.109375
9170		42.968750
9171		35.156250
9172		39.062500
9173		31.250000
9174		37.109375
9175		27.343750
9176		33.203125
9177		23.437500
9178		29.296875
9179		19.531250
9180		25.390625
9181		15.625000
9182		21.484375
9183		11.718750
9184		17.578125
9185		7.812500
9186		13.671875
9187		3.906250
9188		9.765625
9189		0.000000
9190		5.859375
9191		-3.906250
9192		1.953125
9193		-7.812500
9194		-1.953125
9195		-11.718750
9196		-5.859375
9197		-17.578125
9198		-9.765625
9199		-19.531250
9200		-13.671875
9201		-23.437500
9202		-17.578125
9203		-27.343750
9204		-21.484375
9205		-31.250000
9206		-25.390625
9207		-35.156250
9208		-29.296875
9209		-37.109375
9210		-33.203125
9211		-41.015625
9212		-35.156250
9213		-42.968750
9214		-39.062500
9215		-46.875000
9216		-41.015625
9217		-48.828125
9218		-44.921875
9219		-52.734375
9220		-48.828125
9221		-54.687500
9222		-50.781250
9223		-56.640625
9224		-52.734375
9225		-58.593750
9226		-54.687500
9227		-62.500000
9228		-58.593750
9229		-62.500000
9230		-60.546875
9231		-66.406250
9232		-60.546875
9233		-66.406250
9234		-62.500000
9235		-68.359375
9236		-64.453125
9237		-70.312500
9238		-66.406250
9239		-70.312500
9240		-66.406250
9241		-70.312500
9242		-66.406250
9243		-72.265625
9244		-68.359375
9245		-72.265625
9246		-68.359375
9247		-72.265625
9248		-68.359375
9249		-72.265625
9250		-68.359375
9251		-72.265625
9252		-68.359375
9253		-70.312500
9254		-68.359375
9255		-70.312500
9256		-66.406250
9257		-70.312500
9258		-66.406250
9259		-68.359375
9260		-64.453125
9261		-66.406250
9262		-64.453125
9263		-66.406250
9264		-62.500000
9265		-64.453125
9266		-60.546875
9267		-62.500000
9268		-58.593750
9269		-60.546875
9270		-56.640625
9271		-58.593750
9272		-54.687500
9273		-56.640625
9274		-52.734375
9275		-52.734375
9276		-48.828125
9277		-50.781250
9278		-46.875000
9279		-48.828125
9280		-42.968750
9281		-44.921875
9282		-39.062500
9283		-41.015625
9284		-37.109375
9285		-39.062500
9286		-33.203125
9287		-35.156250
9288		-29.296875
9289		-33.203125
9290		-25.390625
9291		-27.343750
9292		-23.437500
9293		-25.390625
9294		-19.531250
9295		-21.484375
9296		-15.625000
9297		-17.578125
9298		-11.718750
9299		-13.671875
9300		-7.812500
9301		-9.765625
9302		-3.906250
9303		-5.859375
9304		0.000000
9305		-1.953125
9306		3.906250
9307		1.953125
9308		7.812500
9309		5.859375
9310		11.718750
9311		9.765625
9312		15.625000
9313		13.671875
9314		19.531250
9315		17.578125
9316		23.437500
9317		21.484375
9318		27.343750
9319		25.390625
9320		31.250000
9321		29.296875
9322		35.156250
9323		33.203125
9324		37.109375
9325		35.156250
9326		41.015625
9327		39.062500
9328		44.921875
9329		42.968750
9330		48.828125
9331		46.875000
9332		52.734375
9333		48.828125
9334		54.687500
9335		52.734375
9336		56.640625
9337		56.640625
9338		60.546875
9339		58.593750
9340		62.500000
9341		62.500000
9342		66.406250
9343		64.453125
9344		68.359375
9345		66.406250
9346		70.312500
9347		68.359375
9348		74.218750
9349		70.312500
9350		76.171875
9351		74.218750
9352		78.125000
9353		74.218750
9354		78.125000
9355		76.171875
9356		80.078125
9357		78.125000
9358		82.031250
9359		80.078125
9360		83.984375
9361		82.031250
9362		83.984375
9363		82.031250
9364		85.937500
9365		83.984375
9366		85.937500
9367		82.031250
9368		85.937500
9369		83.984375
9370		87.890625
9371		83.984375
9372		87.890625
9373		83.984375
9374		87.890625
9375		83.984375
9376		87.890625
9377		83.984375
9378		87.890625
9379		83.984375
9380		87.890625
9381		83.984375
9382		87.890625
9383		83.984375
9384		87.890625
9385		82.031250
9386		85.937500
9387		80.078125
9388		83.984375
9389		80.078125
9390		83.984375
9391		78.125000
9392		82.031250
9393		78.125000
9394		80.078125
9395		74.218750
9396		80.078125
9397		74.218750
9398		78.125000
9399		70.312500
9400		76.171875
9401		68.359375
9402		72.265625
9403		66.406250
9404		70.312500
9405		64.453125
9406		68.359375
9407		60.546875
9408		66.406250
9409		58.593750
9410		62.500000
9411		56.640625
9412		60.546875
9413		52.734375
9414		58.593750
9415		48.828125
9416		54.687500
9417		46.875000
9418		50.781250
9419		42.968750
9420		48.828125
9421		39.062500
9422		44.921875
9423		37.109375
9424		41.015625
9425		33.203125
9426		37.109375
9427		29.296875
9428		33.203125
9429		25.390625
9430		31.250000
9431		19.531250
9432		25.390625
9433		17.578125
9434		23.437500
9435		13.671875
9436		19.531250
9437		9.765625
9438		15.625000
9439		5.859375
9440		11.718750
9441		1.953125
9442		7.812500
9443		-1.953125
9444		3.906250
9445		-5.859375
9446		0.000000
9447		-9.765625
9448		-3.906250
9449		-13.671875
9450		-7.812500
9451		-17.578125
9452		-11.718750
9453		-21.484375
9454		-15.625000
9455		-25.390625
9456		-19.531250
9457		-29.296875
9458		-23.437500
9459		-33.203125
9460		-27.343750
9461		-35.156250
9462		-31.250000
9463		-39.062500
9464		-35.156250
9465		-42.968750
9466		-37.109375
9467		-44.921875
9468		-41.015625
9469		-48.828125
9470		-42.968750
9471		-50.781250
9472		-46.875000
9473		-54.687500
9474		-48.828125
9475		-56.640625
9476		-52.734375
9477		-58.593750
9478		-54.687500
9479		-60.546875
9480		-56.640625
9481		-62.500000
9482		-58.593750
9483		-64.453125
9484		-60.546875
9485		-66.406250
9486		-62.500000
9487		-68.359375
9488		-64.453125
9489		-68.359375
9490		-64.453125
9491		-70.312500
9492		-66.406250
9493		-72.265625
9494		-68.359375
9495		-70.312500
9496		-68.359375
9497		-72.265625
9498		-68.359375
9499		-72.265625
9500		-68.359375
9501		-72.265625
9502		-68.359375
9503		-72.265625
9504		-70.312500
9505		-72.265625
9506		-68.359375
9507		-72.265625
9508		-68.359375
9509		-70.312500
9510		-66.406250
9511		-68.359375
9512		-66.406250
9513		-68.359375
9514		-64.453125
9515		-68.359375
9516		-64.453125
9517		-66.406250
9518		-62.500000
9519		-64.453125
9520		-60.546875
9521		-62.500000
9522		-56.640625
9523		-60.546875
9524		-56.640625
9525		-58.593750
9526		-52.734375
9527		-54.687500
9528		-50.781250
9529		-52.734375
9530		-48.828125
9531		-48.828125
9532		-44.921875
9533		-46.875000
9534		-42.968750
9535		-44.921875
9536		-39.062500
9537		-41.015625
9538		-35.156250
9539		-37.109375
9540		-33.203125
9541		-35.156250
9542		-29.296875
9543		-31.250000
9544		-25.390625
9545		-27.343750
9546		-21.484375
9547		-23.437500
9548		-17.578125
9549		-19.531250
9550		-13.671875
9551		-15.625000
9552		-11.718750
9553		-11.718750
9554		-5.859375
9555		-7.812500
9556		-1.953125
9557		-3.906250
9558		1.953125
9559		0.000000
9560		5.859375
9561		3.906250
9562		9.765625
9563		7.812500
9564		13.671875
9565		9.765625
9566		17.578125
9567		15.625000
9568		21.484375
9569		19.531250
9570		23.437500
9571		23.437500
9572		29.296875
9573		27.343750
9574		33.203125
9575		31.250000
9576		35.156250
9577		33.203125
9578		39.062500
9579		37.109375
9580		42.968750
9581		41.015625
9582		46.875000
9583		44.921875
9584		48.828125
9585		46.875000
9586		52.734375
9587		50.781250
9588		56.640625
9589		54.687500
9590		60.546875
9591		56.640625
9592		62.500000
9593		60.546875
9594		64.453125
9595		62.500000
9596		66.406250
9597		64.453125
9598		70.312500
9599		68.359375
9600		72.265625
9601		70.312500
9602		74.218750
9603		72.265625
9604		76.171875
9605		74.218750
9606		78.125000
9607		76.171875
9608		80.078125
9609		78.125000
9610		82.031250
9611		80.078125
9612		82.031250
9613		80.078125
9614		83.984375
9615		82.031250
9616		83.984375
9617		83.984375
9618		85.937500
9619		83.984375
9620		85.937500
9621		83.984375
9622		87.890625
9623		83.984375
9624		87.890625
9625		85.937500
9626		87.890625
9627		85.937500
9628		87.890625
9629		85.937500
9630		87.890625
9631		85.937500
9632		87.890625
9633		83.984375
9634		87.890625
9635		83.984375
9636		87.890625
9637		83.984375
9638		85.937500
9639		82.031250
9640		85.937500
9641		82.031250
9642		85.937500
9643		80.078125
9644		83.984375
9645		78.125000
9646		82.031250
9647		76.171875
9648		80.078125
9649		74.218750
9650		80.078125
9651		72.265625
9652		78.125000
9653		72.265625
9654		74.218750
9655		68.359375
9656		72.265625
9657		66.406250
9658		70.312500
9659		64.453125
9660		68.359375
9661		60.546875
9662		66.406250
9663		58.593750
9664		62.500000
9665		54.687500
9666		60.546875
9667		52.734375
9668		56.640625
9669		48.828125
9670		54.687500
9671		46.875000
9672		50.781250
9673		41.015625
9674		46.875000
9675		39.062500
9676		44.921875
9677		35.156250
9678		41.015625
9679		31.250000
9680		37.109375
9681		27.343750
9682		33.203125
9683		23.437500
9684		29.296875
9685		21.484375
9686		25.390625
9687		17.578125
9688		21.484375
9689		13.671875
9690		17.578125
9691		7.812500
9692		15.625000
9693		3.906250
9694		9.765625
9695		0.000000
9696		5.859375
9697		-3.906250
9698		1.953125
9699		-7.812500
9700		-1.953125
9701		-11.718750
9702		-5.859375
9703		-13.671875
9704		-9.765625
9705		-17.578125
9706		-13.671875
9707		-23.437500
9708		-17.578125
9709		-27.343750
9710		-21.484375
9711		-29.296875
9712		-23.437500
9713		-33.203125
9714		-27.343750
9715		-37.109375
9716		-31.250000
9717		-41.015625
9718		-33.203125
9719		-42.968750
9720		-39.062500
9721		-46.875000
9722		-41.015625
9723		-48.828125
9724		-44.921875
9725		-52.734375
9726		-46.875000
9727		-54.687500
9728		-48.828125
9729		-56.640625
9730		-52.734375
9731		-58.593750
9732		-54.687500
9733		-60.546875
9734		-56.640625
9735		-64.453125
9736		-58.593750
9737		-64.453125
9738		-62.500000
9739		-66.406250
9740		-62.500000
9741		-68.359375
9742		-64.453125
9743		-68.359375
9744		-66.406250
9745		-70.312500
9746		-66.406250
9747		-70.312500
9748		-68.359375
9749		-72.265625
9750		-68.359375
9751		-72.265625
9752		-68.359375
9753		-72.265625
9754		-68.359375
9755		-72.265625
9756		-70.312500
9757		-72.265625
9758		-68.359375
9759		-72.265625
9760		-68.359375
9761		-72.265625
9762		-68.359375
9763		-70.312500
9764		-68.359375
9765		-70.312500
9766		-66.406250
9767		-68.359375
9768		-64.453125
9769		-68.359375
9770		-62.500000
9771		-64.453125
9772		-62.500000
9773		-64.453125
9774		-60.546875
9775		-62.500000
9776		-56.640625
9777		-60.546875
9778		-54.687500
9779		-58.593750
9780		-52.734375
9781		-54.687500
9782		-50.781250
9783		-52.734375
9784		-48.828125
9785		-50.781250
9786		-44.921875
9787		-46.875000
9788		-41.015625
9789		-42.968750
9790		-39.062500
9791		-41.015625
9792		-35.156250
9793		-39.062500
9794		-31.250000
9795		-35.156250
9796		-27.343750
9797		-29.296875
9798		-25.390625
9799		-25.390625
9800		-21.484375
9801		-23.437500
9802		-15.625000
9803		-19.531250
9804		-13.671875
9805		-15.625000
9806		-9.765625
9807		-11.718750
9808		-5.859375
9809		-9.765625
9810		0.000000
9811		-5.859375
9812		3.906250
9813		-1.953125
9814		5.859375
9815		3.906250
9816		11.718750
9817		7.812500
9818		13.671875
9819		9.765625
9820		19.531250
9821		15.625000
9822		21.484375
9823		19.531250
9824		25.390625
9825		23.437500
9826		31.250000
9827		25.390625
9828		33.203125
9829		29.296875
9830		37.109375
9831		33.203125
9832		39.062500
9833		37.109375
9834		44.921875
9835		41.015625
9836		48.828125
9837		42.968750
9838		48.828125
9839		48.828125
9840		52.734375
9841		50.781250
9842		58.593750
9843		50.781250
9844		60.546875
9845		54.687500
9846		64.453125
9847		58.593750
9848		66.406250
9849		60.546875
9850		68.359375
9851		62.500000
9852		72.265625
9853		66.406250
9854		74.218750
9855		70.312500
9856		74.218750
9857		72.265625
9858		76.171875
9859		72.265625
9860		80.078125
9861		74.218750
9862		80.078125
9863		76.171875
9864		83.984375
9865		78.125000
9866		83.984375
9867		78.125000
9868		85.937500
9869		80.078125
9870		85.937500
9871		80.078125
9872		85.937500
9873		83.984375
9874		85.937500
9875		82.031250
9876		89.843750
9877		82.031250
9878		89.843750
9879		82.031250
9880		89.843750
9881		82.031250
9882		89.843750
9883		82.031250
9884		89.843750
9885		82.031250
9886		89.843750
9887		82.031250
9888		89.843750
9889		83.984375
9890		85.937500
9891		82.031250
9892		85.937500
9893		80.078125
9894		87.890625
9895		78.125000
9896		85.937500
9897		76.171875
9898		83.984375
9899		76.171875
9900		83.984375
9901		74.218750
9902		82.031250
9903		72.265625
9904		80.078125
9905		72.265625
9906		76.171875
9907		70.312500
9908		74.218750
9909		66.406250
9910		74.218750
9911		64.453125
9912		72.265625
9913		60.546875
9914		68.359375
9915		56.640625
9916		66.406250
9917		54.687500
9918		64.453125
9919		52.734375
9920		60.546875
9921		50.781250
9922		58.593750
9923		48.828125
9924		52.734375
9925		42.968750
9926		48.828125
9927		39.062500
9928		48.828125
9929		35.156250
9930		44.921875
9931		31.250000
9932		41.015625
9933		29.296875
9934		37.109375
9935		25.390625
9936		35.156250
9937		21.484375
9938		29.296875
9939		17.578125
9940		23.437500
9941		15.625000
9942		19.531250
9943		9.765625
9944		17.578125
9945		3.906250
9946		15.625000
9947		1.953125
9948		9.765625
9949		-1.953125
9950		7.812500
9951		-5.859375
9952		3.906250
9953		-11.718750
9954		-1.953125
9955		-11.718750
9956		-3.906250
9957		-15.625000
9958		-11.718750
9959		-23.437500
9960		-15.625000
9961		-25.390625
9962		-15.625000
9963		-29.296875
9964		-19.531250
9965		-33.203125
9966		-23.437500
9967		-37.109375
9968		-27.343750
9969		-39.062500
9970		-31.250000
9971		-41.015625
9972		-35.156250
9973		-44.921875
9974		-39.062500
9975		-46.875000
9976		-42.968750
9977		-52.734375
9978		-44.921875
9979		-54.687500
9980		-46.875000
9981		-56.640625
9982		-48.828125
9983		-60.546875
9984		-52.734375
9985		-62.500000
9986		-54.687500
9987		-64.453125
9988		-56.640625
9989		-64.453125
9990		-58.593750
9991		-66.406250
9992		-62.500000
9993		-68.359375
9994		-62.500000
9995		-72.265625
9996		-62.500000
9997		-72.265625
9998		-64.453125
9999		-72.265625
10000		-66.406250
