Channel              :		CH1
Frequency            :		1.973kHz
Period               :		0.507ms
PK-PK                :		109.4mV
Probe attenuation    :		1X
Voltage per ADC value:		0.122070mV
Time interval        :		2.00000us

index		CH1_Voltage(mV)
1		54.687500
2		54.687500
3		58.593750
4		52.734375
5		58.593750
6		52.734375
7		58.593750
8		52.734375
9		56.640625
10		52.734375
11		54.687500
12		50.781250
13		54.687500
14		48.828125
15		52.734375
16		48.828125
17		52.734375
18		46.875000
19		50.781250
20		42.968750
21		48.828125
22		42.968750
23		48.828125
24		41.015625
25		48.828125
26		41.015625
27		44.921875
28		39.062500
29		42.968750
30		35.156250
31		41.015625
32		33.203125
33		39.062500
34		33.203125
35		37.109375
36		29.296875
37		35.156250
38		27.343750
39		35.156250
40		25.390625
41		33.203125
42		23.437500
43		29.296875
44		21.484375
45		25.390625
46		17.578125
47		23.437500
48		17.578125
49		23.437500
50		13.671875
51		21.484375
52		11.718750
53		15.625000
54		7.812500
55		15.625000
56		5.859375
57		11.718750
58		3.906250
59		11.718750
60		1.953125
61		5.859375
62		0.000000
63		3.906250
64		-3.906250
65		3.906250
66		-5.859375
67		1.953125
68		-7.812500
69		-1.953125
70		-11.718750
71		-3.906250
72		-13.671875
73		-5.859375
74		-15.625000
75		-7.812500
76		-15.625000
77		-11.718750
78		-17.578125
79		-13.671875
80		-21.484375
81		-15.625000
82		-23.437500
83		-15.625000
84		-25.390625
85		-17.578125
86		-29.296875
87		-19.531250
88		-31.250000
89		-21.484375
90		-31.250000
91		-23.437500
92		-31.250000
93		-25.390625
94		-31.250000
95		-29.296875
96		-35.156250
97		-31.250000
98		-37.109375
99		-29.296875
100		-39.062500
101		-31.250000
102		-39.062500
103		-31.250000
104		-41.015625
105		-33.203125
106		-41.015625
107		-33.203125
108		-41.015625
109		-33.203125
110		-39.062500
111		-37.109375
112		-41.015625
113		-37.109375
114		-42.968750
115		-37.109375
116		-42.968750
117		-37.109375
118		-42.968750
119		-37.109375
120		-42.968750
121		-37.109375
122		-42.968750
123		-37.109375
124		-42.968750
125		-35.156250
126		-42.968750
127		-35.156250
128		-39.062500
129		-37.109375
130		-41.015625
131		-35.156250
132		-41.015625
133		-33.203125
134		-41.015625
135		-33.203125
136		-39.062500
137		-31.250000
138		-37.109375
139		-31.250000
140		-37.109375
141		-29.296875
142		-35.156250
143		-27.343750
144		-31.250000
145		-29.296875
146		-29.296875
147		-27.343750
148		-31.250000
149		-23.437500
150		-29.296875
151		-21.484375
152		-27.343750
153		-19.531250
154		-25.390625
155		-17.578125
156		-23.437500
157		-15.625000
158		-21.484375
159		-13.671875
160		-19.531250
161		-13.671875
162		-13.671875
163		-11.718750
164		-13.671875
165		-5.859375
166		-11.718750
167		-3.906250
168		-9.765625
169		-1.953125
170		-7.812500
171		0.000000
172		-5.859375
173		1.953125
174		-3.906250
175		5.859375
176		-1.953125
177		5.859375
178		3.906250
179		7.812500
180		5.859375
181		9.765625
182		5.859375
183		15.625000
184		7.812500
185		17.578125
186		11.718750
187		19.531250
188		13.671875
189		21.484375
190		15.625000
191		23.437500
192		17.578125
193		27.343750
194		23.437500
195		27.343750
196		25.390625
197		29.296875
198		25.390625
199		33.203125
200		27.343750
201		35.156250
202		29.296875
203		37.109375
204		31.250000
205		39.062500
206		33.203125
207		42.968750
208		37.109375
209		44.921875
210		37.109375
211		44.921875
212		41.015625
213		44.921875
214		42.968750
215		46.875000
216		42.968750
217		48.828125
218		44.921875
219		50.781250
220		46.875000
221		52.734375
222		48.828125
223		52.734375
224		48.828125
225		56.640625
226		50.781250
227		56.640625
228		52.734375
229		54.687500
230		52.734375
231		56.640625
232		52.734375
233		58.593750
234		52.734375
235		60.546875
236		54.687500
237		60.546875
238		54.687500
239		60.546875
240		54.687500
241		62.500000
242		54.687500
243		62.500000
244		54.687500
245		60.546875
246		56.640625
247		60.546875
248		54.687500
249		60.546875
250		54.687500
251		60.546875
252		54.687500
253		60.546875
254		52.734375
255		60.546875
256		52.734375
257		60.546875
258		50.781250
259		60.546875
260		52.734375
261		58.593750
262		52.734375
263		54.687500
264		52.734375
265		54.687500
266		48.828125
267		54.687500
268		46.875000
269		54.687500
270		44.921875
271		52.734375
272		44.921875
273		52.734375
274		42.968750
275		50.781250
276		41.015625
277		48.828125
278		42.968750
279		44.921875
280		39.062500
281		42.968750
282		35.156250
283		44.921875
284		35.156250
285		42.968750
286		31.250000
287		41.015625
288		29.296875
289		39.062500
290		27.343750
291		37.109375
292		25.390625
293		35.156250
294		25.390625
295		31.250000
296		23.437500
297		27.343750
298		17.578125
299		25.390625
300		17.578125
301		25.390625
302		13.671875
303		23.437500
304		11.718750
305		19.531250
306		9.765625
307		17.578125
308		7.812500
309		15.625000
310		5.859375
311		13.671875
312		3.906250
313		7.812500
314		1.953125
315		5.859375
316		-1.953125
317		5.859375
318		-5.859375
319		3.906250
320		-7.812500
321		1.953125
322		-9.765625
323		-1.953125
324		-11.718750
325		-3.906250
326		-13.671875
327		-5.859375
328		-15.625000
329		-7.812500
330		-15.625000
331		-11.718750
332		-21.484375
333		-13.671875
334		-23.437500
335		-15.625000
336		-25.390625
337		-15.625000
338		-27.343750
339		-19.531250
340		-29.296875
341		-19.531250
342		-29.296875
343		-23.437500
344		-31.250000
345		-23.437500
346		-31.250000
347		-27.343750
348		-33.203125
349		-29.296875
350		-37.109375
351		-29.296875
352		-37.109375
353		-29.296875
354		-39.062500
355		-31.250000
356		-39.062500
357		-31.250000
358		-41.015625
359		-33.203125
360		-41.015625
361		-33.203125
362		-39.062500
363		-35.156250
364		-41.015625
365		-37.109375
366		-42.968750
367		-35.156250
368		-42.968750
369		-35.156250
370		-42.968750
371		-37.109375
372		-42.968750
373		-37.109375
374		-42.968750
375		-37.109375
376		-42.968750
377		-35.156250
378		-42.968750
379		-35.156250
380		-39.062500
381		-37.109375
382		-41.015625
383		-35.156250
384		-41.015625
385		-33.203125
386		-41.015625
387		-33.203125
388		-39.062500
389		-33.203125
390		-39.062500
391		-31.250000
392		-37.109375
393		-29.296875
394		-35.156250
395		-29.296875
396		-31.250000
397		-29.296875
398		-31.250000
399		-27.343750
400		-31.250000
401		-23.437500
402		-29.296875
403		-21.484375
404		-29.296875
405		-21.484375
406		-27.343750
407		-19.531250
408		-25.390625
409		-17.578125
410		-23.437500
411		-13.671875
412		-21.484375
413		-13.671875
414		-15.625000
415		-11.718750
416		-15.625000
417		-7.812500
418		-13.671875
419		-5.859375
420		-11.718750
421		-3.906250
422		-9.765625
423		0.000000
424		-7.812500
425		1.953125
426		-3.906250
427		3.906250
428		-1.953125
429		5.859375
430		1.953125
431		5.859375
432		5.859375
433		9.765625
434		5.859375
435		13.671875
436		7.812500
437		15.625000
438		9.765625
439		17.578125
440		11.718750
441		21.484375
442		15.625000
443		23.437500
444		17.578125
445		25.390625
446		19.531250
447		25.390625
448		23.437500
449		27.343750
450		25.390625
451		33.203125
452		27.343750
453		35.156250
454		29.296875
455		37.109375
456		31.250000
457		39.062500
458		33.203125
459		41.015625
460		35.156250
461		42.968750
462		37.109375
463		42.968750
464		41.015625
465		44.921875
466		41.015625
467		46.875000
468		41.015625
469		48.828125
470		42.968750
471		50.781250
472		44.921875
473		52.734375
474		46.875000
475		54.687500
476		48.828125
477		54.687500
478		48.828125
479		56.640625
480		52.734375
481		54.687500
482		52.734375
483		56.640625
484		52.734375
485		58.593750
486		52.734375
487		60.546875
488		52.734375
489		60.546875
490		54.687500
491		60.546875
492		54.687500
493		62.500000
494		54.687500
495		62.500000
496		54.687500
497		60.546875
498		56.640625
499		60.546875
500		54.687500
501		62.500000
502		54.687500
503		62.500000
504		54.687500
505		62.500000
506		54.687500
507		62.500000
508		54.687500
509		60.546875
510		52.734375
511		60.546875
512		52.734375
513		60.546875
514		54.687500
515		56.640625
516		52.734375
517		56.640625
518		48.828125
519		56.640625
520		48.828125
521		56.640625
522		46.875000
523		54.687500
524		44.921875
525		52.734375
526		44.921875
527		52.734375
528		42.968750
529		50.781250
530		42.968750
531		48.828125
532		42.968750
533		46.875000
534		37.109375
535		44.921875
536		35.156250
537		44.921875
538		35.156250
539		42.968750
540		31.250000
541		39.062500
542		29.296875
543		37.109375
544		27.343750
545		37.109375
546		27.343750
547		33.203125
548		25.390625
549		29.296875
550		21.484375
551		27.343750
552		19.531250
553		27.343750
554		15.625000
555		25.390625
556		13.671875
557		21.484375
558		11.718750
559		19.531250
560		9.765625
561		17.578125
562		7.812500
563		15.625000
564		5.859375
565		11.718750
566		3.906250
567		7.812500
568		0.000000
569		7.812500
570		-3.906250
571		5.859375
572		-5.859375
573		3.906250
574		-7.812500
575		0.000000
576		-9.765625
577		-1.953125
578		-13.671875
579		-3.906250
580		-11.718750
581		-5.859375
582		-15.625000
583		-11.718750
584		-19.531250
585		-11.718750
586		-21.484375
587		-13.671875
588		-23.437500
589		-15.625000
590		-25.390625
591		-17.578125
592		-27.343750
593		-19.531250
594		-29.296875
595		-19.531250
596		-29.296875
597		-23.437500
598		-29.296875
599		-27.343750
600		-31.250000
601		-27.343750
602		-35.156250
603		-27.343750
604		-37.109375
605		-27.343750
606		-37.109375
607		-29.296875
608		-39.062500
609		-31.250000
610		-39.062500
611		-31.250000
612		-41.015625
613		-33.203125
614		-39.062500
615		-33.203125
616		-39.062500
617		-37.109375
618		-41.015625
619		-35.156250
620		-42.968750
621		-35.156250
622		-42.968750
623		-35.156250
624		-42.968750
625		-35.156250
626		-42.968750
627		-35.156250
628		-42.968750
629		-35.156250
630		-42.968750
631		-35.156250
632		-39.062500
633		-37.109375
634		-41.015625
635		-35.156250
636		-41.015625
637		-33.203125
638		-41.015625
639		-33.203125
640		-39.062500
641		-31.250000
642		-39.062500
643		-31.250000
644		-37.109375
645		-29.296875
646		-37.109375
647		-29.296875
648		-35.156250
649		-29.296875
650		-31.250000
651		-27.343750
652		-31.250000
653		-25.390625
654		-31.250000
655		-23.437500
656		-29.296875
657		-21.484375
658		-27.343750
659		-19.531250
660		-25.390625
661		-17.578125
662		-23.437500
663		-15.625000
664		-21.484375
665		-15.625000
666		-17.578125
667		-13.671875
668		-15.625000
669		-9.765625
670		-15.625000
671		-5.859375
672		-13.671875
673		-3.906250
674		-9.765625
675		-1.953125
676		-9.765625
677		0.000000
678		-5.859375
679		1.953125
680		-3.906250
681		3.906250
682		1.953125
683		5.859375
684		3.906250
685		7.812500
686		3.906250
687		11.718750
688		5.859375
689		15.625000
690		7.812500
691		17.578125
692		11.718750
693		19.531250
694		13.671875
695		21.484375
696		15.625000
697		23.437500
698		19.531250
699		25.390625
700		23.437500
701		27.343750
702		23.437500
703		31.250000
704		25.390625
705		33.203125
706		27.343750
707		35.156250
708		29.296875
709		39.062500
710		31.250000
711		39.062500
712		33.203125
713		41.015625
714		35.156250
715		42.968750
716		41.015625
717		42.968750
718		41.015625
719		44.921875
720		41.015625
721		48.828125
722		42.968750
723		50.781250
724		44.921875
725		50.781250
726		44.921875
727		52.734375
728		46.875000
729		54.687500
730		48.828125
731		54.687500
732		50.781250
733		54.687500
734		52.734375
735		56.640625
736		52.734375
737		58.593750
738		52.734375
739		60.546875
740		52.734375
741		60.546875
742		54.687500
743		60.546875
744		54.687500
745		60.546875
746		54.687500
747		62.500000
748		54.687500
749		62.500000
750		56.640625
751		60.546875
752		54.687500
753		62.500000
754		54.687500
755		62.500000
756		54.687500
757		62.500000
758		54.687500
759		62.500000
760		54.687500
761		62.500000
762		54.687500
763		60.546875
764		52.734375
765		60.546875
766		54.687500
767		56.640625
768		54.687500
769		56.640625
770		50.781250
771		56.640625
772		48.828125
773		56.640625
774		48.828125
775		56.640625
776		46.875000
777		54.687500
778		44.921875
779		52.734375
780		42.968750
781		52.734375
782		44.921875
783		50.781250
784		42.968750
785		46.875000
786		39.062500
787		46.875000
788		37.109375
789		44.921875
790		35.156250
791		42.968750
792		33.203125
793		41.015625
794		31.250000
795		39.062500
796		29.296875
797		37.109375
798		29.296875
799		35.156250
800		27.343750
801		31.250000
802		25.390625
803		29.296875
804		21.484375
805		29.296875
806		17.578125
807		27.343750
808		15.625000
809		23.437500
810		13.671875
811		21.484375
812		11.718750
813		19.531250
814		7.812500
815		17.578125
816		7.812500
817		11.718750
818		5.859375
819		9.765625
820		1.953125
821		7.812500
822		0.000000
823		7.812500
824		-3.906250
825		5.859375
826		-5.859375
827		1.953125
828		-7.812500
829		0.000000
830		-9.765625
831		-1.953125
832		-11.718750
833		-3.906250
834		-13.671875
835		-9.765625
836		-17.578125
837		-9.765625
838		-19.531250
839		-11.718750
840		-21.484375
841		-13.671875
842		-23.437500
843		-15.625000
844		-27.343750
845		-17.578125
846		-27.343750
847		-19.531250
848		-29.296875
849		-21.484375
850		-27.343750
851		-25.390625
852		-29.296875
853		-27.343750
854		-33.203125
855		-27.343750
856		-35.156250
857		-27.343750
858		-37.109375
859		-29.296875
860		-37.109375
861		-29.296875
862		-39.062500
863		-31.250000
864		-39.062500
865		-33.203125
866		-39.062500
867		-33.203125
868		-39.062500
869		-35.156250
870		-42.968750
871		-35.156250
872		-42.968750
873		-35.156250
874		-42.968750
875		-35.156250
876		-42.968750
877		-35.156250
878		-42.968750
879		-35.156250
880		-42.968750
881		-35.156250
882		-42.968750
883		-35.156250
884		-39.062500
885		-37.109375
886		-39.062500
887		-37.109375
888		-41.015625
889		-35.156250
890		-41.015625
891		-33.203125
892		-41.015625
893		-33.203125
894		-39.062500
895		-31.250000
896		-37.109375
897		-31.250000
898		-37.109375
899		-29.296875
900		-35.156250
901		-31.250000
902		-33.203125
903		-29.296875
904		-33.203125
905		-25.390625
906		-31.250000
907		-23.437500
908		-31.250000
909		-21.484375
910		-29.296875
911		-21.484375
912		-27.343750
913		-19.531250
914		-25.390625
915		-17.578125
916		-23.437500
917		-15.625000
918		-17.578125
919		-13.671875
920		-15.625000
921		-9.765625
922		-17.578125
923		-7.812500
924		-13.671875
925		-5.859375
926		-11.718750
927		-3.906250
928		-9.765625
929		-1.953125
930		-7.812500
931		1.953125
932		-5.859375
933		1.953125
934		0.000000
935		3.906250
936		1.953125
937		5.859375
938		1.953125
939		9.765625
940		3.906250
941		13.671875
942		5.859375
943		15.625000
944		9.765625
945		17.578125
946		11.718750
947		19.531250
948		13.671875
949		21.484375
950		17.578125
951		23.437500
952		21.484375
953		25.390625
954		23.437500
955		29.296875
956		23.437500
957		31.250000
958		25.390625
959		33.203125
960		27.343750
961		37.109375
962		29.296875
963		39.062500
964		31.250000
965		41.015625
966		33.203125
967		41.015625
968		39.062500
969		42.968750
970		39.062500
971		42.968750
972		41.015625
973		46.875000
974		41.015625
975		48.828125
976		42.968750
977		50.781250
978		44.921875
979		52.734375
980		46.875000
981		52.734375
982		46.875000
983		54.687500
984		50.781250
985		54.687500
986		52.734375
987		54.687500
988		50.781250
989		58.593750
990		52.734375
991		58.593750
992		52.734375
993		60.546875
994		52.734375
995		60.546875
996		54.687500
997		60.546875
998		54.687500
999		60.546875
1000		54.687500
1001		62.500000
1002		56.640625
1003		60.546875
1004		56.640625
1005		60.546875
1006		54.687500
1007		62.500000
1008		54.687500
1009		62.500000
1010		54.687500
1011		62.500000
1012		54.687500
1013		62.500000
1014		54.687500
1015		60.546875
1016		52.734375
1017		60.546875
1018		54.687500
1019		58.593750
1020		54.687500
1021		56.640625
1022		50.781250
1023		58.593750
1024		50.781250
1025		58.593750
1026		48.828125
1027		56.640625
1028		46.875000
1029		56.640625
1030		46.875000
1031		54.687500
1032		44.921875
1033		52.734375
1034		44.921875
1035		50.781250
1036		44.921875
1037		46.875000
1038		41.015625
1039		48.828125
1040		39.062500
1041		46.875000
1042		37.109375
1043		44.921875
1044		35.156250
1045		42.968750
1046		33.203125
1047		41.015625
1048		31.250000
1049		39.062500
1050		29.296875
1051		37.109375
1052		29.296875
1053		33.203125
1054		27.343750
1055		31.250000
1056		23.437500
1057		29.296875
1058		19.531250
1059		29.296875
1060		17.578125
1061		25.390625
1062		15.625000
1063		23.437500
1064		13.671875
1065		21.484375
1066		11.718750
1067		19.531250
1068		9.765625
1069		15.625000
1070		7.812500
1071		11.718750
1072		3.906250
1073		9.765625
1074		0.000000
1075		9.765625
1076		-1.953125
1077		5.859375
1078		-3.906250
1079		3.906250
1080		-5.859375
1081		1.953125
1082		-7.812500
1083		0.000000
1084		-9.765625
1085		-1.953125
1086		-11.718750
1087		-7.812500
1088		-13.671875
1089		-9.765625
1090		-17.578125
1091		-9.765625
1092		-19.531250
1093		-11.718750
1094		-21.484375
1095		-13.671875
1096		-23.437500
1097		-15.625000
1098		-27.343750
1099		-17.578125
1100		-27.343750
1101		-19.531250
1102		-27.343750
1103		-23.437500
1104		-29.296875
1105		-25.390625
1106		-33.203125
1107		-25.390625
1108		-33.203125
1109		-25.390625
1110		-35.156250
1111		-27.343750
1112		-37.109375
1113		-29.296875
1114		-39.062500
1115		-31.250000
1116		-39.062500
1117		-31.250000
1118		-39.062500
1119		-31.250000
1120		-37.109375
1121		-35.156250
1122		-41.015625
1123		-35.156250
1124		-41.015625
1125		-35.156250
1126		-42.968750
1127		-35.156250
1128		-42.968750
1129		-35.156250
1130		-42.968750
1131		-35.156250
1132		-42.968750
1133		-35.156250
1134		-42.968750
1135		-35.156250
1136		-41.015625
1137		-37.109375
1138		-39.062500
1139		-37.109375
1140		-41.015625
1141		-35.156250
1142		-41.015625
1143		-35.156250
1144		-41.015625
1145		-33.203125
1146		-39.062500
1147		-33.203125
1148		-39.062500
1149		-31.250000
1150		-37.109375
1151		-31.250000
1152		-37.109375
1153		-31.250000
1154		-33.203125
1155		-29.296875
1156		-33.203125
1157		-27.343750
1158		-33.203125
1159		-25.390625
1160		-31.250000
1161		-23.437500
1162		-29.296875
1163		-21.484375
1164		-27.343750
1165		-19.531250
1166		-25.390625
1167		-17.578125
1168		-23.437500
1169		-17.578125
1170		-19.531250
1171		-15.625000
1172		-17.578125
1173		-13.671875
1174		-19.531250
1175		-9.765625
1176		-15.625000
1177		-7.812500
1178		-13.671875
1179		-5.859375
1180		-11.718750
1181		-3.906250
1182		-9.765625
1183		0.000000
1184		-7.812500
1185		1.953125
1186		-1.953125
1187		1.953125
1188		0.000000
1189		3.906250
1190		1.953125
1191		9.765625
1192		3.906250
1193		11.718750
1194		5.859375
1195		13.671875
1196		7.812500
1197		15.625000
1198		9.765625
1199		17.578125
1200		11.718750
1201		21.484375
1202		13.671875
1203		21.484375
1204		19.531250
1205		23.437500
1206		21.484375
1207		27.343750
1208		21.484375
1209		29.296875
1210		23.437500
1211		31.250000
1212		25.390625
1213		35.156250
1214		29.296875
1215		37.109375
1216		31.250000
1217		39.062500
1218		33.203125
1219		41.015625
1220		37.109375
1221		41.015625
1222		39.062500
1223		42.968750
1224		39.062500
1225		46.875000
1226		41.015625
1227		48.828125
1228		42.968750
1229		48.828125
1230		42.968750
1231		50.781250
1232		44.921875
1233		52.734375
1234		46.875000
1235		54.687500
1236		48.828125
1237		54.687500
1238		50.781250
1239		54.687500
1240		50.781250
1241		56.640625
1242		50.781250
1243		58.593750
1244		50.781250
1245		58.593750
1246		52.734375
1247		60.546875
1248		52.734375
1249		60.546875
1250		54.687500
1251		60.546875
1252		54.687500
1253		62.500000
1254		56.640625
1255		60.546875
1256		56.640625
1257		60.546875
1258		54.687500
1259		62.500000
1260		54.687500
1261		62.500000
1262		54.687500
1263		62.500000
1264		54.687500
1265		62.500000
1266		54.687500
1267		62.500000
1268		52.734375
1269		60.546875
1270		56.640625
1271		58.593750
1272		54.687500
1273		58.593750
1274		52.734375
1275		58.593750
1276		50.781250
1277		58.593750
1278		48.828125
1279		56.640625
1280		48.828125
1281		56.640625
1282		46.875000
1283		54.687500
1284		46.875000
1285		54.687500
1286		44.921875
1287		52.734375
1288		44.921875
1289		48.828125
1290		41.015625
1291		48.828125
1292		39.062500
1293		48.828125
1294		37.109375
1295		44.921875
1296		37.109375
1297		44.921875
1298		35.156250
1299		42.968750
1300		33.203125
1301		41.015625
1302		31.250000
1303		39.062500
1304		31.250000
1305		35.156250
1306		29.296875
1307		33.203125
1308		23.437500
1309		31.250000
1310		21.484375
1311		29.296875
1312		19.531250
1313		27.343750
1314		17.578125
1315		25.390625
1316		13.671875
1317		23.437500
1318		11.718750
1319		21.484375
1320		11.718750
1321		17.578125
1322		9.765625
1323		13.671875
1324		3.906250
1325		11.718750
1326		1.953125
1327		11.718750
1328		0.000000
1329		7.812500
1330		-1.953125
1331		5.859375
1332		-3.906250
1333		3.906250
1334		-7.812500
1335		1.953125
1336		-7.812500
1337		-1.953125
1338		-9.765625
1339		-5.859375
1340		-11.718750
1341		-7.812500
1342		-15.625000
1343		-7.812500
1344		-19.531250
1345		-9.765625
1346		-21.484375
1347		-11.718750
1348		-23.437500
1349		-13.671875
1350		-25.390625
1351		-15.625000
1352		-27.343750
1353		-19.531250
1354		-25.390625
1355		-23.437500
1356		-27.343750
1357		-25.390625
1358		-31.250000
1359		-25.390625
1360		-33.203125
1361		-25.390625
1362		-35.156250
1363		-27.343750
1364		-37.109375
1365		-29.296875
1366		-37.109375
1367		-29.296875
1368		-39.062500
1369		-31.250000
1370		-39.062500
1371		-33.203125
1372		-37.109375
1373		-35.156250
1374		-41.015625
1375		-35.156250
1376		-41.015625
1377		-35.156250
1378		-42.968750
1379		-35.156250
1380		-42.968750
1381		-35.156250
1382		-42.968750
1383		-35.156250
1384		-42.968750
1385		-35.156250
1386		-42.968750
1387		-35.156250
1388		-41.015625
1389		-37.109375
1390		-41.015625
1391		-39.062500
1392		-42.968750
1393		-35.156250
1394		-41.015625
1395		-35.156250
1396		-41.015625
1397		-33.203125
1398		-41.015625
1399		-33.203125
1400		-39.062500
1401		-33.203125
1402		-39.062500
1403		-31.250000
1404		-37.109375
1405		-31.250000
1406		-35.156250
1407		-31.250000
1408		-35.156250
1409		-27.343750
1410		-33.203125
1411		-25.390625
1412		-33.203125
1413		-25.390625
1414		-31.250000
1415		-23.437500
1416		-29.296875
1417		-21.484375
1418		-27.343750
1419		-19.531250
1420		-25.390625
1421		-17.578125
1422		-21.484375
1423		-17.578125
1424		-19.531250
1425		-15.625000
1426		-19.531250
1427		-11.718750
1428		-17.578125
1429		-9.765625
1430		-15.625000
1431		-7.812500
1432		-13.671875
1433		-5.859375
1434		-11.718750
1435		-1.953125
1436		-7.812500
1437		0.000000
1438		-3.906250
1439		0.000000
1440		-1.953125
1441		1.953125
1442		0.000000
1443		7.812500
1444		1.953125
1445		9.765625
1446		3.906250
1447		11.718750
1448		5.859375
1449		13.671875
1450		7.812500
1451		17.578125
1452		9.765625
1453		19.531250
1454		13.671875
1455		19.531250
1456		17.578125
1457		21.484375
1458		19.531250
1459		25.390625
1460		19.531250
1461		29.296875
1462		23.437500
1463		31.250000
1464		25.390625
1465		33.203125
1466		27.343750
1467		35.156250
1468		29.296875
1469		37.109375
1470		31.250000
1471		39.062500
1472		35.156250
1473		39.062500
1474		37.109375
1475		41.015625
1476		37.109375
1477		44.921875
1478		39.062500
1479		46.875000
1480		41.015625
1481		48.828125
1482		42.968750
1483		50.781250
1484		42.968750
1485		52.734375
1486		44.921875
1487		52.734375
1488		46.875000
1489		52.734375
1490		50.781250
1491		52.734375
1492		50.781250
1493		56.640625
1494		50.781250
1495		58.593750
1496		50.781250
1497		58.593750
1498		52.734375
1499		60.546875
1500		52.734375
1501		60.546875
1502		54.687500
1503		60.546875
1504		54.687500
1505		60.546875
1506		56.640625
1507		58.593750
1508		56.640625
1509		60.546875
1510		54.687500
1511		62.500000
1512		54.687500
1513		62.500000
1514		54.687500
1515		62.500000
1516		54.687500
1517		62.500000
1518		54.687500
1519		62.500000
1520		54.687500
1521		60.546875
1522		56.640625
1523		58.593750
1524		56.640625
1525		58.593750
1526		52.734375
1527		58.593750
1528		50.781250
1529		58.593750
1530		50.781250
1531		58.593750
1532		48.828125
1533		56.640625
1534		48.828125
1535		54.687500
1536		46.875000
1537		54.687500
1538		46.875000
1539		54.687500
1540		46.875000
1541		50.781250
1542		42.968750
1543		48.828125
1544		41.015625
1545		48.828125
1546		39.062500
1547		46.875000
1548		37.109375
1549		44.921875
1550		35.156250
1551		44.921875
1552		33.203125
1553		42.968750
1554		31.250000
1555		41.015625
1556		31.250000
1557		35.156250
1558		29.296875
1559		33.203125
1560		25.390625
1561		33.203125
1562		23.437500
1563		31.250000
1564		19.531250
1565		29.296875
1566		17.578125
1567		27.343750
1568		15.625000
1569		25.390625
1570		13.671875
1571		21.484375
1572		13.671875
1573		19.531250
1574		11.718750
1575		15.625000
1576		5.859375
1577		13.671875
1578		3.906250
1579		11.718750
1580		1.953125
1581		9.765625
1582		-1.953125
1583		7.812500
1584		-3.906250
1585		5.859375
1586		-5.859375
1587		3.906250
1588		-7.812500
1589		0.000000
1590		-7.812500
1591		-3.906250
1592		-11.718750
1593		-5.859375
1594		-15.625000
1595		-7.812500
1596		-17.578125
1597		-9.765625
1598		-19.531250
1599		-11.718750
1600		-21.484375
1601		-11.718750
1602		-23.437500
1603		-15.625000
1604		-25.390625
1605		-17.578125
1606		-25.390625
1607		-19.531250
1608		-25.390625
1609		-23.437500
1610		-31.250000
1611		-23.437500
1612		-31.250000
1613		-23.437500
1614		-33.203125
1615		-25.390625
1616		-35.156250
1617		-27.343750
1618		-37.109375
1619		-27.343750
1620		-37.109375
1621		-29.296875
1622		-37.109375
1623		-31.250000
1624		-37.109375
1625		-35.156250
1626		-39.062500
1627		-35.156250
1628		-41.015625
1629		-33.203125
1630		-41.015625
1631		-35.156250
1632		-41.015625
1633		-35.156250
1634		-42.968750
1635		-35.156250
1636		-42.968750
1637		-35.156250
1638		-42.968750
1639		-35.156250
1640		-41.015625
1641		-39.062500
1642		-41.015625
1643		-37.109375
1644		-42.968750
1645		-35.156250
1646		-42.968750
1647		-35.156250
1648		-42.968750
1649		-35.156250
1650		-41.015625
1651		-35.156250
1652		-41.015625
1653		-33.203125
1654		-39.062500
1655		-33.203125
1656		-37.109375
1657		-31.250000
1658		-35.156250
1659		-33.203125
1660		-35.156250
1661		-29.296875
1662		-35.156250
1663		-27.343750
1664		-33.203125
1665		-25.390625
1666		-33.203125
1667		-25.390625
1668		-31.250000
1669		-23.437500
1670		-29.296875
1671		-21.484375
1672		-27.343750
1673		-19.531250
1674		-23.437500
1675		-19.531250
1676		-21.484375
1677		-17.578125
1678		-21.484375
1679		-13.671875
1680		-19.531250
1681		-11.718750
1682		-17.578125
1683		-7.812500
1684		-15.625000
1685		-7.812500
1686		-13.671875
1687		-3.906250
1688		-9.765625
1689		-1.953125
1690		-7.812500
1691		-1.953125
1692		-3.906250
1693		0.000000
1694		-1.953125
1695		3.906250
1696		-1.953125
1697		7.812500
1698		0.000000
1699		9.765625
1700		3.906250
1701		11.718750
1702		5.859375
1703		13.671875
1704		7.812500
1705		17.578125
1706		11.718750
1707		17.578125
1708		15.625000
1709		19.531250
1710		17.578125
1711		23.437500
1712		17.578125
1713		25.390625
1714		21.484375
1715		29.296875
1716		21.484375
1717		31.250000
1718		25.390625
1719		33.203125
1720		27.343750
1721		35.156250
1722		29.296875
1723		37.109375
1724		33.203125
1725		37.109375
1726		35.156250
1727		39.062500
1728		35.156250
1729		42.968750
1730		37.109375
1731		44.921875
1732		39.062500
1733		46.875000
1734		41.015625
1735		48.828125
1736		42.968750
1737		50.781250
1738		44.921875
1739		50.781250
1740		46.875000
1741		52.734375
1742		48.828125
1743		52.734375
1744		48.828125
1745		54.687500
1746		48.828125
1747		56.640625
1748		50.781250
1749		56.640625
1750		50.781250
1751		58.593750
1752		52.734375
1753		60.546875
1754		52.734375
1755		60.546875
1756		52.734375
1757		60.546875
1758		56.640625
1759		58.593750
1760		56.640625
1761		58.593750
1762		54.687500
1763		62.500000
1764		54.687500
1765		62.500000
1766		54.687500
1767		62.500000
1768		54.687500
1769		62.500000
1770		54.687500
1771		60.546875
1772		54.687500
1773		60.546875
1774		54.687500
1775		60.546875
1776		56.640625
1777		58.593750
1778		52.734375
1779		60.546875
1780		52.734375
1781		58.593750
1782		50.781250
1783		58.593750
1784		50.781250
1785		56.640625
1786		50.781250
1787		54.687500
1788		46.875000
1789		54.687500
1790		48.828125
1791		52.734375
1792		46.875000
1793		50.781250
1794		44.921875
1795		48.828125
1796		42.968750
1797		48.828125
1798		39.062500
1799		48.828125
1800		39.062500
1801		46.875000
1802		39.062500
1803		42.968750
1804		37.109375
1805		41.015625
1806		35.156250
1807		41.015625
1808		33.203125
1809		37.109375
1810		31.250000
1811		35.156250
1812		27.343750
1813		33.203125
1814		25.390625
1815		33.203125
1816		23.437500
1817		29.296875
1818		21.484375
1819		25.390625
1820		19.531250
1821		25.390625
1822		17.578125
1823		21.484375
1824		15.625000
1825		19.531250
1826		13.671875
1827		15.625000
1828		9.765625
1829		13.671875
1830		5.859375
1831		13.671875
1832		3.906250
1833		11.718750
1834		1.953125
1835		5.859375
1836		0.000000
1837		3.906250
1838		-1.953125
1839		1.953125
1840		-3.906250
1841		0.000000
1842		-5.859375
1843		-1.953125
1844		-9.765625
1845		-5.859375
1846		-11.718750
1847		-5.859375
1848		-13.671875
1849		-9.765625
1850		-15.625000
1851		-11.718750
1852		-17.578125
1853		-13.671875
1854		-19.531250
1855		-15.625000
1856		-21.484375
1857		-17.578125
1858		-23.437500
1859		-19.531250
1860		-25.390625
1861		-21.484375
1862		-27.343750
1863		-23.437500
1864		-29.296875
1865		-25.390625
1866		-31.250000
1867		-27.343750
1868		-33.203125
1869		-27.343750
1870		-33.203125
1871		-29.296875
1872		-35.156250
1873		-31.250000
1874		-35.156250
1875		-33.203125
1876		-37.109375
1877		-35.156250
1878		-39.062500
1879		-33.203125
1880		-39.062500
1881		-35.156250
1882		-39.062500
1883		-37.109375
1884		-39.062500
1885		-37.109375
1886		-41.015625
1887		-37.109375
1888		-41.015625
1889		-37.109375
1890		-42.968750
1891		-37.109375
1892		-41.015625
1893		-39.062500
1894		-41.015625
1895		-39.062500
1896		-41.015625
1897		-37.109375
1898		-41.015625
1899		-37.109375
1900		-39.062500
1901		-37.109375
1902		-39.062500
1903		-37.109375
1904		-39.062500
1905		-37.109375
1906		-37.109375
1907		-35.156250
1908		-37.109375
1909		-35.156250
1910		-37.109375
1911		-33.203125
1912		-35.156250
1913		-31.250000
1914		-35.156250
1915		-29.296875
1916		-33.203125
1917		-29.296875
1918		-31.250000
1919		-27.343750
1920		-29.296875
1921		-25.390625
1922		-27.343750
1923		-23.437500
1924		-27.343750
1925		-21.484375
1926		-23.437500
1927		-21.484375
1928		-23.437500
1929		-19.531250
1930		-21.484375
1931		-17.578125
1932		-19.531250
1933		-13.671875
1934		-15.625000
1935		-11.718750
1936		-13.671875
1937		-9.765625
1938		-11.718750
1939		-7.812500
1940		-9.765625
1941		-5.859375
1942		-7.812500
1943		-3.906250
1944		-5.859375
1945		-1.953125
1946		-3.906250
1947		1.953125
1948		0.000000
1949		3.906250
1950		0.000000
1951		5.859375
1952		3.906250
1953		9.765625
1954		5.859375
1955		11.718750
1956		7.812500
1957		13.671875
1958		11.718750
1959		15.625000
1960		13.671875
1961		17.578125
1962		15.625000
1963		21.484375
1964		17.578125
1965		23.437500
1966		21.484375
1967		25.390625
1968		23.437500
1969		27.343750
1970		25.390625
1971		29.296875
1972		27.343750
1973		33.203125
1974		29.296875
1975		35.156250
1976		31.250000
1977		35.156250
1978		35.156250
1979		39.062500
1980		35.156250
1981		41.015625
1982		37.109375
1983		42.968750
1984		39.062500
1985		44.921875
1986		41.015625
1987		44.921875
1988		42.968750
1989		46.875000
1990		44.921875
1991		48.828125
1992		46.875000
1993		50.781250
1994		48.828125
1995		50.781250
1996		48.828125
1997		52.734375
1998		50.781250
1999		54.687500
2000		50.781250
2001		54.687500
2002		52.734375
2003		56.640625
2004		52.734375
2005		56.640625
2006		54.687500
2007		56.640625
2008		54.687500
2009		58.593750
2010		56.640625
2011		58.593750
2012		56.640625
2013		58.593750
2014		56.640625
2015		60.546875
2016		56.640625
2017		60.546875
2018		56.640625
2019		60.546875
2020		56.640625
2021		60.546875
2022		56.640625
2023		60.546875
2024		56.640625
2025		60.546875
2026		56.640625
2027		60.546875
2028		56.640625
2029		58.593750
2030		54.687500
2031		58.593750
2032		54.687500
2033		58.593750
2034		54.687500
2035		56.640625
2036		52.734375
2037		56.640625
2038		52.734375
2039		54.687500
2040		50.781250
2041		54.687500
2042		48.828125
2043		52.734375
2044		48.828125
2045		50.781250
2046		46.875000
2047		50.781250
2048		44.921875
2049		50.781250
2050		44.921875
2051		48.828125
2052		42.968750
2053		46.875000
2054		41.015625
2055		44.921875
2056		39.062500
2057		42.968750
2058		35.156250
2059		41.015625
2060		35.156250
2061		39.062500
2062		33.203125
2063		37.109375
2064		31.250000
2065		35.156250
2066		27.343750
2067		33.203125
2068		25.390625
2069		29.296875
2070		23.437500
2071		29.296875
2072		21.484375
2073		25.390625
2074		19.531250
2075		23.437500
2076		17.578125
2077		21.484375
2078		13.671875
2079		17.578125
2080		9.765625
2081		15.625000
2082		9.765625
2083		13.671875
2084		7.812500
2085		11.718750
2086		3.906250
2087		9.765625
2088		1.953125
2089		5.859375
2090		0.000000
2091		3.906250
2092		-3.906250
2093		1.953125
2094		-5.859375
2095		-1.953125
2096		-7.812500
2097		-3.906250
2098		-9.765625
2099		-3.906250
2100		-11.718750
2101		-7.812500
2102		-13.671875
2103		-9.765625
2104		-15.625000
2105		-11.718750
2106		-19.531250
2107		-13.671875
2108		-21.484375
2109		-17.578125
2110		-21.484375
2111		-17.578125
2112		-23.437500
2113		-21.484375
2114		-27.343750
2115		-23.437500
2116		-27.343750
2117		-23.437500
2118		-29.296875
2119		-25.390625
2120		-31.250000
2121		-27.343750
2122		-33.203125
2123		-27.343750
2124		-33.203125
2125		-31.250000
2126		-35.156250
2127		-31.250000
2128		-35.156250
2129		-33.203125
2130		-37.109375
2131		-35.156250
2132		-39.062500
2133		-35.156250
2134		-39.062500
2135		-35.156250
2136		-39.062500
2137		-37.109375
2138		-41.015625
2139		-37.109375
2140		-41.015625
2141		-37.109375
2142		-41.015625
2143		-37.109375
2144		-41.015625
2145		-39.062500
2146		-41.015625
2147		-39.062500
2148		-41.015625
2149		-37.109375
2150		-41.015625
2151		-37.109375
2152		-41.015625
2153		-37.109375
2154		-41.015625
2155		-37.109375
2156		-39.062500
2157		-37.109375
2158		-39.062500
2159		-35.156250
2160		-39.062500
2161		-35.156250
2162		-37.109375
2163		-33.203125
2164		-37.109375
2165		-31.250000
2166		-35.156250
2167		-31.250000
2168		-33.203125
2169		-31.250000
2170		-33.203125
2171		-29.296875
2172		-31.250000
2173		-27.343750
2174		-29.296875
2175		-25.390625
2176		-27.343750
2177		-23.437500
2178		-25.390625
2179		-21.484375
2180		-23.437500
2181		-21.484375
2182		-21.484375
2183		-17.578125
2184		-19.531250
2185		-15.625000
2186		-17.578125
2187		-13.671875
2188		-15.625000
2189		-11.718750
2190		-13.671875
2191		-9.765625
2192		-11.718750
2193		-7.812500
2194		-9.765625
2195		-5.859375
2196		-7.812500
2197		-3.906250
2198		-3.906250
2199		0.000000
2200		-1.953125
2201		1.953125
2202		0.000000
2203		3.906250
2204		1.953125
2205		5.859375
2206		3.906250
2207		9.765625
2208		7.812500
2209		11.718750
2210		9.765625
2211		15.625000
2212		11.718750
2213		15.625000
2214		15.625000
2215		19.531250
2216		15.625000
2217		21.484375
2218		19.531250
2219		23.437500
2220		21.484375
2221		25.390625
2222		23.437500
2223		29.296875
2224		25.390625
2225		31.250000
2226		27.343750
2227		33.203125
2228		29.296875
2229		35.156250
2230		33.203125
2231		37.109375
2232		35.156250
2233		39.062500
2234		37.109375
2235		41.015625
2236		39.062500
2237		42.968750
2238		41.015625
2239		44.921875
2240		42.968750
2241		44.921875
2242		42.968750
2243		48.828125
2244		44.921875
2245		48.828125
2246		46.875000
2247		50.781250
2248		48.828125
2249		52.734375
2250		48.828125
2251		52.734375
2252		50.781250
2253		54.687500
2254		52.734375
2255		54.687500
2256		52.734375
2257		56.640625
2258		54.687500
2259		58.593750
2260		54.687500
2261		58.593750
2262		56.640625
2263		58.593750
2264		56.640625
2265		58.593750
2266		56.640625
2267		60.546875
2268		56.640625
2269		58.593750
2270		56.640625
2271		60.546875
2272		56.640625
2273		60.546875
2274		56.640625
2275		60.546875
2276		56.640625
2277		60.546875
2278		56.640625
2279		60.546875
2280		56.640625
2281		58.593750
2282		54.687500
2283		58.593750
2284		54.687500
2285		58.593750
2286		54.687500
2287		58.593750
2288		52.734375
2289		56.640625
2290		52.734375
2291		54.687500
2292		50.781250
2293		54.687500
2294		50.781250
2295		54.687500
2296		48.828125
2297		52.734375
2298		48.828125
2299		50.781250
2300		46.875000
2301		50.781250
2302		44.921875
2303		48.828125
2304		42.968750
2305		46.875000
2306		41.015625
2307		44.921875
2308		39.062500
2309		42.968750
2310		37.109375
2311		42.968750
2312		37.109375
2313		41.015625
2314		33.203125
2315		37.109375
2316		31.250000
2317		37.109375
2318		29.296875
2319		35.156250
2320		27.343750
2321		31.250000
2322		25.390625
2323		29.296875
2324		23.437500
2325		27.343750
2326		21.484375
2327		25.390625
2328		17.578125
2329		23.437500
2330		15.625000
2331		19.531250
2332		13.671875
2333		17.578125
2334		9.765625
2335		15.625000
2336		9.765625
2337		13.671875
2338		5.859375
2339		9.765625
2340		3.906250
2341		7.812500
2342		0.000000
2343		5.859375
2344		0.000000
2345		3.906250
2346		-3.906250
2347		0.000000
2348		-5.859375
2349		-1.953125
2350		-7.812500
2351		-3.906250
2352		-9.765625
2353		-5.859375
2354		-13.671875
2355		-7.812500
2356		-15.625000
2357		-11.718750
2358		-17.578125
2359		-13.671875
2360		-19.531250
2361		-15.625000
2362		-21.484375
2363		-15.625000
2364		-23.437500
2365		-19.531250
2366		-25.390625
2367		-21.484375
2368		-27.343750
2369		-23.437500
2370		-27.343750
2371		-25.390625
2372		-29.296875
2373		-25.390625
2374		-31.250000
2375		-27.343750
2376		-33.203125
2377		-29.296875
2378		-35.156250
2379		-31.250000
2380		-35.156250
2381		-33.203125
2382		-37.109375
2383		-33.203125
2384		-37.109375
2385		-33.203125
2386		-39.062500
2387		-35.156250
2388		-39.062500
2389		-35.156250
2390		-39.062500
2391		-37.109375
2392		-41.015625
2393		-37.109375
2394		-41.015625
2395		-37.109375
2396		-41.015625
2397		-37.109375
2398		-41.015625
2399		-39.062500
2400		-42.968750
2401		-37.109375
2402		-41.015625
2403		-37.109375
2404		-41.015625
2405		-37.109375
2406		-41.015625
2407		-37.109375
2408		-41.015625
2409		-37.109375
2410		-39.062500
2411		-37.109375
2412		-39.062500
2413		-35.156250
2414		-37.109375
2415		-35.156250
2416		-37.109375
2417		-33.203125
2418		-37.109375
2419		-31.250000
2420		-35.156250
2421		-31.250000
2422		-33.203125
2423		-29.296875
2424		-31.250000
2425		-27.343750
2426		-31.250000
2427		-25.390625
2428		-29.296875
2429		-25.390625
2430		-27.343750
2431		-23.437500
2432		-25.390625
2433		-21.484375
2434		-23.437500
2435		-19.531250
2436		-21.484375
2437		-17.578125
2438		-21.484375
2439		-15.625000
2440		-17.578125
2441		-13.671875
2442		-15.625000
2443		-11.718750
2444		-13.671875
2445		-9.765625
2446		-11.718750
2447		-5.859375
2448		-7.812500
2449		-3.906250
2450		-5.859375
2451		-1.953125
2452		-3.906250
2453		0.000000
2454		-1.953125
2455		3.906250
2456		0.000000
2457		3.906250
2458		1.953125
2459		7.812500
2460		5.859375
2461		9.765625
2462		7.812500
2463		11.718750
2464		9.765625
2465		13.671875
2466		13.671875
2467		17.578125
2468		15.625000
2469		19.531250
2470		17.578125
2471		21.484375
2472		19.531250
2473		23.437500
2474		23.437500
2475		27.343750
2476		25.390625
2477		29.296875
2478		25.390625
2479		31.250000
2480		27.343750
2481		33.203125
2482		31.250000
2483		35.156250
2484		33.203125
2485		37.109375
2486		35.156250
2487		39.062500
2488		37.109375
2489		41.015625
2490		39.062500
2491		42.968750
2492		41.015625
2493		44.921875
2494		42.968750
2495		46.875000
2496		44.921875
2497		48.828125
2498		44.921875
2499		48.828125
2500		46.875000
2501		50.781250
2502		48.828125
2503		52.734375
2504		48.828125
2505		54.687500
2506		50.781250
2507		54.687500
2508		52.734375
2509		54.687500
2510		52.734375
2511		56.640625
2512		54.687500
2513		58.593750
2514		54.687500
2515		58.593750
2516		56.640625
2517		58.593750
2518		54.687500
2519		58.593750
2520		56.640625
2521		58.593750
2522		56.640625
2523		60.546875
2524		56.640625
2525		60.546875
2526		56.640625
2527		60.546875
2528		56.640625
2529		60.546875
2530		56.640625
2531		60.546875
2532		56.640625
2533		58.593750
2534		56.640625
2535		58.593750
2536		54.687500
2537		58.593750
2538		54.687500
2539		58.593750
2540		54.687500
2541		56.640625
2542		52.734375
2543		56.640625
2544		52.734375
2545		54.687500
2546		50.781250
2547		54.687500
2548		50.781250
2549		52.734375
2550		48.828125
2551		50.781250
2552		46.875000
2553		50.781250
2554		44.921875
2555		48.828125
2556		44.921875
2557		48.828125
2558		42.968750
2559		46.875000
2560		41.015625
2561		44.921875
2562		39.062500
2563		42.968750
2564		37.109375
2565		41.015625
2566		35.156250
2567		39.062500
2568		33.203125
2569		37.109375
2570		31.250000
2571		35.156250
2572		29.296875
2573		33.203125
2574		27.343750
2575		31.250000
2576		23.437500
2577		29.296875
2578		21.484375
2579		27.343750
2580		19.531250
2581		23.437500
2582		17.578125
2583		21.484375
2584		13.671875
2585		19.531250
2586		13.671875
2587		17.578125
2588		9.765625
2589		15.625000
2590		7.812500
2591		11.718750
2592		5.859375
2593		9.765625
2594		3.906250
2595		7.812500
2596		0.000000
2597		3.906250
2598		-1.953125
2599		1.953125
2600		-3.906250
2601		0.000000
2602		-5.859375
2603		-1.953125
2604		-7.812500
2605		-3.906250
2606		-11.718750
2607		-7.812500
2608		-13.671875
2609		-9.765625
2610		-17.578125
2611		-11.718750
2612		-17.578125
2613		-13.671875
2614		-19.531250
2615		-15.625000
2616		-21.484375
2617		-17.578125
2618		-23.437500
2619		-19.531250
2620		-25.390625
2621		-21.484375
2622		-27.343750
2623		-23.437500
2624		-29.296875
2625		-25.390625
2626		-31.250000
2627		-27.343750
2628		-33.203125
2629		-29.296875
2630		-33.203125
2631		-29.296875
2632		-35.156250
2633		-31.250000
2634		-35.156250
2635		-33.203125
2636		-37.109375
2637		-33.203125
2638		-39.062500
2639		-35.156250
2640		-39.062500
2641		-35.156250
2642		-39.062500
2643		-37.109375
2644		-41.015625
2645		-37.109375
2646		-41.015625
2647		-37.109375
2648		-41.015625
2649		-37.109375
2650		-41.015625
2651		-39.062500
2652		-41.015625
2653		-37.109375
2654		-41.015625
2655		-37.109375
2656		-41.015625
2657		-39.062500
2658		-41.015625
2659		-37.109375
2660		-41.015625
2661		-37.109375
2662		-41.015625
2663		-37.109375
2664		-39.062500
2665		-35.156250
2666		-39.062500
2667		-35.156250
2668		-37.109375
2669		-35.156250
2670		-37.109375
2671		-33.203125
2672		-35.156250
2673		-31.250000
2674		-35.156250
2675		-31.250000
2676		-33.203125
2677		-29.296875
2678		-31.250000
2679		-27.343750
2680		-31.250000
2681		-25.390625
2682		-29.296875
2683		-25.390625
2684		-27.343750
2685		-23.437500
2686		-25.390625
2687		-21.484375
2688		-23.437500
2689		-19.531250
2690		-21.484375
2691		-17.578125
2692		-19.531250
2693		-15.625000
2694		-17.578125
2695		-11.718750
2696		-15.625000
2697		-11.718750
2698		-13.671875
2699		-9.765625
2700		-9.765625
2701		-5.859375
2702		-7.812500
2703		-3.906250
2704		-5.859375
2705		-1.953125
2706		-3.906250
2707		0.000000
2708		-1.953125
2709		1.953125
2710		1.953125
2711		5.859375
2712		3.906250
2713		7.812500
2714		5.859375
2715		11.718750
2716		7.812500
2717		11.718750
2718		11.718750
2719		15.625000
2720		13.671875
2721		17.578125
2722		15.625000
2723		19.531250
2724		17.578125
2725		21.484375
2726		19.531250
2727		25.390625
2728		23.437500
2729		27.343750
2730		25.390625
2731		29.296875
2732		27.343750
2733		31.250000
2734		29.296875
2735		33.203125
2736		31.250000
2737		35.156250
2738		33.203125
2739		37.109375
2740		35.156250
2741		39.062500
2742		37.109375
2743		41.015625
2744		39.062500
2745		42.968750
2746		41.015625
2747		44.921875
2748		42.968750
2749		46.875000
2750		44.921875
2751		48.828125
2752		46.875000
2753		48.828125
2754		46.875000
2755		50.781250
2756		48.828125
2757		52.734375
2758		50.781250
2759		52.734375
2760		50.781250
2761		54.687500
2762		52.734375
2763		56.640625
2764		52.734375
2765		58.593750
2766		52.734375
2767		56.640625
2768		54.687500
2769		58.593750
2770		54.687500
2771		58.593750
2772		56.640625
2773		58.593750
2774		56.640625
2775		58.593750
2776		56.640625
2777		60.546875
2778		56.640625
2779		60.546875
2780		56.640625
2781		60.546875
2782		56.640625
2783		60.546875
2784		56.640625
2785		58.593750
2786		54.687500
2787		58.593750
2788		54.687500
2789		58.593750
2790		54.687500
2791		58.593750
2792		54.687500
2793		58.593750
2794		54.687500
2795		56.640625
2796		52.734375
2797		56.640625
2798		50.781250
2799		54.687500
2800		50.781250
2801		54.687500
2802		48.828125
2803		52.734375
2804		48.828125
2805		52.734375
2806		46.875000
2807		50.781250
2808		44.921875
2809		48.828125
2810		42.968750
2811		46.875000
2812		42.968750
2813		44.921875
2814		41.015625
2815		44.921875
2816		39.062500
2817		42.968750
2818		37.109375
2819		41.015625
2820		35.156250
2821		39.062500
2822		33.203125
2823		37.109375
2824		29.296875
2825		35.156250
2826		29.296875
2827		33.203125
2828		25.390625
2829		31.250000
2830		23.437500
2831		27.343750
2832		21.484375
2833		25.390625
2834		19.531250
2835		23.437500
2836		17.578125
2837		21.484375
2838		13.671875
2839		19.531250
2840		11.718750
2841		17.578125
2842		9.765625
2843		13.671875
2844		5.859375
2845		11.718750
2846		3.906250
2847		7.812500
2848		1.953125
2849		7.812500
2850		0.000000
2851		5.859375
2852		-1.953125
2853		1.953125
2854		-5.859375
2855		0.000000
2856		-7.812500
2857		-3.906250
2858		-9.765625
2859		-5.859375
2860		-11.718750
2861		-7.812500
2862		-13.671875
2863		-9.765625
2864		-15.625000
2865		-11.718750
2866		-17.578125
2867		-13.671875
2868		-19.531250
2869		-17.578125
2870		-23.437500
2871		-19.531250
2872		-25.390625
2873		-19.531250
2874		-27.343750
2875		-21.484375
2876		-27.343750
2877		-23.437500
2878		-29.296875
2879		-25.390625
2880		-31.250000
2881		-27.343750
2882		-33.203125
2883		-29.296875
2884		-33.203125
2885		-31.250000
2886		-35.156250
2887		-31.250000
2888		-37.109375
2889		-31.250000
2890		-37.109375
2891		-33.203125
2892		-39.062500
2893		-35.156250
2894		-39.062500
2895		-37.109375
2896		-41.015625
2897		-37.109375
2898		-41.015625
2899		-37.109375
2900		-41.015625
2901		-37.109375
2902		-41.015625
2903		-39.062500
2904		-41.015625
2905		-37.109375
2906		-41.015625
2907		-39.062500
2908		-41.015625
2909		-39.062500
2910		-41.015625
2911		-37.109375
2912		-41.015625
2913		-37.109375
2914		-41.015625
2915		-37.109375
2916		-41.015625
2917		-37.109375
2918		-39.062500
2919		-35.156250
2920		-37.109375
2921		-35.156250
2922		-39.062500
2923		-33.203125
2924		-37.109375
2925		-33.203125
2926		-35.156250
2927		-31.250000
2928		-33.203125
2929		-31.250000
2930		-33.203125
2931		-29.296875
2932		-31.250000
2933		-27.343750
2934		-31.250000
2935		-27.343750
2936		-27.343750
2937		-23.437500
2938		-27.343750
2939		-21.484375
2940		-25.390625
2941		-19.531250
2942		-23.437500
2943		-19.531250
2944		-21.484375
2945		-17.578125
2946		-17.578125
2947		-15.625000
2948		-17.578125
2949		-11.718750
2950		-15.625000
2951		-9.765625
2952		-11.718750
2953		-7.812500
2954		-9.765625
2955		-5.859375
2956		-7.812500
2957		-1.953125
2958		-5.859375
2959		-1.953125
2960		-3.906250
2961		1.953125
2962		0.000000
2963		3.906250
2964		1.953125
2965		5.859375
2966		3.906250
2967		9.765625
2968		7.812500
2969		11.718750
2970		9.765625
2971		13.671875
2972		9.765625
2973		15.625000
2974		13.671875
2975		17.578125
2976		15.625000
2977		21.484375
2978		19.531250
2979		23.437500
2980		21.484375
2981		25.390625
2982		23.437500
2983		27.343750
2984		25.390625
2985		29.296875
2986		27.343750
2987		33.203125
2988		29.296875
2989		35.156250
2990		31.250000
2991		37.109375
2992		33.203125
2993		39.062500
2994		37.109375
2995		39.062500
2996		37.109375
2997		42.968750
2998		41.015625
2999		42.968750
3000		41.015625
3001		44.921875
3002		42.968750
3003		46.875000
3004		44.921875
3005		48.828125
3006		46.875000
3007		50.781250
3008		46.875000
3009		52.734375
3010		48.828125
3011		52.734375
3012		50.781250
3013		54.687500
3014		50.781250
3015		54.687500
3016		52.734375
3017		56.640625
3018		52.734375
3019		56.640625
3020		54.687500
3021		56.640625
3022		54.687500
3023		58.593750
3024		54.687500
3025		58.593750
3026		56.640625
3027		58.593750
3028		56.640625
3029		58.593750
3030		56.640625
3031		58.593750
3032		56.640625
3033		60.546875
3034		56.640625
3035		60.546875
3036		56.640625
3037		58.593750
3038		54.687500
3039		58.593750
3040		54.687500
3041		58.593750
3042		56.640625
3043		58.593750
3044		54.687500
3045		58.593750
3046		54.687500
3047		56.640625
3048		52.734375
3049		56.640625
3050		52.734375
3051		56.640625
3052		50.781250
3053		54.687500
3054		50.781250
3055		52.734375
3056		48.828125
3057		52.734375
3058		46.875000
3059		50.781250
3060		44.921875
3061		50.781250
3062		44.921875
3063		46.875000
3064		42.968750
3065		46.875000
3066		41.015625
3067		44.921875
3068		39.062500
3069		42.968750
3070		37.109375
3071		41.015625
3072		35.156250
3073		39.062500
3074		33.203125
3075		39.062500
3076		31.250000
3077		37.109375
3078		29.296875
3079		33.203125
3080		27.343750
3081		31.250000
3082		25.390625
3083		29.296875
3084		21.484375
3085		27.343750
3086		21.484375
3087		23.437500
3088		17.578125
3089		21.484375
3090		15.625000
3091		21.484375
3092		13.671875
3093		17.578125
3094		11.718750
3095		15.625000
3096		7.812500
3097		11.718750
3098		5.859375
3099		9.765625
3100		3.906250
3101		7.812500
3102		1.953125
3103		5.859375
3104		0.000000
3105		1.953125
3106		-3.906250
3107		0.000000
3108		-5.859375
3109		-1.953125
3110		-7.812500
3111		-3.906250
3112		-9.765625
3113		-5.859375
3114		-13.671875
3115		-9.765625
3116		-15.625000
3117		-9.765625
3118		-17.578125
3119		-13.671875
3120		-19.531250
3121		-15.625000
3122		-23.437500
3123		-17.578125
3124		-23.437500
3125		-19.531250
3126		-25.390625
3127		-21.484375
3128		-27.343750
3129		-23.437500
3130		-29.296875
3131		-25.390625
3132		-31.250000
3133		-27.343750
3134		-33.203125
3135		-27.343750
3136		-33.203125
3137		-29.296875
3138		-35.156250
3139		-31.250000
3140		-37.109375
3141		-31.250000
3142		-37.109375
3143		-33.203125
3144		-37.109375
3145		-35.156250
3146		-39.062500
3147		-35.156250
3148		-39.062500
3149		-37.109375
3150		-41.015625
3151		-37.109375
3152		-42.968750
3153		-37.109375
3154		-41.015625
3155		-39.062500
3156		-42.968750
3157		-37.109375
3158		-42.968750
3159		-39.062500
3160		-41.015625
3161		-39.062500
3162		-41.015625
3163		-39.062500
3164		-41.015625
3165		-39.062500
3166		-41.015625
3167		-39.062500
3168		-41.015625
3169		-37.109375
3170		-39.062500
3171		-37.109375
3172		-39.062500
3173		-37.109375
3174		-39.062500
3175		-35.156250
3176		-39.062500
3177		-35.156250
3178		-37.109375
3179		-33.203125
3180		-35.156250
3181		-31.250000
3182		-35.156250
3183		-31.250000
3184		-33.203125
3185		-29.296875
3186		-31.250000
3187		-27.343750
3188		-29.296875
3189		-25.390625
3190		-29.296875
3191		-23.437500
3192		-27.343750
3193		-21.484375
3194		-25.390625
3195		-21.484375
3196		-23.437500
3197		-17.578125
3198		-21.484375
3199		-17.578125
3200		-19.531250
3201		-13.671875
3202		-15.625000
3203		-11.718750
3204		-13.671875
3205		-9.765625
3206		-11.718750
3207		-7.812500
3208		-11.718750
3209		-5.859375
3210		-7.812500
3211		-3.906250
3212		-5.859375
3213		-1.953125
3214		-1.953125
3215		1.953125
3216		0.000000
3217		3.906250
3218		1.953125
3219		7.812500
3220		5.859375
3221		9.765625
3222		7.812500
3223		11.718750
3224		9.765625
3225		13.671875
3226		11.718750
3227		15.625000
3228		13.671875
3229		19.531250
3230		17.578125
3231		21.484375
3232		19.531250
3233		23.437500
3234		21.484375
3235		25.390625
3236		23.437500
3237		27.343750
3238		25.390625
3239		29.296875
3240		27.343750
3241		33.203125
3242		29.296875
3243		35.156250
3244		31.250000
3245		37.109375
3246		33.203125
3247		39.062500
3248		35.156250
3249		41.015625
3250		39.062500
3251		42.968750
3252		39.062500
3253		42.968750
3254		42.968750
3255		44.921875
3256		42.968750
3257		46.875000
3258		44.921875
3259		48.828125
3260		46.875000
3261		48.828125
3262		48.828125
3263		50.781250
3264		48.828125
3265		52.734375
3266		50.781250
3267		52.734375
3268		50.781250
3269		54.687500
3270		52.734375
3271		56.640625
3272		54.687500
3273		56.640625
3274		52.734375
3275		58.593750
3276		54.687500
3277		58.593750
3278		54.687500
3279		58.593750
3280		56.640625
3281		58.593750
3282		56.640625
3283		58.593750
3284		56.640625
3285		60.546875
3286		54.687500
3287		60.546875
3288		56.640625
3289		58.593750
3290		56.640625
3291		58.593750
3292		56.640625
3293		60.546875
3294		54.687500
3295		58.593750
3296		54.687500
3297		58.593750
3298		54.687500
3299		56.640625
3300		54.687500
3301		56.640625
3302		52.734375
3303		56.640625
3304		52.734375
3305		54.687500
3306		50.781250
3307		54.687500
3308		48.828125
3309		52.734375
3310		48.828125
3311		52.734375
3312		46.875000
3313		50.781250
3314		44.921875
3315		48.828125
3316		42.968750
3317		46.875000
3318		42.968750
3319		46.875000
3320		41.015625
3321		44.921875
3322		39.062500
3323		42.968750
3324		35.156250
3325		41.015625
3326		35.156250
3327		39.062500
3328		33.203125
3329		37.109375
3330		31.250000
3331		35.156250
3332		27.343750
3333		33.203125
3334		27.343750
3335		31.250000
3336		23.437500
3337		29.296875
3338		21.484375
3339		25.390625
3340		19.531250
3341		23.437500
3342		17.578125
3343		21.484375
3344		15.625000
3345		19.531250
3346		11.718750
3347		17.578125
3348		9.765625
3349		15.625000
3350		7.812500
3351		11.718750
3352		3.906250
3353		9.765625
3354		1.953125
3355		7.812500
3356		0.000000
3357		3.906250
3358		-1.953125
3359		1.953125
3360		-3.906250
3361		0.000000
3362		-7.812500
3363		-1.953125
3364		-9.765625
3365		-5.859375
3366		-11.718750
3367		-5.859375
3368		-13.671875
3369		-9.765625
3370		-17.578125
3371		-11.718750
3372		-17.578125
3373		-13.671875
3374		-19.531250
3375		-15.625000
3376		-21.484375
3377		-17.578125
3378		-23.437500
3379		-19.531250
3380		-25.390625
3381		-21.484375
3382		-27.343750
3383		-23.437500
3384		-29.296875
3385		-25.390625
3386		-31.250000
3387		-27.343750
3388		-33.203125
3389		-27.343750
3390		-33.203125
3391		-31.250000
3392		-35.156250
3393		-31.250000
3394		-37.109375
3395		-33.203125
3396		-37.109375
3397		-35.156250
3398		-39.062500
3399		-35.156250
3400		-39.062500
3401		-35.156250
3402		-39.062500
3403		-37.109375
3404		-41.015625
3405		-37.109375
3406		-41.015625
3407		-39.062500
3408		-42.968750
3409		-39.062500
3410		-41.015625
3411		-39.062500
3412		-42.968750
3413		-39.062500
3414		-42.968750
3415		-37.109375
3416		-42.968750
3417		-39.062500
3418		-41.015625
3419		-39.062500
3420		-41.015625
3421		-37.109375
3422		-41.015625
3423		-37.109375
3424		-39.062500
3425		-37.109375
3426		-39.062500
3427		-35.156250
3428		-39.062500
3429		-35.156250
3430		-37.109375
3431		-33.203125
3432		-37.109375
3433		-33.203125
3434		-35.156250
3435		-31.250000
3436		-33.203125
3437		-31.250000
3438		-33.203125
3439		-29.296875
3440		-31.250000
3441		-27.343750
3442		-29.296875
3443		-25.390625
3444		-27.343750
3445		-23.437500
3446		-25.390625
3447		-21.484375
3448		-25.390625
3449		-19.531250
3450		-21.484375
3451		-17.578125
3452		-19.531250
3453		-15.625000
3454		-17.578125
3455		-13.671875
3456		-15.625000
3457		-11.718750
3458		-13.671875
3459		-9.765625
3460		-11.718750
3461		-7.812500
3462		-9.765625
3463		-3.906250
3464		-5.859375
3465		-1.953125
3466		-3.906250
3467		0.000000
3468		-1.953125
3469		1.953125
3470		0.000000
3471		3.906250
3472		1.953125
3473		7.812500
3474		5.859375
3475		9.765625
3476		7.812500
3477		11.718750
3478		9.765625
3479		15.625000
3480		13.671875
3481		17.578125
3482		13.671875
3483		19.531250
3484		17.578125
3485		21.484375
3486		19.531250
3487		23.437500
3488		21.484375
3489		25.390625
3490		25.390625
3491		29.296875
3492		27.343750
3493		31.250000
3494		29.296875
3495		33.203125
3496		31.250000
3497		35.156250
3498		33.203125
3499		37.109375
3500		35.156250
3501		39.062500
3502		37.109375
3503		41.015625
3504		39.062500
3505		42.968750
3506		41.015625
3507		44.921875
3508		42.968750
3509		44.921875
3510		44.921875
3511		48.828125
3512		44.921875
3513		48.828125
3514		46.875000
3515		50.781250
3516		48.828125
3517		50.781250
3518		48.828125
3519		52.734375
3520		50.781250
3521		54.687500
3522		50.781250
3523		54.687500
3524		52.734375
3525		56.640625
3526		52.734375
3527		58.593750
3528		54.687500
3529		56.640625
3530		54.687500
3531		58.593750
3532		54.687500
3533		58.593750
3534		56.640625
3535		58.593750
3536		56.640625
3537		58.593750
3538		56.640625
3539		60.546875
3540		56.640625
3541		58.593750
3542		56.640625
3543		58.593750
3544		56.640625
3545		60.546875
3546		54.687500
3547		58.593750
3548		54.687500
3549		58.593750
3550		54.687500
3551		58.593750
3552		54.687500
3553		58.593750
3554		52.734375
3555		56.640625
3556		52.734375
3557		56.640625
3558		52.734375
3559		54.687500
3560		50.781250
3561		54.687500
3562		48.828125
3563		52.734375
3564		48.828125
3565		52.734375
3566		46.875000
3567		50.781250
3568		44.921875
3569		48.828125
3570		42.968750
3571		46.875000
3572		41.015625
3573		46.875000
3574		41.015625
3575		42.968750
3576		37.109375
3577		42.968750
3578		37.109375
3579		39.062500
3580		35.156250
3581		39.062500
3582		33.203125
3583		35.156250
3584		31.250000
3585		33.203125
3586		27.343750
3587		31.250000
3588		25.390625
3589		29.296875
3590		23.437500
3591		27.343750
3592		21.484375
3593		25.390625
3594		19.531250
3595		23.437500
3596		17.578125
3597		19.531250
3598		13.671875
3599		17.578125
3600		11.718750
3601		15.625000
3602		9.765625
3603		13.671875
3604		7.812500
3605		11.718750
3606		3.906250
3607		7.812500
3608		1.953125
3609		5.859375
3610		-1.953125
3611		3.906250
3612		-3.906250
3613		1.953125
3614		-5.859375
3615		-1.953125
3616		-7.812500
3617		-3.906250
3618		-9.765625
3619		-5.859375
3620		-11.718750
3621		-7.812500
3622		-15.625000
3623		-9.765625
3624		-15.625000
3625		-13.671875
3626		-19.531250
3627		-15.625000
3628		-21.484375
3629		-15.625000
3630		-23.437500
3631		-19.531250
3632		-25.390625
3633		-21.484375
3634		-27.343750
3635		-23.437500
3636		-27.343750
3637		-25.390625
3638		-31.250000
3639		-25.390625
3640		-31.250000
3641		-27.343750
3642		-33.203125
3643		-29.296875
3644		-35.156250
3645		-31.250000
3646		-35.156250
3647		-31.250000
3648		-37.109375
3649		-33.203125
3650		-39.062500
3651		-35.156250
3652		-39.062500
3653		-35.156250
3654		-39.062500
3655		-35.156250
3656		-41.015625
3657		-37.109375
3658		-41.015625
3659		-39.062500
3660		-42.968750
3661		-39.062500
3662		-41.015625
3663		-39.062500
3664		-42.968750
3665		-39.062500
3666		-42.968750
3667		-39.062500
3668		-42.968750
3669		-39.062500
3670		-41.015625
3671		-39.062500
3672		-42.968750
3673		-37.109375
3674		-41.015625
3675		-39.062500
3676		-41.015625
3677		-37.109375
3678		-41.015625
3679		-37.109375
3680		-39.062500
3681		-35.156250
3682		-39.062500
3683		-35.156250
3684		-37.109375
3685		-35.156250
3686		-37.109375
3687		-33.203125
3688		-35.156250
3689		-31.250000
3690		-35.156250
3691		-31.250000
3692		-33.203125
3693		-29.296875
3694		-31.250000
3695		-27.343750
3696		-29.296875
3697		-25.390625
3698		-27.343750
3699		-23.437500
3700		-25.390625
3701		-21.484375
3702		-23.437500
3703		-19.531250
3704		-21.484375
3705		-17.578125
3706		-19.531250
3707		-15.625000
3708		-17.578125
3709		-13.671875
3710		-15.625000
3711		-11.718750
3712		-13.671875
3713		-9.765625
3714		-11.718750
3715		-5.859375
3716		-7.812500
3717		-3.906250
3718		-5.859375
3719		-1.953125
3720		-3.906250
3721		0.000000
3722		-1.953125
3723		1.953125
3724		0.000000
3725		3.906250
3726		3.906250
3727		7.812500
3728		5.859375
3729		9.765625
3730		7.812500
3731		13.671875
3732		9.765625
3733		15.625000
3734		11.718750
3735		17.578125
3736		15.625000
3737		19.531250
3738		17.578125
3739		21.484375
3740		19.531250
3741		25.390625
3742		23.437500
3743		25.390625
3744		25.390625
3745		29.296875
3746		25.390625
3747		31.250000
3748		29.296875
3749		33.203125
3750		31.250000
3751		37.109375
3752		33.203125
3753		37.109375
3754		35.156250
3755		39.062500
3756		37.109375
3757		41.015625
3758		39.062500
3759		42.968750
3760		41.015625
3761		42.968750
3762		41.015625
3763		46.875000
3764		42.968750
3765		48.828125
3766		44.921875
3767		48.828125
3768		46.875000
3769		50.781250
3770		48.828125
3771		52.734375
3772		48.828125
3773		52.734375
3774		50.781250
3775		54.687500
3776		50.781250
3777		54.687500
3778		52.734375
3779		56.640625
3780		54.687500
3781		56.640625
3782		54.687500
3783		56.640625
3784		54.687500
3785		56.640625
3786		54.687500
3787		58.593750
3788		56.640625
3789		58.593750
3790		54.687500
3791		58.593750
3792		56.640625
3793		58.593750
3794		56.640625
3795		58.593750
3796		56.640625
3797		58.593750
3798		56.640625
3799		58.593750
3800		54.687500
3801		58.593750
3802		54.687500
3803		58.593750
3804		54.687500
3805		56.640625
3806		52.734375
3807		56.640625
3808		52.734375
3809		56.640625
3810		52.734375
3811		54.687500
3812		50.781250
3813		54.687500
3814		48.828125
3815		52.734375
3816		48.828125
3817		52.734375
3818		46.875000
3819		50.781250
3820		44.921875
3821		48.828125
3822		44.921875
3823		46.875000
3824		42.968750
3825		46.875000
3826		41.015625
3827		44.921875
3828		39.062500
3829		42.968750
3830		37.109375
3831		41.015625
3832		35.156250
3833		39.062500
3834		33.203125
3835		37.109375
3836		31.250000
3837		35.156250
3838		29.296875
3839		33.203125
3840		25.390625
3841		31.250000
3842		25.390625
3843		29.296875
3844		23.437500
3845		25.390625
3846		19.531250
3847		23.437500
3848		17.578125
3849		23.437500
3850		15.625000
3851		19.531250
3852		13.671875
3853		17.578125
3854		9.765625
3855		15.625000
3856		7.812500
3857		11.718750
3858		5.859375
3859		9.765625
3860		3.906250
3861		7.812500
3862		0.000000
3863		5.859375
3864		-1.953125
3865		3.906250
3866		-3.906250
3867		0.000000
3868		-5.859375
3869		-1.953125
3870		-9.765625
3871		-3.906250
3872		-11.718750
3873		-7.812500
3874		-13.671875
3875		-9.765625
3876		-15.625000
3877		-11.718750
3878		-17.578125
3879		-13.671875
3880		-19.531250
3881		-15.625000
3882		-21.484375
3883		-17.578125
3884		-23.437500
3885		-19.531250
3886		-27.343750
3887		-21.484375
3888		-27.343750
3889		-23.437500
3890		-29.296875
3891		-25.390625
3892		-31.250000
3893		-27.343750
3894		-31.250000
3895		-29.296875
3896		-35.156250
3897		-31.250000
3898		-35.156250
3899		-31.250000
3900		-37.109375
3901		-33.203125
3902		-39.062500
3903		-33.203125
3904		-39.062500
3905		-35.156250
3906		-41.015625
3907		-37.109375
3908		-41.015625
3909		-37.109375
3910		-41.015625
3911		-37.109375
3912		-41.015625
3913		-39.062500
3914		-42.968750
3915		-37.109375
3916		-42.968750
3917		-39.062500
3918		-42.968750
3919		-39.062500
3920		-42.968750
3921		-39.062500
3922		-42.968750
3923		-39.062500
3924		-42.968750
3925		-39.062500
3926		-41.015625
3927		-39.062500
3928		-41.015625
3929		-39.062500
3930		-41.015625
3931		-37.109375
3932		-41.015625
3933		-37.109375
3934		-39.062500
3935		-37.109375
3936		-39.062500
3937		-35.156250
3938		-37.109375
3939		-33.203125
3940		-37.109375
3941		-33.203125
3942		-35.156250
3943		-31.250000
3944		-33.203125
3945		-29.296875
3946		-33.203125
3947		-27.343750
3948		-31.250000
3949		-27.343750
3950		-29.296875
3951		-25.390625
3952		-27.343750
3953		-23.437500
3954		-25.390625
3955		-21.484375
3956		-23.437500
3957		-19.531250
3958		-21.484375
3959		-17.578125
3960		-19.531250
3961		-15.625000
3962		-17.578125
3963		-13.671875
3964		-15.625000
3965		-11.718750
3966		-11.718750
3967		-9.765625
3968		-11.718750
3969		-5.859375
3970		-7.812500
3971		-3.906250
3972		-5.859375
3973		-1.953125
3974		-3.906250
3975		1.953125
3976		-1.953125
3977		3.906250
3978		1.953125
3979		5.859375
3980		3.906250
3981		7.812500
3982		5.859375
3983		9.765625
3984		9.765625
3985		13.671875
3986		11.718750
3987		15.625000
3988		11.718750
3989		17.578125
3990		15.625000
3991		19.531250
3992		17.578125
3993		21.484375
3994		21.484375
3995		25.390625
3996		23.437500
3997		27.343750
3998		23.437500
3999		29.296875
4000		27.343750
4001		33.203125
4002		29.296875
4003		33.203125
4004		31.250000
4005		37.109375
4006		33.203125
4007		39.062500
4008		35.156250
4009		39.062500
4010		37.109375
4011		41.015625
4012		39.062500
4013		42.968750
4014		41.015625
4015		44.921875
4016		42.968750
4017		46.875000
4018		44.921875
4019		48.828125
4020		44.921875
4021		48.828125
4022		46.875000
4023		50.781250
4024		48.828125
4025		52.734375
4026		48.828125
4027		52.734375
4028		50.781250
4029		54.687500
4030		50.781250
4031		56.640625
4032		52.734375
4033		56.640625
4034		54.687500
4035		56.640625
4036		54.687500
4037		56.640625
4038		54.687500
4039		58.593750
4040		54.687500
4041		58.593750
4042		54.687500
4043		58.593750
4044		56.640625
4045		58.593750
4046		56.640625
4047		58.593750
4048		54.687500
4049		58.593750
4050		56.640625
4051		58.593750
4052		54.687500
4053		58.593750
4054		54.687500
4055		58.593750
4056		54.687500
4057		58.593750
4058		52.734375
4059		56.640625
4060		52.734375
4061		56.640625
4062		52.734375
4063		54.687500
4064		50.781250
4065		54.687500
4066		50.781250
4067		54.687500
4068		48.828125
4069		52.734375
4070		46.875000
4071		50.781250
4072		46.875000
4073		50.781250
4074		44.921875
4075		48.828125
4076		42.968750
4077		46.875000
4078		42.968750
4079		44.921875
4080		41.015625
4081		42.968750
4082		39.062500
4083		42.968750
4084		37.109375
4085		41.015625
4086		35.156250
4087		39.062500
4088		31.250000
4089		37.109375
4090		31.250000
4091		35.156250
4092		27.343750
4093		33.203125
4094		25.390625
4095		31.250000
4096		23.437500
4097		27.343750
4098		21.484375
4099		27.343750
4100		19.531250
4101		23.437500
4102		17.578125
4103		21.484375
4104		13.671875
4105		19.531250
4106		11.718750
4107		17.578125
4108		9.765625
4109		13.671875
4110		7.812500
4111		11.718750
4112		3.906250
4113		7.812500
4114		1.953125
4115		5.859375
4116		0.000000
4117		3.906250
4118		-1.953125
4119		1.953125
4120		-5.859375
4121		0.000000
4122		-7.812500
4123		-3.906250
4124		-9.765625
4125		-3.906250
4126		-13.671875
4127		-7.812500
4128		-13.671875
4129		-9.765625
4130		-17.578125
4131		-11.718750
4132		-19.531250
4133		-13.671875
4134		-21.484375
4135		-17.578125
4136		-23.437500
4137		-17.578125
4138		-25.390625
4139		-21.484375
4140		-27.343750
4141		-21.484375
4142		-27.343750
4143		-25.390625
4144		-29.296875
4145		-25.390625
4146		-31.250000
4147		-29.296875
4148		-35.156250
4149		-29.296875
4150		-35.156250
4151		-31.250000
4152		-35.156250
4153		-31.250000
4154		-37.109375
4155		-33.203125
4156		-39.062500
4157		-35.156250
4158		-39.062500
4159		-37.109375
4160		-39.062500
4161		-37.109375
4162		-41.015625
4163		-37.109375
4164		-41.015625
4165		-39.062500
4166		-42.968750
4167		-39.062500
4168		-42.968750
4169		-39.062500
4170		-42.968750
4171		-39.062500
4172		-42.968750
4173		-39.062500
4174		-42.968750
4175		-39.062500
4176		-42.968750
4177		-39.062500
4178		-42.968750
4179		-39.062500
4180		-41.015625
4181		-39.062500
4182		-42.968750
4183		-39.062500
4184		-41.015625
4185		-37.109375
4186		-39.062500
4187		-37.109375
4188		-39.062500
4189		-35.156250
4190		-39.062500
4191		-35.156250
4192		-37.109375
4193		-33.203125
4194		-37.109375
4195		-33.203125
4196		-35.156250
4197		-31.250000
4198		-33.203125
4199		-29.296875
4200		-33.203125
4201		-27.343750
4202		-31.250000
4203		-27.343750
4204		-29.296875
4205		-25.390625
4206		-27.343750
4207		-23.437500
4208		-25.390625
4209		-19.531250
4210		-23.437500
4211		-17.578125
4212		-21.484375
4213		-17.578125
4214		-19.531250
4215		-15.625000
4216		-17.578125
4217		-11.718750
4218		-15.625000
4219		-11.718750
4220		-11.718750
4221		-7.812500
4222		-9.765625
4223		-5.859375
4224		-7.812500
4225		-3.906250
4226		-5.859375
4227		-1.953125
4228		-3.906250
4229		0.000000
4230		0.000000
4231		3.906250
4232		1.953125
4233		7.812500
4234		3.906250
4235		7.812500
4236		5.859375
4237		11.718750
4238		9.765625
4239		13.671875
4240		11.718750
4241		15.625000
4242		13.671875
4243		17.578125
4244		15.625000
4245		21.484375
4246		19.531250
4247		23.437500
4248		21.484375
4249		25.390625
4250		23.437500
4251		27.343750
4252		25.390625
4253		29.296875
4254		27.343750
4255		31.250000
4256		29.296875
4257		33.203125
4258		31.250000
4259		35.156250
4260		33.203125
4261		39.062500
4262		33.203125
4263		39.062500
4264		39.062500
4265		41.015625
4266		39.062500
4267		42.968750
4268		41.015625
4269		44.921875
4270		42.968750
4271		46.875000
4272		44.921875
4273		48.828125
4274		46.875000
4275		50.781250
4276		46.875000
4277		50.781250
4278		48.828125
4279		52.734375
4280		50.781250
4281		52.734375
4282		50.781250
4283		54.687500
4284		52.734375
4285		54.687500
4286		52.734375
4287		54.687500
4288		52.734375
4289		56.640625
4290		54.687500
4291		56.640625
4292		54.687500
4293		58.593750
4294		54.687500
4295		58.593750
4296		56.640625
4297		58.593750
4298		56.640625
4299		58.593750
4300		54.687500
4301		58.593750
4302		54.687500
4303		58.593750
4304		54.687500
4305		58.593750
4306		54.687500
4307		58.593750
4308		54.687500
4309		58.593750
4310		52.734375
4311		56.640625
4312		52.734375
4313		56.640625
4314		52.734375
4315		54.687500
4316		50.781250
4317		54.687500
4318		50.781250
4319		54.687500
4320		48.828125
4321		54.687500
4322		46.875000
4323		52.734375
4324		46.875000
4325		50.781250
4326		44.921875
4327		50.781250
4328		42.968750
4329		48.828125
4330		42.968750
4331		46.875000
4332		41.015625
4333		44.921875
4334		39.062500
4335		42.968750
4336		37.109375
4337		42.968750
4338		35.156250
4339		39.062500
4340		33.203125
4341		39.062500
4342		31.250000
4343		35.156250
4344		29.296875
4345		35.156250
4346		27.343750
4347		33.203125
4348		25.390625
4349		29.296875
4350		21.484375
4351		27.343750
4352		19.531250
4353		25.390625
4354		17.578125
4355		23.437500
4356		15.625000
4357		21.484375
4358		13.671875
4359		19.531250
4360		9.765625
4361		17.578125
4362		9.765625
4363		13.671875
4364		5.859375
4365		9.765625
4366		1.953125
4367		7.812500
4368		0.000000
4369		7.812500
4370		-1.953125
4371		3.906250
4372		-3.906250
4373		1.953125
4374		-7.812500
4375		0.000000
4376		-9.765625
4377		-3.906250
4378		-11.718750
4379		-5.859375
4380		-13.671875
4381		-9.765625
4382		-15.625000
4383		-11.718750
4384		-17.578125
4385		-13.671875
4386		-19.531250
4387		-13.671875
4388		-23.437500
4389		-15.625000
4390		-23.437500
4391		-17.578125
4392		-27.343750
4393		-21.484375
4394		-27.343750
4395		-21.484375
4396		-29.296875
4397		-23.437500
4398		-31.250000
4399		-27.343750
4400		-33.203125
4401		-27.343750
4402		-35.156250
4403		-29.296875
4404		-35.156250
4405		-31.250000
4406		-37.109375
4407		-31.250000
4408		-39.062500
4409		-33.203125
4410		-39.062500
4411		-35.156250
4412		-41.015625
4413		-35.156250
4414		-39.062500
4415		-37.109375
4416		-41.015625
4417		-39.062500
4418		-42.968750
4419		-39.062500
4420		-41.015625
4421		-39.062500
4422		-42.968750
4423		-39.062500
4424		-42.968750
4425		-39.062500
4426		-42.968750
4427		-41.015625
4428		-42.968750
4429		-41.015625
4430		-41.015625
4431		-39.062500
4432		-42.968750
4433		-39.062500
4434		-42.968750
4435		-39.062500
4436		-41.015625
4437		-39.062500
4438		-41.015625
4439		-39.062500
4440		-39.062500
4441		-37.109375
4442		-39.062500
4443		-37.109375
4444		-37.109375
4445		-35.156250
4446		-37.109375
4447		-33.203125
4448		-35.156250
4449		-33.203125
4450		-33.203125
4451		-31.250000
4452		-33.203125
4453		-29.296875
4454		-31.250000
4455		-27.343750
4456		-29.296875
4457		-25.390625
4458		-27.343750
4459		-25.390625
4460		-25.390625
4461		-23.437500
4462		-23.437500
4463		-21.484375
4464		-21.484375
4465		-17.578125
4466		-19.531250
4467		-17.578125
4468		-17.578125
4469		-13.671875
4470		-15.625000
4471		-11.718750
4472		-13.671875
4473		-9.765625
4474		-11.718750
4475		-7.812500
4476		-9.765625
4477		-3.906250
4478		-7.812500
4479		-3.906250
4480		-3.906250
4481		0.000000
4482		-1.953125
4483		1.953125
4484		0.000000
4485		3.906250
4486		1.953125
4487		5.859375
4488		5.859375
4489		9.765625
4490		7.812500
4491		11.718750
4492		9.765625
4493		13.671875
4494		11.718750
4495		15.625000
4496		15.625000
4497		19.531250
4498		17.578125
4499		21.484375
4500		19.531250
4501		23.437500
4502		21.484375
4503		25.390625
4504		23.437500
4505		27.343750
4506		25.390625
4507		29.296875
4508		29.296875
4509		33.203125
4510		31.250000
4511		35.156250
4512		33.203125
4513		37.109375
4514		35.156250
4515		39.062500
4516		37.109375
4517		41.015625
4518		37.109375
4519		46.875000
4520		39.062500
4521		46.875000
4522		39.062500
4523		48.828125
4524		42.968750
4525		46.875000
4526		44.921875
4527		48.828125
4528		46.875000
4529		50.781250
4530		48.828125
4531		50.781250
4532		48.828125
4533		52.734375
4534		50.781250
4535		52.734375
4536		48.828125
4537		56.640625
4538		48.828125
4539		58.593750
4540		50.781250
4541		58.593750
4542		54.687500
4543		56.640625
4544		54.687500
4545		56.640625
4546		54.687500
4547		56.640625
4548		54.687500
4549		58.593750
4550		54.687500
4551		58.593750
4552		52.734375
4553		60.546875
4554		52.734375
4555		62.500000
4556		50.781250
4557		62.500000
4558		54.687500
4559		58.593750
4560		54.687500
4561		56.640625
4562		54.687500
4563		56.640625
4564		54.687500
4565		56.640625
4566		52.734375
4567		56.640625
4568		48.828125
4569		58.593750
4570		48.828125
4571		56.640625
4572		46.875000
4573		56.640625
4574		46.875000
4575		56.640625
4576		48.828125
4577		50.781250
4578		46.875000
4579		50.781250
4580		46.875000
4581		48.828125
4582		44.921875
4583		46.875000
4584		42.968750
4585		46.875000
4586		37.109375
4587		48.828125
4588		37.109375
4589		46.875000
4590		35.156250
4591		44.921875
4592		35.156250
4593		39.062500
4594		33.203125
4595		37.109375
4596		31.250000
4597		35.156250
4598		29.296875
4599		33.203125
4600		27.343750
4601		31.250000
4602		21.484375
4603		31.250000
4604		17.578125
4605		31.250000
4606		15.625000
4607		29.296875
4608		15.625000
4609		25.390625
4610		15.625000
4611		19.531250
4612		13.671875
4613		17.578125
4614		9.765625
4615		13.671875
4616		7.812500
4617		11.718750
4618		5.859375
4619		9.765625
4620		0.000000
4621		11.718750
4622		-1.953125
4623		9.765625
4624		-3.906250
4625		5.859375
4626		-3.906250
4627		0.000000
4628		-5.859375
4629		-1.953125
4630		-7.812500
4631		-3.906250
4632		-11.718750
4633		-7.812500
4634		-13.671875
4635		-9.765625
4636		-19.531250
4637		-7.812500
4638		-21.484375
4639		-11.718750
4640		-23.437500
4641		-13.671875
4642		-21.484375
4643		-17.578125
4644		-23.437500
4645		-19.531250
4646		-25.390625
4647		-21.484375
4648		-27.343750
4649		-23.437500
4650		-29.296875
4651		-25.390625
4652		-35.156250
4653		-25.390625
4654		-35.156250
4655		-25.390625
4656		-37.109375
4657		-27.343750
4658		-37.109375
4659		-29.296875
4660		-37.109375
4661		-33.203125
4662		-37.109375
4663		-35.156250
4664		-39.062500
4665		-35.156250
4666		-39.062500
4667		-37.109375
4668		-41.015625
4669		-37.109375
4670		-44.921875
4671		-35.156250
4672		-44.921875
4673		-35.156250
4674		-46.875000
4675		-35.156250
4676		-42.968750
4677		-39.062500
4678		-42.968750
4679		-41.015625
4680		-42.968750
4681		-41.015625
4682		-42.968750
4683		-41.015625
4684		-42.968750
4685		-39.062500
4686		-44.921875
4687		-35.156250
4688		-44.921875
4689		-35.156250
4690		-44.921875
4691		-35.156250
4692		-42.968750
4693		-35.156250
4694		-39.062500
4695		-37.109375
4696		-39.062500
4697		-35.156250
4698		-37.109375
4699		-35.156250
4700		-37.109375
4701		-33.203125
4702		-35.156250
4703		-33.203125
4704		-33.203125
4705		-31.250000
4706		-35.156250
4707		-27.343750
4708		-33.203125
4709		-25.390625
4710		-29.296875
4711		-25.390625
4712		-27.343750
4713		-23.437500
4714		-25.390625
4715		-21.484375
4716		-23.437500
4717		-19.531250
4718		-21.484375
4719		-17.578125
4720		-19.531250
4721		-15.625000
4722		-19.531250
4723		-11.718750
4724		-15.625000
4725		-9.765625
4726		-13.671875
4727		-9.765625
4728		-11.718750
4729		-7.812500
4730		-7.812500
4731		-3.906250
4732		-5.859375
4733		-1.953125
4734		-3.906250
4735		0.000000
4736		-1.953125
4737		3.906250
4738		0.000000
4739		5.859375
4740		1.953125
4741		9.765625
4742		5.859375
4743		9.765625
4744		7.812500
4745		11.718750
4746		9.765625
4747		13.671875
4748		13.671875
4749		17.578125
4750		15.625000
4751		19.531250
4752		17.578125
4753		21.484375
4754		19.531250
4755		23.437500
4756		23.437500
4757		25.390625
4758		25.390625
4759		29.296875
4760		27.343750
4761		31.250000
4762		29.296875
4763		33.203125
4764		31.250000
4765		35.156250
4766		33.203125
4767		37.109375
4768		35.156250
4769		39.062500
4770		37.109375
4771		41.015625
4772		39.062500
4773		42.968750
4774		41.015625
4775		44.921875
4776		42.968750
4777		44.921875
4778		44.921875
4779		46.875000
4780		44.921875
4781		48.828125
4782		46.875000
4783		50.781250
4784		46.875000
4785		50.781250
4786		48.828125
4787		52.734375
4788		50.781250
4789		52.734375
4790		50.781250
4791		54.687500
4792		52.734375
4793		54.687500
4794		52.734375
4795		56.640625
4796		54.687500
4797		56.640625
4798		54.687500
4799		56.640625
4800		54.687500
4801		56.640625
4802		54.687500
4803		58.593750
4804		54.687500
4805		58.593750
4806		54.687500
4807		58.593750
4808		54.687500
4809		58.593750
4810		54.687500
4811		58.593750
4812		54.687500
4813		58.593750
4814		54.687500
4815		56.640625
4816		54.687500
4817		56.640625
4818		54.687500
4819		56.640625
4820		50.781250
4821		56.640625
4822		50.781250
4823		56.640625
4824		50.781250
4825		54.687500
4826		50.781250
4827		52.734375
4828		48.828125
4829		52.734375
4830		46.875000
4831		50.781250
4832		46.875000
4833		48.828125
4834		44.921875
4835		48.828125
4836		42.968750
4837		46.875000
4838		42.968750
4839		44.921875
4840		41.015625
4841		44.921875
4842		39.062500
4843		41.015625
4844		35.156250
4845		39.062500
4846		35.156250
4847		39.062500
4848		33.203125
4849		37.109375
4850		31.250000
4851		35.156250
4852		27.343750
4853		31.250000
4854		25.390625
4855		31.250000
4856		23.437500
4857		29.296875
4858		21.484375
4859		25.390625
4860		19.531250
4861		23.437500
4862		15.625000
4863		21.484375
4864		15.625000
4865		17.578125
4866		11.718750
4867		15.625000
4868		9.765625
4869		13.671875
4870		7.812500
4871		11.718750
4872		3.906250
4873		11.718750
4874		1.953125
4875		7.812500
4876		0.000000
4877		3.906250
4878		-3.906250
4879		1.953125
4880		-5.859375
4881		0.000000
4882		-7.812500
4883		-3.906250
4884		-9.765625
4885		-5.859375
4886		-11.718750
4887		-7.812500
4888		-15.625000
4889		-9.765625
4890		-15.625000
4891		-11.718750
4892		-17.578125
4893		-15.625000
4894		-21.484375
4895		-17.578125
4896		-23.437500
4897		-17.578125
4898		-23.437500
4899		-21.484375
4900		-25.390625
4901		-21.484375
4902		-29.296875
4903		-25.390625
4904		-31.250000
4905		-27.343750
4906		-33.203125
4907		-27.343750
4908		-33.203125
4909		-29.296875
4910		-35.156250
4911		-31.250000
4912		-37.109375
4913		-31.250000
4914		-37.109375
4915		-33.203125
4916		-37.109375
4917		-35.156250
4918		-39.062500
4919		-37.109375
4920		-41.015625
4921		-37.109375
4922		-41.015625
4923		-35.156250
4924		-41.015625
4925		-39.062500
4926		-41.015625
4927		-39.062500
4928		-42.968750
4929		-39.062500
4930		-42.968750
4931		-39.062500
4932		-42.968750
4933		-39.062500
4934		-42.968750
4935		-41.015625
4936		-42.968750
4937		-41.015625
4938		-44.921875
4939		-37.109375
4940		-42.968750
4941		-39.062500
4942		-41.015625
4943		-39.062500
4944		-41.015625
4945		-37.109375
4946		-41.015625
4947		-37.109375
4948		-39.062500
4949		-37.109375
4950		-39.062500
4951		-35.156250
4952		-37.109375
4953		-35.156250
4954		-37.109375
4955		-33.203125
4956		-37.109375
4957		-31.250000
4958		-35.156250
4959		-31.250000
4960		-31.250000
4961		-29.296875
4962		-31.250000
4963		-27.343750
4964		-29.296875
4965		-25.390625
4966		-27.343750
4967		-23.437500
4968		-25.390625
4969		-21.484375
4970		-23.437500
4971		-19.531250
4972		-21.484375
4973		-17.578125
4974		-19.531250
4975		-15.625000
4976		-17.578125
4977		-13.671875
4978		-15.625000
4979		-11.718750
4980		-13.671875
4981		-9.765625
4982		-9.765625
4983		-5.859375
4984		-7.812500
4985		-3.906250
4986		-5.859375
4987		-1.953125
4988		-3.906250
4989		1.953125
4990		-1.953125
4991		3.906250
4992		1.953125
4993		5.859375
4994		3.906250
4995		7.812500
4996		5.859375
4997		9.765625
4998		7.812500
4999		11.718750
5000		11.718750
5001		15.625000
5002		13.671875
5003		17.578125
5004		15.625000
5005		19.531250
5006		19.531250
5007		21.484375
5008		21.484375
5009		25.390625
5010		23.437500
5011		27.343750
5012		25.390625
5013		29.296875
5014		27.343750
5015		31.250000
5016		29.296875
5017		35.156250
5018		31.250000
5019		35.156250
5020		33.203125
5021		37.109375
5022		35.156250
5023		39.062500
5024		37.109375
5025		41.015625
5026		39.062500
5027		42.968750
5028		41.015625
5029		44.921875
5030		42.968750
5031		46.875000
5032		44.921875
5033		46.875000
5034		46.875000
5035		48.828125
5036		46.875000
5037		50.781250
5038		48.828125
5039		52.734375
5040		50.781250
5041		52.734375
5042		50.781250
5043		54.687500
5044		52.734375
5045		54.687500
5046		52.734375
5047		54.687500
5048		54.687500
5049		56.640625
5050		54.687500
5051		56.640625
5052		54.687500
5053		56.640625
5054		54.687500
5055		58.593750
5056		56.640625
5057		58.593750
5058		54.687500
5059		58.593750
5060		56.640625
5061		58.593750
5062		56.640625
5063		58.593750
5064		56.640625
5065		58.593750
5066		56.640625
5067		58.593750
5068		54.687500
5069		56.640625
5070		54.687500
5071		56.640625
5072		54.687500
5073		56.640625
5074		52.734375
5075		54.687500
5076		52.734375
5077		54.687500
5078		50.781250
5079		54.687500
5080		50.781250
5081		52.734375
5082		48.828125
5083		52.734375
5084		48.828125
5085		50.781250
5086		46.875000
5087		48.828125
5088		44.921875
5089		48.828125
5090		42.968750
5091		46.875000
5092		41.015625
5093		44.921875
5094		41.015625
5095		42.968750
5096		39.062500
5097		41.015625
5098		37.109375
5099		39.062500
5100		35.156250
5101		37.109375
5102		33.203125
5103		35.156250
5104		31.250000
5105		35.156250
5106		25.390625
5107		31.250000
5108		25.390625
5109		29.296875
5110		23.437500
5111		27.343750
5112		21.484375
5113		25.390625
5114		19.531250
5115		23.437500
5116		17.578125
5117		19.531250
5118		13.671875
5119		17.578125
5120		11.718750
5121		15.625000
5122		9.765625
5123		13.671875
5124		5.859375
5125		11.718750
5126		3.906250
5127		7.812500
5128		1.953125
5129		5.859375
5130		0.000000
5131		3.906250
5132		-1.953125
5133		0.000000
5134		-5.859375
5135		-1.953125
5136		-7.812500
5137		-3.906250
5138		-9.765625
5139		-5.859375
5140		-13.671875
5141		-7.812500
5142		-15.625000
5143		-9.765625
5144		-17.578125
5145		-13.671875
5146		-19.531250
5147		-15.625000
5148		-21.484375
5149		-17.578125
5150		-23.437500
5151		-19.531250
5152		-25.390625
5153		-21.484375
5154		-27.343750
5155		-23.437500
5156		-31.250000
5157		-25.390625
5158		-31.250000
5159		-25.390625
5160		-33.203125
5161		-27.343750
5162		-33.203125
5163		-29.296875
5164		-35.156250
5165		-31.250000
5166		-35.156250
5167		-33.203125
5168		-37.109375
5169		-33.203125
5170		-39.062500
5171		-35.156250
5172		-39.062500
5173		-37.109375
5174		-42.968750
5175		-35.156250
5176		-42.968750
5177		-37.109375
5178		-41.015625
5179		-39.062500
5180		-42.968750
5181		-39.062500
5182		-42.968750
5183		-39.062500
5184		-42.968750
5185		-39.062500
5186		-42.968750
5187		-41.015625
5188		-42.968750
5189		-41.015625
5190		-44.921875
5191		-37.109375
5192		-44.921875
5193		-37.109375
5194		-41.015625
5195		-39.062500
5196		-41.015625
5197		-39.062500
5198		-41.015625
5199		-39.062500
5200		-39.062500
5201		-37.109375
5202		-39.062500
5203		-37.109375
5204		-39.062500
5205		-35.156250
5206		-37.109375
5207		-35.156250
5208		-39.062500
5209		-31.250000
5210		-37.109375
5211		-31.250000
5212		-33.203125
5213		-29.296875
5214		-31.250000
5215		-29.296875
5216		-29.296875
5217		-27.343750
5218		-29.296875
5219		-25.390625
5220		-27.343750
5221		-23.437500
5222		-25.390625
5223		-21.484375
5224		-25.390625
5225		-17.578125
5226		-21.484375
5227		-15.625000
5228		-19.531250
5229		-15.625000
5230		-15.625000
5231		-13.671875
5232		-13.671875
5233		-9.765625
5234		-11.718750
5235		-7.812500
5236		-9.765625
5237		-5.859375
5238		-7.812500
5239		-3.906250
5240		-5.859375
5241		0.000000
5242		-3.906250
5243		1.953125
5244		-1.953125
5245		3.906250
5246		1.953125
5247		5.859375
5248		3.906250
5249		7.812500
5250		7.812500
5251		11.718750
5252		9.765625
5253		13.671875
5254		11.718750
5255		15.625000
5256		13.671875
5257		17.578125
5258		15.625000
5259		21.484375
5260		17.578125
5261		23.437500
5262		21.484375
5263		25.390625
5264		23.437500
5265		27.343750
5266		25.390625
5267		29.296875
5268		27.343750
5269		31.250000
5270		31.250000
5271		33.203125
5272		33.203125
5273		35.156250
5274		33.203125
5275		39.062500
5276		35.156250
5277		41.015625
5278		37.109375
5279		42.968750
5280		39.062500
5281		42.968750
5282		41.015625
5283		44.921875
5284		42.968750
5285		46.875000
5286		44.921875
5287		48.828125
5288		46.875000
5289		48.828125
5290		46.875000
5291		50.781250
5292		46.875000
5293		52.734375
5294		48.828125
5295		54.687500
5296		50.781250
5297		54.687500
5298		52.734375
5299		54.687500
5300		52.734375
5301		56.640625
5302		54.687500
5303		56.640625
5304		54.687500
5305		56.640625
5306		54.687500
5307		56.640625
5308		54.687500
5309		58.593750
5310		54.687500
5311		60.546875
5312		54.687500
5313		58.593750
5314		56.640625
5315		58.593750
5316		56.640625
5317		58.593750
5318		54.687500
5319		58.593750
5320		54.687500
5321		56.640625
5322		54.687500
5323		58.593750
5324		52.734375
5325		56.640625
5326		54.687500
5327		56.640625
5328		52.734375
5329		54.687500
5330		52.734375
5331		54.687500
5332		50.781250
5333		52.734375
5334		48.828125
5335		52.734375
5336		48.828125
5337		50.781250
5338		46.875000
5339		50.781250
5340		44.921875
5341		48.828125
5342		44.921875
5343		48.828125
5344		42.968750
5345		46.875000
5346		41.015625
5347		44.921875
5348		39.062500
5349		42.968750
5350		37.109375
5351		41.015625
5352		35.156250
5353		39.062500
5354		33.203125
5355		37.109375
5356		31.250000
5357		35.156250
5358		27.343750
5359		33.203125
5360		27.343750
5361		31.250000
5362		25.390625
5363		29.296875
5364		23.437500
5365		27.343750
5366		19.531250
5367		25.390625
5368		17.578125
5369		21.484375
5370		15.625000
5371		19.531250
5372		13.671875
5373		17.578125
5374		9.765625
5375		15.625000
5376		7.812500
5377		11.718750
5378		5.859375
5379		9.765625
5380		3.906250
5381		7.812500
5382		1.953125
5383		3.906250
5384		-1.953125
5385		1.953125
5386		-3.906250
5387		0.000000
5388		-5.859375
5389		-1.953125
5390		-9.765625
5391		-3.906250
5392		-11.718750
5393		-7.812500
5394		-13.671875
5395		-9.765625
5396		-15.625000
5397		-11.718750
5398		-17.578125
5399		-13.671875
5400		-19.531250
5401		-15.625000
5402		-21.484375
5403		-17.578125
5404		-23.437500
5405		-19.531250
5406		-25.390625
5407		-21.484375
5408		-27.343750
5409		-23.437500
5410		-29.296875
5411		-25.390625
5412		-31.250000
5413		-27.343750
5414		-33.203125
5415		-29.296875
5416		-33.203125
5417		-31.250000
5418		-35.156250
5419		-33.203125
5420		-37.109375
5421		-33.203125
5422		-39.062500
5423		-35.156250
5424		-39.062500
5425		-35.156250
5426		-39.062500
5427		-37.109375
5428		-41.015625
5429		-37.109375
5430		-41.015625
5431		-39.062500
5432		-41.015625
5433		-39.062500
5434		-42.968750
5435		-39.062500
5436		-42.968750
5437		-41.015625
5438		-42.968750
5439		-41.015625
5440		-42.968750
5441		-41.015625
5442		-42.968750
5443		-41.015625
5444		-42.968750
5445		-39.062500
5446		-42.968750
5447		-41.015625
5448		-41.015625
5449		-39.062500
5450		-41.015625
5451		-39.062500
5452		-41.015625
5453		-39.062500
5454		-39.062500
5455		-37.109375
5456		-39.062500
5457		-37.109375
5458		-39.062500
5459		-35.156250
5460		-37.109375
5461		-35.156250
5462		-35.156250
5463		-33.203125
5464		-35.156250
5465		-31.250000
5466		-33.203125
5467		-29.296875
5468		-31.250000
5469		-29.296875
5470		-29.296875
5471		-27.343750
5472		-27.343750
5473		-25.390625
5474		-25.390625
5475		-23.437500
5476		-23.437500
5477		-21.484375
5478		-23.437500
5479		-19.531250
5480		-19.531250
5481		-17.578125
5482		-17.578125
5483		-13.671875
5484		-15.625000
5485		-11.718750
5486		-13.671875
5487		-9.765625
5488		-11.718750
5489		-7.812500
5490		-9.765625
5491		-5.859375
5492		-7.812500
5493		-3.906250
5494		-3.906250
5495		0.000000
5496		-1.953125
5497		1.953125
5498		0.000000
5499		3.906250
5500		1.953125
5501		5.859375
5502		3.906250
5503		9.765625
5504		7.812500
5505		11.718750
5506		9.765625
5507		13.671875
5508		11.718750
5509		15.625000
5510		15.625000
5511		19.531250
5512		17.578125
5513		21.484375
5514		19.531250
5515		23.437500
5516		21.484375
5517		25.390625
5518		23.437500
5519		27.343750
5520		25.390625
5521		29.296875
5522		29.296875
5523		31.250000
5524		29.296875
5525		35.156250
5526		33.203125
5527		35.156250
5528		35.156250
5529		37.109375
5530		37.109375
5531		39.062500
5532		39.062500
5533		41.015625
5534		41.015625
5535		42.968750
5536		41.015625
5537		44.921875
5538		42.968750
5539		46.875000
5540		44.921875
5541		48.828125
5542		46.875000
5543		48.828125
5544		46.875000
5545		50.781250
5546		48.828125
5547		52.734375
5548		50.781250
5549		52.734375
5550		50.781250
5551		52.734375
5552		52.734375
5553		54.687500
5554		52.734375
5555		54.687500
5556		52.734375
5557		56.640625
5558		52.734375
5559		56.640625
5560		54.687500
5561		56.640625
5562		54.687500
5563		56.640625
5564		54.687500
5565		56.640625
5566		54.687500
5567		58.593750
5568		54.687500
5569		58.593750
5570		54.687500
5571		56.640625
5572		54.687500
5573		56.640625
5574		54.687500
5575		56.640625
5576		54.687500
5577		56.640625
5578		54.687500
5579		56.640625
5580		52.734375
5581		56.640625
5582		52.734375
5583		54.687500
5584		50.781250
5585		54.687500
5586		50.781250
5587		52.734375
5588		48.828125
5589		52.734375
5590		46.875000
5591		50.781250
5592		46.875000
5593		50.781250
5594		44.921875
5595		48.828125
5596		42.968750
5597		46.875000
5598		41.015625
5599		44.921875
5600		41.015625
5601		42.968750
5602		39.062500
5603		41.015625
5604		37.109375
5605		41.015625
5606		35.156250
5607		39.062500
5608		33.203125
5609		37.109375
5610		31.250000
5611		35.156250
5612		29.296875
5613		31.250000
5614		25.390625
5615		29.296875
5616		23.437500
5617		27.343750
5618		21.484375
5619		25.390625
5620		19.531250
5621		23.437500
5622		17.578125
5623		21.484375
5624		13.671875
5625		19.531250
5626		11.718750
5627		17.578125
5628		9.765625
5629		13.671875
5630		7.812500
5631		11.718750
5632		3.906250
5633		7.812500
5634		1.953125
5635		5.859375
5636		0.000000
5637		3.906250
5638		-1.953125
5639		1.953125
5640		-5.859375
5641		-1.953125
5642		-7.812500
5643		-3.906250
5644		-9.765625
5645		-5.859375
5646		-11.718750
5647		-7.812500
5648		-13.671875
5649		-9.765625
5650		-15.625000
5651		-13.671875
5652		-19.531250
5653		-15.625000
5654		-21.484375
5655		-17.578125
5656		-23.437500
5657		-19.531250
5658		-25.390625
5659		-21.484375
5660		-27.343750
5661		-21.484375
5662		-29.296875
5663		-25.390625
5664		-29.296875
5665		-27.343750
5666		-31.250000
5667		-29.296875
5668		-33.203125
5669		-31.250000
5670		-35.156250
5671		-31.250000
5672		-35.156250
5673		-33.203125
5674		-37.109375
5675		-35.156250
5676		-39.062500
5677		-35.156250
5678		-39.062500
5679		-37.109375
5680		-41.015625
5681		-37.109375
5682		-41.015625
5683		-39.062500
5684		-41.015625
5685		-39.062500
5686		-42.968750
5687		-39.062500
5688		-42.968750
5689		-41.015625
5690		-42.968750
5691		-41.015625
5692		-42.968750
5693		-41.015625
5694		-42.968750
5695		-41.015625
5696		-42.968750
5697		-41.015625
5698		-42.968750
5699		-41.015625
5700		-42.968750
5701		-41.015625
5702		-41.015625
5703		-39.062500
5704		-41.015625
5705		-39.062500
5706		-41.015625
5707		-39.062500
5708		-41.015625
5709		-37.109375
5710		-39.062500
5711		-37.109375
5712		-39.062500
5713		-35.156250
5714		-37.109375
5715		-33.203125
5716		-35.156250
5717		-33.203125
5718		-35.156250
5719		-31.250000
5720		-33.203125
5721		-29.296875
5722		-31.250000
5723		-27.343750
5724		-29.296875
5725		-25.390625
5726		-27.343750
5727		-25.390625
5728		-27.343750
5729		-23.437500
5730		-23.437500
5731		-19.531250
5732		-21.484375
5733		-19.531250
5734		-19.531250
5735		-15.625000
5736		-17.578125
5737		-13.671875
5738		-15.625000
5739		-11.718750
5740		-13.671875
5741		-9.765625
5742		-11.718750
5743		-7.812500
5744		-7.812500
5745		-5.859375
5746		-5.859375
5747		-1.953125
5748		-3.906250
5749		0.000000
5750		-1.953125
5751		1.953125
5752		0.000000
5753		3.906250
5754		3.906250
5755		7.812500
5756		5.859375
5757		9.765625
5758		7.812500
5759		11.718750
5760		9.765625
5761		13.671875
5762		13.671875
5763		17.578125
5764		15.625000
5765		19.531250
5766		17.578125
5767		21.484375
5768		19.531250
5769		23.437500
5770		21.484375
5771		27.343750
5772		25.390625
5773		29.296875
5774		27.343750
5775		31.250000
5776		29.296875
5777		33.203125
5778		31.250000
5779		35.156250
5780		33.203125
5781		37.109375
5782		35.156250
5783		39.062500
5784		37.109375
5785		41.015625
5786		37.109375
5787		42.968750
5788		41.015625
5789		42.968750
5790		42.968750
5791		44.921875
5792		44.921875
5793		46.875000
5794		44.921875
5795		48.828125
5796		46.875000
5797		50.781250
5798		48.828125
5799		50.781250
5800		48.828125
5801		52.734375
5802		50.781250
5803		52.734375
5804		50.781250
5805		54.687500
5806		52.734375
5807		54.687500
5808		52.734375
5809		56.640625
5810		54.687500
5811		56.640625
5812		54.687500
5813		56.640625
5814		54.687500
5815		56.640625
5816		54.687500
5817		56.640625
5818		54.687500
5819		58.593750
5820		54.687500
5821		58.593750
5822		56.640625
5823		58.593750
5824		54.687500
5825		56.640625
5826		54.687500
5827		58.593750
5828		54.687500
5829		56.640625
5830		54.687500
5831		56.640625
5832		52.734375
5833		56.640625
5834		52.734375
5835		54.687500
5836		52.734375
5837		54.687500
5838		50.781250
5839		54.687500
5840		50.781250
5841		52.734375
5842		48.828125
5843		52.734375
5844		46.875000
5845		50.781250
5846		46.875000
5847		48.828125
5848		44.921875
5849		48.828125
5850		42.968750
5851		46.875000
5852		41.015625
5853		44.921875
5854		39.062500
5855		42.968750
5856		39.062500
5857		41.015625
5858		37.109375
5859		39.062500
5860		35.156250
5861		37.109375
5862		33.203125
5863		35.156250
5864		29.296875
5865		33.203125
5866		27.343750
5867		31.250000
5868		25.390625
5869		29.296875
5870		23.437500
5871		27.343750
5872		21.484375
5873		25.390625
5874		19.531250
5875		23.437500
5876		15.625000
5877		19.531250
5878		13.671875
5879		17.578125
5880		11.718750
5881		15.625000
5882		9.765625
5883		13.671875
5884		7.812500
5885		11.718750
5886		3.906250
5887		7.812500
5888		1.953125
5889		5.859375
5890		0.000000
5891		3.906250
5892		-3.906250
5893		0.000000
5894		-5.859375
5895		-1.953125
5896		-7.812500
5897		-3.906250
5898		-9.765625
5899		-5.859375
5900		-13.671875
5901		-7.812500
5902		-15.625000
5903		-9.765625
5904		-17.578125
5905		-13.671875
5906		-19.531250
5907		-15.625000
5908		-21.484375
5909		-17.578125
5910		-23.437500
5911		-19.531250
5912		-25.390625
5913		-21.484375
5914		-27.343750
5915		-23.437500
5916		-29.296875
5917		-25.390625
5918		-29.296875
5919		-27.343750
5920		-31.250000
5921		-29.296875
5922		-33.203125
5923		-31.250000
5924		-35.156250
5925		-31.250000
5926		-35.156250
5927		-33.203125
5928		-37.109375
5929		-35.156250
5930		-39.062500
5931		-35.156250
5932		-39.062500
5933		-37.109375
5934		-41.015625
5935		-37.109375
5936		-42.968750
5937		-39.062500
5938		-41.015625
5939		-39.062500
5940		-42.968750
5941		-39.062500
5942		-42.968750
5943		-41.015625
5944		-42.968750
5945		-41.015625
5946		-42.968750
5947		-41.015625
5948		-42.968750
5949		-39.062500
5950		-42.968750
5951		-41.015625
5952		-42.968750
5953		-41.015625
5954		-42.968750
5955		-41.015625
5956		-41.015625
5957		-39.062500
5958		-41.015625
5959		-39.062500
5960		-41.015625
5961		-37.109375
5962		-39.062500
5963		-37.109375
5964		-39.062500
5965		-35.156250
5966		-37.109375
5967		-35.156250
5968		-37.109375
5969		-33.203125
5970		-35.156250
5971		-31.250000
5972		-35.156250
5973		-31.250000
5974		-33.203125
5975		-29.296875
5976		-31.250000
5977		-27.343750
5978		-29.296875
5979		-25.390625
5980		-27.343750
5981		-23.437500
5982		-25.390625
5983		-21.484375
5984		-23.437500
5985		-19.531250
5986		-21.484375
5987		-17.578125
5988		-19.531250
5989		-15.625000
5990		-17.578125
5991		-13.671875
5992		-15.625000
5993		-11.718750
5994		-13.671875
5995		-7.812500
5996		-9.765625
5997		-5.859375
5998		-7.812500
5999		-3.906250
6000		-5.859375
6001		-1.953125
6002		-3.906250
6003		0.000000
6004		-1.953125
6005		1.953125
6006		1.953125
6007		5.859375
6008		3.906250
6009		7.812500
6010		5.859375
6011		9.765625
6012		9.765625
6013		11.718750
6014		11.718750
6015		15.625000
6016		13.671875
6017		17.578125
6018		15.625000
6019		19.531250
6020		17.578125
6021		21.484375
6022		21.484375
6023		25.390625
6024		23.437500
6025		27.343750
6026		25.390625
6027		29.296875
6028		27.343750
6029		31.250000
6030		29.296875
6031		33.203125
6032		31.250000
6033		35.156250
6034		33.203125
6035		37.109375
6036		35.156250
6037		39.062500
6038		37.109375
6039		41.015625
6040		39.062500
6041		42.968750
6042		41.015625
6043		44.921875
6044		42.968750
6045		44.921875
6046		44.921875
6047		46.875000
6048		46.875000
6049		48.828125
6050		46.875000
6051		50.781250
6052		48.828125
6053		50.781250
6054		48.828125
6055		52.734375
6056		50.781250
6057		52.734375
6058		52.734375
6059		54.687500
6060		52.734375
6061		54.687500
6062		52.734375
6063		56.640625
6064		54.687500
6065		56.640625
6066		54.687500
6067		56.640625
6068		54.687500
6069		56.640625
6070		54.687500
6071		56.640625
6072		54.687500
6073		56.640625
6074		54.687500
6075		56.640625
6076		54.687500
6077		58.593750
6078		54.687500
6079		58.593750
6080		54.687500
6081		56.640625
6082		54.687500
6083		56.640625
6084		54.687500
6085		56.640625
6086		52.734375
6087		56.640625
6088		52.734375
6089		54.687500
6090		50.781250
6091		54.687500
6092		50.781250
6093		52.734375
6094		48.828125
6095		52.734375
6096		48.828125
6097		50.781250
6098		46.875000
6099		50.781250
6100		44.921875
6101		48.828125
6102		44.921875
6103		48.828125
6104		42.968750
6105		44.921875
6106		41.015625
6107		44.921875
6108		39.062500
6109		42.968750
6110		37.109375
6111		41.015625
6112		35.156250
6113		39.062500
6114		33.203125
6115		37.109375
6116		31.250000
6117		35.156250
6118		29.296875
6119		33.203125
6120		27.343750
6121		31.250000
6122		25.390625
6123		29.296875
6124		23.437500
6125		27.343750
6126		19.531250
6127		25.390625
6128		17.578125
6129		21.484375
6130		15.625000
6131		19.531250
6132		13.671875
6133		17.578125
6134		9.765625
6135		13.671875
6136		7.812500
6137		11.718750
6138		5.859375
6139		9.765625
6140		3.906250
6141		7.812500
6142		0.000000
6143		3.906250
6144		-1.953125
6145		1.953125
6146		-3.906250
6147		0.000000
6148		-5.859375
6149		-1.953125
6150		-9.765625
6151		-3.906250
6152		-11.718750
6153		-7.812500
6154		-13.671875
6155		-9.765625
6156		-15.625000
6157		-11.718750
6158		-17.578125
6159		-13.671875
6160		-19.531250
6161		-15.625000
6162		-21.484375
6163		-17.578125
6164		-23.437500
6165		-21.484375
6166		-25.390625
6167		-21.484375
6168		-27.343750
6169		-25.390625
6170		-31.250000
6171		-25.390625
6172		-31.250000
6173		-27.343750
6174		-35.156250
6175		-27.343750
6176		-35.156250
6177		-31.250000
6178		-35.156250
6179		-33.203125
6180		-37.109375
6181		-33.203125
6182		-37.109375
6183		-35.156250
6184		-39.062500
6185		-37.109375
6186		-41.015625
6187		-35.156250
6188		-41.015625
6189		-39.062500
6190		-42.968750
6191		-39.062500
6192		-42.968750
6193		-39.062500
6194		-44.921875
6195		-37.109375
6196		-42.968750
6197		-41.015625
6198		-42.968750
6199		-41.015625
6200		-44.921875
6201		-41.015625
6202		-44.921875
6203		-39.062500
6204		-44.921875
6205		-39.062500
6206		-42.968750
6207		-39.062500
6208		-44.921875
6209		-37.109375
6210		-42.968750
6211		-37.109375
6212		-42.968750
6213		-39.062500
6214		-41.015625
6215		-37.109375
6216		-41.015625
6217		-35.156250
6218		-41.015625
6219		-35.156250
6220		-39.062500
6221		-33.203125
6222		-37.109375
6223		-33.203125
6224		-35.156250
6225		-31.250000
6226		-33.203125
6227		-31.250000
6228		-33.203125
6229		-27.343750
6230		-31.250000
6231		-27.343750
6232		-29.296875
6233		-25.390625
6234		-27.343750
6235		-21.484375
6236		-27.343750
6237		-19.531250
6238		-23.437500
6239		-17.578125
6240		-21.484375
6241		-17.578125
6242		-21.484375
6243		-15.625000
6244		-17.578125
6245		-11.718750
6246		-13.671875
6247		-9.765625
6248		-11.718750
6249		-7.812500
6250		-9.765625
6251		-3.906250
6252		-9.765625
6253		-1.953125
6254		-7.812500
6255		-1.953125
6256		-3.906250
6257		1.953125
6258		-1.953125
6259		5.859375
6260		1.953125
6261		5.859375
6262		0.000000
6263		9.765625
6264		7.812500
6265		11.718750
6266		9.765625
6267		13.671875
6268		11.718750
6269		17.578125
6270		13.671875
6271		19.531250
6272		15.625000
6273		21.484375
6274		17.578125
6275		25.390625
6276		19.531250
6277		27.343750
6278		21.484375
6279		31.250000
6280		25.390625
6281		29.296875
6282		27.343750
6283		31.250000
6284		29.296875
6285		37.109375
6286		29.296875
6287		37.109375
6288		33.203125
6289		37.109375
6290		37.109375
6291		39.062500
6292		35.156250
6293		44.921875
6294		39.062500
6295		46.875000
6296		39.062500
6297		46.875000
6298		42.968750
6299		46.875000
6300		44.921875
6301		48.828125
6302		42.968750
6303		52.734375
6304		46.875000
6305		50.781250
6306		48.828125
6307		52.734375
6308		46.875000
6309		56.640625
6310		46.875000
6311		56.640625
6312		48.828125
6313		58.593750
6314		52.734375
6315		54.687500
6316		52.734375
6317		56.640625
6318		52.734375
6319		58.593750
6320		50.781250
6321		60.546875
6322		54.687500
6323		56.640625
6324		54.687500
6325		56.640625
6326		50.781250
6327		62.500000
6328		52.734375
6329		60.546875
6330		54.687500
6331		58.593750
6332		54.687500
6333		56.640625
6334		54.687500
6335		58.593750
6336		50.781250
6337		60.546875
6338		50.781250
6339		58.593750
6340		52.734375
6341		54.687500
6342		48.828125
6343		58.593750
6344		48.828125
6345		58.593750
6346		46.875000
6347		56.640625
6348		48.828125
6349		52.734375
6350		46.875000
6351		50.781250
6352		42.968750
6353		52.734375
6354		42.968750
6355		50.781250
6356		42.968750
6357		46.875000
6358		41.015625
6359		46.875000
6360		37.109375
6361		46.875000
6362		35.156250
6363		44.921875
6364		37.109375
6365		39.062500
6366		35.156250
6367		39.062500
6368		31.250000
6369		37.109375
6370		27.343750
6371		39.062500
6372		29.296875
6373		35.156250
6374		25.390625
6375		29.296875
6376		21.484375
6377		29.296875
6378		21.484375
6379		25.390625
6380		19.531250
6381		25.390625
6382		17.578125
6383		21.484375
6384		13.671875
6385		19.531250
6386		7.812500
6387		17.578125
6388		7.812500
6389		15.625000
6390		7.812500
6391		11.718750
6392		1.953125
6393		9.765625
6394		0.000000
6395		9.765625
6396		-1.953125
6397		5.859375
6398		-1.953125
6399		1.953125
6400		-5.859375
6401		0.000000
6402		-7.812500
6403		-1.953125
6404		-11.718750
6405		-1.953125
6406		-11.718750
6407		-7.812500
6408		-15.625000
6409		-9.765625
6410		-19.531250
6411		-9.765625
6412		-21.484375
6413		-13.671875
6414		-19.531250
6415		-17.578125
6416		-23.437500
6417		-19.531250
6418		-25.390625
6419		-21.484375
6420		-29.296875
6421		-21.484375
6422		-29.296875
6423		-23.437500
6424		-29.296875
6425		-27.343750
6426		-35.156250
6427		-25.390625
6428		-35.156250
6429		-27.343750
6430		-35.156250
6431		-29.296875
6432		-35.156250
6433		-33.203125
6434		-39.062500
6435		-33.203125
6436		-39.062500
6437		-33.203125
6438		-41.015625
6439		-33.203125
6440		-41.015625
6441		-37.109375
6442		-42.968750
6443		-37.109375
6444		-42.968750
6445		-37.109375
6446		-44.921875
6447		-37.109375
6448		-42.968750
6449		-41.015625
6450		-42.968750
6451		-41.015625
6452		-42.968750
6453		-41.015625
6454		-46.875000
6455		-37.109375
6456		-44.921875
6457		-39.062500
6458		-42.968750
6459		-41.015625
6460		-44.921875
6461		-39.062500
6462		-42.968750
6463		-39.062500
6464		-41.015625
6465		-39.062500
6466		-41.015625
6467		-39.062500
6468		-41.015625
6469		-37.109375
6470		-39.062500
6471		-37.109375
6472		-41.015625
6473		-33.203125
6474		-37.109375
6475		-35.156250
6476		-37.109375
6477		-31.250000
6478		-35.156250
6479		-31.250000
6480		-33.203125
6481		-31.250000
6482		-31.250000
6483		-29.296875
6484		-29.296875
6485		-27.343750
6486		-27.343750
6487		-25.390625
6488		-27.343750
6489		-23.437500
6490		-25.390625
6491		-21.484375
6492		-23.437500
6493		-19.531250
6494		-21.484375
6495		-15.625000
6496		-19.531250
6497		-15.625000
6498		-17.578125
6499		-11.718750
6500		-13.671875
6501		-9.765625
6502		-11.718750
6503		-7.812500
6504		-9.765625
6505		-5.859375
6506		-7.812500
6507		-3.906250
6508		-5.859375
6509		0.000000
6510		-1.953125
6511		1.953125
6512		0.000000
6513		3.906250
6514		1.953125
6515		5.859375
6516		5.859375
6517		9.765625
6518		7.812500
6519		11.718750
6520		7.812500
6521		15.625000
6522		11.718750
6523		17.578125
6524		13.671875
6525		21.484375
6526		15.625000
6527		23.437500
6528		17.578125
6529		23.437500
6530		21.484375
6531		27.343750
6532		23.437500
6533		27.343750
6534		25.390625
6535		31.250000
6536		27.343750
6537		33.203125
6538		29.296875
6539		35.156250
6540		31.250000
6541		37.109375
6542		33.203125
6543		39.062500
6544		35.156250
6545		41.015625
6546		37.109375
6547		42.968750
6548		39.062500
6549		42.968750
6550		41.015625
6551		44.921875
6552		42.968750
6553		46.875000
6554		44.921875
6555		48.828125
6556		44.921875
6557		50.781250
6558		46.875000
6559		52.734375
6560		46.875000
6561		52.734375
6562		48.828125
6563		54.687500
6564		50.781250
6565		54.687500
6566		52.734375
6567		54.687500
6568		52.734375
6569		54.687500
6570		52.734375
6571		56.640625
6572		52.734375
6573		58.593750
6574		52.734375
6575		58.593750
6576		52.734375
6577		60.546875
6578		54.687500
6579		58.593750
6580		52.734375
6581		58.593750
6582		54.687500
6583		58.593750
6584		54.687500
6585		56.640625
6586		52.734375
6587		58.593750
6588		52.734375
6589		56.640625
6590		52.734375
6591		56.640625
6592		50.781250
6593		58.593750
6594		52.734375
6595		56.640625
6596		50.781250
6597		54.687500
6598		48.828125
6599		54.687500
6600		48.828125
6601		52.734375
6602		48.828125
6603		52.734375
6604		46.875000
6605		50.781250
6606		44.921875
6607		48.828125
6608		42.968750
6609		48.828125
6610		42.968750
6611		46.875000
6612		41.015625
6613		46.875000
6614		39.062500
6615		42.968750
6616		37.109375
6617		41.015625
6618		35.156250
6619		39.062500
6620		33.203125
6621		37.109375
6622		31.250000
6623		35.156250
6624		29.296875
6625		35.156250
6626		27.343750
6627		33.203125
6628		25.390625
6629		31.250000
6630		23.437500
6631		29.296875
6632		21.484375
6633		27.343750
6634		19.531250
6635		23.437500
6636		15.625000
6637		19.531250
6638		13.671875
6639		17.578125
6640		11.718750
6641		15.625000
6642		7.812500
6643		13.671875
6644		5.859375
6645		11.718750
6646		3.906250
6647		7.812500
6648		1.953125
6649		5.859375
6650		0.000000
6651		3.906250
6652		-3.906250
6653		0.000000
6654		-5.859375
6655		0.000000
6656		-7.812500
6657		-3.906250
6658		-11.718750
6659		-5.859375
6660		-13.671875
6661		-5.859375
6662		-13.671875
6663		-11.718750
6664		-17.578125
6665		-13.671875
6666		-19.531250
6667		-15.625000
6668		-21.484375
6669		-17.578125
6670		-23.437500
6671		-19.531250
6672		-25.390625
6673		-21.484375
6674		-27.343750
6675		-23.437500
6676		-31.250000
6677		-23.437500
6678		-31.250000
6679		-27.343750
6680		-33.203125
6681		-27.343750
6682		-35.156250
6683		-31.250000
6684		-35.156250
6685		-31.250000
6686		-37.109375
6687		-33.203125
6688		-39.062500
6689		-35.156250
6690		-39.062500
6691		-35.156250
6692		-42.968750
6693		-35.156250
6694		-41.015625
6695		-37.109375
6696		-42.968750
6697		-39.062500
6698		-42.968750
6699		-39.062500
6700		-42.968750
6701		-41.015625
6702		-42.968750
6703		-41.015625
6704		-42.968750
6705		-41.015625
6706		-42.968750
6707		-41.015625
6708		-42.968750
6709		-41.015625
6710		-44.921875
6711		-41.015625
6712		-42.968750
6713		-41.015625
6714		-42.968750
6715		-39.062500
6716		-42.968750
6717		-39.062500
6718		-41.015625
6719		-39.062500
6720		-41.015625
6721		-37.109375
6722		-41.015625
6723		-37.109375
6724		-39.062500
6725		-35.156250
6726		-39.062500
6727		-33.203125
6728		-37.109375
6729		-33.203125
6730		-35.156250
6731		-33.203125
6732		-35.156250
6733		-31.250000
6734		-33.203125
6735		-29.296875
6736		-31.250000
6737		-27.343750
6738		-31.250000
6739		-25.390625
6740		-27.343750
6741		-23.437500
6742		-25.390625
6743		-21.484375
6744		-25.390625
6745		-19.531250
6746		-23.437500
6747		-17.578125
6748		-19.531250
6749		-15.625000
6750		-19.531250
6751		-13.671875
6752		-15.625000
6753		-11.718750
6754		-13.671875
6755		-9.765625
6756		-11.718750
6757		-7.812500
6758		-9.765625
6759		-3.906250
6760		-7.812500
6761		-1.953125
6762		-3.906250
6763		0.000000
6764		-1.953125
6765		1.953125
6766		0.000000
6767		5.859375
6768		3.906250
6769		7.812500
6770		5.859375
6771		9.765625
6772		7.812500
6773		11.718750
6774		9.765625
6775		13.671875
6776		13.671875
6777		17.578125
6778		15.625000
6779		19.531250
6780		17.578125
6781		23.437500
6782		19.531250
6783		25.390625
6784		21.484375
6785		25.390625
6786		25.390625
6787		29.296875
6788		25.390625
6789		31.250000
6790		29.296875
6791		33.203125
6792		31.250000
6793		35.156250
6794		33.203125
6795		37.109375
6796		35.156250
6797		39.062500
6798		37.109375
6799		41.015625
6800		39.062500
6801		42.968750
6802		41.015625
6803		42.968750
6804		41.015625
6805		46.875000
6806		42.968750
6807		46.875000
6808		44.921875
6809		48.828125
6810		46.875000
6811		50.781250
6812		48.828125
6813		52.734375
6814		48.828125
6815		52.734375
6816		48.828125
6817		52.734375
6818		50.781250
6819		54.687500
6820		52.734375
6821		54.687500
6822		52.734375
6823		56.640625
6824		52.734375
6825		56.640625
6826		52.734375
6827		56.640625
6828		54.687500
6829		56.640625
6830		54.687500
6831		58.593750
6832		54.687500
6833		58.593750
6834		54.687500
6835		58.593750
6836		54.687500
6837		56.640625
6838		52.734375
6839		58.593750
6840		54.687500
6841		56.640625
6842		52.734375
6843		56.640625
6844		52.734375
6845		56.640625
6846		52.734375
6847		56.640625
6848		50.781250
6849		54.687500
6850		50.781250
6851		54.687500
6852		50.781250
6853		52.734375
6854		48.828125
6855		52.734375
6856		48.828125
6857		52.734375
6858		46.875000
6859		50.781250
6860		44.921875
6861		48.828125
6862		42.968750
6863		46.875000
6864		42.968750
6865		46.875000
6866		39.062500
6867		44.921875
6868		39.062500
6869		42.968750
6870		37.109375
6871		41.015625
6872		35.156250
6873		39.062500
6874		33.203125
6875		39.062500
6876		31.250000
6877		35.156250
6878		29.296875
6879		33.203125
6880		27.343750
6881		31.250000
6882		25.390625
6883		29.296875
6884		21.484375
6885		27.343750
6886		21.484375
6887		23.437500
6888		17.578125
6889		21.484375
6890		15.625000
6891		19.531250
6892		13.671875
6893		17.578125
6894		11.718750
6895		15.625000
6896		7.812500
6897		13.671875
6898		5.859375
6899		9.765625
6900		1.953125
6901		7.812500
6902		1.953125
6903		5.859375
6904		-1.953125
6905		1.953125
6906		-3.906250
6907		0.000000
6908		-5.859375
6909		-1.953125
6910		-9.765625
6911		-3.906250
6912		-11.718750
6913		-5.859375
6914		-13.671875
6915		-9.765625
6916		-15.625000
6917		-11.718750
6918		-17.578125
6919		-13.671875
6920		-19.531250
6921		-15.625000
6922		-23.437500
6923		-17.578125
6924		-23.437500
6925		-19.531250
6926		-25.390625
6927		-21.484375
6928		-27.343750
6929		-23.437500
6930		-29.296875
6931		-25.390625
6932		-31.250000
6933		-27.343750
6934		-33.203125
6935		-29.296875
6936		-33.203125
6937		-31.250000
6938		-35.156250
6939		-33.203125
6940		-37.109375
6941		-31.250000
6942		-39.062500
6943		-35.156250
6944		-39.062500
6945		-35.156250
6946		-41.015625
6947		-37.109375
6948		-41.015625
6949		-37.109375
6950		-42.968750
6951		-39.062500
6952		-42.968750
6953		-39.062500
6954		-42.968750
6955		-41.015625
6956		-42.968750
6957		-41.015625
6958		-42.968750
6959		-41.015625
6960		-42.968750
6961		-41.015625
6962		-42.968750
6963		-41.015625
6964		-42.968750
6965		-41.015625
6966		-42.968750
6967		-41.015625
6968		-44.921875
6969		-39.062500
6970		-42.968750
6971		-39.062500
6972		-42.968750
6973		-39.062500
6974		-41.015625
6975		-37.109375
6976		-41.015625
6977		-37.109375
6978		-39.062500
6979		-35.156250
6980		-39.062500
6981		-35.156250
6982		-37.109375
6983		-33.203125
6984		-35.156250
6985		-31.250000
6986		-33.203125
6987		-31.250000
6988		-33.203125
6989		-29.296875
6990		-31.250000
6991		-27.343750
6992		-29.296875
6993		-25.390625
6994		-27.343750
6995		-23.437500
6996		-25.390625
6997		-21.484375
6998		-25.390625
6999		-19.531250
7000		-21.484375
7001		-17.578125
7002		-19.531250
7003		-15.625000
7004		-17.578125
7005		-13.671875
7006		-15.625000
7007		-9.765625
7008		-13.671875
7009		-9.765625
7010		-11.718750
7011		-5.859375
7012		-7.812500
7013		-3.906250
7014		-5.859375
7015		-1.953125
7016		-3.906250
7017		1.953125
7018		0.000000
7019		3.906250
7020		1.953125
7021		5.859375
7022		3.906250
7023		7.812500
7024		5.859375
7025		9.765625
7026		7.812500
7027		13.671875
7028		11.718750
7029		15.625000
7030		11.718750
7031		17.578125
7032		15.625000
7033		21.484375
7034		17.578125
7035		21.484375
7036		19.531250
7037		25.390625
7038		23.437500
7039		27.343750
7040		25.390625
7041		29.296875
7042		27.343750
7043		31.250000
7044		29.296875
7045		33.203125
7046		31.250000
7047		35.156250
7048		33.203125
7049		37.109375
7050		35.156250
7051		39.062500
7052		37.109375
7053		41.015625
7054		39.062500
7055		42.968750
7056		41.015625
7057		44.921875
7058		42.968750
7059		46.875000
7060		44.921875
7061		46.875000
7062		44.921875
7063		48.828125
7064		46.875000
7065		50.781250
7066		46.875000
7067		52.734375
7068		48.828125
7069		52.734375
7070		50.781250
7071		54.687500
7072		50.781250
7073		54.687500
7074		50.781250
7075		56.640625
7076		52.734375
7077		56.640625
7078		52.734375
7079		56.640625
7080		54.687500
7081		56.640625
7082		54.687500
7083		56.640625
7084		54.687500
7085		58.593750
7086		54.687500
7087		58.593750
7088		54.687500
7089		58.593750
7090		54.687500
7091		58.593750
7092		52.734375
7093		58.593750
7094		54.687500
7095		58.593750
7096		54.687500
7097		56.640625
7098		52.734375
7099		56.640625
7100		52.734375
7101		56.640625
7102		50.781250
7103		54.687500
7104		50.781250
7105		54.687500
7106		50.781250
7107		52.734375
7108		48.828125
7109		52.734375
7110		46.875000
7111		52.734375
7112		46.875000
7113		48.828125
7114		44.921875
7115		48.828125
7116		42.968750
7117		46.875000
7118		41.015625
7119		44.921875
7120		41.015625
7121		44.921875
7122		39.062500
7123		41.015625
7124		37.109375
7125		39.062500
7126		35.156250
7127		39.062500
7128		33.203125
7129		35.156250
7130		31.250000
7131		35.156250
7132		29.296875
7133		33.203125
7134		25.390625
7135		31.250000
7136		23.437500
7137		27.343750
7138		21.484375
7139		25.390625
7140		17.578125
7141		23.437500
7142		15.625000
7143		21.484375
7144		13.671875
7145		19.531250
7146		11.718750
7147		17.578125
7148		9.765625
7149		13.671875
7150		7.812500
7151		11.718750
7152		3.906250
7153		9.765625
7154		1.953125
7155		5.859375
7156		0.000000
7157		3.906250
7158		-3.906250
7159		1.953125
7160		-3.906250
7161		-1.953125
7162		-7.812500
7163		-1.953125
7164		-9.765625
7165		-5.859375
7166		-13.671875
7167		-7.812500
7168		-13.671875
7169		-9.765625
7170		-15.625000
7171		-11.718750
7172		-17.578125
7173		-15.625000
7174		-21.484375
7175		-17.578125
7176		-23.437500
7177		-19.531250
7178		-25.390625
7179		-21.484375
7180		-27.343750
7181		-23.437500
7182		-29.296875
7183		-25.390625
7184		-29.296875
7185		-25.390625
7186		-33.203125
7187		-27.343750
7188		-33.203125
7189		-29.296875
7190		-35.156250
7191		-31.250000
7192		-37.109375
7193		-33.203125
7194		-37.109375
7195		-33.203125
7196		-39.062500
7197		-35.156250
7198		-41.015625
7199		-35.156250
7200		-41.015625
7201		-37.109375
7202		-41.015625
7203		-37.109375
7204		-41.015625
7205		-39.062500
7206		-42.968750
7207		-41.015625
7208		-44.921875
7209		-39.062500
7210		-42.968750
7211		-41.015625
7212		-42.968750
7213		-41.015625
7214		-42.968750
7215		-41.015625
7216		-44.921875
7217		-41.015625
7218		-42.968750
7219		-41.015625
7220		-42.968750
7221		-41.015625
7222		-42.968750
7223		-39.062500
7224		-42.968750
7225		-39.062500
7226		-42.968750
7227		-39.062500
7228		-41.015625
7229		-37.109375
7230		-39.062500
7231		-37.109375
7232		-39.062500
7233		-35.156250
7234		-39.062500
7235		-35.156250
7236		-37.109375
7237		-31.250000
7238		-35.156250
7239		-31.250000
7240		-33.203125
7241		-31.250000
7242		-31.250000
7243		-29.296875
7244		-31.250000
7245		-27.343750
7246		-29.296875
7247		-25.390625
7248		-27.343750
7249		-23.437500
7250		-25.390625
7251		-21.484375
7252		-23.437500
7253		-19.531250
7254		-21.484375
7255		-17.578125
7256		-19.531250
7257		-15.625000
7258		-17.578125
7259		-11.718750
7260		-13.671875
7261		-9.765625
7262		-11.718750
7263		-7.812500
7264		-9.765625
7265		-5.859375
7266		-7.812500
7267		-3.906250
7268		-5.859375
7269		-1.953125
7270		-3.906250
7271		1.953125
7272		0.000000
7273		3.906250
7274		1.953125
7275		5.859375
7276		1.953125
7277		7.812500
7278		5.859375
7279		11.718750
7280		9.765625
7281		13.671875
7282		11.718750
7283		15.625000
7284		13.671875
7285		17.578125
7286		15.625000
7287		21.484375
7288		19.531250
7289		23.437500
7290		21.484375
7291		25.390625
7292		23.437500
7293		27.343750
7294		25.390625
7295		31.250000
7296		27.343750
7297		31.250000
7298		29.296875
7299		35.156250
7300		33.203125
7301		37.109375
7302		33.203125
7303		39.062500
7304		35.156250
7305		39.062500
7306		39.062500
7307		41.015625
7308		39.062500
7309		44.921875
7310		41.015625
7311		44.921875
7312		42.968750
7313		46.875000
7314		44.921875
7315		48.828125
7316		44.921875
7317		48.828125
7318		46.875000
7319		50.781250
7320		48.828125
7321		52.734375
7322		50.781250
7323		52.734375
7324		50.781250
7325		52.734375
7326		50.781250
7327		54.687500
7328		52.734375
7329		54.687500
7330		52.734375
7331		56.640625
7332		54.687500
7333		56.640625
7334		54.687500
7335		56.640625
7336		54.687500
7337		58.593750
7338		54.687500
7339		58.593750
7340		54.687500
7341		58.593750
7342		54.687500
7343		58.593750
7344		54.687500
7345		58.593750
7346		54.687500
7347		56.640625
7348		54.687500
7349		56.640625
7350		54.687500
7351		56.640625
7352		52.734375
7353		56.640625
7354		52.734375
7355		56.640625
7356		52.734375
7357		54.687500
7358		50.781250
7359		52.734375
7360		48.828125
7361		52.734375
7362		48.828125
7363		50.781250
7364		46.875000
7365		50.781250
7366		46.875000
7367		48.828125
7368		44.921875
7369		46.875000
7370		42.968750
7371		46.875000
7372		41.015625
7373		44.921875
7374		41.015625
7375		42.968750
7376		39.062500
7377		41.015625
7378		37.109375
7379		41.015625
7380		35.156250
7381		37.109375
7382		31.250000
7383		35.156250
7384		29.296875
7385		35.156250
7386		27.343750
7387		31.250000
7388		25.390625
7389		29.296875
7390		23.437500
7391		27.343750
7392		19.531250
7393		25.390625
7394		19.531250
7395		23.437500
7396		17.578125
7397		21.484375
7398		13.671875
7399		17.578125
7400		11.718750
7401		15.625000
7402		7.812500
7403		13.671875
7404		7.812500
7405		11.718750
7406		3.906250
7407		9.765625
7408		1.953125
7409		5.859375
7410		0.000000
7411		3.906250
7412		-3.906250
7413		1.953125
7414		-5.859375
7415		0.000000
7416		-7.812500
7417		-3.906250
7418		-9.765625
7419		-5.859375
7420		-11.718750
7421		-7.812500
7422		-13.671875
7423		-9.765625
7424		-17.578125
7425		-13.671875
7426		-19.531250
7427		-15.625000
7428		-21.484375
7429		-15.625000
7430		-23.437500
7431		-19.531250
7432		-25.390625
7433		-21.484375
7434		-27.343750
7435		-23.437500
7436		-29.296875
7437		-25.390625
7438		-31.250000
7439		-25.390625
7440		-31.250000
7441		-29.296875
7442		-33.203125
7443		-31.250000
7444		-35.156250
7445		-31.250000
7446		-37.109375
7447		-33.203125
7448		-37.109375
7449		-35.156250
7450		-39.062500
7451		-35.156250
7452		-39.062500
7453		-37.109375
7454		-41.015625
7455		-37.109375
7456		-41.015625
7457		-37.109375
7458		-42.968750
7459		-39.062500
7460		-42.968750
7461		-39.062500
7462		-42.968750
7463		-41.015625
7464		-42.968750
7465		-41.015625
7466		-42.968750
7467		-41.015625
7468		-42.968750
7469		-41.015625
7470		-44.921875
7471		-41.015625
7472		-42.968750
7473		-39.062500
7474		-42.968750
7475		-41.015625
7476		-42.968750
7477		-39.062500
7478		-42.968750
7479		-39.062500
7480		-41.015625
7481		-37.109375
7482		-41.015625
7483		-37.109375
7484		-39.062500
7485		-37.109375
7486		-39.062500
7487		-35.156250
7488		-37.109375
7489		-33.203125
7490		-35.156250
7491		-33.203125
7492		-35.156250
7493		-31.250000
7494		-35.156250
7495		-29.296875
7496		-31.250000
7497		-27.343750
7498		-31.250000
7499		-25.390625
7500		-29.296875
7501		-25.390625
7502		-25.390625
7503		-21.484375
7504		-25.390625
7505		-21.484375
7506		-23.437500
7507		-19.531250
7508		-19.531250
7509		-15.625000
7510		-17.578125
7511		-13.671875
7512		-15.625000
7513		-11.718750
7514		-13.671875
7515		-9.765625
7516		-11.718750
7517		-7.812500
7518		-9.765625
7519		-3.906250
7520		-5.859375
7521		-1.953125
7522		-3.906250
7523		0.000000
7524		-1.953125
7525		1.953125
7526		0.000000
7527		5.859375
7528		1.953125
7529		7.812500
7530		5.859375
7531		9.765625
7532		7.812500
7533		11.718750
7534		9.765625
7535		15.625000
7536		11.718750
7537		17.578125
7538		13.671875
7539		19.531250
7540		17.578125
7541		21.484375
7542		19.531250
7543		23.437500
7544		21.484375
7545		27.343750
7546		25.390625
7547		29.296875
7548		25.390625
7549		31.250000
7550		29.296875
7551		33.203125
7552		31.250000
7553		35.156250
7554		33.203125
7555		37.109375
7556		35.156250
7557		39.062500
7558		37.109375
7559		41.015625
7560		39.062500
7561		42.968750
7562		39.062500
7563		44.921875
7564		41.015625
7565		44.921875
7566		42.968750
7567		46.875000
7568		44.921875
7569		48.828125
7570		46.875000
7571		50.781250
7572		46.875000
7573		50.781250
7574		48.828125
7575		52.734375
7576		50.781250
7577		52.734375
7578		50.781250
7579		54.687500
7580		50.781250
7581		54.687500
7582		52.734375
7583		54.687500
7584		52.734375
7585		56.640625
7586		52.734375
7587		58.593750
7588		54.687500
7589		56.640625
7590		54.687500
7591		58.593750
7592		54.687500
7593		56.640625
7594		54.687500
7595		58.593750
7596		54.687500
7597		58.593750
7598		54.687500
7599		58.593750
7600		54.687500
7601		58.593750
7602		52.734375
7603		56.640625
7604		52.734375
7605		56.640625
7606		52.734375
7607		56.640625
7608		52.734375
7609		54.687500
7610		52.734375
7611		54.687500
7612		50.781250
7613		54.687500
7614		48.828125
7615		52.734375
7616		48.828125
7617		52.734375
7618		46.875000
7619		50.781250
7620		44.921875
7621		48.828125
7622		42.968750
7623		48.828125
7624		42.968750
7625		46.875000
7626		41.015625
7627		44.921875
7628		39.062500
7629		42.968750
7630		37.109375
7631		41.015625
7632		35.156250
7633		41.015625
7634		33.203125
7635		37.109375
7636		31.250000
7637		35.156250
7638		29.296875
7639		33.203125
7640		27.343750
7641		31.250000
7642		25.390625
7643		29.296875
7644		23.437500
7645		27.343750
7646		21.484375
7647		25.390625
7648		17.578125
7649		23.437500
7650		15.625000
7651		19.531250
7652		13.671875
7653		17.578125
7654		9.765625
7655		15.625000
7656		7.812500
7657		13.671875
7658		5.859375
7659		11.718750
7660		3.906250
7661		7.812500
7662		1.953125
7663		5.859375
7664		-1.953125
7665		3.906250
7666		-3.906250
7667		0.000000
7668		-5.859375
7669		0.000000
7670		-7.812500
7671		-3.906250
7672		-11.718750
7673		-5.859375
7674		-13.671875
7675		-7.812500
7676		-15.625000
7677		-11.718750
7678		-19.531250
7679		-13.671875
7680		-19.531250
7681		-15.625000
7682		-21.484375
7683		-17.578125
7684		-23.437500
7685		-19.531250
7686		-25.390625
7687		-21.484375
7688		-27.343750
7689		-23.437500
7690		-29.296875
7691		-25.390625
7692		-31.250000
7693		-27.343750
7694		-33.203125
7695		-29.296875
7696		-35.156250
7697		-29.296875
7698		-35.156250
7699		-31.250000
7700		-37.109375
7701		-33.203125
7702		-37.109375
7703		-33.203125
7704		-39.062500
7705		-35.156250
7706		-41.015625
7707		-37.109375
7708		-41.015625
7709		-37.109375
7710		-41.015625
7711		-39.062500
7712		-42.968750
7713		-39.062500
7714		-42.968750
7715		-41.015625
7716		-42.968750
7717		-41.015625
7718		-42.968750
7719		-41.015625
7720		-42.968750
7721		-41.015625
7722		-42.968750
7723		-39.062500
7724		-44.921875
7725		-39.062500
7726		-42.968750
7727		-41.015625
7728		-42.968750
7729		-39.062500
7730		-42.968750
7731		-39.062500
7732		-41.015625
7733		-39.062500
7734		-41.015625
7735		-37.109375
7736		-41.015625
7737		-37.109375
7738		-39.062500
7739		-35.156250
7740		-39.062500
7741		-35.156250
7742		-37.109375
7743		-33.203125
7744		-35.156250
7745		-33.203125
7746		-35.156250
7747		-31.250000
7748		-33.203125
7749		-29.296875
7750		-31.250000
7751		-27.343750
7752		-31.250000
7753		-25.390625
7754		-29.296875
7755		-23.437500
7756		-25.390625
7757		-21.484375
7758		-23.437500
7759		-19.531250
7760		-21.484375
7761		-17.578125
7762		-19.531250
7763		-15.625000
7764		-17.578125
7765		-13.671875
7766		-15.625000
7767		-9.765625
7768		-13.671875
7769		-9.765625
7770		-11.718750
7771		-5.859375
7772		-9.765625
7773		-3.906250
7774		-5.859375
7775		0.000000
7776		-3.906250
7777		0.000000
7778		-1.953125
7779		1.953125
7780		0.000000
7781		5.859375
7782		3.906250
7783		7.812500
7784		5.859375
7785		9.765625
7786		9.765625
7787		13.671875
7788		11.718750
7789		15.625000
7790		13.671875
7791		17.578125
7792		15.625000
7793		19.531250
7794		17.578125
7795		21.484375
7796		21.484375
7797		25.390625
7798		23.437500
7799		27.343750
7800		25.390625
7801		29.296875
7802		27.343750
7803		31.250000
7804		29.296875
7805		33.203125
7806		31.250000
7807		35.156250
7808		33.203125
7809		37.109375
7810		35.156250
7811		39.062500
7812		37.109375
7813		41.015625
7814		39.062500
7815		42.968750
7816		41.015625
7817		44.921875
7818		42.968750
7819		46.875000
7820		44.921875
7821		48.828125
7822		44.921875
7823		48.828125
7824		46.875000
7825		50.781250
7826		48.828125
7827		52.734375
7828		48.828125
7829		52.734375
7830		48.828125
7831		54.687500
7832		50.781250
7833		54.687500
7834		52.734375
7835		56.640625
7836		52.734375
7837		56.640625
7838		54.687500
7839		56.640625
7840		54.687500
7841		56.640625
7842		54.687500
7843		58.593750
7844		54.687500
7845		56.640625
7846		54.687500
7847		58.593750
7848		54.687500
7849		58.593750
7850		54.687500
7851		58.593750
7852		54.687500
7853		58.593750
7854		54.687500
7855		56.640625
7856		54.687500
7857		58.593750
7858		52.734375
7859		56.640625
7860		52.734375
7861		56.640625
7862		52.734375
7863		54.687500
7864		50.781250
7865		54.687500
7866		50.781250
7867		52.734375
7868		48.828125
7869		52.734375
7870		46.875000
7871		52.734375
7872		46.875000
7873		50.781250
7874		44.921875
7875		48.828125
7876		42.968750
7877		46.875000
7878		42.968750
7879		44.921875
7880		39.062500
7881		44.921875
7882		39.062500
7883		42.968750
7884		37.109375
7885		41.015625
7886		35.156250
7887		39.062500
7888		33.203125
7889		37.109375
7890		31.250000
7891		35.156250
7892		29.296875
7893		33.203125
7894		27.343750
7895		31.250000
7896		25.390625
7897		29.296875
7898		21.484375
7899		27.343750
7900		19.531250
7901		25.390625
7902		17.578125
7903		21.484375
7904		15.625000
7905		19.531250
7906		13.671875
7907		17.578125
7908		9.765625
7909		15.625000
7910		7.812500
7911		13.671875
7912		5.859375
7913		9.765625
7914		1.953125
7915		7.812500
7916		0.000000
7917		5.859375
7918		-1.953125
7919		1.953125
7920		-3.906250
7921		0.000000
7922		-5.859375
7923		-1.953125
7924		-9.765625
7925		-3.906250
7926		-11.718750
7927		-5.859375
7928		-13.671875
7929		-9.765625
7930		-15.625000
7931		-11.718750
7932		-17.578125
7933		-13.671875
7934		-19.531250
7935		-15.625000
7936		-21.484375
7937		-17.578125
7938		-23.437500
7939		-19.531250
7940		-27.343750
7941		-21.484375
7942		-29.296875
7943		-23.437500
7944		-29.296875
7945		-25.390625
7946		-31.250000
7947		-27.343750
7948		-33.203125
7949		-29.296875
7950		-33.203125
7951		-31.250000
7952		-35.156250
7953		-33.203125
7954		-37.109375
7955		-33.203125
7956		-39.062500
7957		-33.203125
7958		-39.062500
7959		-35.156250
7960		-39.062500
7961		-37.109375
7962		-41.015625
7963		-39.062500
7964		-42.968750
7965		-37.109375
7966		-42.968750
7967		-39.062500
7968		-42.968750
7969		-39.062500
7970		-42.968750
7971		-41.015625
7972		-42.968750
7973		-41.015625
7974		-42.968750
7975		-41.015625
7976		-42.968750
7977		-39.062500
7978		-42.968750
7979		-41.015625
7980		-42.968750
7981		-39.062500
7982		-42.968750
7983		-39.062500
7984		-42.968750
7985		-39.062500
7986		-41.015625
7987		-39.062500
7988		-41.015625
7989		-37.109375
7990		-39.062500
7991		-37.109375
7992		-39.062500
7993		-35.156250
7994		-39.062500
7995		-33.203125
7996		-35.156250
7997		-33.203125
7998		-35.156250
7999		-31.250000
8000		-33.203125
8001		-29.296875
8002		-31.250000
8003		-27.343750
8004		-29.296875
8005		-25.390625
8006		-29.296875
8007		-25.390625
8008		-27.343750
8009		-23.437500
8010		-25.390625
8011		-21.484375
8012		-23.437500
8013		-19.531250
8014		-21.484375
8015		-15.625000
8016		-19.531250
8017		-15.625000
8018		-17.578125
8019		-11.718750
8020		-13.671875
8021		-9.765625
8022		-11.718750
8023		-7.812500
8024		-9.765625
8025		-5.859375
8026		-7.812500
8027		-1.953125
8028		-5.859375
8029		-1.953125
8030		-1.953125
8031		1.953125
8032		0.000000
8033		3.906250
8034		1.953125
8035		5.859375
8036		3.906250
8037		9.765625
8038		7.812500
8039		11.718750
8040		9.765625
8041		13.671875
8042		11.718750
8043		15.625000
8044		13.671875
8045		19.531250
8046		17.578125
8047		21.484375
8048		19.531250
8049		23.437500
8050		21.484375
8051		25.390625
8052		23.437500
8053		29.296875
8054		25.390625
8055		29.296875
8056		27.343750
8057		33.203125
8058		31.250000
8059		33.203125
8060		31.250000
8061		37.109375
8062		35.156250
8063		37.109375
8064		37.109375
8065		41.015625
8066		39.062500
8067		42.968750
8068		41.015625
8069		42.968750
8070		41.015625
8071		44.921875
8072		42.968750
8073		46.875000
8074		44.921875
8075		48.828125
8076		46.875000
8077		50.781250
8078		44.921875
8079		50.781250
8080		48.828125
8081		50.781250
8082		50.781250
8083		54.687500
8084		50.781250
8085		54.687500
8086		52.734375
8087		54.687500
8088		52.734375
8089		56.640625
8090		52.734375
8091		56.640625
8092		54.687500
8093		56.640625
8094		54.687500
8095		58.593750
8096		54.687500
8097		56.640625
8098		54.687500
8099		58.593750
8100		54.687500
8101		58.593750
8102		54.687500
8103		58.593750
8104		54.687500
8105		58.593750
8106		54.687500
8107		58.593750
8108		54.687500
8109		58.593750
8110		52.734375
8111		58.593750
8112		54.687500
8113		56.640625
8114		52.734375
8115		56.640625
8116		50.781250
8117		54.687500
8118		50.781250
8119		54.687500
8120		48.828125
8121		52.734375
8122		48.828125
8123		52.734375
8124		46.875000
8125		50.781250
8126		46.875000
8127		50.781250
8128		44.921875
8129		48.828125
8130		42.968750
8131		46.875000
8132		41.015625
8133		44.921875
8134		39.062500
8135		44.921875
8136		39.062500
8137		42.968750
8138		37.109375
8139		41.015625
8140		35.156250
8141		39.062500
8142		31.250000
8143		37.109375
8144		29.296875
8145		35.156250
8146		29.296875
8147		33.203125
8148		27.343750
8149		29.296875
8150		23.437500
8151		27.343750
8152		21.484375
8153		25.390625
8154		19.531250
8155		23.437500
8156		15.625000
8157		21.484375
8158		15.625000
8159		19.531250
8160		11.718750
8161		17.578125
8162		9.765625
8163		13.671875
8164		7.812500
8165		11.718750
8166		3.906250
8167		9.765625
8168		1.953125
8169		5.859375
8170		0.000000
8171		3.906250
8172		-1.953125
8173		1.953125
8174		-3.906250
8175		0.000000
8176		-7.812500
8177		-1.953125
8178		-9.765625
8179		-5.859375
8180		-11.718750
8181		-7.812500
8182		-13.671875
8183		-9.765625
8184		-15.625000
8185		-11.718750
8186		-17.578125
8187		-13.671875
8188		-19.531250
8189		-17.578125
8190		-21.484375
8191		-19.531250
8192		-25.390625
8193		-19.531250
8194		-27.343750
8195		-23.437500
8196		-29.296875
8197		-23.437500
8198		-29.296875
8199		-27.343750
8200		-31.250000
8201		-27.343750
8202		-33.203125
8203		-29.296875
8204		-35.156250
8205		-31.250000
8206		-35.156250
8207		-33.203125
8208		-37.109375
8209		-33.203125
8210		-39.062500
8211		-35.156250
8212		-39.062500
8213		-37.109375
8214		-41.015625
8215		-37.109375
8216		-42.968750
8217		-39.062500
8218		-41.015625
8219		-39.062500
8220		-42.968750
8221		-39.062500
8222		-42.968750
8223		-39.062500
8224		-42.968750
8225		-39.062500
8226		-42.968750
8227		-39.062500
8228		-44.921875
8229		-39.062500
8230		-42.968750
8231		-41.015625
8232		-42.968750
8233		-41.015625
8234		-42.968750
8235		-39.062500
8236		-42.968750
8237		-39.062500
8238		-41.015625
8239		-39.062500
8240		-41.015625
8241		-37.109375
8242		-41.015625
8243		-37.109375
8244		-39.062500
8245		-35.156250
8246		-39.062500
8247		-35.156250
8248		-37.109375
8249		-33.203125
8250		-37.109375
8251		-31.250000
8252		-35.156250
8253		-31.250000
8254		-33.203125
8255		-29.296875
8256		-31.250000
8257		-27.343750
8258		-29.296875
8259		-25.390625
8260		-27.343750
8261		-23.437500
8262		-25.390625
8263		-21.484375
8264		-23.437500
8265		-19.531250
8266		-21.484375
8267		-19.531250
8268		-21.484375
8269		-15.625000
8270		-17.578125
8271		-13.671875
8272		-15.625000
8273		-11.718750
8274		-13.671875
8275		-9.765625
8276		-11.718750
8277		-7.812500
8278		-9.765625
8279		-5.859375
8280		-7.812500
8281		-1.953125
8282		-3.906250
8283		0.000000
8284		-1.953125
8285		1.953125
8286		0.000000
8287		5.859375
8288		3.906250
8289		7.812500
8290		3.906250
8291		9.765625
8292		7.812500
8293		11.718750
8294		9.765625
8295		13.671875
8296		11.718750
8297		17.578125
8298		15.625000
8299		19.531250
8300		17.578125
8301		21.484375
8302		19.531250
8303		25.390625
8304		21.484375
8305		25.390625
8306		25.390625
8307		29.296875
8308		27.343750
8309		31.250000
8310		27.343750
8311		33.203125
8312		31.250000
8313		35.156250
8314		33.203125
8315		37.109375
8316		35.156250
8317		39.062500
8318		35.156250
8319		41.015625
8320		39.062500
8321		42.968750
8322		41.015625
8323		44.921875
8324		42.968750
8325		44.921875
8326		42.968750
8327		46.875000
8328		44.921875
8329		48.828125
8330		46.875000
8331		50.781250
8332		48.828125
8333		50.781250
8334		48.828125
8335		52.734375
8336		50.781250
8337		52.734375
8338		50.781250
8339		54.687500
8340		52.734375
8341		54.687500
8342		52.734375
8343		56.640625
8344		52.734375
8345		56.640625
8346		54.687500
8347		58.593750
8348		54.687500
8349		56.640625
8350		54.687500
8351		58.593750
8352		54.687500
8353		58.593750
8354		54.687500
8355		58.593750
8356		54.687500
8357		58.593750
8358		54.687500
8359		58.593750
8360		54.687500
8361		58.593750
8362		54.687500
8363		58.593750
8364		54.687500
8365		58.593750
8366		54.687500
8367		56.640625
8368		52.734375
8369		56.640625
8370		50.781250
8371		54.687500
8372		50.781250
8373		54.687500
8374		48.828125
8375		52.734375
8376		48.828125
8377		52.734375
8378		46.875000
8379		50.781250
8380		46.875000
8381		50.781250
8382		44.921875
8383		48.828125
8384		42.968750
8385		46.875000
8386		41.015625
8387		44.921875
8388		41.015625
8389		42.968750
8390		39.062500
8391		42.968750
8392		37.109375
8393		41.015625
8394		35.156250
8395		39.062500
8396		31.250000
8397		37.109375
8398		29.296875
8399		35.156250
8400		29.296875
8401		31.250000
8402		25.390625
8403		29.296875
8404		23.437500
8405		27.343750
8406		21.484375
8407		25.390625
8408		19.531250
8409		23.437500
8410		15.625000
8411		21.484375
8412		13.671875
8413		17.578125
8414		11.718750
8415		15.625000
8416		9.765625
8417		13.671875
8418		5.859375
8419		11.718750
8420		3.906250
8421		9.765625
8422		1.953125
8423		5.859375
8424		0.000000
8425		3.906250
8426		-1.953125
8427		1.953125
8428		-5.859375
8429		-1.953125
8430		-7.812500
8431		-1.953125
8432		-9.765625
8433		-5.859375
8434		-11.718750
8435		-7.812500
8436		-13.671875
8437		-9.765625
8438		-17.578125
8439		-11.718750
8440		-19.531250
8441		-15.625000
8442		-21.484375
8443		-17.578125
8444		-23.437500
8445		-19.531250
8446		-25.390625
8447		-19.531250
8448		-27.343750
8449		-21.484375
8450		-29.296875
8451		-25.390625
8452		-31.250000
8453		-27.343750
8454		-33.203125
8455		-29.296875
8456		-33.203125
8457		-29.296875
8458		-35.156250
8459		-31.250000
8460		-35.156250
8461		-33.203125
8462		-37.109375
8463		-33.203125
8464		-39.062500
8465		-35.156250
8466		-39.062500
8467		-37.109375
8468		-41.015625
8469		-37.109375
8470		-41.015625
8471		-37.109375
8472		-42.968750
8473		-39.062500
8474		-42.968750
8475		-39.062500
8476		-42.968750
8477		-39.062500
8478		-42.968750
8479		-39.062500
8480		-42.968750
8481		-39.062500
8482		-42.968750
8483		-41.015625
8484		-42.968750
8485		-41.015625
8486		-42.968750
8487		-39.062500
8488		-42.968750
8489		-39.062500
8490		-42.968750
8491		-39.062500
8492		-41.015625
8493		-37.109375
8494		-41.015625
8495		-37.109375
8496		-39.062500
8497		-35.156250
8498		-39.062500
8499		-35.156250
8500		-37.109375
8501		-35.156250
8502		-37.109375
8503		-33.203125
8504		-35.156250
8505		-31.250000
8506		-33.203125
8507		-29.296875
8508		-33.203125
8509		-29.296875
8510		-31.250000
8511		-27.343750
8512		-29.296875
8513		-25.390625
8514		-27.343750
8515		-23.437500
8516		-25.390625
8517		-21.484375
8518		-23.437500
8519		-19.531250
8520		-21.484375
8521		-17.578125
8522		-19.531250
8523		-13.671875
8524		-17.578125
8525		-13.671875
8526		-15.625000
8527		-9.765625
8528		-13.671875
8529		-7.812500
8530		-9.765625
8531		-5.859375
8532		-9.765625
8533		-3.906250
8534		-5.859375
8535		-1.953125
8536		-3.906250
8537		1.953125
8538		-1.953125
8539		3.906250
8540		1.953125
8541		5.859375
8542		3.906250
8543		7.812500
8544		5.859375
8545		9.765625
8546		7.812500
8547		13.671875
8548		11.718750
8549		15.625000
8550		13.671875
8551		17.578125
8552		15.625000
8553		21.484375
8554		17.578125
8555		23.437500
8556		21.484375
8557		25.390625
8558		23.437500
8559		27.343750
8560		25.390625
8561		29.296875
8562		27.343750
8563		33.203125
8564		29.296875
8565		35.156250
8566		31.250000
8567		35.156250
8568		35.156250
8569		37.109375
8570		35.156250
8571		41.015625
8572		37.109375
8573		41.015625
8574		39.062500
8575		42.968750
8576		41.015625
8577		44.921875
8578		42.968750
8579		46.875000
8580		44.921875
8581		48.828125
8582		44.921875
8583		50.781250
8584		46.875000
8585		50.781250
8586		48.828125
8587		52.734375
8588		48.828125
8589		54.687500
8590		50.781250
8591		54.687500
8592		50.781250
8593		54.687500
8594		52.734375
8595		56.640625
8596		52.734375
8597		56.640625
8598		54.687500
8599		56.640625
8600		54.687500
8601		56.640625
8602		54.687500
8603		56.640625
8604		54.687500
8605		58.593750
8606		54.687500
8607		58.593750
8608		54.687500
8609		58.593750
8610		56.640625
8611		58.593750
8612		54.687500
8613		58.593750
8614		54.687500
8615		58.593750
8616		54.687500
8617		58.593750
8618		54.687500
8619		56.640625
8620		52.734375
8621		56.640625
8622		52.734375
8623		56.640625
8624		50.781250
8625		54.687500
8626		50.781250
8627		54.687500
8628		48.828125
8629		52.734375
8630		48.828125
8631		52.734375
8632		46.875000
8633		50.781250
8634		46.875000
8635		48.828125
8636		42.968750
8637		48.828125
8638		42.968750
8639		46.875000
8640		41.015625
8641		44.921875
8642		39.062500
8643		42.968750
8644		37.109375
8645		41.015625
8646		35.156250
8647		41.015625
8648		33.203125
8649		37.109375
8650		31.250000
8651		35.156250
8652		29.296875
8653		33.203125
8654		27.343750
8655		31.250000
8656		25.390625
8657		29.296875
8658		23.437500
8659		27.343750
8660		21.484375
8661		25.390625
8662		17.578125
8663		23.437500
8664		15.625000
8665		19.531250
8666		13.671875
8667		17.578125
8668		11.718750
8669		15.625000
8670		7.812500
8671		13.671875
8672		5.859375
8673		11.718750
8674		3.906250
8675		7.812500
8676		1.953125
8677		5.859375
8678		-1.953125
8679		3.906250
8680		-3.906250
8681		0.000000
8682		-5.859375
8683		-1.953125
8684		-7.812500
8685		-3.906250
8686		-9.765625
8687		-5.859375
8688		-13.671875
8689		-7.812500
8690		-15.625000
8691		-9.765625
8692		-17.578125
8693		-13.671875
8694		-19.531250
8695		-15.625000
8696		-21.484375
8697		-17.578125
8698		-23.437500
8699		-19.531250
8700		-25.390625
8701		-21.484375
8702		-27.343750
8703		-23.437500
8704		-29.296875
8705		-25.390625
8706		-31.250000
8707		-27.343750
8708		-31.250000
8709		-27.343750
8710		-33.203125
8711		-29.296875
8712		-35.156250
8713		-31.250000
8714		-37.109375
8715		-33.203125
8716		-37.109375
8717		-33.203125
8718		-39.062500
8719		-35.156250
8720		-39.062500
8721		-37.109375
8722		-41.015625
8723		-37.109375
8724		-41.015625
8725		-37.109375
8726		-41.015625
8727		-39.062500
8728		-42.968750
8729		-39.062500
8730		-42.968750
8731		-39.062500
8732		-42.968750
8733		-39.062500
8734		-42.968750
8735		-41.015625
8736		-42.968750
8737		-39.062500
8738		-42.968750
8739		-39.062500
8740		-42.968750
8741		-39.062500
8742		-42.968750
8743		-39.062500
8744		-41.015625
8745		-37.109375
8746		-41.015625
8747		-37.109375
8748		-41.015625
8749		-37.109375
8750		-41.015625
8751		-35.156250
8752		-37.109375
8753		-35.156250
8754		-37.109375
8755		-33.203125
8756		-35.156250
8757		-31.250000
8758		-33.203125
8759		-31.250000
8760		-33.203125
8761		-29.296875
8762		-31.250000
8763		-27.343750
8764		-29.296875
8765		-25.390625
8766		-27.343750
8767		-23.437500
8768		-25.390625
8769		-23.437500
8770		-23.437500
8771		-21.484375
8772		-23.437500
8773		-17.578125
8774		-19.531250
8775		-17.578125
8776		-17.578125
8777		-13.671875
8778		-15.625000
8779		-11.718750
8780		-13.671875
8781		-9.765625
8782		-11.718750
8783		-7.812500
8784		-9.765625
8785		-5.859375
8786		-7.812500
8787		-1.953125
8788		-3.906250
8789		0.000000
8790		-1.953125
8791		1.953125
8792		0.000000
8793		3.906250
8794		1.953125
8795		7.812500
8796		5.859375
8797		9.765625
8798		7.812500
8799		11.718750
8800		9.765625
8801		13.671875
8802		13.671875
8803		15.625000
8804		15.625000
8805		19.531250
8806		15.625000
8807		21.484375
8808		19.531250
8809		25.390625
8810		21.484375
8811		25.390625
8812		23.437500
8813		29.296875
8814		27.343750
8815		31.250000
8816		29.296875
8817		33.203125
8818		31.250000
8819		35.156250
8820		33.203125
8821		37.109375
8822		35.156250
8823		39.062500
8824		37.109375
8825		41.015625
8826		39.062500
8827		42.968750
8828		41.015625
8829		44.921875
8830		39.062500
8831		46.875000
8832		42.968750
8833		48.828125
8834		44.921875
8835		48.828125
8836		46.875000
8837		50.781250
8838		48.828125
8839		52.734375
8840		48.828125
8841		52.734375
8842		50.781250
8843		54.687500
8844		50.781250
8845		54.687500
8846		52.734375
8847		56.640625
8848		52.734375
8849		56.640625
8850		52.734375
8851		58.593750
8852		54.687500
8853		56.640625
8854		54.687500
8855		58.593750
8856		52.734375
8857		60.546875
8858		54.687500
8859		60.546875
8860		54.687500
8861		58.593750
8862		54.687500
8863		60.546875
8864		54.687500
8865		60.546875
8866		52.734375
8867		60.546875
8868		56.640625
8869		58.593750
8870		54.687500
8871		58.593750
8872		52.734375
8873		58.593750
8874		54.687500
8875		58.593750
8876		52.734375
8877		56.640625
8878		52.734375
8879		56.640625
8880		48.828125
8881		54.687500
8882		48.828125
8883		54.687500
8884		48.828125
8885		54.687500
8886		48.828125
8887		50.781250
8888		46.875000
8889		48.828125
8890		42.968750
8891		50.781250
8892		41.015625
8893		48.828125
8894		39.062500
8895		46.875000
8896		37.109375
8897		44.921875
8898		35.156250
8899		42.968750
8900		33.203125
8901		42.968750
8902		33.203125
8903		39.062500
8904		31.250000
8905		35.156250
8906		27.343750
8907		35.156250
8908		25.390625
8909		33.203125
8910		23.437500
8911		31.250000
8912		21.484375
8913		29.296875
8914		19.531250
8915		27.343750
8916		17.578125
8917		25.390625
8918		15.625000
8919		21.484375
8920		13.671875
8921		17.578125
8922		9.765625
8923		15.625000
8924		7.812500
8925		15.625000
8926		3.906250
8927		13.671875
8928		1.953125
8929		9.765625
8930		-1.953125
8931		7.812500
8932		-3.906250
8933		5.859375
8934		-3.906250
8935		1.953125
8936		-5.859375
8937		-1.953125
8938		-7.812500
8939		-3.906250
8940		-13.671875
8941		-3.906250
8942		-13.671875
8943		-5.859375
8944		-17.578125
8945		-9.765625
8946		-19.531250
8947		-11.718750
8948		-21.484375
8949		-13.671875
8950		-23.437500
8951		-15.625000
8952		-23.437500
8953		-17.578125
8954		-25.390625
8955		-21.484375
8956		-29.296875
8957		-23.437500
8958		-31.250000
8959		-23.437500
8960		-33.203125
8961		-25.390625
8962		-35.156250
8963		-25.390625
8964		-35.156250
8965		-27.343750
8966		-37.109375
8967		-29.296875
8968		-39.062500
8969		-31.250000
8970		-37.109375
8971		-33.203125
8972		-37.109375
8973		-35.156250
8974		-41.015625
8975		-33.203125
8976		-42.968750
8977		-35.156250
8978		-42.968750
8979		-35.156250
8980		-42.968750
8981		-37.109375
8982		-42.968750
8983		-37.109375
8984		-44.921875
8985		-37.109375
8986		-42.968750
8987		-39.062500
8988		-41.015625
8989		-39.062500
8990		-44.921875
8991		-37.109375
8992		-42.968750
8993		-37.109375
8994		-42.968750
8995		-37.109375
8996		-42.968750
8997		-37.109375
8998		-42.968750
8999		-35.156250
9000		-42.968750
9001		-35.156250
9002		-41.015625
9003		-35.156250
9004		-37.109375
9005		-35.156250
9006		-37.109375
9007		-31.250000
9008		-39.062500
9009		-31.250000
9010		-37.109375
9011		-29.296875
9012		-37.109375
9013		-29.296875
9014		-35.156250
9015		-27.343750
9016		-33.203125
9017		-25.390625
9018		-31.250000
9019		-23.437500
9020		-27.343750
9021		-23.437500
9022		-25.390625
9023		-21.484375
9024		-25.390625
9025		-17.578125
9026		-23.437500
9027		-15.625000
9028		-21.484375
9029		-13.671875
9030		-19.531250
9031		-11.718750
9032		-17.578125
9033		-9.765625
9034		-15.625000
9035		-7.812500
9036		-11.718750
9037		-5.859375
9038		-7.812500
9039		-3.906250
9040		-5.859375
9041		0.000000
9042		-3.906250
9043		1.953125
9044		-1.953125
9045		3.906250
9046		0.000000
9047		5.859375
9048		1.953125
9049		9.765625
9050		5.859375
9051		11.718750
9052		7.812500
9053		13.671875
9054		9.765625
9055		15.625000
9056		13.671875
9057		17.578125
9058		13.671875
9059		21.484375
9060		15.625000
9061		25.390625
9062		17.578125
9063		27.343750
9064		21.484375
9065		29.296875
9066		21.484375
9067		31.250000
9068		25.390625
9069		33.203125
9070		29.296875
9071		33.203125
9072		31.250000
9073		35.156250
9074		33.203125
9075		41.015625
9076		33.203125
9077		41.015625
9078		35.156250
9079		42.968750
9080		37.109375
9081		44.921875
9082		39.062500
9083		46.875000
9084		41.015625
9085		48.828125
9086		42.968750
9087		48.828125
9088		46.875000
9089		48.828125
9090		46.875000
9091		52.734375
9092		46.875000
9093		54.687500
9094		46.875000
9095		54.687500
9096		48.828125
9097		56.640625
9098		48.828125
9099		56.640625
9100		50.781250
9101		58.593750
9102		50.781250
9103		58.593750
9104		54.687500
9105		56.640625
9106		54.687500
9107		58.593750
9108		52.734375
9109		60.546875
9110		52.734375
9111		60.546875
9112		54.687500
9113		60.546875
9114		54.687500
9115		60.546875
9116		54.687500
9117		60.546875
9118		52.734375
9119		60.546875
9120		54.687500
9121		60.546875
9122		56.640625
9123		58.593750
9124		52.734375
9125		60.546875
9126		52.734375
9127		60.546875
9128		50.781250
9129		58.593750
9130		50.781250
9131		58.593750
9132		50.781250
9133		56.640625
9134		48.828125
9135		56.640625
9136		48.828125
9137		54.687500
9138		48.828125
9139		52.734375
9140		46.875000
9141		50.781250
9142		42.968750
9143		50.781250
9144		41.015625
9145		50.781250
9146		41.015625
9147		48.828125
9148		39.062500
9149		46.875000
9150		37.109375
9151		44.921875
9152		35.156250
9153		42.968750
9154		35.156250
9155		39.062500
9156		33.203125
9157		37.109375
9158		29.296875
9159		37.109375
9160		27.343750
9161		35.156250
9162		25.390625
9163		33.203125
9164		23.437500
9165		31.250000
9166		19.531250
9167		29.296875
9168		17.578125
9169		25.390625
9170		17.578125
9171		23.437500
9172		15.625000
9173		19.531250
9174		11.718750
9175		17.578125
9176		7.812500
9177		17.578125
9178		5.859375
9179		13.671875
9180		3.906250
9181		13.671875
9182		1.953125
9183		9.765625
9184		-1.953125
9185		7.812500
9186		-3.906250
9187		3.906250
9188		-3.906250
9189		0.000000
9190		-5.859375
9191		-1.953125
9192		-11.718750
9193		-3.906250
9194		-13.671875
9195		-3.906250
9196		-15.625000
9197		-7.812500
9198		-17.578125
9199		-9.765625
9200		-19.531250
9201		-11.718750
9202		-21.484375
9203		-13.671875
9204		-21.484375
9205		-15.625000
9206		-23.437500
9207		-19.531250
9208		-27.343750
9209		-21.484375
9210		-29.296875
9211		-21.484375
9212		-31.250000
9213		-23.437500
9214		-33.203125
9215		-25.390625
9216		-35.156250
9217		-25.390625
9218		-37.109375
9219		-27.343750
9220		-37.109375
9221		-29.296875
9222		-35.156250
9223		-33.203125
9224		-37.109375
9225		-33.203125
9226		-41.015625
9227		-33.203125
9228		-42.968750
9229		-33.203125
9230		-42.968750
9231		-35.156250
9232		-42.968750
9233		-35.156250
9234		-42.968750
9235		-35.156250
9236		-42.968750
9237		-35.156250
9238		-42.968750
9239		-37.109375
9240		-41.015625
9241		-39.062500
9242		-42.968750
9243		-37.109375
9244		-42.968750
9245		-37.109375
9246		-42.968750
9247		-37.109375
9248		-42.968750
9249		-35.156250
9250		-42.968750
9251		-35.156250
9252		-42.968750
9253		-35.156250
9254		-41.015625
9255		-35.156250
9256		-39.062500
9257		-35.156250
9258		-37.109375
9259		-33.203125
9260		-39.062500
9261		-31.250000
9262		-37.109375
9263		-31.250000
9264		-37.109375
9265		-29.296875
9266		-35.156250
9267		-27.343750
9268		-33.203125
9269		-25.390625
9270		-33.203125
9271		-23.437500
9272		-27.343750
9273		-25.390625
9274		-25.390625
9275		-21.484375
9276		-25.390625
9277		-17.578125
9278		-25.390625
9279		-15.625000
9280		-23.437500
9281		-13.671875
9282		-21.484375
9283		-11.718750
9284		-17.578125
9285		-9.765625
9286		-15.625000
9287		-7.812500
9288		-13.671875
9289		-7.812500
9290		-9.765625
9291		-5.859375
9292		-7.812500
9293		0.000000
9294		-7.812500
9295		1.953125
9296		-3.906250
9297		3.906250
9298		-1.953125
9299		5.859375
9300		0.000000
9301		7.812500
9302		1.953125
9303		11.718750
9304		5.859375
9305		13.671875
9306		9.765625
9307		13.671875
9308		11.718750
9309		15.625000
9310		13.671875
9311		19.531250
9312		13.671875
9313		23.437500
9314		15.625000
9315		25.390625
9316		19.531250
9317		27.343750
9318		21.484375
9319		29.296875
9320		23.437500
9321		33.203125
9322		27.343750
9323		33.203125
9324		31.250000
9325		35.156250
9326		31.250000
9327		39.062500
9328		33.203125
9329		41.015625
9330		35.156250
9331		42.968750
9332		37.109375
9333		44.921875
9334		37.109375
9335		46.875000
9336		41.015625
9337		48.828125
9338		41.015625
9339		48.828125
9340		44.921875
9341		48.828125
9342		46.875000
9343		50.781250
9344		44.921875
9345		54.687500
9346		46.875000
9347		54.687500
9348		48.828125
9349		56.640625
9350		48.828125
9351		56.640625
9352		50.781250
9353		58.593750
9354		50.781250
9355		58.593750
9356		52.734375
9357		56.640625
9358		54.687500
9359		58.593750
9360		52.734375
9361		60.546875
9362		54.687500
9363		60.546875
9364		54.687500
9365		60.546875
9366		54.687500
9367		62.500000
9368		54.687500
9369		62.500000
9370		54.687500
9371		60.546875
9372		54.687500
9373		60.546875
9374		56.640625
9375		58.593750
9376		54.687500
9377		60.546875
9378		52.734375
9379		60.546875
9380		52.734375
9381		58.593750
9382		50.781250
9383		58.593750
9384		50.781250
9385		58.593750
9386		50.781250
9387		56.640625
9388		48.828125
9389		56.640625
9390		50.781250
9391		52.734375
9392		48.828125
9393		52.734375
9394		44.921875
9395		52.734375
9396		42.968750
9397		52.734375
9398		41.015625
9399		50.781250
9400		41.015625
9401		48.828125
9402		39.062500
9403		46.875000
9404		37.109375
9405		44.921875
9406		37.109375
9407		42.968750
9408		35.156250
9409		39.062500
9410		31.250000
9411		39.062500
9412		29.296875
9413		37.109375
9414		25.390625
9415		35.156250
9416		25.390625
9417		33.203125
9418		21.484375
9419		31.250000
9420		19.531250
9421		29.296875
9422		19.531250
9423		27.343750
9424		17.578125
9425		21.484375
9426		15.625000
9427		19.531250
9428		11.718750
9429		19.531250
9430		7.812500
9431		17.578125
9432		5.859375
9433		15.625000
9434		3.906250
9435		11.718750
9436		1.953125
9437		9.765625
9438		-1.953125
9439		7.812500
9440		-1.953125
9441		3.906250
9442		-3.906250
9443		0.000000
9444		-9.765625
9445		-1.953125
9446		-11.718750
9447		-3.906250
9448		-13.671875
9449		-5.859375
9450		-15.625000
9451		-7.812500
9452		-17.578125
9453		-9.765625
9454		-19.531250
9455		-11.718750
9456		-19.531250
9457		-13.671875
9458		-21.484375
9459		-17.578125
9460		-25.390625
9461		-19.531250
9462		-27.343750
9463		-19.531250
9464		-29.296875
9465		-21.484375
9466		-31.250000
9467		-23.437500
9468		-33.203125
9469		-25.390625
9470		-35.156250
9471		-27.343750
9472		-35.156250
9473		-27.343750
9474		-35.156250
9475		-31.250000
9476		-35.156250
9477		-33.203125
9478		-39.062500
9479		-31.250000
9480		-41.015625
9481		-33.203125
9482		-41.015625
9483		-33.203125
9484		-42.968750
9485		-35.156250
9486		-42.968750
9487		-35.156250
9488		-42.968750
9489		-35.156250
9490		-42.968750
9491		-35.156250
9492		-41.015625
9493		-39.062500
9494		-44.921875
9495		-37.109375
9496		-42.968750
9497		-37.109375
9498		-42.968750
9499		-37.109375
9500		-42.968750
9501		-37.109375
9502		-42.968750
9503		-35.156250
9504		-42.968750
9505		-35.156250
9506		-41.015625
9507		-35.156250
9508		-39.062500
9509		-37.109375
9510		-37.109375
9511		-35.156250
9512		-39.062500
9513		-31.250000
9514		-39.062500
9515		-31.250000
9516		-37.109375
9517		-29.296875
9518		-35.156250
9519		-27.343750
9520		-35.156250
9521		-27.343750
9522		-33.203125
9523		-25.390625
9524		-31.250000
9525		-25.390625
9526		-27.343750
9527		-23.437500
9528		-27.343750
9529		-19.531250
9530		-25.390625
9531		-17.578125
9532		-23.437500
9533		-15.625000
9534		-21.484375
9535		-13.671875
9536		-19.531250
9537		-11.718750
9538		-17.578125
9539		-9.765625
9540		-15.625000
9541		-9.765625
9542		-11.718750
9543		-7.812500
9544		-9.765625
9545		-1.953125
9546		-7.812500
9547		0.000000
9548		-5.859375
9549		1.953125
9550		-3.906250
9551		3.906250
9552		-1.953125
9553		7.812500
9554		0.000000
9555		9.765625
9556		3.906250
9557		11.718750
9558		7.812500
9559		11.718750
9560		11.718750
9561		13.671875
9562		11.718750
9563		19.531250
9564		13.671875
9565		21.484375
9566		15.625000
9567		23.437500
9568		17.578125
9569		25.390625
9570		19.531250
9571		29.296875
9572		23.437500
9573		31.250000
9574		23.437500
9575		33.203125
9576		29.296875
9577		33.203125
9578		29.296875
9579		37.109375
9580		31.250000
9581		39.062500
9582		33.203125
9583		41.015625
9584		35.156250
9585		42.968750
9586		37.109375
9587		44.921875
9588		39.062500
9589		46.875000
9590		41.015625
9591		46.875000
9592		44.921875
9593		46.875000
9594		46.875000
9595		48.828125
9596		44.921875
9597		52.734375
9598		46.875000
9599		54.687500
9600		48.828125
9601		54.687500
9602		48.828125
9603		56.640625
9604		50.781250
9605		58.593750
9606		50.781250
9607		58.593750
9608		52.734375
9609		58.593750
9610		54.687500
9611		56.640625
9612		52.734375
9613		60.546875
9614		52.734375
9615		60.546875
9616		52.734375
9617		60.546875
9618		54.687500
9619		60.546875
9620		54.687500
9621		62.500000
9622		54.687500
9623		62.500000
9624		54.687500
9625		60.546875
9626		56.640625
9627		58.593750
9628		54.687500
9629		58.593750
9630		52.734375
9631		60.546875
9632		52.734375
9633		60.546875
9634		52.734375
9635		58.593750
9636		50.781250
9637		58.593750
9638		50.781250
9639		56.640625
9640		50.781250
9641		56.640625
9642		50.781250
9643		54.687500
9644		48.828125
9645		52.734375
9646		46.875000
9647		52.734375
9648		44.921875
9649		52.734375
9650		42.968750
9651		50.781250
9652		41.015625
9653		48.828125
9654		39.062500
9655		46.875000
9656		39.062500
9657		46.875000
9658		37.109375
9659		44.921875
9660		37.109375
9661		41.015625
9662		31.250000
9663		39.062500
9664		31.250000
9665		39.062500
9666		29.296875
9667		37.109375
9668		25.390625
9669		33.203125
9670		23.437500
9671		33.203125
9672		21.484375
9673		29.296875
9674		19.531250
9675		27.343750
9676		19.531250
9677		23.437500
9678		17.578125
9679		21.484375
9680		11.718750
9681		19.531250
9682		9.765625
9683		19.531250
9684		7.812500
9685		15.625000
9686		3.906250
9687		13.671875
9688		1.953125
9689		9.765625
9690		0.000000
9691		7.812500
9692		0.000000
9693		5.859375
9694		-1.953125
9695		1.953125
9696		-5.859375
9697		0.000000
9698		-9.765625
9699		0.000000
9700		-11.718750
9701		-3.906250
9702		-13.671875
9703		-5.859375
9704		-15.625000
9705		-7.812500
9706		-17.578125
9707		-9.765625
9708		-19.531250
9709		-13.671875
9710		-19.531250
9711		-17.578125
9712		-23.437500
9713		-19.531250
9714		-27.343750
9715		-19.531250
9716		-29.296875
9717		-21.484375
9718		-29.296875
9719		-21.484375
9720		-31.250000
9721		-23.437500
9722		-33.203125
9723		-25.390625
9724		-35.156250
9725		-27.343750
9726		-33.203125
9727		-29.296875
9728		-35.156250
9729		-33.203125
9730		-39.062500
9731		-31.250000
9732		-39.062500
9733		-31.250000
9734		-41.015625
9735		-33.203125
9736		-41.015625
9737		-35.156250
9738		-41.015625
9739		-35.156250
9740		-42.968750
9741		-35.156250
9742		-42.968750
9743		-35.156250
9744		-41.015625
9745		-39.062500
9746		-42.968750
9747		-37.109375
9748		-42.968750
9749		-37.109375
9750		-42.968750
9751		-37.109375
9752		-42.968750
9753		-37.109375
9754		-42.968750
9755		-37.109375
9756		-42.968750
9757		-35.156250
9758		-42.968750
9759		-35.156250
9760		-39.062500
9761		-37.109375
9762		-39.062500
9763		-35.156250
9764		-39.062500
9765		-33.203125
9766		-39.062500
9767		-31.250000
9768		-37.109375
9769		-29.296875
9770		-37.109375
9771		-29.296875
9772		-35.156250
9773		-27.343750
9774		-33.203125
9775		-25.390625
9776		-31.250000
9777		-25.390625
9778		-27.343750
9779		-25.390625
9780		-27.343750
9781		-21.484375
9782		-27.343750
9783		-19.531250
9784		-25.390625
9785		-17.578125
9786		-23.437500
9787		-15.625000
9788		-21.484375
9789		-13.671875
9790		-19.531250
9791		-9.765625
9792		-17.578125
9793		-9.765625
9794		-11.718750
9795		-7.812500
9796		-9.765625
9797		-3.906250
9798		-9.765625
9799		-1.953125
9800		-7.812500
9801		0.000000
9802		-5.859375
9803		3.906250
9804		-1.953125
9805		5.859375
9806		0.000000
9807		7.812500
9808		1.953125
9809		9.765625
9810		7.812500
9811		9.765625
9812		9.765625
9813		13.671875
9814		9.765625
9815		17.578125
9816		11.718750
9817		21.484375
9818		13.671875
9819		21.484375
9820		15.625000
9821		25.390625
9822		19.531250
9823		27.343750
9824		21.484375
9825		29.296875
9826		23.437500
9827		31.250000
9828		27.343750
9829		31.250000
9830		29.296875
9831		37.109375
9832		29.296875
9833		39.062500
9834		31.250000
9835		41.015625
9836		35.156250
9837		42.968750
9838		37.109375
9839		42.968750
9840		39.062500
9841		44.921875
9842		39.062500
9843		46.875000
9844		42.968750
9845		46.875000
9846		44.921875
9847		48.828125
9848		44.921875
9849		52.734375
9850		44.921875
9851		52.734375
9852		46.875000
9853		54.687500
9854		48.828125
9855		56.640625
9856		48.828125
9857		56.640625
9858		50.781250
9859		58.593750
9860		52.734375
9861		56.640625
9862		54.687500
9863		56.640625
9864		52.734375
9865		60.546875
9866		54.687500
9867		60.546875
9868		54.687500
9869		60.546875
9870		54.687500
9871		60.546875
9872		54.687500
9873		62.500000
9874		54.687500
9875		62.500000
9876		54.687500
9877		60.546875
9878		56.640625
9879		58.593750
9880		56.640625
9881		60.546875
9882		54.687500
9883		60.546875
9884		52.734375
9885		60.546875
9886		52.734375
9887		60.546875
9888		52.734375
9889		60.546875
9890		50.781250
9891		58.593750
9892		50.781250
9893		58.593750
9894		52.734375
9895		54.687500
9896		50.781250
9897		52.734375
9898		46.875000
9899		54.687500
9900		46.875000
9901		52.734375
9902		44.921875
9903		52.734375
9904		42.968750
9905		50.781250
9906		41.015625
9907		48.828125
9908		39.062500
9909		48.828125
9910		39.062500
9911		46.875000
9912		39.062500
9913		41.015625
9914		35.156250
9915		41.015625
9916		33.203125
9917		39.062500
9918		29.296875
9919		37.109375
9920		27.343750
9921		35.156250
9922		25.390625
9923		33.203125
9924		23.437500
9925		31.250000
9926		21.484375
9927		29.296875
9928		21.484375
9929		25.390625
9930		19.531250
9931		23.437500
9932		13.671875
9933		21.484375
9934		11.718750
9935		19.531250
9936		7.812500
9937		17.578125
9938		7.812500
9939		15.625000
9940		5.859375
9941		13.671875
9942		1.953125
9943		9.765625
9944		1.953125
9945		7.812500
9946		0.000000
9947		3.906250
9948		-5.859375
9949		1.953125
9950		-7.812500
9951		0.000000
9952		-9.765625
9953		-1.953125
9954		-11.718750
9955		-3.906250
9956		-15.625000
9957		-5.859375
9958		-17.578125
9959		-7.812500
9960		-17.578125
9961		-11.718750
9962		-19.531250
9963		-15.625000
9964		-21.484375
9965		-17.578125
9966		-25.390625
9967		-17.578125
9968		-27.343750
9969		-19.531250
9970		-29.296875
9971		-21.484375
9972		-31.250000
9973		-21.484375
9974		-33.203125
9975		-25.390625
9976		-33.203125
9977		-27.343750
9978		-33.203125
9979		-29.296875
9980		-33.203125
9981		-31.250000
9982		-39.062500
9983		-31.250000
9984		-39.062500
9985		-31.250000
9986		-41.015625
9987		-33.203125
9988		-41.015625
9989		-33.203125
9990		-41.015625
9991		-35.156250
9992		-42.968750
9993		-35.156250
9994		-42.968750
9995		-35.156250
9996		-41.015625
9997		-39.062500
9998		-42.968750
9999		-37.109375
10000		-42.968750
