Channel              :		CH1
Frequency            :		1.973kHz
Period               :		0.507ms
PK-PK                :		164.1mV
Probe attenuation    :		1X
Voltage per ADC value:		0.122070mV
Time interval        :		2.00000us

index		CH1_Voltage(mV)
1		83.984375
2		83.984375
3		80.078125
4		83.984375
5		78.125000
6		82.031250
7		78.125000
8		82.031250
9		78.125000
10		82.031250
11		76.171875
12		80.078125
13		76.171875
14		78.125000
15		74.218750
16		76.171875
17		72.265625
18		76.171875
19		70.312500
20		74.218750
21		68.359375
22		72.265625
23		66.406250
24		70.312500
25		64.453125
26		68.359375
27		60.546875
28		66.406250
29		58.593750
30		64.453125
31		56.640625
32		60.546875
33		54.687500
34		58.593750
35		50.781250
36		56.640625
37		48.828125
38		52.734375
39		44.921875
40		50.781250
41		41.015625
42		46.875000
43		39.062500
44		42.968750
45		35.156250
46		39.062500
47		31.250000
48		37.109375
49		27.343750
50		33.203125
51		23.437500
52		29.296875
53		19.531250
54		25.390625
55		17.578125
56		23.437500
57		11.718750
58		17.578125
59		9.765625
60		13.671875
61		5.859375
62		9.765625
63		0.000000
64		5.859375
65		-1.953125
66		3.906250
67		-5.859375
68		0.000000
69		-9.765625
70		-5.859375
71		-13.671875
72		-7.812500
73		-17.578125
74		-11.718750
75		-21.484375
76		-15.625000
77		-25.390625
78		-19.531250
79		-29.296875
80		-23.437500
81		-33.203125
82		-27.343750
83		-37.109375
84		-31.250000
85		-39.062500
86		-35.156250
87		-42.968750
88		-37.109375
89		-46.875000
90		-41.015625
91		-48.828125
92		-42.968750
93		-52.734375
94		-46.875000
95		-54.687500
96		-48.828125
97		-56.640625
98		-52.734375
99		-58.593750
100		-54.687500
101		-62.500000
102		-56.640625
103		-64.453125
104		-60.546875
105		-66.406250
106		-62.500000
107		-68.359375
108		-64.453125
109		-70.312500
110		-64.453125
111		-70.312500
112		-66.406250
113		-72.265625
114		-68.359375
115		-72.265625
116		-70.312500
117		-74.218750
118		-70.312500
119		-74.218750
120		-70.312500
121		-74.218750
122		-70.312500
123		-74.218750
124		-72.265625
125		-74.218750
126		-72.265625
127		-74.218750
128		-70.312500
129		-74.218750
130		-70.312500
131		-72.265625
132		-70.312500
133		-72.265625
134		-68.359375
135		-72.265625
136		-68.359375
137		-70.312500
138		-66.406250
139		-68.359375
140		-66.406250
141		-68.359375
142		-64.453125
143		-66.406250
144		-62.500000
145		-64.453125
146		-60.546875
147		-62.500000
148		-58.593750
149		-58.593750
150		-56.640625
151		-56.640625
152		-52.734375
153		-54.687500
154		-50.781250
155		-52.734375
156		-46.875000
157		-48.828125
158		-44.921875
159		-46.875000
160		-41.015625
161		-42.968750
162		-37.109375
163		-41.015625
164		-35.156250
165		-37.109375
166		-31.250000
167		-33.203125
168		-27.343750
169		-29.296875
170		-23.437500
171		-25.390625
172		-19.531250
173		-21.484375
174		-17.578125
175		-19.531250
176		-11.718750
177		-13.671875
178		-7.812500
179		-9.765625
180		-3.906250
181		-5.859375
182		-1.953125
183		-1.953125
184		1.953125
185		1.953125
186		5.859375
187		3.906250
188		11.718750
189		9.765625
190		13.671875
191		13.671875
192		17.578125
193		17.578125
194		21.484375
195		19.531250
196		25.390625
197		23.437500
198		29.296875
199		27.343750
200		33.203125
201		31.250000
202		37.109375
203		35.156250
204		41.015625
205		39.062500
206		42.968750
207		41.015625
208		46.875000
209		44.921875
210		48.828125
211		46.875000
212		52.734375
213		50.781250
214		54.687500
215		54.687500
216		58.593750
217		56.640625
218		62.500000
219		58.593750
220		64.453125
221		62.500000
222		66.406250
223		64.453125
224		68.359375
225		66.406250
226		70.312500
227		68.359375
228		72.265625
229		70.312500
230		74.218750
231		72.265625
232		76.171875
233		74.218750
234		76.171875
235		74.218750
236		78.125000
237		76.171875
238		80.078125
239		78.125000
240		82.031250
241		78.125000
242		82.031250
243		78.125000
244		82.031250
245		80.078125
246		83.984375
247		80.078125
248		83.984375
249		80.078125
250		83.984375
251		80.078125
252		83.984375
253		80.078125
254		83.984375
255		80.078125
256		83.984375
257		80.078125
258		83.984375
259		80.078125
260		82.031250
261		78.125000
262		82.031250
263		76.171875
264		80.078125
265		76.171875
266		80.078125
267		74.218750
268		78.125000
269		74.218750
270		78.125000
271		72.265625
272		76.171875
273		70.312500
274		74.218750
275		68.359375
276		72.265625
277		66.406250
278		70.312500
279		64.453125
280		68.359375
281		60.546875
282		66.406250
283		58.593750
284		62.500000
285		54.687500
286		60.546875
287		52.734375
288		58.593750
289		50.781250
290		54.687500
291		46.875000
292		52.734375
293		44.921875
294		48.828125
295		41.015625
296		46.875000
297		37.109375
298		42.968750
299		33.203125
300		39.062500
301		29.296875
302		35.156250
303		25.390625
304		33.203125
305		23.437500
306		27.343750
307		19.531250
308		25.390625
309		15.625000
310		21.484375
311		11.718750
312		17.578125
313		5.859375
314		13.671875
315		3.906250
316		9.765625
317		0.000000
318		5.859375
319		-3.906250
320		1.953125
321		-7.812500
322		-1.953125
323		-11.718750
324		-5.859375
325		-15.625000
326		-9.765625
327		-19.531250
328		-13.671875
329		-23.437500
330		-17.578125
331		-27.343750
332		-21.484375
333		-29.296875
334		-25.390625
335		-35.156250
336		-29.296875
337		-37.109375
338		-31.250000
339		-41.015625
340		-35.156250
341		-42.968750
342		-39.062500
343		-46.875000
344		-41.015625
345		-50.781250
346		-44.921875
347		-52.734375
348		-48.828125
349		-54.687500
350		-50.781250
351		-58.593750
352		-54.687500
353		-60.546875
354		-54.687500
355		-62.500000
356		-56.640625
357		-64.453125
358		-60.546875
359		-66.406250
360		-62.500000
361		-68.359375
362		-64.453125
363		-70.312500
364		-66.406250
365		-70.312500
366		-66.406250
367		-72.265625
368		-68.359375
369		-72.265625
370		-68.359375
371		-74.218750
372		-70.312500
373		-74.218750
374		-70.312500
375		-74.218750
376		-72.265625
377		-74.218750
378		-70.312500
379		-74.218750
380		-70.312500
381		-74.218750
382		-70.312500
383		-74.218750
384		-70.312500
385		-72.265625
386		-68.359375
387		-72.265625
388		-68.359375
389		-70.312500
390		-68.359375
391		-70.312500
392		-66.406250
393		-68.359375
394		-64.453125
395		-66.406250
396		-62.500000
397		-64.453125
398		-60.546875
399		-62.500000
400		-58.593750
401		-60.546875
402		-56.640625
403		-58.593750
404		-52.734375
405		-56.640625
406		-50.781250
407		-54.687500
408		-48.828125
409		-50.781250
410		-46.875000
411		-48.828125
412		-42.968750
413		-44.921875
414		-39.062500
415		-41.015625
416		-37.109375
417		-39.062500
418		-33.203125
419		-35.156250
420		-29.296875
421		-31.250000
422		-25.390625
423		-27.343750
424		-21.484375
425		-23.437500
426		-17.578125
427		-19.531250
428		-13.671875
429		-17.578125
430		-11.718750
431		-13.671875
432		-7.812500
433		-7.812500
434		-3.906250
435		-5.859375
436		0.000000
437		-1.953125
438		3.906250
439		1.953125
440		9.765625
441		5.859375
442		11.718750
443		9.765625
444		15.625000
445		13.671875
446		19.531250
447		17.578125
448		23.437500
449		21.484375
450		27.343750
451		25.390625
452		31.250000
453		29.296875
454		35.156250
455		33.203125
456		39.062500
457		37.109375
458		41.015625
459		39.062500
460		44.921875
461		42.968750
462		46.875000
463		46.875000
464		50.781250
465		48.828125
466		54.687500
467		52.734375
468		56.640625
469		54.687500
470		60.546875
471		56.640625
472		62.500000
473		58.593750
474		64.453125
475		62.500000
476		66.406250
477		64.453125
478		70.312500
479		66.406250
480		72.265625
481		68.359375
482		74.218750
483		70.312500
484		74.218750
485		72.265625
486		76.171875
487		74.218750
488		78.125000
489		74.218750
490		78.125000
491		76.171875
492		80.078125
493		78.125000
494		82.031250
495		78.125000
496		82.031250
497		80.078125
498		82.031250
499		80.078125
500		83.984375
501		80.078125
502		83.984375
503		80.078125
504		83.984375
505		80.078125
506		83.984375
507		80.078125
508		83.984375
509		80.078125
510		83.984375
511		80.078125
512		82.031250
513		78.125000
514		82.031250
515		76.171875
516		82.031250
517		78.125000
518		80.078125
519		76.171875
520		80.078125
521		74.218750
522		78.125000
523		72.265625
524		76.171875
525		72.265625
526		76.171875
527		68.359375
528		72.265625
529		68.359375
530		72.265625
531		66.406250
532		70.312500
533		62.500000
534		68.359375
535		60.546875
536		64.453125
537		58.593750
538		62.500000
539		54.687500
540		60.546875
541		52.734375
542		58.593750
543		48.828125
544		54.687500
545		46.875000
546		50.781250
547		42.968750
548		48.828125
549		41.015625
550		44.921875
551		37.109375
552		41.015625
553		31.250000
554		39.062500
555		29.296875
556		35.156250
557		25.390625
558		31.250000
559		21.484375
560		27.343750
561		17.578125
562		23.437500
563		13.671875
564		19.531250
565		9.765625
566		17.578125
567		7.812500
568		11.718750
569		3.906250
570		7.812500
571		0.000000
572		3.906250
573		-3.906250
574		1.953125
575		-7.812500
576		-1.953125
577		-13.671875
578		-7.812500
579		-17.578125
580		-11.718750
581		-19.531250
582		-15.625000
583		-23.437500
584		-17.578125
585		-27.343750
586		-21.484375
587		-31.250000
588		-25.390625
589		-35.156250
590		-29.296875
591		-37.109375
592		-33.203125
593		-41.015625
594		-35.156250
595		-44.921875
596		-39.062500
597		-46.875000
598		-42.968750
599		-50.781250
600		-44.921875
601		-52.734375
602		-48.828125
603		-56.640625
604		-52.734375
605		-58.593750
606		-52.734375
607		-60.546875
608		-56.640625
609		-64.453125
610		-58.593750
611		-64.453125
612		-60.546875
613		-66.406250
614		-62.500000
615		-68.359375
616		-64.453125
617		-68.359375
618		-64.453125
619		-70.312500
620		-68.359375
621		-72.265625
622		-68.359375
623		-72.265625
624		-70.312500
625		-74.218750
626		-70.312500
627		-74.218750
628		-70.312500
629		-74.218750
630		-70.312500
631		-74.218750
632		-70.312500
633		-74.218750
634		-70.312500
635		-74.218750
636		-70.312500
637		-72.265625
638		-70.312500
639		-74.218750
640		-68.359375
641		-72.265625
642		-68.359375
643		-70.312500
644		-66.406250
645		-68.359375
646		-64.453125
647		-68.359375
648		-64.453125
649		-66.406250
650		-62.500000
651		-64.453125
652		-60.546875
653		-62.500000
654		-58.593750
655		-60.546875
656		-56.640625
657		-58.593750
658		-52.734375
659		-54.687500
660		-50.781250
661		-52.734375
662		-46.875000
663		-48.828125
664		-44.921875
665		-46.875000
666		-42.968750
667		-44.921875
668		-39.062500
669		-41.015625
670		-35.156250
671		-37.109375
672		-31.250000
673		-33.203125
674		-27.343750
675		-29.296875
676		-25.390625
677		-27.343750
678		-21.484375
679		-23.437500
680		-17.578125
681		-19.531250
682		-13.671875
683		-15.625000
684		-9.765625
685		-11.718750
686		-5.859375
687		-7.812500
688		-1.953125
689		-3.906250
690		1.953125
691		0.000000
692		5.859375
693		3.906250
694		9.765625
695		7.812500
696		13.671875
697		11.718750
698		17.578125
699		15.625000
700		21.484375
701		19.531250
702		25.390625
703		23.437500
704		29.296875
705		27.343750
706		33.203125
707		31.250000
708		35.156250
709		33.203125
710		39.062500
711		37.109375
712		42.968750
713		39.062500
714		44.921875
715		44.921875
716		48.828125
717		46.875000
718		52.734375
719		50.781250
720		54.687500
721		52.734375
722		58.593750
723		56.640625
724		60.546875
725		58.593750
726		64.453125
727		60.546875
728		64.453125
729		64.453125
730		68.359375
731		66.406250
732		70.312500
733		68.359375
734		72.265625
735		68.359375
736		74.218750
737		72.265625
738		76.171875
739		74.218750
740		76.171875
741		74.218750
742		78.125000
743		76.171875
744		80.078125
745		76.171875
746		82.031250
747		78.125000
748		82.031250
749		80.078125
750		82.031250
751		80.078125
752		83.984375
753		80.078125
754		83.984375
755		80.078125
756		83.984375
757		80.078125
758		83.984375
759		82.031250
760		83.984375
761		80.078125
762		83.984375
763		80.078125
764		82.031250
765		80.078125
766		82.031250
767		78.125000
768		82.031250
769		78.125000
770		82.031250
771		76.171875
772		80.078125
773		74.218750
774		80.078125
775		74.218750
776		78.125000
777		72.265625
778		76.171875
779		70.312500
780		74.218750
781		68.359375
782		74.218750
783		66.406250
784		70.312500
785		64.453125
786		68.359375
787		62.500000
788		66.406250
789		60.546875
790		64.453125
791		56.640625
792		62.500000
793		54.687500
794		58.593750
795		50.781250
796		56.640625
797		48.828125
798		54.687500
799		44.921875
800		50.781250
801		41.015625
802		46.875000
803		39.062500
804		42.968750
805		35.156250
806		41.015625
807		31.250000
808		37.109375
809		29.296875
810		35.156250
811		25.390625
812		29.296875
813		21.484375
814		25.390625
815		17.578125
816		21.484375
817		13.671875
818		19.531250
819		9.765625
820		15.625000
821		5.859375
822		11.718750
823		1.953125
824		7.812500
825		-3.906250
826		3.906250
827		-5.859375
828		0.000000
829		-9.765625
830		-3.906250
831		-13.671875
832		-7.812500
833		-17.578125
834		-11.718750
835		-21.484375
836		-15.625000
837		-25.390625
838		-19.531250
839		-29.296875
840		-23.437500
841		-31.250000
842		-27.343750
843		-35.156250
844		-31.250000
845		-39.062500
846		-33.203125
847		-42.968750
848		-37.109375
849		-44.921875
850		-41.015625
851		-48.828125
852		-42.968750
853		-50.781250
854		-46.875000
855		-54.687500
856		-50.781250
857		-58.593750
858		-52.734375
859		-58.593750
860		-54.687500
861		-62.500000
862		-56.640625
863		-64.453125
864		-60.546875
865		-66.406250
866		-60.546875
867		-66.406250
868		-62.500000
869		-68.359375
870		-64.453125
871		-70.312500
872		-66.406250
873		-72.265625
874		-68.359375
875		-72.265625
876		-70.312500
877		-74.218750
878		-70.312500
879		-74.218750
880		-70.312500
881		-74.218750
882		-70.312500
883		-74.218750
884		-70.312500
885		-74.218750
886		-70.312500
887		-74.218750
888		-72.265625
889		-74.218750
890		-70.312500
891		-74.218750
892		-70.312500
893		-72.265625
894		-68.359375
895		-72.265625
896		-68.359375
897		-70.312500
898		-66.406250
899		-68.359375
900		-64.453125
901		-68.359375
902		-64.453125
903		-66.406250
904		-62.500000
905		-64.453125
906		-60.546875
907		-62.500000
908		-58.593750
909		-58.593750
910		-54.687500
911		-56.640625
912		-52.734375
913		-54.687500
914		-50.781250
915		-52.734375
916		-46.875000
917		-48.828125
918		-42.968750
919		-44.921875
920		-41.015625
921		-42.968750
922		-39.062500
923		-39.062500
924		-33.203125
925		-37.109375
926		-31.250000
927		-33.203125
928		-27.343750
929		-29.296875
930		-23.437500
931		-25.390625
932		-19.531250
933		-21.484375
934		-15.625000
935		-17.578125
936		-11.718750
937		-13.671875
938		-9.765625
939		-9.765625
940		-5.859375
941		-5.859375
942		0.000000
943		-1.953125
944		1.953125
945		1.953125
946		7.812500
947		3.906250
948		9.765625
949		9.765625
950		13.671875
951		11.718750
952		17.578125
953		15.625000
954		21.484375
955		19.531250
956		25.390625
957		23.437500
958		31.250000
959		25.390625
960		35.156250
961		29.296875
962		37.109375
963		35.156250
964		39.062500
965		39.062500
966		42.968750
967		41.015625
968		46.875000
969		44.921875
970		50.781250
971		46.875000
972		52.734375
973		50.781250
974		54.687500
975		52.734375
976		60.546875
977		54.687500
978		62.500000
979		58.593750
980		64.453125
981		62.500000
982		66.406250
983		64.453125
984		68.359375
985		66.406250
986		70.312500
987		68.359375
988		72.265625
989		70.312500
990		74.218750
991		70.312500
992		78.125000
993		72.265625
994		78.125000
995		72.265625
996		80.078125
997		76.171875
998		80.078125
999		76.171875
1000		82.031250
1001		78.125000
1002		82.031250
1003		78.125000
1004		82.031250
1005		80.078125
1006		82.031250
1007		80.078125
1008		85.937500
1009		78.125000
1010		85.937500
1011		78.125000
1012		85.937500
1013		80.078125
1014		83.984375
1015		80.078125
1016		83.984375
1017		80.078125
1018		83.984375
1019		80.078125
1020		83.984375
1021		78.125000
1022		82.031250
1023		78.125000
1024		80.078125
1025		74.218750
1026		82.031250
1027		72.265625
1028		80.078125
1029		72.265625
1030		80.078125
1031		70.312500
1032		78.125000
1033		70.312500
1034		76.171875
1035		66.406250
1036		74.218750
1037		66.406250
1038		70.312500
1039		64.453125
1040		68.359375
1041		60.546875
1042		66.406250
1043		56.640625
1044		66.406250
1045		54.687500
1046		64.453125
1047		52.734375
1048		60.546875
1049		48.828125
1050		56.640625
1051		46.875000
1052		54.687500
1053		44.921875
1054		50.781250
1055		41.015625
1056		46.875000
1057		39.062500
1058		42.968750
1059		33.203125
1060		41.015625
1061		29.296875
1062		39.062500
1063		25.390625
1064		33.203125
1065		21.484375
1066		29.296875
1067		17.578125
1068		27.343750
1069		13.671875
1070		23.437500
1071		11.718750
1072		19.531250
1073		7.812500
1074		13.671875
1075		3.906250
1076		9.765625
1077		0.000000
1078		7.812500
1079		-3.906250
1080		3.906250
1081		-7.812500
1082		0.000000
1083		-13.671875
1084		-1.953125
1085		-17.578125
1086		-7.812500
1087		-17.578125
1088		-11.718750
1089		-21.484375
1090		-17.578125
1091		-27.343750
1092		-21.484375
1093		-31.250000
1094		-23.437500
1095		-35.156250
1096		-25.390625
1097		-39.062500
1098		-29.296875
1099		-42.968750
1100		-33.203125
1101		-44.921875
1102		-37.109375
1103		-46.875000
1104		-39.062500
1105		-48.828125
1106		-44.921875
1107		-52.734375
1108		-46.875000
1109		-56.640625
1110		-48.828125
1111		-58.593750
1112		-50.781250
1113		-62.500000
1114		-52.734375
1115		-64.453125
1116		-56.640625
1117		-66.406250
1118		-58.593750
1119		-68.359375
1120		-60.546875
1121		-68.359375
1122		-62.500000
1123		-68.359375
1124		-66.406250
1125		-74.218750
1126		-66.406250
1127		-74.218750
1128		-66.406250
1129		-74.218750
1130		-66.406250
1131		-76.171875
1132		-68.359375
1133		-76.171875
1134		-68.359375
1135		-76.171875
1136		-68.359375
1137		-76.171875
1138		-70.312500
1139		-74.218750
1140		-72.265625
1141		-74.218750
1142		-72.265625
1143		-76.171875
1144		-68.359375
1145		-76.171875
1146		-68.359375
1147		-74.218750
1148		-66.406250
1149		-74.218750
1150		-64.453125
1151		-72.265625
1152		-64.453125
1153		-70.312500
1154		-62.500000
1155		-68.359375
1156		-62.500000
1157		-64.453125
1158		-62.500000
1159		-64.453125
1160		-58.593750
1161		-64.453125
1162		-54.687500
1163		-60.546875
1164		-52.734375
1165		-58.593750
1166		-50.781250
1167		-56.640625
1168		-46.875000
1169		-54.687500
1170		-44.921875
1171		-50.781250
1172		-42.968750
1173		-44.921875
1174		-41.015625
1175		-41.015625
1176		-37.109375
1177		-41.015625
1178		-31.250000
1179		-37.109375
1180		-29.296875
1181		-33.203125
1182		-25.390625
1183		-31.250000
1184		-21.484375
1185		-27.343750
1186		-17.578125
1187		-23.437500
1188		-13.671875
1189		-17.578125
1190		-11.718750
1191		-13.671875
1192		-7.812500
1193		-9.765625
1194		-1.953125
1195		-7.812500
1196		1.953125
1197		-3.906250
1198		5.859375
1199		0.000000
1200		7.812500
1201		3.906250
1202		13.671875
1203		7.812500
1204		17.578125
1205		11.718750
1206		19.531250
1207		17.578125
1208		23.437500
1209		21.484375
1210		29.296875
1211		23.437500
1212		33.203125
1213		27.343750
1214		35.156250
1215		29.296875
1216		39.062500
1217		33.203125
1218		42.968750
1219		37.109375
1220		44.921875
1221		41.015625
1222		48.828125
1223		44.921875
1224		50.781250
1225		48.828125
1226		52.734375
1227		50.781250
1228		58.593750
1229		52.734375
1230		60.546875
1231		54.687500
1232		62.500000
1233		56.640625
1234		66.406250
1235		60.546875
1236		68.359375
1237		62.500000
1238		72.265625
1239		64.453125
1240		70.312500
1241		68.359375
1242		72.265625
1243		70.312500
1244		76.171875
1245		70.312500
1246		78.125000
1247		72.265625
1248		80.078125
1249		72.265625
1250		82.031250
1251		74.218750
1252		82.031250
1253		76.171875
1254		82.031250
1255		76.171875
1256		83.984375
1257		80.078125
1258		82.031250
1259		80.078125
1260		82.031250
1261		78.125000
1262		85.937500
1263		78.125000
1264		85.937500
1265		78.125000
1266		85.937500
1267		78.125000
1268		85.937500
1269		78.125000
1270		85.937500
1271		78.125000
1272		85.937500
1273		80.078125
1274		82.031250
1275		78.125000
1276		82.031250
1277		74.218750
1278		82.031250
1279		74.218750
1280		82.031250
1281		72.265625
1282		80.078125
1283		72.265625
1284		78.125000
1285		68.359375
1286		78.125000
1287		68.359375
1288		76.171875
1289		68.359375
1290		74.218750
1291		66.406250
1292		70.312500
1293		62.500000
1294		68.359375
1295		58.593750
1296		68.359375
1297		56.640625
1298		64.453125
1299		52.734375
1300		62.500000
1301		50.781250
1302		58.593750
1303		46.875000
1304		56.640625
1305		44.921875
1306		54.687500
1307		44.921875
1308		48.828125
1309		41.015625
1310		44.921875
1311		35.156250
1312		42.968750
1313		31.250000
1314		41.015625
1315		27.343750
1316		37.109375
1317		23.437500
1318		33.203125
1319		19.531250
1320		31.250000
1321		17.578125
1322		27.343750
1323		15.625000
1324		23.437500
1325		11.718750
1326		15.625000
1327		5.859375
1328		11.718750
1329		1.953125
1330		11.718750
1331		-1.953125
1332		5.859375
1333		-5.859375
1334		1.953125
1335		-9.765625
1336		0.000000
1337		-15.625000
1338		-5.859375
1339		-15.625000
1340		-7.812500
1341		-19.531250
1342		-13.671875
1343		-23.437500
1344		-17.578125
1345		-29.296875
1346		-19.531250
1347		-33.203125
1348		-23.437500
1349		-37.109375
1350		-27.343750
1351		-41.015625
1352		-29.296875
1353		-42.968750
1354		-33.203125
1355		-46.875000
1356		-35.156250
1357		-46.875000
1358		-41.015625
1359		-48.828125
1360		-44.921875
1361		-54.687500
1362		-46.875000
1363		-56.640625
1364		-48.828125
1365		-60.546875
1366		-50.781250
1367		-62.500000
1368		-54.687500
1369		-64.453125
1370		-56.640625
1371		-66.406250
1372		-58.593750
1373		-66.406250
1374		-60.546875
1375		-68.359375
1376		-64.453125
1377		-72.265625
1378		-64.453125
1379		-72.265625
1380		-64.453125
1381		-74.218750
1382		-66.406250
1383		-74.218750
1384		-66.406250
1385		-76.171875
1386		-68.359375
1387		-76.171875
1388		-68.359375
1389		-76.171875
1390		-68.359375
1391		-74.218750
1392		-72.265625
1393		-74.218750
1394		-70.312500
1395		-74.218750
1396		-68.359375
1397		-74.218750
1398		-68.359375
1399		-74.218750
1400		-66.406250
1401		-74.218750
1402		-66.406250
1403		-72.265625
1404		-64.453125
1405		-72.265625
1406		-62.500000
1407		-70.312500
1408		-62.500000
1409		-66.406250
1410		-62.500000
1411		-64.453125
1412		-58.593750
1413		-64.453125
1414		-56.640625
1415		-62.500000
1416		-52.734375
1417		-58.593750
1418		-50.781250
1419		-56.640625
1420		-48.828125
1421		-54.687500
1422		-44.921875
1423		-50.781250
1424		-42.968750
1425		-46.875000
1426		-41.015625
1427		-42.968750
1428		-39.062500
1429		-42.968750
1430		-33.203125
1431		-39.062500
1432		-29.296875
1433		-35.156250
1434		-27.343750
1435		-31.250000
1436		-23.437500
1437		-29.296875
1438		-19.531250
1439		-25.390625
1440		-15.625000
1441		-21.484375
1442		-13.671875
1443		-15.625000
1444		-9.765625
1445		-11.718750
1446		-3.906250
1447		-9.765625
1448		0.000000
1449		-5.859375
1450		3.906250
1451		-1.953125
1452		7.812500
1453		1.953125
1454		11.718750
1455		5.859375
1456		15.625000
1457		9.765625
1458		17.578125
1459		15.625000
1460		21.484375
1461		19.531250
1462		27.343750
1463		21.484375
1464		31.250000
1465		25.390625
1466		35.156250
1467		29.296875
1468		37.109375
1469		31.250000
1470		41.015625
1471		35.156250
1472		44.921875
1473		39.062500
1474		46.875000
1475		42.968750
1476		48.828125
1477		46.875000
1478		52.734375
1479		48.828125
1480		56.640625
1481		50.781250
1482		58.593750
1483		54.687500
1484		62.500000
1485		56.640625
1486		64.453125
1487		58.593750
1488		66.406250
1489		62.500000
1490		70.312500
1491		62.500000
1492		70.312500
1493		68.359375
1494		72.265625
1495		68.359375
1496		76.171875
1497		70.312500
1498		78.125000
1499		72.265625
1500		80.078125
1501		72.265625
1502		80.078125
1503		74.218750
1504		82.031250
1505		74.218750
1506		82.031250
1507		76.171875
1508		83.984375
1509		80.078125
1510		82.031250
1511		80.078125
1512		82.031250
1513		78.125000
1514		85.937500
1515		78.125000
1516		85.937500
1517		78.125000
1518		85.937500
1519		78.125000
1520		85.937500
1521		78.125000
1522		85.937500
1523		78.125000
1524		85.937500
1525		80.078125
1526		83.984375
1527		80.078125
1528		82.031250
1529		76.171875
1530		83.984375
1531		74.218750
1532		82.031250
1533		74.218750
1534		82.031250
1535		72.265625
1536		80.078125
1537		70.312500
1538		78.125000
1539		70.312500
1540		78.125000
1541		68.359375
1542		76.171875
1543		68.359375
1544		72.265625
1545		64.453125
1546		70.312500
1547		60.546875
1548		68.359375
1549		58.593750
1550		66.406250
1551		56.640625
1552		64.453125
1553		52.734375
1554		60.546875
1555		48.828125
1556		58.593750
1557		46.875000
1558		56.640625
1559		46.875000
1560		50.781250
1561		42.968750
1562		46.875000
1563		37.109375
1564		44.921875
1565		33.203125
1566		42.968750
1567		31.250000
1568		39.062500
1569		27.343750
1570		37.109375
1571		23.437500
1572		33.203125
1573		19.531250
1574		29.296875
1575		17.578125
1576		25.390625
1577		13.671875
1578		19.531250
1579		7.812500
1580		15.625000
1581		3.906250
1582		13.671875
1583		0.000000
1584		9.765625
1585		-3.906250
1586		5.859375
1587		-7.812500
1588		1.953125
1589		-11.718750
1590		-1.953125
1591		-13.671875
1592		-5.859375
1593		-17.578125
1594		-11.718750
1595		-19.531250
1596		-15.625000
1597		-25.390625
1598		-17.578125
1599		-29.296875
1600		-21.484375
1601		-31.250000
1602		-25.390625
1603		-37.109375
1604		-29.296875
1605		-39.062500
1606		-33.203125
1607		-42.968750
1608		-35.156250
1609		-44.921875
1610		-39.062500
1611		-46.875000
1612		-42.968750
1613		-52.734375
1614		-44.921875
1615		-54.687500
1616		-46.875000
1617		-58.593750
1618		-48.828125
1619		-60.546875
1620		-50.781250
1621		-62.500000
1622		-54.687500
1623		-64.453125
1624		-56.640625
1625		-66.406250
1626		-58.593750
1627		-66.406250
1628		-62.500000
1629		-70.312500
1630		-64.453125
1631		-72.265625
1632		-64.453125
1633		-72.265625
1634		-64.453125
1635		-74.218750
1636		-66.406250
1637		-74.218750
1638		-68.359375
1639		-74.218750
1640		-68.359375
1641		-76.171875
1642		-68.359375
1643		-74.218750
1644		-70.312500
1645		-74.218750
1646		-72.265625
1647		-76.171875
1648		-68.359375
1649		-76.171875
1650		-68.359375
1651		-76.171875
1652		-68.359375
1653		-74.218750
1654		-66.406250
1655		-72.265625
1656		-66.406250
1657		-72.265625
1658		-64.453125
1659		-70.312500
1660		-64.453125
1661		-66.406250
1662		-64.453125
1663		-66.406250
1664		-60.546875
1665		-66.406250
1666		-56.640625
1667		-64.453125
1668		-54.687500
1669		-62.500000
1670		-52.734375
1671		-60.546875
1672		-50.781250
1673		-56.640625
1674		-46.875000
1675		-54.687500
1676		-46.875000
1677		-48.828125
1678		-44.921875
1679		-44.921875
1680		-41.015625
1681		-44.921875
1682		-35.156250
1683		-41.015625
1684		-33.203125
1685		-39.062500
1686		-29.296875
1687		-35.156250
1688		-25.390625
1689		-31.250000
1690		-21.484375
1691		-27.343750
1692		-17.578125
1693		-25.390625
1694		-15.625000
1695		-17.578125
1696		-11.718750
1697		-13.671875
1698		-5.859375
1699		-11.718750
1700		-1.953125
1701		-9.765625
1702		0.000000
1703		-5.859375
1704		3.906250
1705		-1.953125
1706		9.765625
1707		3.906250
1708		13.671875
1709		5.859375
1710		13.671875
1711		13.671875
1712		17.578125
1713		17.578125
1714		23.437500
1715		17.578125
1716		27.343750
1717		21.484375
1718		31.250000
1719		25.390625
1720		35.156250
1721		29.296875
1722		39.062500
1723		33.203125
1724		41.015625
1725		37.109375
1726		44.921875
1727		42.968750
1728		46.875000
1729		44.921875
1730		48.828125
1731		44.921875
1732		54.687500
1733		48.828125
1734		58.593750
1735		52.734375
1736		60.546875
1737		54.687500
1738		62.500000
1739		56.640625
1740		66.406250
1741		58.593750
1742		68.359375
1743		62.500000
1744		70.312500
1745		66.406250
1746		70.312500
1747		68.359375
1748		74.218750
1749		68.359375
1750		76.171875
1751		70.312500
1752		78.125000
1753		72.265625
1754		80.078125
1755		72.265625
1756		82.031250
1757		74.218750
1758		82.031250
1759		76.171875
1760		83.984375
1761		80.078125
1762		82.031250
1763		80.078125
1764		82.031250
1765		78.125000
1766		85.937500
1767		78.125000
1768		85.937500
1769		78.125000
1770		85.937500
1771		78.125000
1772		85.937500
1773		78.125000
1774		85.937500
1775		78.125000
1776		85.937500
1777		80.078125
1778		85.937500
1779		80.078125
1780		83.984375
1781		76.171875
1782		83.984375
1783		76.171875
1784		83.984375
1785		74.218750
1786		82.031250
1787		74.218750
1788		82.031250
1789		72.265625
1790		80.078125
1791		70.312500
1792		78.125000
1793		70.312500
1794		78.125000
1795		70.312500
1796		72.265625
1797		66.406250
1798		70.312500
1799		62.500000
1800		70.312500
1801		60.546875
1802		68.359375
1803		58.593750
1804		66.406250
1805		54.687500
1806		64.453125
1807		52.734375
1808		60.546875
1809		48.828125
1810		58.593750
1811		48.828125
1812		52.734375
1813		44.921875
1814		50.781250
1815		39.062500
1816		48.828125
1817		37.109375
1818		46.875000
1819		33.203125
1820		42.968750
1821		29.296875
1822		39.062500
1823		25.390625
1824		35.156250
1825		21.484375
1826		33.203125
1827		21.484375
1828		27.343750
1829		17.578125
1830		21.484375
1831		11.718750
1832		19.531250
1833		7.812500
1834		17.578125
1835		3.906250
1836		13.671875
1837		0.000000
1838		9.765625
1839		-3.906250
1840		5.859375
1841		-7.812500
1842		1.953125
1843		-9.765625
1844		-1.953125
1845		-13.671875
1846		-7.812500
1847		-17.578125
1848		-11.718750
1849		-23.437500
1850		-15.625000
1851		-27.343750
1852		-17.578125
1853		-31.250000
1854		-21.484375
1855		-35.156250
1856		-25.390625
1857		-37.109375
1858		-27.343750
1859		-41.015625
1860		-31.250000
1861		-42.968750
1862		-35.156250
1863		-44.921875
1864		-39.062500
1865		-50.781250
1866		-42.968750
1867		-52.734375
1868		-44.921875
1869		-56.640625
1870		-48.828125
1871		-58.593750
1872		-50.781250
1873		-60.546875
1874		-52.734375
1875		-62.500000
1876		-54.687500
1877		-64.453125
1878		-58.593750
1879		-64.453125
1880		-60.546875
1881		-66.406250
1882		-62.500000
1883		-70.312500
1884		-62.500000
1885		-72.265625
1886		-64.453125
1887		-72.265625
1888		-64.453125
1889		-74.218750
1890		-66.406250
1891		-74.218750
1892		-66.406250
1893		-74.218750
1894		-68.359375
1895		-74.218750
1896		-70.312500
1897		-72.265625
1898		-70.312500
1899		-76.171875
1900		-68.359375
1901		-76.171875
1902		-68.359375
1903		-74.218750
1904		-68.359375
1905		-74.218750
1906		-66.406250
1907		-74.218750
1908		-66.406250
1909		-72.265625
1910		-64.453125
1911		-70.312500
1912		-64.453125
1913		-68.359375
1914		-64.453125
1915		-66.406250
1916		-60.546875
1917		-68.359375
1918		-58.593750
1919		-64.453125
1920		-56.640625
1921		-62.500000
1922		-54.687500
1923		-60.546875
1924		-52.734375
1925		-58.593750
1926		-48.828125
1927		-56.640625
1928		-46.875000
1929		-50.781250
1930		-44.921875
1931		-46.875000
1932		-42.968750
1933		-46.875000
1934		-37.109375
1935		-42.968750
1936		-33.203125
1937		-39.062500
1938		-31.250000
1939		-37.109375
1940		-27.343750
1941		-33.203125
1942		-23.437500
1943		-29.296875
1944		-19.531250
1945		-27.343750
1946		-19.531250
1947		-19.531250
1948		-13.671875
1949		-17.578125
1950		-9.765625
1951		-15.625000
1952		-5.859375
1953		-11.718750
1954		-1.953125
1955		-7.812500
1956		1.953125
1957		-1.953125
1958		5.859375
1959		0.000000
1960		9.765625
1961		3.906250
1962		11.718750
1963		9.765625
1964		15.625000
1965		13.671875
1966		19.531250
1967		17.578125
1968		25.390625
1969		19.531250
1970		29.296875
1971		23.437500
1972		33.203125
1973		27.343750
1974		37.109375
1975		31.250000
1976		39.062500
1977		33.203125
1978		42.968750
1979		37.109375
1980		44.921875
1981		42.968750
1982		46.875000
1983		44.921875
1984		52.734375
1985		46.875000
1986		56.640625
1987		50.781250
1988		58.593750
1989		52.734375
1990		60.546875
1991		54.687500
1992		64.453125
1993		58.593750
1994		66.406250
1995		60.546875
1996		66.406250
1997		66.406250
1998		68.359375
1999		66.406250
2000		74.218750
2001		68.359375
2002		76.171875
2003		70.312500
2004		76.171875
2005		70.312500
2006		78.125000
2007		72.265625
2008		80.078125
2009		74.218750
2010		82.031250
2011		74.218750
2012		83.984375
2013		78.125000
2014		82.031250
2015		80.078125
2016		82.031250
2017		78.125000
2018		85.937500
2019		78.125000
2020		85.937500
2021		78.125000
2022		85.937500
2023		80.078125
2024		85.937500
2025		78.125000
2026		85.937500
2027		78.125000
2028		85.937500
2029		80.078125
2030		85.937500
2031		80.078125
2032		83.984375
2033		78.125000
2034		83.984375
2035		76.171875
2036		83.984375
2037		76.171875
2038		83.984375
2039		74.218750
2040		82.031250
2041		74.218750
2042		82.031250
2043		72.265625
2044		80.078125
2045		70.312500
2046		78.125000
2047		70.312500
2048		74.218750
2049		68.359375
2050		72.265625
2051		64.453125
2052		72.265625
2053		60.546875
2054		70.312500
2055		58.593750
2056		68.359375
2057		56.640625
2058		66.406250
2059		52.734375
2060		62.500000
2061		50.781250
2062		60.546875
2063		50.781250
2064		56.640625
2065		46.875000
2066		52.734375
2067		42.968750
2068		48.828125
2069		39.062500
2070		48.828125
2071		37.109375
2072		44.921875
2073		33.203125
2074		41.015625
2075		29.296875
2076		37.109375
2077		25.390625
2078		33.203125
2079		23.437500
2080		29.296875
2081		19.531250
2082		25.390625
2083		13.671875
2084		21.484375
2085		9.765625
2086		19.531250
2087		5.859375
2088		15.625000
2089		1.953125
2090		11.718750
2091		-1.953125
2092		7.812500
2093		-5.859375
2094		3.906250
2095		-7.812500
2096		0.000000
2097		-11.718750
2098		-5.859375
2099		-15.625000
2100		-9.765625
2101		-21.484375
2102		-13.671875
2103		-23.437500
2104		-15.625000
2105		-27.343750
2106		-19.531250
2107		-31.250000
2108		-23.437500
2109		-35.156250
2110		-27.343750
2111		-39.062500
2112		-29.296875
2113		-39.062500
2114		-33.203125
2115		-42.968750
2116		-39.062500
2117		-48.828125
2118		-41.015625
2119		-50.781250
2120		-42.968750
2121		-54.687500
2122		-44.921875
2123		-56.640625
2124		-46.875000
2125		-60.546875
2126		-50.781250
2127		-62.500000
2128		-54.687500
2129		-64.453125
2130		-54.687500
2131		-64.453125
2132		-60.546875
2133		-66.406250
2134		-62.500000
2135		-68.359375
2136		-62.500000
2137		-70.312500
2138		-62.500000
2139		-72.265625
2140		-64.453125
2141		-72.265625
2142		-66.406250
2143		-74.218750
2144		-66.406250
2145		-74.218750
2146		-66.406250
2147		-72.265625
2148		-68.359375
2149		-72.265625
2150		-70.312500
2151		-76.171875
2152		-68.359375
2153		-76.171875
2154		-68.359375
2155		-76.171875
2156		-68.359375
2157		-74.218750
2158		-68.359375
2159		-74.218750
2160		-66.406250
2161		-74.218750
2162		-66.406250
2163		-72.265625
2164		-66.406250
2165		-68.359375
2166		-66.406250
2167		-68.359375
2168		-62.500000
2169		-68.359375
2170		-60.546875
2171		-66.406250
2172		-58.593750
2173		-64.453125
2174		-56.640625
2175		-62.500000
2176		-52.734375
2177		-58.593750
2178		-50.781250
2179		-56.640625
2180		-48.828125
2181		-52.734375
2182		-48.828125
2183		-48.828125
2184		-44.921875
2185		-46.875000
2186		-39.062500
2187		-44.921875
2188		-37.109375
2189		-42.968750
2190		-33.203125
2191		-39.062500
2192		-29.296875
2193		-35.156250
2194		-25.390625
2195		-33.203125
2196		-23.437500
2197		-29.296875
2198		-21.484375
2199		-23.437500
2200		-17.578125
2201		-19.531250
2202		-11.718750
2203		-17.578125
2204		-7.812500
2205		-13.671875
2206		-3.906250
2207		-9.765625
2208		0.000000
2209		-5.859375
2210		3.906250
2211		-1.953125
2212		7.812500
2213		1.953125
2214		9.765625
2215		7.812500
2216		13.671875
2217		11.718750
2218		17.578125
2219		13.671875
2220		23.437500
2221		17.578125
2222		27.343750
2223		19.531250
2224		31.250000
2225		25.390625
2226		33.203125
2227		29.296875
2228		37.109375
2229		33.203125
2230		41.015625
2231		37.109375
2232		42.968750
2233		41.015625
2234		44.921875
2235		44.921875
2236		50.781250
2237		44.921875
2238		54.687500
2239		48.828125
2240		56.640625
2241		50.781250
2242		60.546875
2243		52.734375
2244		62.500000
2245		56.640625
2246		64.453125
2247		58.593750
2248		66.406250
2249		64.453125
2250		68.359375
2251		66.406250
2252		72.265625
2253		66.406250
2254		74.218750
2255		68.359375
2256		76.171875
2257		70.312500
2258		78.125000
2259		72.265625
2260		80.078125
2261		74.218750
2262		80.078125
2263		74.218750
2264		82.031250
2265		78.125000
2266		80.078125
2267		78.125000
2268		82.031250
2269		78.125000
2270		83.984375
2271		78.125000
2272		85.937500
2273		78.125000
2274		85.937500
2275		80.078125
2276		85.937500
2277		80.078125
2278		85.937500
2279		80.078125
2280		85.937500
2281		80.078125
2282		85.937500
2283		80.078125
2284		83.984375
2285		78.125000
2286		83.984375
2287		78.125000
2288		83.984375
2289		76.171875
2290		83.984375
2291		76.171875
2292		83.984375
2293		74.218750
2294		82.031250
2295		72.265625
2296		80.078125
2297		72.265625
2298		80.078125
2299		72.265625
2300		76.171875
2301		70.312500
2302		74.218750
2303		66.406250
2304		74.218750
2305		64.453125
2306		72.265625
2307		62.500000
2308		70.312500
2309		58.593750
2310		66.406250
2311		56.640625
2312		64.453125
2313		52.734375
2314		62.500000
2315		52.734375
2316		58.593750
2317		48.828125
2318		54.687500
2319		44.921875
2320		50.781250
2321		41.015625
2322		50.781250
2323		37.109375
2324		46.875000
2325		35.156250
2326		44.921875
2327		31.250000
2328		41.015625
2329		27.343750
2330		37.109375
2331		25.390625
2332		33.203125
2333		21.484375
2334		27.343750
2335		17.578125
2336		23.437500
2337		11.718750
2338		21.484375
2339		9.765625
2340		17.578125
2341		5.859375
2342		13.671875
2343		1.953125
2344		9.765625
2345		-1.953125
2346		5.859375
2347		-5.859375
2348		1.953125
2349		-7.812500
2350		-3.906250
2351		-11.718750
2352		-7.812500
2353		-17.578125
2354		-9.765625
2355		-21.484375
2356		-11.718750
2357		-25.390625
2358		-15.625000
2359		-29.296875
2360		-19.531250
2361		-33.203125
2362		-23.437500
2363		-37.109375
2364		-27.343750
2365		-37.109375
2366		-29.296875
2367		-41.015625
2368		-35.156250
2369		-44.921875
2370		-39.062500
2371		-48.828125
2372		-41.015625
2373		-52.734375
2374		-42.968750
2375		-54.687500
2376		-46.875000
2377		-56.640625
2378		-48.828125
2379		-60.546875
2380		-50.781250
2381		-62.500000
2382		-54.687500
2383		-62.500000
2384		-58.593750
2385		-64.453125
2386		-60.546875
2387		-68.359375
2388		-60.546875
2389		-70.312500
2390		-62.500000
2391		-72.265625
2392		-62.500000
2393		-72.265625
2394		-64.453125
2395		-72.265625
2396		-66.406250
2397		-74.218750
2398		-66.406250
2399		-74.218750
2400		-68.359375
2401		-72.265625
2402		-70.312500
2403		-74.218750
2404		-68.359375
2405		-76.171875
2406		-68.359375
2407		-74.218750
2408		-68.359375
2409		-74.218750
2410		-68.359375
2411		-74.218750
2412		-66.406250
2413		-74.218750
2414		-66.406250
2415		-72.265625
2416		-66.406250
2417		-68.359375
2418		-66.406250
2419		-68.359375
2420		-64.453125
2421		-70.312500
2422		-60.546875
2423		-66.406250
2424		-58.593750
2425		-64.453125
2426		-56.640625
2427		-62.500000
2428		-54.687500
2429		-60.546875
2430		-52.734375
2431		-58.593750
2432		-48.828125
2433		-54.687500
2434		-48.828125
2435		-50.781250
2436		-46.875000
2437		-48.828125
2438		-41.015625
2439		-46.875000
2440		-39.062500
2441		-44.921875
2442		-35.156250
2443		-41.015625
2444		-31.250000
2445		-37.109375
2446		-27.343750
2447		-35.156250
2448		-25.390625
2449		-31.250000
2450		-23.437500
2451		-25.390625
2452		-19.531250
2453		-21.484375
2454		-13.671875
2455		-19.531250
2456		-9.765625
2457		-15.625000
2458		-5.859375
2459		-11.718750
2460		-1.953125
2461		-7.812500
2462		1.953125
2463		-3.906250
2464		5.859375
2465		0.000000
2466		7.812500
2467		5.859375
2468		11.718750
2469		9.765625
2470		15.625000
2471		11.718750
2472		21.484375
2473		13.671875
2474		25.390625
2475		17.578125
2476		27.343750
2477		21.484375
2478		31.250000
2479		25.390625
2480		35.156250
2481		29.296875
2482		39.062500
2483		33.203125
2484		41.015625
2485		39.062500
2486		44.921875
2487		41.015625
2488		48.828125
2489		42.968750
2490		52.734375
2491		46.875000
2492		54.687500
2493		48.828125
2494		58.593750
2495		52.734375
2496		60.546875
2497		54.687500
2498		64.453125
2499		58.593750
2500		66.406250
2501		62.500000
2502		66.406250
2503		64.453125
2504		68.359375
2505		66.406250
2506		72.265625
2507		66.406250
2508		74.218750
2509		68.359375
2510		76.171875
2511		70.312500
2512		78.125000
2513		72.265625
2514		80.078125
2515		74.218750
2516		82.031250
2517		78.125000
2518		80.078125
2519		78.125000
2520		82.031250
2521		78.125000
2522		83.984375
2523		78.125000
2524		85.937500
2525		78.125000
2526		85.937500
2527		80.078125
2528		85.937500
2529		80.078125
2530		85.937500
2531		78.125000
2532		85.937500
2533		80.078125
2534		85.937500
2535		82.031250
2536		83.984375
2537		80.078125
2538		85.937500
2539		78.125000
2540		85.937500
2541		78.125000
2542		85.937500
2543		76.171875
2544		83.984375
2545		76.171875
2546		83.984375
2547		74.218750
2548		82.031250
2549		74.218750
2550		80.078125
2551		74.218750
2552		76.171875
2553		72.265625
2554		74.218750
2555		68.359375
2556		76.171875
2557		64.453125
2558		72.265625
2559		62.500000
2560		72.265625
2561		60.546875
2562		70.312500
2563		58.593750
2564		66.406250
2565		54.687500
2566		64.453125
2567		54.687500
2568		62.500000
2569		52.734375
2570		56.640625
2571		46.875000
2572		54.687500
2573		42.968750
2574		52.734375
2575		41.015625
2576		50.781250
2577		37.109375
2578		46.875000
2579		33.203125
2580		42.968750
2581		31.250000
2582		41.015625
2583		29.296875
2584		37.109375
2585		25.390625
2586		31.250000
2587		21.484375
2588		27.343750
2589		15.625000
2590		25.390625
2591		11.718750
2592		21.484375
2593		7.812500
2594		17.578125
2595		3.906250
2596		13.671875
2597		0.000000
2598		9.765625
2599		-3.906250
2600		5.859375
2601		-5.859375
2602		0.000000
2603		-9.765625
2604		-3.906250
2605		-15.625000
2606		-7.812500
2607		-19.531250
2608		-9.765625
2609		-23.437500
2610		-13.671875
2611		-27.343750
2612		-17.578125
2613		-29.296875
2614		-21.484375
2615		-33.203125
2616		-23.437500
2617		-35.156250
2618		-27.343750
2619		-37.109375
2620		-33.203125
2621		-42.968750
2622		-37.109375
2623		-46.875000
2624		-37.109375
2625		-48.828125
2626		-41.015625
2627		-52.734375
2628		-42.968750
2629		-54.687500
2630		-46.875000
2631		-58.593750
2632		-48.828125
2633		-60.546875
2634		-52.734375
2635		-60.546875
2636		-56.640625
2637		-62.500000
2638		-58.593750
2639		-66.406250
2640		-58.593750
2641		-68.359375
2642		-60.546875
2643		-70.312500
2644		-62.500000
2645		-70.312500
2646		-62.500000
2647		-72.265625
2648		-64.453125
2649		-72.265625
2650		-64.453125
2651		-72.265625
2652		-66.406250
2653		-72.265625
2654		-70.312500
2655		-72.265625
2656		-68.359375
2657		-74.218750
2658		-68.359375
2659		-74.218750
2660		-66.406250
2661		-74.218750
2662		-66.406250
2663		-74.218750
2664		-66.406250
2665		-72.265625
2666		-66.406250
2667		-72.265625
2668		-66.406250
2669		-68.359375
2670		-66.406250
2671		-68.359375
2672		-64.453125
2673		-68.359375
2674		-60.546875
2675		-68.359375
2676		-58.593750
2677		-64.453125
2678		-56.640625
2679		-64.453125
2680		-54.687500
2681		-62.500000
2682		-52.734375
2683		-60.546875
2684		-50.781250
2685		-56.640625
2686		-50.781250
2687		-52.734375
2688		-46.875000
2689		-50.781250
2690		-42.968750
2691		-48.828125
2692		-39.062500
2693		-44.921875
2694		-37.109375
2695		-42.968750
2696		-33.203125
2697		-39.062500
2698		-29.296875
2699		-35.156250
2700		-27.343750
2701		-31.250000
2702		-25.390625
2703		-27.343750
2704		-21.484375
2705		-23.437500
2706		-17.578125
2707		-21.484375
2708		-11.718750
2709		-17.578125
2710		-7.812500
2711		-13.671875
2712		-3.906250
2713		-9.765625
2714		0.000000
2715		-5.859375
2716		3.906250
2717		-1.953125
2718		5.859375
2719		3.906250
2720		9.765625
2721		7.812500
2722		13.671875
2723		11.718750
2724		17.578125
2725		13.671875
2726		23.437500
2727		17.578125
2728		27.343750
2729		21.484375
2730		31.250000
2731		25.390625
2732		33.203125
2733		29.296875
2734		37.109375
2735		33.203125
2736		39.062500
2737		37.109375
2738		42.968750
2739		41.015625
2740		46.875000
2741		41.015625
2742		50.781250
2743		44.921875
2744		52.734375
2745		46.875000
2746		56.640625
2747		50.781250
2748		60.546875
2749		52.734375
2750		62.500000
2751		56.640625
2752		64.453125
2753		60.546875
2754		66.406250
2755		64.453125
2756		68.359375
2757		64.453125
2758		72.265625
2759		66.406250
2760		74.218750
2761		68.359375
2762		76.171875
2763		70.312500
2764		78.125000
2765		72.265625
2766		80.078125
2767		74.218750
2768		82.031250
2769		74.218750
2770		80.078125
2771		78.125000
2772		82.031250
2773		78.125000
2774		83.984375
2775		78.125000
2776		85.937500
2777		78.125000
2778		85.937500
2779		80.078125
2780		85.937500
2781		80.078125
2782		87.890625
2783		80.078125
2784		87.890625
2785		80.078125
2786		87.890625
2787		82.031250
2788		85.937500
2789		82.031250
2790		85.937500
2791		80.078125
2792		85.937500
2793		78.125000
2794		85.937500
2795		78.125000
2796		85.937500
2797		76.171875
2798		83.984375
2799		76.171875
2800		83.984375
2801		74.218750
2802		82.031250
2803		76.171875
2804		78.125000
2805		74.218750
2806		76.171875
2807		70.312500
2808		76.171875
2809		68.359375
2810		76.171875
2811		64.453125
2812		74.218750
2813		62.500000
2814		72.265625
2815		60.546875
2816		68.359375
2817		58.593750
2818		66.406250
2819		56.640625
2820		64.453125
2821		54.687500
2822		58.593750
2823		48.828125
2824		56.640625
2825		46.875000
2826		54.687500
2827		42.968750
2828		52.734375
2829		41.015625
2830		48.828125
2831		37.109375
2832		46.875000
2833		35.156250
2834		42.968750
2835		31.250000
2836		39.062500
2837		29.296875
2838		33.203125
2839		25.390625
2840		29.296875
2841		19.531250
2842		27.343750
2843		15.625000
2844		25.390625
2845		11.718750
2846		21.484375
2847		7.812500
2848		17.578125
2849		3.906250
2850		13.671875
2851		0.000000
2852		9.765625
2853		-1.953125
2854		5.859375
2855		-5.859375
2856		0.000000
2857		-11.718750
2858		-3.906250
2859		-15.625000
2860		-5.859375
2861		-19.531250
2862		-9.765625
2863		-23.437500
2864		-13.671875
2865		-25.390625
2866		-17.578125
2867		-29.296875
2868		-21.484375
2869		-33.203125
2870		-25.390625
2871		-35.156250
2872		-29.296875
2873		-39.062500
2874		-33.203125
2875		-44.921875
2876		-35.156250
2877		-46.875000
2878		-39.062500
2879		-50.781250
2880		-41.015625
2881		-52.734375
2882		-44.921875
2883		-54.687500
2884		-46.875000
2885		-58.593750
2886		-48.828125
2887		-58.593750
2888		-54.687500
2889		-60.546875
2890		-56.640625
2891		-64.453125
2892		-56.640625
2893		-66.406250
2894		-58.593750
2895		-68.359375
2896		-60.546875
2897		-70.312500
2898		-60.546875
2899		-70.312500
2900		-62.500000
2901		-72.265625
2902		-64.453125
2903		-72.265625
2904		-64.453125
2905		-70.312500
2906		-68.359375
2907		-74.218750
2908		-66.406250
2909		-74.218750
2910		-66.406250
2911		-74.218750
2912		-66.406250
2913		-74.218750
2914		-66.406250
2915		-74.218750
2916		-66.406250
2917		-74.218750
2918		-66.406250
2919		-72.265625
2920		-66.406250
2921		-70.312500
2922		-66.406250
2923		-68.359375
2924		-66.406250
2925		-68.359375
2926		-62.500000
2927		-68.359375
2928		-60.546875
2929		-66.406250
2930		-58.593750
2931		-64.453125
2932		-56.640625
2933		-62.500000
2934		-54.687500
2935		-60.546875
2936		-52.734375
2937		-58.593750
2938		-52.734375
2939		-54.687500
2940		-50.781250
2941		-52.734375
2942		-44.921875
2943		-50.781250
2944		-41.015625
2945		-46.875000
2946		-39.062500
2947		-44.921875
2948		-35.156250
2949		-41.015625
2950		-33.203125
2951		-39.062500
2952		-29.296875
2953		-35.156250
2954		-27.343750
2955		-29.296875
2956		-23.437500
2957		-25.390625
2958		-19.531250
2959		-23.437500
2960		-13.671875
2961		-19.531250
2962		-9.765625
2963		-15.625000
2964		-5.859375
2965		-11.718750
2966		-1.953125
2967		-7.812500
2968		0.000000
2969		-3.906250
2970		3.906250
2971		1.953125
2972		5.859375
2973		5.859375
2974		9.765625
2975		7.812500
2976		15.625000
2977		11.718750
2978		19.531250
2979		13.671875
2980		23.437500
2981		17.578125
2982		27.343750
2983		21.484375
2984		31.250000
2985		25.390625
2986		35.156250
2987		29.296875
2988		37.109375
2989		35.156250
2990		39.062500
2991		37.109375
2992		44.921875
2993		39.062500
2994		48.828125
2995		42.968750
2996		52.734375
2997		46.875000
2998		54.687500
2999		48.828125
3000		56.640625
3001		52.734375
3002		60.546875
3003		54.687500
3004		62.500000
3005		60.546875
3006		64.453125
3007		62.500000
3008		66.406250
3009		62.500000
3010		70.312500
3011		64.453125
3012		72.265625
3013		66.406250
3014		74.218750
3015		68.359375
3016		78.125000
3017		70.312500
3018		80.078125
3019		72.265625
3020		80.078125
3021		74.218750
3022		80.078125
3023		78.125000
3024		80.078125
3025		78.125000
3026		83.984375
3027		78.125000
3028		85.937500
3029		78.125000
3030		85.937500
3031		80.078125
3032		85.937500
3033		80.078125
3034		85.937500
3035		80.078125
3036		87.890625
3037		80.078125
3038		87.890625
3039		82.031250
3040		85.937500
3041		82.031250
3042		85.937500
3043		80.078125
3044		87.890625
3045		80.078125
3046		85.937500
3047		78.125000
3048		85.937500
3049		78.125000
3050		85.937500
3051		76.171875
3052		83.984375
3053		76.171875
3054		82.031250
3055		76.171875
3056		80.078125
3057		74.218750
3058		78.125000
3059		70.312500
3060		78.125000
3061		68.359375
3062		76.171875
3063		66.406250
3064		74.218750
3065		64.453125
3066		72.265625
3067		62.500000
3068		70.312500
3069		58.593750
3070		68.359375
3071		60.546875
3072		66.406250
3073		56.640625
3074		60.546875
3075		52.734375
3076		58.593750
3077		48.828125
3078		58.593750
3079		44.921875
3080		54.687500
3081		42.968750
3082		50.781250
3083		39.062500
3084		48.828125
3085		35.156250
3086		44.921875
3087		33.203125
3088		41.015625
3089		31.250000
3090		37.109375
3091		27.343750
3092		33.203125
3093		21.484375
3094		29.296875
3095		17.578125
3096		27.343750
3097		13.671875
3098		23.437500
3099		9.765625
3100		19.531250
3101		5.859375
3102		15.625000
3103		3.906250
3104		11.718750
3105		0.000000
3106		7.812500
3107		-3.906250
3108		1.953125
3109		-9.765625
3110		-1.953125
3111		-11.718750
3112		-3.906250
3113		-15.625000
3114		-7.812500
3115		-19.531250
3116		-11.718750
3117		-25.390625
3118		-15.625000
3119		-27.343750
3120		-19.531250
3121		-29.296875
3122		-23.437500
3123		-33.203125
3124		-27.343750
3125		-37.109375
3126		-31.250000
3127		-41.015625
3128		-33.203125
3129		-44.921875
3130		-37.109375
3131		-48.828125
3132		-39.062500
3133		-50.781250
3134		-42.968750
3135		-52.734375
3136		-44.921875
3137		-54.687500
3138		-46.875000
3139		-56.640625
3140		-50.781250
3141		-58.593750
3142		-54.687500
3143		-62.500000
3144		-56.640625
3145		-64.453125
3146		-56.640625
3147		-66.406250
3148		-58.593750
3149		-68.359375
3150		-60.546875
3151		-70.312500
3152		-62.500000
3153		-72.265625
3154		-64.453125
3155		-72.265625
3156		-64.453125
3157		-70.312500
3158		-68.359375
3159		-74.218750
3160		-66.406250
3161		-74.218750
3162		-66.406250
3163		-74.218750
3164		-66.406250
3165		-74.218750
3166		-66.406250
3167		-74.218750
3168		-66.406250
3169		-74.218750
3170		-66.406250
3171		-72.265625
3172		-66.406250
3173		-70.312500
3174		-66.406250
3175		-68.359375
3176		-66.406250
3177		-70.312500
3178		-62.500000
3179		-70.312500
3180		-60.546875
3181		-68.359375
3182		-60.546875
3183		-66.406250
3184		-58.593750
3185		-64.453125
3186		-56.640625
3187		-62.500000
3188		-54.687500
3189		-60.546875
3190		-52.734375
3191		-54.687500
3192		-50.781250
3193		-52.734375
3194		-46.875000
3195		-52.734375
3196		-42.968750
3197		-48.828125
3198		-41.015625
3199		-46.875000
3200		-37.109375
3201		-42.968750
3202		-35.156250
3203		-41.015625
3204		-31.250000
3205		-37.109375
3206		-29.296875
3207		-31.250000
3208		-25.390625
3209		-29.296875
3210		-23.437500
3211		-25.390625
3212		-17.578125
3213		-23.437500
3214		-13.671875
3215		-19.531250
3216		-9.765625
3217		-15.625000
3218		-5.859375
3219		-9.765625
3220		-1.953125
3221		-7.812500
3222		1.953125
3223		-1.953125
3224		3.906250
3225		1.953125
3226		7.812500
3227		5.859375
3228		13.671875
3229		7.812500
3230		17.578125
3231		11.718750
3232		21.484375
3233		15.625000
3234		25.390625
3235		19.531250
3236		29.296875
3237		23.437500
3238		33.203125
3239		25.390625
3240		33.203125
3241		33.203125
3242		37.109375
3243		37.109375
3244		41.015625
3245		37.109375
3246		46.875000
3247		41.015625
3248		50.781250
3249		42.968750
3250		52.734375
3251		46.875000
3252		54.687500
3253		50.781250
3254		58.593750
3255		52.734375
3256		62.500000
3257		58.593750
3258		62.500000
3259		60.546875
3260		64.453125
3261		62.500000
3262		70.312500
3263		62.500000
3264		72.265625
3265		66.406250
3266		74.218750
3267		68.359375
3268		76.171875
3269		70.312500
3270		78.125000
3271		72.265625
3272		80.078125
3273		74.218750
3274		80.078125
3275		76.171875
3276		80.078125
3277		78.125000
3278		83.984375
3279		78.125000
3280		83.984375
3281		78.125000
3282		83.984375
3283		80.078125
3284		85.937500
3285		80.078125
3286		85.937500
3287		80.078125
3288		85.937500
3289		82.031250
3290		85.937500
3291		83.984375
3292		85.937500
3293		82.031250
3294		85.937500
3295		80.078125
3296		87.890625
3297		80.078125
3298		87.890625
3299		80.078125
3300		85.937500
3301		78.125000
3302		85.937500
3303		78.125000
3304		83.984375
3305		76.171875
3306		83.984375
3307		78.125000
3308		82.031250
3309		76.171875
3310		80.078125
3311		72.265625
3312		80.078125
3313		70.312500
3314		80.078125
3315		68.359375
3316		78.125000
3317		66.406250
3318		74.218750
3319		64.453125
3320		72.265625
3321		62.500000
3322		70.312500
3323		60.546875
3324		68.359375
3325		58.593750
3326		64.453125
3327		54.687500
3328		60.546875
3329		50.781250
3330		60.546875
3331		48.828125
3332		56.640625
3333		44.921875
3334		54.687500
3335		42.968750
3336		50.781250
3337		39.062500
3338		48.828125
3339		35.156250
3340		44.921875
3341		33.203125
3342		39.062500
3343		29.296875
3344		35.156250
3345		23.437500
3346		33.203125
3347		19.531250
3348		29.296875
3349		17.578125
3350		25.390625
3351		13.671875
3352		23.437500
3353		9.765625
3354		19.531250
3355		5.859375
3356		15.625000
3357		3.906250
3358		9.765625
3359		0.000000
3360		5.859375
3361		-5.859375
3362		1.953125
3363		-9.765625
3364		0.000000
3365		-13.671875
3366		-3.906250
3367		-17.578125
3368		-7.812500
3369		-21.484375
3370		-11.718750
3371		-25.390625
3372		-15.625000
3373		-27.343750
3374		-19.531250
3375		-29.296875
3376		-25.390625
3377		-33.203125
3378		-27.343750
3379		-39.062500
3380		-31.250000
3381		-42.968750
3382		-33.203125
3383		-44.921875
3384		-37.109375
3385		-48.828125
3386		-39.062500
3387		-50.781250
3388		-42.968750
3389		-54.687500
3390		-44.921875
3391		-54.687500
3392		-48.828125
3393		-58.593750
3394		-52.734375
3395		-60.546875
3396		-54.687500
3397		-62.500000
3398		-54.687500
3399		-66.406250
3400		-56.640625
3401		-68.359375
3402		-58.593750
3403		-68.359375
3404		-60.546875
3405		-70.312500
3406		-62.500000
3407		-70.312500
3408		-62.500000
3409		-70.312500
3410		-66.406250
3411		-72.265625
3412		-66.406250
3413		-74.218750
3414		-66.406250
3415		-74.218750
3416		-66.406250
3417		-74.218750
3418		-66.406250
3419		-74.218750
3420		-66.406250
3421		-74.218750
3422		-66.406250
3423		-72.265625
3424		-66.406250
3425		-70.312500
3426		-68.359375
3427		-70.312500
3428		-66.406250
3429		-70.312500
3430		-62.500000
3431		-70.312500
3432		-62.500000
3433		-68.359375
3434		-60.546875
3435		-66.406250
3436		-58.593750
3437		-64.453125
3438		-56.640625
3439		-62.500000
3440		-54.687500
3441		-62.500000
3442		-54.687500
3443		-56.640625
3444		-52.734375
3445		-54.687500
3446		-48.828125
3447		-52.734375
3448		-44.921875
3449		-50.781250
3450		-42.968750
3451		-48.828125
3452		-39.062500
3453		-44.921875
3454		-37.109375
3455		-42.968750
3456		-33.203125
3457		-39.062500
3458		-31.250000
3459		-33.203125
3460		-27.343750
3461		-29.296875
3462		-25.390625
3463		-27.343750
3464		-19.531250
3465		-25.390625
3466		-15.625000
3467		-21.484375
3468		-11.718750
3469		-17.578125
3470		-7.812500
3471		-13.671875
3472		-3.906250
3473		-9.765625
3474		0.000000
3475		-5.859375
3476		1.953125
3477		0.000000
3478		5.859375
3479		3.906250
3480		11.718750
3481		5.859375
3482		15.625000
3483		9.765625
3484		19.531250
3485		13.671875
3486		23.437500
3487		17.578125
3488		25.390625
3489		21.484375
3490		31.250000
3491		23.437500
3492		33.203125
3493		29.296875
3494		35.156250
3495		33.203125
3496		39.062500
3497		35.156250
3498		44.921875
3499		37.109375
3500		46.875000
3501		41.015625
3502		50.781250
3503		44.921875
3504		54.687500
3505		48.828125
3506		56.640625
3507		50.781250
3508		60.546875
3509		56.640625
3510		60.546875
3511		58.593750
3512		62.500000
3513		60.546875
3514		68.359375
3515		62.500000
3516		70.312500
3517		64.453125
3518		72.265625
3519		66.406250
3520		74.218750
3521		68.359375
3522		76.171875
3523		70.312500
3524		78.125000
3525		72.265625
3526		78.125000
3527		76.171875
3528		80.078125
3529		78.125000
3530		82.031250
3531		76.171875
3532		83.984375
3533		78.125000
3534		83.984375
3535		78.125000
3536		85.937500
3537		80.078125
3538		85.937500
3539		80.078125
3540		87.890625
3541		80.078125
3542		87.890625
3543		82.031250
3544		85.937500
3545		83.984375
3546		85.937500
3547		82.031250
3548		87.890625
3549		80.078125
3550		87.890625
3551		80.078125
3552		87.890625
3553		78.125000
3554		87.890625
3555		78.125000
3556		85.937500
3557		78.125000
3558		85.937500
3559		78.125000
3560		83.984375
3561		78.125000
3562		80.078125
3563		74.218750
3564		80.078125
3565		72.265625
3566		80.078125
3567		70.312500
3568		78.125000
3569		68.359375
3570		76.171875
3571		66.406250
3572		74.218750
3573		64.453125
3574		72.265625
3575		62.500000
3576		70.312500
3577		60.546875
3578		66.406250
3579		58.593750
3580		62.500000
3581		52.734375
3582		62.500000
3583		50.781250
3584		58.593750
3585		46.875000
3586		56.640625
3587		44.921875
3588		52.734375
3589		41.015625
3590		50.781250
3591		37.109375
3592		46.875000
3593		37.109375
3594		41.015625
3595		33.203125
3596		39.062500
3597		27.343750
3598		35.156250
3599		23.437500
3600		33.203125
3601		19.531250
3602		29.296875
3603		15.625000
3604		25.390625
3605		11.718750
3606		21.484375
3607		7.812500
3608		17.578125
3609		5.859375
3610		13.671875
3611		1.953125
3612		9.765625
3613		-3.906250
3614		3.906250
3615		-7.812500
3616		1.953125
3617		-9.765625
3618		-1.953125
3619		-13.671875
3620		-5.859375
3621		-19.531250
3622		-9.765625
3623		-21.484375
3624		-13.671875
3625		-25.390625
3626		-17.578125
3627		-27.343750
3628		-21.484375
3629		-31.250000
3630		-25.390625
3631		-37.109375
3632		-29.296875
3633		-41.015625
3634		-31.250000
3635		-42.968750
3636		-33.203125
3637		-46.875000
3638		-37.109375
3639		-50.781250
3640		-41.015625
3641		-50.781250
3642		-42.968750
3643		-54.687500
3644		-44.921875
3645		-54.687500
3646		-50.781250
3647		-58.593750
3648		-52.734375
3649		-60.546875
3650		-52.734375
3651		-62.500000
3652		-56.640625
3653		-64.453125
3654		-56.640625
3655		-66.406250
3656		-58.593750
3657		-68.359375
3658		-60.546875
3659		-68.359375
3660		-62.500000
3661		-68.359375
3662		-66.406250
3663		-70.312500
3664		-66.406250
3665		-72.265625
3666		-66.406250
3667		-72.265625
3668		-66.406250
3669		-74.218750
3670		-66.406250
3671		-74.218750
3672		-66.406250
3673		-74.218750
3674		-66.406250
3675		-72.265625
3676		-66.406250
3677		-70.312500
3678		-68.359375
3679		-70.312500
3680		-66.406250
3681		-70.312500
3682		-64.453125
3683		-70.312500
3684		-62.500000
3685		-68.359375
3686		-60.546875
3687		-66.406250
3688		-60.546875
3689		-66.406250
3690		-58.593750
3691		-64.453125
3692		-56.640625
3693		-62.500000
3694		-54.687500
3695		-58.593750
3696		-54.687500
3697		-54.687500
3698		-50.781250
3699		-52.734375
3700		-48.828125
3701		-50.781250
3702		-44.921875
3703		-46.875000
3704		-42.968750
3705		-44.921875
3706		-37.109375
3707		-42.968750
3708		-35.156250
3709		-41.015625
3710		-31.250000
3711		-35.156250
3712		-31.250000
3713		-31.250000
3714		-27.343750
3715		-27.343750
3716		-23.437500
3717		-25.390625
3718		-19.531250
3719		-23.437500
3720		-15.625000
3721		-17.578125
3722		-9.765625
3723		-15.625000
3724		-5.859375
3725		-11.718750
3726		-1.953125
3727		-7.812500
3728		0.000000
3729		-1.953125
3730		3.906250
3731		1.953125
3732		7.812500
3733		5.859375
3734		11.718750
3735		9.765625
3736		15.625000
3737		13.671875
3738		19.531250
3739		17.578125
3740		23.437500
3741		19.531250
3742		27.343750
3743		23.437500
3744		29.296875
3745		29.296875
3746		33.203125
3747		31.250000
3748		37.109375
3749		33.203125
3750		41.015625
3751		37.109375
3752		42.968750
3753		42.968750
3754		46.875000
3755		44.921875
3756		52.734375
3757		46.875000
3758		54.687500
3759		50.781250
3760		56.640625
3761		54.687500
3762		58.593750
3763		56.640625
3764		62.500000
3765		58.593750
3766		64.453125
3767		62.500000
3768		66.406250
3769		64.453125
3770		68.359375
3771		66.406250
3772		72.265625
3773		70.312500
3774		74.218750
3775		70.312500
3776		76.171875
3777		72.265625
3778		78.125000
3779		74.218750
3780		78.125000
3781		76.171875
3782		82.031250
3783		78.125000
3784		82.031250
3785		80.078125
3786		82.031250
3787		80.078125
3788		83.984375
3789		82.031250
3790		83.984375
3791		82.031250
3792		85.937500
3793		82.031250
3794		85.937500
3795		83.984375
3796		85.937500
3797		83.984375
3798		85.937500
3799		82.031250
3800		87.890625
3801		83.984375
3802		87.890625
3803		82.031250
3804		85.937500
3805		82.031250
3806		85.937500
3807		82.031250
3808		85.937500
3809		80.078125
3810		83.984375
3811		80.078125
3812		83.984375
3813		78.125000
3814		82.031250
3815		76.171875
3816		82.031250
3817		76.171875
3818		80.078125
3819		74.218750
3820		78.125000
3821		72.265625
3822		76.171875
3823		70.312500
3824		74.218750
3825		68.359375
3826		72.265625
3827		66.406250
3828		70.312500
3829		64.453125
3830		66.406250
3831		60.546875
3832		64.453125
3833		56.640625
3834		62.500000
3835		54.687500
3836		60.546875
3837		52.734375
3838		56.640625
3839		48.828125
3840		54.687500
3841		46.875000
3842		50.781250
3843		42.968750
3844		48.828125
3845		39.062500
3846		44.921875
3847		37.109375
3848		41.015625
3849		33.203125
3850		37.109375
3851		29.296875
3852		33.203125
3853		25.390625
3854		29.296875
3855		21.484375
3856		27.343750
3857		17.578125
3858		23.437500
3859		13.671875
3860		19.531250
3861		9.765625
3862		15.625000
3863		5.859375
3864		11.718750
3865		1.953125
3866		7.812500
3867		-1.953125
3868		3.906250
3869		-5.859375
3870		0.000000
3871		-9.765625
3872		-3.906250
3873		-13.671875
3874		-7.812500
3875		-17.578125
3876		-11.718750
3877		-21.484375
3878		-15.625000
3879		-23.437500
3880		-19.531250
3881		-27.343750
3882		-23.437500
3883		-31.250000
3884		-27.343750
3885		-35.156250
3886		-29.296875
3887		-39.062500
3888		-33.203125
3889		-41.015625
3890		-37.109375
3891		-44.921875
3892		-39.062500
3893		-46.875000
3894		-42.968750
3895		-50.781250
3896		-44.921875
3897		-52.734375
3898		-48.828125
3899		-56.640625
3900		-50.781250
3901		-56.640625
3902		-52.734375
3903		-58.593750
3904		-54.687500
3905		-60.546875
3906		-58.593750
3907		-64.453125
3908		-58.593750
3909		-64.453125
3910		-60.546875
3911		-66.406250
3912		-62.500000
3913		-68.359375
3914		-64.453125
3915		-68.359375
3916		-66.406250
3917		-70.312500
3918		-64.453125
3919		-70.312500
3920		-66.406250
3921		-70.312500
3922		-68.359375
3923		-70.312500
3924		-68.359375
3925		-70.312500
3926		-66.406250
3927		-70.312500
3928		-68.359375
3929		-72.265625
3930		-66.406250
3931		-70.312500
3932		-66.406250
3933		-68.359375
3934		-66.406250
3935		-68.359375
3936		-64.453125
3937		-66.406250
3938		-64.453125
3939		-66.406250
3940		-62.500000
3941		-64.453125
3942		-60.546875
3943		-62.500000
3944		-58.593750
3945		-60.546875
3946		-56.640625
3947		-58.593750
3948		-54.687500
3949		-56.640625
3950		-52.734375
3951		-54.687500
3952		-48.828125
3953		-50.781250
3954		-46.875000
3955		-48.828125
3956		-42.968750
3957		-46.875000
3958		-41.015625
3959		-44.921875
3960		-39.062500
3961		-41.015625
3962		-35.156250
3963		-37.109375
3964		-31.250000
3965		-33.203125
3966		-29.296875
3967		-31.250000
3968		-25.390625
3969		-27.343750
3970		-21.484375
3971		-23.437500
3972		-17.578125
3973		-19.531250
3974		-13.671875
3975		-15.625000
3976		-9.765625
3977		-11.718750
3978		-5.859375
3979		-9.765625
3980		-3.906250
3981		-3.906250
3982		1.953125
3983		0.000000
3984		5.859375
3985		3.906250
3986		9.765625
3987		7.812500
3988		13.671875
3989		11.718750
3990		15.625000
3991		15.625000
3992		21.484375
3993		17.578125
3994		23.437500
3995		21.484375
3996		27.343750
3997		25.390625
3998		31.250000
3999		29.296875
4000		35.156250
4001		33.203125
4002		39.062500
4003		37.109375
4004		42.968750
4005		41.015625
4006		44.921875
4007		44.921875
4008		48.828125
4009		46.875000
4010		52.734375
4011		48.828125
4012		54.687500
4013		52.734375
4014		58.593750
4015		56.640625
4016		60.546875
4017		58.593750
4018		62.500000
4019		62.500000
4020		66.406250
4021		64.453125
4022		68.359375
4023		66.406250
4024		70.312500
4025		68.359375
4026		72.265625
4027		70.312500
4028		76.171875
4029		72.265625
4030		76.171875
4031		74.218750
4032		78.125000
4033		76.171875
4034		80.078125
4035		78.125000
4036		82.031250
4037		78.125000
4038		82.031250
4039		80.078125
4040		83.984375
4041		82.031250
4042		83.984375
4043		82.031250
4044		85.937500
4045		82.031250
4046		85.937500
4047		83.984375
4048		85.937500
4049		83.984375
4050		85.937500
4051		82.031250
4052		87.890625
4053		83.984375
4054		85.937500
4055		83.984375
4056		85.937500
4057		82.031250
4058		85.937500
4059		82.031250
4060		85.937500
4061		82.031250
4062		83.984375
4063		80.078125
4064		83.984375
4065		80.078125
4066		82.031250
4067		78.125000
4068		82.031250
4069		76.171875
4070		80.078125
4071		74.218750
4072		78.125000
4073		74.218750
4074		78.125000
4075		72.265625
4076		76.171875
4077		70.312500
4078		74.218750
4079		66.406250
4080		72.265625
4081		64.453125
4082		68.359375
4083		62.500000
4084		66.406250
4085		60.546875
4086		64.453125
4087		56.640625
4088		62.500000
4089		54.687500
4090		58.593750
4091		50.781250
4092		56.640625
4093		48.828125
4094		52.734375
4095		44.921875
4096		50.781250
4097		41.015625
4098		46.875000
4099		39.062500
4100		42.968750
4101		35.156250
4102		41.015625
4103		31.250000
4104		37.109375
4105		27.343750
4106		33.203125
4107		23.437500
4108		29.296875
4109		19.531250
4110		25.390625
4111		15.625000
4112		21.484375
4113		13.671875
4114		17.578125
4115		7.812500
4116		13.671875
4117		3.906250
4118		9.765625
4119		0.000000
4120		5.859375
4121		-3.906250
4122		1.953125
4123		-5.859375
4124		-1.953125
4125		-9.765625
4126		-5.859375
4127		-13.671875
4128		-9.765625
4129		-19.531250
4130		-11.718750
4131		-21.484375
4132		-17.578125
4133		-25.390625
4134		-19.531250
4135		-29.296875
4136		-23.437500
4137		-33.203125
4138		-27.343750
4139		-35.156250
4140		-31.250000
4141		-39.062500
4142		-33.203125
4143		-42.968750
4144		-37.109375
4145		-44.921875
4146		-41.015625
4147		-48.828125
4148		-42.968750
4149		-50.781250
4150		-46.875000
4151		-54.687500
4152		-48.828125
4153		-54.687500
4154		-50.781250
4155		-58.593750
4156		-52.734375
4157		-60.546875
4158		-56.640625
4159		-62.500000
4160		-58.593750
4161		-64.453125
4162		-60.546875
4163		-64.453125
4164		-60.546875
4165		-66.406250
4166		-62.500000
4167		-68.359375
4168		-64.453125
4169		-68.359375
4170		-64.453125
4171		-70.312500
4172		-66.406250
4173		-70.312500
4174		-66.406250
4175		-70.312500
4176		-68.359375
4177		-70.312500
4178		-68.359375
4179		-70.312500
4180		-68.359375
4181		-70.312500
4182		-66.406250
4183		-70.312500
4184		-68.359375
4185		-70.312500
4186		-66.406250
4187		-68.359375
4188		-66.406250
4189		-68.359375
4190		-64.453125
4191		-66.406250
4192		-62.500000
4193		-64.453125
4194		-62.500000
4195		-64.453125
4196		-58.593750
4197		-62.500000
4198		-58.593750
4199		-60.546875
4200		-56.640625
4201		-58.593750
4202		-52.734375
4203		-56.640625
4204		-52.734375
4205		-54.687500
4206		-48.828125
4207		-50.781250
4208		-46.875000
4209		-48.828125
4210		-42.968750
4211		-44.921875
4212		-41.015625
4213		-42.968750
4214		-37.109375
4215		-39.062500
4216		-33.203125
4217		-35.156250
4218		-31.250000
4219		-31.250000
4220		-27.343750
4221		-29.296875
4222		-23.437500
4223		-25.390625
4224		-19.531250
4225		-21.484375
4226		-17.578125
4227		-17.578125
4228		-11.718750
4229		-13.671875
4230		-9.765625
4231		-9.765625
4232		-5.859375
4233		-5.859375
4234		-1.953125
4235		-3.906250
4236		3.906250
4237		0.000000
4238		5.859375
4239		3.906250
4240		9.765625
4241		7.812500
4242		13.671875
4243		11.718750
4244		19.531250
4245		15.625000
4246		21.484375
4247		19.531250
4248		25.390625
4249		23.437500
4250		29.296875
4251		27.343750
4252		33.203125
4253		31.250000
4254		37.109375
4255		35.156250
4256		39.062500
4257		37.109375
4258		42.968750
4259		41.015625
4260		46.875000
4261		44.921875
4262		50.781250
4263		48.828125
4264		54.687500
4265		50.781250
4266		56.640625
4267		54.687500
4268		58.593750
4269		56.640625
4270		62.500000
4271		60.546875
4272		64.453125
4273		62.500000
4274		66.406250
4275		64.453125
4276		70.312500
4277		68.359375
4278		72.265625
4279		68.359375
4280		74.218750
4281		70.312500
4282		76.171875
4283		74.218750
4284		78.125000
4285		74.218750
4286		78.125000
4287		76.171875
4288		80.078125
4289		78.125000
4290		82.031250
4291		80.078125
4292		83.984375
4293		80.078125
4294		83.984375
4295		82.031250
4296		85.937500
4297		82.031250
4298		85.937500
4299		83.984375
4300		85.937500
4301		83.984375
4302		85.937500
4303		82.031250
4304		87.890625
4305		83.984375
4306		85.937500
4307		83.984375
4308		87.890625
4309		83.984375
4310		85.937500
4311		83.984375
4312		85.937500
4313		82.031250
4314		85.937500
4315		82.031250
4316		85.937500
4317		82.031250
4318		83.984375
4319		78.125000
4320		83.984375
4321		78.125000
4322		82.031250
4323		76.171875
4324		80.078125
4325		76.171875
4326		78.125000
4327		72.265625
4328		78.125000
4329		72.265625
4330		76.171875
4331		68.359375
4332		74.218750
4333		66.406250
4334		70.312500
4335		64.453125
4336		68.359375
4337		62.500000
4338		66.406250
4339		60.546875
4340		64.453125
4341		56.640625
4342		62.500000
4343		54.687500
4344		58.593750
4345		50.781250
4346		56.640625
4347		46.875000
4348		52.734375
4349		44.921875
4350		50.781250
4351		41.015625
4352		46.875000
4353		37.109375
4354		42.968750
4355		35.156250
4356		39.062500
4357		29.296875
4358		35.156250
4359		27.343750
4360		31.250000
4361		23.437500
4362		29.296875
4363		19.531250
4364		25.390625
4365		15.625000
4366		21.484375
4367		11.718750
4368		17.578125
4369		7.812500
4370		13.671875
4371		3.906250
4372		11.718750
4373		0.000000
4374		5.859375
4375		-3.906250
4376		1.953125
4377		-7.812500
4378		-1.953125
4379		-11.718750
4380		-5.859375
4381		-15.625000
4382		-9.765625
4383		-19.531250
4384		-11.718750
4385		-23.437500
4386		-17.578125
4387		-25.390625
4388		-21.484375
4389		-29.296875
4390		-23.437500
4391		-33.203125
4392		-27.343750
4393		-35.156250
4394		-31.250000
4395		-39.062500
4396		-35.156250
4397		-42.968750
4398		-37.109375
4399		-44.921875
4400		-41.015625
4401		-48.828125
4402		-44.921875
4403		-52.734375
4404		-46.875000
4405		-52.734375
4406		-48.828125
4407		-56.640625
4408		-52.734375
4409		-58.593750
4410		-54.687500
4411		-60.546875
4412		-56.640625
4413		-62.500000
4414		-58.593750
4415		-64.453125
4416		-60.546875
4417		-64.453125
4418		-62.500000
4419		-66.406250
4420		-62.500000
4421		-68.359375
4422		-64.453125
4423		-68.359375
4424		-66.406250
4425		-70.312500
4426		-66.406250
4427		-70.312500
4428		-66.406250
4429		-70.312500
4430		-66.406250
4431		-70.312500
4432		-66.406250
4433		-70.312500
4434		-66.406250
4435		-70.312500
4436		-66.406250
4437		-70.312500
4438		-66.406250
4439		-70.312500
4440		-66.406250
4441		-68.359375
4442		-64.453125
4443		-66.406250
4444		-64.453125
4445		-66.406250
4446		-62.500000
4447		-64.453125
4448		-60.546875
4449		-64.453125
4450		-58.593750
4451		-60.546875
4452		-56.640625
4453		-58.593750
4454		-54.687500
4455		-58.593750
4456		-52.734375
4457		-54.687500
4458		-50.781250
4459		-52.734375
4460		-48.828125
4461		-50.781250
4462		-44.921875
4463		-46.875000
4464		-42.968750
4465		-44.921875
4466		-39.062500
4467		-42.968750
4468		-37.109375
4469		-37.109375
4470		-33.203125
4471		-35.156250
4472		-29.296875
4473		-31.250000
4474		-25.390625
4475		-27.343750
4476		-23.437500
4477		-23.437500
4478		-17.578125
4479		-19.531250
4480		-15.625000
4481		-17.578125
4482		-11.718750
4483		-13.671875
4484		-7.812500
4485		-9.765625
4486		-3.906250
4487		-5.859375
4488		0.000000
4489		-1.953125
4490		3.906250
4491		1.953125
4492		7.812500
4493		5.859375
4494		11.718750
4495		9.765625
4496		15.625000
4497		13.671875
4498		19.531250
4499		17.578125
4500		23.437500
4501		21.484375
4502		27.343750
4503		25.390625
4504		29.296875
4505		27.343750
4506		35.156250
4507		33.203125
4508		37.109375
4509		35.156250
4510		41.015625
4511		39.062500
4512		44.921875
4513		41.015625
4514		46.875000
4515		44.921875
4516		50.781250
4517		48.828125
4518		52.734375
4519		52.734375
4520		56.640625
4521		54.687500
4522		60.546875
4523		58.593750
4524		62.500000
4525		60.546875
4526		64.453125
4527		62.500000
4528		66.406250
4529		66.406250
4530		70.312500
4531		68.359375
4532		72.265625
4533		70.312500
4534		74.218750
4535		72.265625
4536		76.171875
4537		74.218750
4538		78.125000
4539		74.218750
4540		80.078125
4541		78.125000
4542		82.031250
4543		78.125000
4544		82.031250
4545		80.078125
4546		83.984375
4547		80.078125
4548		83.984375
4549		82.031250
4550		83.984375
4551		82.031250
4552		85.937500
4553		83.984375
4554		85.937500
4555		83.984375
4556		85.937500
4557		82.031250
4558		87.890625
4559		83.984375
4560		85.937500
4561		83.984375
4562		87.890625
4563		83.984375
4564		85.937500
4565		82.031250
4566		85.937500
4567		82.031250
4568		85.937500
4569		82.031250
4570		83.984375
4571		78.125000
4572		83.984375
4573		78.125000
4574		83.984375
4575		78.125000
4576		80.078125
4577		76.171875
4578		80.078125
4579		74.218750
4580		78.125000
4581		72.265625
4582		78.125000
4583		70.312500
4584		74.218750
4585		68.359375
4586		72.265625
4587		66.406250
4588		70.312500
4589		64.453125
4590		68.359375
4591		60.546875
4592		66.406250
4593		58.593750
4594		62.500000
4595		56.640625
4596		60.546875
4597		52.734375
4598		58.593750
4599		48.828125
4600		54.687500
4601		46.875000
4602		50.781250
4603		42.968750
4604		48.828125
4605		39.062500
4606		44.921875
4607		37.109375
4608		41.015625
4609		33.203125
4610		37.109375
4611		29.296875
4612		35.156250
4613		25.390625
4614		31.250000
4615		21.484375
4616		27.343750
4617		17.578125
4618		23.437500
4619		13.671875
4620		19.531250
4621		9.765625
4622		15.625000
4623		5.859375
4624		13.671875
4625		1.953125
4626		7.812500
4627		-1.953125
4628		3.906250
4629		-5.859375
4630		0.000000
4631		-9.765625
4632		-3.906250
4633		-13.671875
4634		-5.859375
4635		-17.578125
4636		-11.718750
4637		-19.531250
4638		-15.625000
4639		-23.437500
4640		-19.531250
4641		-27.343750
4642		-21.484375
4643		-31.250000
4644		-25.390625
4645		-35.156250
4646		-29.296875
4647		-37.109375
4648		-33.203125
4649		-41.015625
4650		-37.109375
4651		-42.968750
4652		-39.062500
4653		-46.875000
4654		-42.968750
4655		-50.781250
4656		-44.921875
4657		-52.734375
4658		-46.875000
4659		-54.687500
4660		-50.781250
4661		-56.640625
4662		-52.734375
4663		-58.593750
4664		-54.687500
4665		-62.500000
4666		-56.640625
4667		-62.500000
4668		-58.593750
4669		-64.453125
4670		-60.546875
4671		-66.406250
4672		-62.500000
4673		-68.359375
4674		-64.453125
4675		-68.359375
4676		-64.453125
4677		-70.312500
4678		-66.406250
4679		-70.312500
4680		-66.406250
4681		-70.312500
4682		-68.359375
4683		-70.312500
4684		-68.359375
4685		-72.265625
4686		-68.359375
4687		-70.312500
4688		-68.359375
4689		-70.312500
4690		-66.406250
4691		-70.312500
4692		-66.406250
4693		-68.359375
4694		-66.406250
4695		-68.359375
4696		-64.453125
4697		-68.359375
4698		-64.453125
4699		-66.406250
4700		-62.500000
4701		-64.453125
4702		-60.546875
4703		-62.500000
4704		-58.593750
4705		-60.546875
4706		-58.593750
4707		-60.546875
4708		-54.687500
4709		-58.593750
4710		-52.734375
4711		-54.687500
4712		-50.781250
4713		-52.734375
4714		-46.875000
4715		-48.828125
4716		-44.921875
4717		-46.875000
4718		-41.015625
4719		-42.968750
4720		-39.062500
4721		-41.015625
4722		-35.156250
4723		-37.109375
4724		-31.250000
4725		-33.203125
4726		-29.296875
4727		-31.250000
4728		-25.390625
4729		-27.343750
4730		-21.484375
4731		-23.437500
4732		-19.531250
4733		-21.484375
4734		-13.671875
4735		-15.625000
4736		-11.718750
4737		-13.671875
4738		-7.812500
4739		-7.812500
4740		-1.953125
4741		-5.859375
4742		0.000000
4743		-1.953125
4744		3.906250
4745		1.953125
4746		7.812500
4747		5.859375
4748		11.718750
4749		9.765625
4750		15.625000
4751		13.671875
4752		19.531250
4753		17.578125
4754		23.437500
4755		21.484375
4756		27.343750
4757		25.390625
4758		31.250000
4759		29.296875
4760		35.156250
4761		33.203125
4762		39.062500
4763		37.109375
4764		41.015625
4765		41.015625
4766		44.921875
4767		42.968750
4768		46.875000
4769		44.921875
4770		50.781250
4771		48.828125
4772		54.687500
4773		52.734375
4774		56.640625
4775		54.687500
4776		60.546875
4777		58.593750
4778		62.500000
4779		60.546875
4780		66.406250
4781		64.453125
4782		68.359375
4783		66.406250
4784		70.312500
4785		66.406250
4786		72.265625
4787		70.312500
4788		74.218750
4789		72.265625
4790		76.171875
4791		72.265625
4792		78.125000
4793		76.171875
4794		80.078125
4795		76.171875
4796		80.078125
4797		78.125000
4798		82.031250
4799		80.078125
4800		83.984375
4801		80.078125
4802		83.984375
4803		80.078125
4804		83.984375
4805		82.031250
4806		85.937500
4807		82.031250
4808		85.937500
4809		83.984375
4810		85.937500
4811		83.984375
4812		85.937500
4813		83.984375
4814		85.937500
4815		82.031250
4816		85.937500
4817		82.031250
4818		85.937500
4819		82.031250
4820		85.937500
4821		82.031250
4822		83.984375
4823		80.078125
4824		83.984375
4825		80.078125
4826		83.984375
4827		78.125000
4828		82.031250
4829		76.171875
4830		80.078125
4831		74.218750
4832		78.125000
4833		72.265625
4834		78.125000
4835		70.312500
4836		76.171875
4837		70.312500
4838		72.265625
4839		66.406250
4840		72.265625
4841		64.453125
4842		68.359375
4843		62.500000
4844		68.359375
4845		58.593750
4846		64.453125
4847		56.640625
4848		62.500000
4849		54.687500
4850		58.593750
4851		50.781250
4852		56.640625
4853		48.828125
4854		52.734375
4855		44.921875
4856		48.828125
4857		41.015625
4858		46.875000
4859		37.109375
4860		42.968750
4861		35.156250
4862		39.062500
4863		31.250000
4864		37.109375
4865		27.343750
4866		33.203125
4867		23.437500
4868		29.296875
4869		19.531250
4870		25.390625
4871		15.625000
4872		21.484375
4873		11.718750
4874		17.578125
4875		7.812500
4876		13.671875
4877		5.859375
4878		9.765625
4879		0.000000
4880		5.859375
4881		-3.906250
4882		1.953125
4883		-7.812500
4884		-1.953125
4885		-11.718750
4886		-5.859375
4887		-13.671875
4888		-7.812500
4889		-17.578125
4890		-13.671875
4891		-21.484375
4892		-17.578125
4893		-25.390625
4894		-19.531250
4895		-29.296875
4896		-23.437500
4897		-33.203125
4898		-27.343750
4899		-35.156250
4900		-29.296875
4901		-39.062500
4902		-33.203125
4903		-42.968750
4904		-37.109375
4905		-44.921875
4906		-41.015625
4907		-48.828125
4908		-42.968750
4909		-50.781250
4910		-44.921875
4911		-54.687500
4912		-48.828125
4913		-56.640625
4914		-50.781250
4915		-58.593750
4916		-54.687500
4917		-60.546875
4918		-56.640625
4919		-62.500000
4920		-58.593750
4921		-64.453125
4922		-60.546875
4923		-66.406250
4924		-62.500000
4925		-68.359375
4926		-62.500000
4927		-68.359375
4928		-64.453125
4929		-68.359375
4930		-66.406250
4931		-70.312500
4932		-66.406250
4933		-70.312500
4934		-68.359375
4935		-72.265625
4936		-68.359375
4937		-72.265625
4938		-68.359375
4939		-70.312500
4940		-68.359375
4941		-72.265625
4942		-68.359375
4943		-70.312500
4944		-68.359375
4945		-70.312500
4946		-66.406250
4947		-70.312500
4948		-66.406250
4949		-68.359375
4950		-64.453125
4951		-68.359375
4952		-64.453125
4953		-66.406250
4954		-62.500000
4955		-64.453125
4956		-60.546875
4957		-62.500000
4958		-58.593750
4959		-60.546875
4960		-56.640625
4961		-58.593750
4962		-54.687500
4963		-56.640625
4964		-52.734375
4965		-54.687500
4966		-50.781250
4967		-52.734375
4968		-46.875000
4969		-48.828125
4970		-44.921875
4971		-46.875000
4972		-41.015625
4973		-42.968750
4974		-39.062500
4975		-39.062500
4976		-35.156250
4977		-37.109375
4978		-31.250000
4979		-33.203125
4980		-27.343750
4981		-31.250000
4982		-25.390625
4983		-27.343750
4984		-21.484375
4985		-23.437500
4986		-17.578125
4987		-19.531250
4988		-13.671875
4989		-15.625000
4990		-9.765625
4991		-11.718750
4992		-5.859375
4993		-9.765625
4994		-1.953125
4995		-3.906250
4996		1.953125
4997		0.000000
4998		5.859375
4999		3.906250
5000		9.765625
5001		7.812500
5002		13.671875
5003		11.718750
5004		17.578125
5005		13.671875
5006		21.484375
5007		19.531250
5008		25.390625
5009		23.437500
5010		29.296875
5011		25.390625
5012		31.250000
5013		29.296875
5014		35.156250
5015		33.203125
5016		39.062500
5017		37.109375
5018		42.968750
5019		41.015625
5020		46.875000
5021		42.968750
5022		48.828125
5023		46.875000
5024		52.734375
5025		50.781250
5026		56.640625
5027		52.734375
5028		56.640625
5029		56.640625
5030		60.546875
5031		58.593750
5032		62.500000
5033		62.500000
5034		66.406250
5035		62.500000
5036		68.359375
5037		66.406250
5038		72.265625
5039		68.359375
5040		72.265625
5041		70.312500
5042		74.218750
5043		72.265625
5044		78.125000
5045		74.218750
5046		78.125000
5047		76.171875
5048		80.078125
5049		78.125000
5050		80.078125
5051		78.125000
5052		82.031250
5053		80.078125
5054		83.984375
5055		80.078125
5056		83.984375
5057		82.031250
5058		83.984375
5059		82.031250
5060		85.937500
5061		82.031250
5062		85.937500
5063		82.031250
5064		85.937500
5065		83.984375
5066		85.937500
5067		82.031250
5068		85.937500
5069		82.031250
5070		85.937500
5071		82.031250
5072		85.937500
5073		82.031250
5074		83.984375
5075		80.078125
5076		83.984375
5077		80.078125
5078		83.984375
5079		78.125000
5080		83.984375
5081		78.125000
5082		82.031250
5083		76.171875
5084		80.078125
5085		74.218750
5086		78.125000
5087		72.265625
5088		76.171875
5089		70.312500
5090		76.171875
5091		68.359375
5092		72.265625
5093		66.406250
5094		70.312500
5095		64.453125
5096		68.359375
5097		62.500000
5098		66.406250
5099		58.593750
5100		64.453125
5101		56.640625
5102		60.546875
5103		52.734375
5104		58.593750
5105		50.781250
5106		54.687500
5107		46.875000
5108		52.734375
5109		42.968750
5110		48.828125
5111		41.015625
5112		44.921875
5113		37.109375
5114		42.968750
5115		33.203125
5116		39.062500
5117		29.296875
5118		35.156250
5119		27.343750
5120		31.250000
5121		21.484375
5122		27.343750
5123		19.531250
5124		25.390625
5125		15.625000
5126		19.531250
5127		11.718750
5128		17.578125
5129		7.812500
5130		13.671875
5131		3.906250
5132		9.765625
5133		0.000000
5134		5.859375
5135		-3.906250
5136		1.953125
5137		-7.812500
5138		-1.953125
5139		-11.718750
5140		-5.859375
5141		-15.625000
5142		-9.765625
5143		-19.531250
5144		-13.671875
5145		-23.437500
5146		-17.578125
5147		-27.343750
5148		-21.484375
5149		-29.296875
5150		-25.390625
5151		-33.203125
5152		-27.343750
5153		-37.109375
5154		-31.250000
5155		-41.015625
5156		-35.156250
5157		-42.968750
5158		-39.062500
5159		-46.875000
5160		-41.015625
5161		-48.828125
5162		-42.968750
5163		-52.734375
5164		-46.875000
5165		-54.687500
5166		-48.828125
5167		-56.640625
5168		-52.734375
5169		-58.593750
5170		-54.687500
5171		-60.546875
5172		-56.640625
5173		-62.500000
5174		-58.593750
5175		-64.453125
5176		-60.546875
5177		-66.406250
5178		-62.500000
5179		-66.406250
5180		-62.500000
5181		-68.359375
5182		-64.453125
5183		-70.312500
5184		-66.406250
5185		-70.312500
5186		-66.406250
5187		-70.312500
5188		-68.359375
5189		-72.265625
5190		-68.359375
5191		-70.312500
5192		-68.359375
5193		-72.265625
5194		-68.359375
5195		-70.312500
5196		-68.359375
5197		-70.312500
5198		-68.359375
5199		-70.312500
5200		-66.406250
5201		-68.359375
5202		-66.406250
5203		-68.359375
5204		-64.453125
5205		-66.406250
5206		-62.500000
5207		-64.453125
5208		-62.500000
5209		-64.453125
5210		-60.546875
5211		-62.500000
5212		-58.593750
5213		-60.546875
5214		-56.640625
5215		-58.593750
5216		-52.734375
5217		-56.640625
5218		-50.781250
5219		-54.687500
5220		-48.828125
5221		-50.781250
5222		-46.875000
5223		-48.828125
5224		-42.968750
5225		-44.921875
5226		-41.015625
5227		-41.015625
5228		-37.109375
5229		-39.062500
5230		-33.203125
5231		-35.156250
5232		-29.296875
5233		-31.250000
5234		-27.343750
5235		-29.296875
5236		-23.437500
5237		-25.390625
5238		-19.531250
5239		-21.484375
5240		-15.625000
5241		-17.578125
5242		-13.671875
5243		-15.625000
5244		-9.765625
5245		-9.765625
5246		-5.859375
5247		-5.859375
5248		0.000000
5249		-3.906250
5250		1.953125
5251		1.953125
5252		7.812500
5253		3.906250
5254		9.765625
5255		7.812500
5256		13.671875
5257		11.718750
5258		17.578125
5259		15.625000
5260		21.484375
5261		19.531250
5262		25.390625
5263		23.437500
5264		29.296875
5265		27.343750
5266		33.203125
5267		31.250000
5268		37.109375
5269		35.156250
5270		39.062500
5271		39.062500
5272		44.921875
5273		41.015625
5274		46.875000
5275		44.921875
5276		48.828125
5277		48.828125
5278		54.687500
5279		50.781250
5280		56.640625
5281		54.687500
5282		58.593750
5283		56.640625
5284		60.546875
5285		60.546875
5286		64.453125
5287		62.500000
5288		66.406250
5289		64.453125
5290		70.312500
5291		66.406250
5292		70.312500
5293		70.312500
5294		72.265625
5295		70.312500
5296		74.218750
5297		72.265625
5298		76.171875
5299		74.218750
5300		78.125000
5301		76.171875
5302		80.078125
5303		78.125000
5304		82.031250
5305		80.078125
5306		82.031250
5307		78.125000
5308		83.984375
5309		82.031250
5310		83.984375
5311		82.031250
5312		83.984375
5313		82.031250
5314		85.937500
5315		82.031250
5316		85.937500
5317		83.984375
5318		85.937500
5319		82.031250
5320		85.937500
5321		82.031250
5322		85.937500
5323		82.031250
5324		85.937500
5325		82.031250
5326		83.984375
5327		82.031250
5328		83.984375
5329		80.078125
5330		83.984375
5331		80.078125
5332		83.984375
5333		78.125000
5334		82.031250
5335		76.171875
5336		80.078125
5337		76.171875
5338		80.078125
5339		74.218750
5340		78.125000
5341		72.265625
5342		76.171875
5343		70.312500
5344		74.218750
5345		66.406250
5346		72.265625
5347		64.453125
5348		70.312500
5349		62.500000
5350		68.359375
5351		60.546875
5352		64.453125
5353		58.593750
5354		62.500000
5355		54.687500
5356		60.546875
5357		52.734375
5358		56.640625
5359		48.828125
5360		54.687500
5361		44.921875
5362		50.781250
5363		42.968750
5364		46.875000
5365		39.062500
5366		44.921875
5367		35.156250
5368		41.015625
5369		33.203125
5370		37.109375
5371		29.296875
5372		35.156250
5373		23.437500
5374		31.250000
5375		21.484375
5376		27.343750
5377		17.578125
5378		23.437500
5379		13.671875
5380		19.531250
5381		9.765625
5382		15.625000
5383		5.859375
5384		11.718750
5385		1.953125
5386		7.812500
5387		-1.953125
5388		3.906250
5389		-5.859375
5390		0.000000
5391		-9.765625
5392		-3.906250
5393		-13.671875
5394		-7.812500
5395		-17.578125
5396		-11.718750
5397		-21.484375
5398		-15.625000
5399		-25.390625
5400		-19.531250
5401		-27.343750
5402		-23.437500
5403		-31.250000
5404		-25.390625
5405		-35.156250
5406		-29.296875
5407		-39.062500
5408		-33.203125
5409		-41.015625
5410		-37.109375
5411		-44.921875
5412		-41.015625
5413		-46.875000
5414		-42.968750
5415		-50.781250
5416		-46.875000
5417		-52.734375
5418		-48.828125
5419		-56.640625
5420		-50.781250
5421		-58.593750
5422		-54.687500
5423		-60.546875
5424		-56.640625
5425		-62.500000
5426		-56.640625
5427		-64.453125
5428		-60.546875
5429		-66.406250
5430		-62.500000
5431		-66.406250
5432		-62.500000
5433		-68.359375
5434		-64.453125
5435		-70.312500
5436		-66.406250
5437		-70.312500
5438		-68.359375
5439		-72.265625
5440		-68.359375
5441		-72.265625
5442		-68.359375
5443		-72.265625
5444		-68.359375
5445		-72.265625
5446		-68.359375
5447		-72.265625
5448		-68.359375
5449		-72.265625
5450		-68.359375
5451		-70.312500
5452		-68.359375
5453		-70.312500
5454		-66.406250
5455		-70.312500
5456		-66.406250
5457		-68.359375
5458		-64.453125
5459		-66.406250
5460		-64.453125
5461		-66.406250
5462		-62.500000
5463		-64.453125
5464		-60.546875
5465		-62.500000
5466		-58.593750
5467		-60.546875
5468		-56.640625
5469		-58.593750
5470		-54.687500
5471		-56.640625
5472		-50.781250
5473		-52.734375
5474		-48.828125
5475		-50.781250
5476		-46.875000
5477		-46.875000
5478		-42.968750
5479		-44.921875
5480		-41.015625
5481		-42.968750
5482		-37.109375
5483		-39.062500
5484		-33.203125
5485		-35.156250
5486		-29.296875
5487		-31.250000
5488		-25.390625
5489		-27.343750
5490		-23.437500
5491		-25.390625
5492		-19.531250
5493		-21.484375
5494		-15.625000
5495		-17.578125
5496		-11.718750
5497		-13.671875
5498		-7.812500
5499		-9.765625
5500		-3.906250
5501		-5.859375
5502		0.000000
5503		-1.953125
5504		3.906250
5505		1.953125
5506		7.812500
5507		5.859375
5508		11.718750
5509		9.765625
5510		13.671875
5511		13.671875
5512		19.531250
5513		17.578125
5514		23.437500
5515		21.484375
5516		25.390625
5517		23.437500
5518		29.296875
5519		27.343750
5520		33.203125
5521		31.250000
5522		37.109375
5523		35.156250
5524		41.015625
5525		39.062500
5526		42.968750
5527		42.968750
5528		46.875000
5529		44.921875
5530		50.781250
5531		48.828125
5532		52.734375
5533		50.781250
5534		56.640625
5535		54.687500
5536		58.593750
5537		56.640625
5538		62.500000
5539		60.546875
5540		64.453125
5541		62.500000
5542		68.359375
5543		64.453125
5544		68.359375
5545		68.359375
5546		72.265625
5547		68.359375
5548		74.218750
5549		72.265625
5550		76.171875
5551		72.265625
5552		76.171875
5553		74.218750
5554		78.125000
5555		76.171875
5556		80.078125
5557		78.125000
5558		82.031250
5559		80.078125
5560		82.031250
5561		80.078125
5562		83.984375
5563		82.031250
5564		85.937500
5565		82.031250
5566		85.937500
5567		82.031250
5568		85.937500
5569		82.031250
5570		85.937500
5571		82.031250
5572		85.937500
5573		82.031250
5574		85.937500
5575		82.031250
5576		85.937500
5577		82.031250
5578		83.984375
5579		82.031250
5580		83.984375
5581		80.078125
5582		83.984375
5583		80.078125
5584		83.984375
5585		80.078125
5586		82.031250
5587		78.125000
5588		82.031250
5589		76.171875
5590		80.078125
5591		74.218750
5592		78.125000
5593		72.265625
5594		78.125000
5595		72.265625
5596		76.171875
5597		68.359375
5598		72.265625
5599		66.406250
5600		72.265625
5601		64.453125
5602		68.359375
5603		62.500000
5604		66.406250
5605		60.546875
5606		64.453125
5607		56.640625
5608		60.546875
5609		52.734375
5610		58.593750
5611		50.781250
5612		54.687500
5613		48.828125
5614		52.734375
5615		44.921875
5616		50.781250
5617		41.015625
5618		46.875000
5619		37.109375
5620		42.968750
5621		33.203125
5622		39.062500
5623		31.250000
5624		37.109375
5625		27.343750
5626		33.203125
5627		23.437500
5628		29.296875
5629		19.531250
5630		25.390625
5631		15.625000
5632		21.484375
5633		11.718750
5634		17.578125
5635		7.812500
5636		13.671875
5637		3.906250
5638		11.718750
5639		0.000000
5640		5.859375
5641		-3.906250
5642		1.953125
5643		-7.812500
5644		-1.953125
5645		-11.718750
5646		-5.859375
5647		-15.625000
5648		-9.765625
5649		-19.531250
5650		-13.671875
5651		-21.484375
5652		-17.578125
5653		-25.390625
5654		-21.484375
5655		-29.296875
5656		-25.390625
5657		-33.203125
5658		-27.343750
5659		-37.109375
5660		-31.250000
5661		-39.062500
5662		-35.156250
5663		-42.968750
5664		-37.109375
5665		-46.875000
5666		-41.015625
5667		-48.828125
5668		-42.968750
5669		-50.781250
5670		-46.875000
5671		-54.687500
5672		-48.828125
5673		-56.640625
5674		-52.734375
5675		-58.593750
5676		-54.687500
5677		-60.546875
5678		-56.640625
5679		-62.500000
5680		-58.593750
5681		-64.453125
5682		-60.546875
5683		-66.406250
5684		-62.500000
5685		-68.359375
5686		-62.500000
5687		-68.359375
5688		-64.453125
5689		-70.312500
5690		-66.406250
5691		-70.312500
5692		-66.406250
5693		-72.265625
5694		-68.359375
5695		-70.312500
5696		-68.359375
5697		-72.265625
5698		-68.359375
5699		-72.265625
5700		-68.359375
5701		-72.265625
5702		-68.359375
5703		-72.265625
5704		-68.359375
5705		-70.312500
5706		-66.406250
5707		-70.312500
5708		-66.406250
5709		-68.359375
5710		-64.453125
5711		-68.359375
5712		-64.453125
5713		-66.406250
5714		-62.500000
5715		-64.453125
5716		-60.546875
5717		-64.453125
5718		-58.593750
5719		-62.500000
5720		-56.640625
5721		-60.546875
5722		-54.687500
5723		-56.640625
5724		-52.734375
5725		-56.640625
5726		-48.828125
5727		-52.734375
5728		-46.875000
5729		-48.828125
5730		-44.921875
5731		-46.875000
5732		-41.015625
5733		-44.921875
5734		-39.062500
5735		-41.015625
5736		-35.156250
5737		-39.062500
5738		-31.250000
5739		-35.156250
5740		-29.296875
5741		-31.250000
5742		-23.437500
5743		-27.343750
5744		-21.484375
5745		-23.437500
5746		-17.578125
5747		-19.531250
5748		-15.625000
5749		-15.625000
5750		-9.765625
5751		-13.671875
5752		-5.859375
5753		-9.765625
5754		-1.953125
5755		-5.859375
5756		1.953125
5757		-1.953125
5758		5.859375
5759		1.953125
5760		9.765625
5761		5.859375
5762		11.718750
5763		11.718750
5764		15.625000
5765		13.671875
5766		21.484375
5767		17.578125
5768		25.390625
5769		21.484375
5770		29.296875
5771		25.390625
5772		31.250000
5773		29.296875
5774		35.156250
5775		31.250000
5776		39.062500
5777		35.156250
5778		41.015625
5779		41.015625
5780		44.921875
5781		42.968750
5782		48.828125
5783		44.921875
5784		52.734375
5785		48.828125
5786		54.687500
5787		50.781250
5788		58.593750
5789		54.687500
5790		60.546875
5791		56.640625
5792		62.500000
5793		60.546875
5794		66.406250
5795		62.500000
5796		68.359375
5797		66.406250
5798		70.312500
5799		68.359375
5800		72.265625
5801		70.312500
5802		74.218750
5803		72.265625
5804		76.171875
5805		74.218750
5806		78.125000
5807		76.171875
5808		78.125000
5809		76.171875
5810		80.078125
5811		78.125000
5812		82.031250
5813		80.078125
5814		82.031250
5815		80.078125
5816		83.984375
5817		82.031250
5818		83.984375
5819		82.031250
5820		83.984375
5821		82.031250
5822		85.937500
5823		83.984375
5824		85.937500
5825		83.984375
5826		85.937500
5827		83.984375
5828		85.937500
5829		82.031250
5830		85.937500
5831		82.031250
5832		83.984375
5833		82.031250
5834		83.984375
5835		80.078125
5836		83.984375
5837		80.078125
5838		82.031250
5839		78.125000
5840		82.031250
5841		78.125000
5842		80.078125
5843		76.171875
5844		80.078125
5845		74.218750
5846		78.125000
5847		72.265625
5848		76.171875
5849		70.312500
5850		74.218750
5851		68.359375
5852		72.265625
5853		66.406250
5854		70.312500
5855		64.453125
5856		68.359375
5857		60.546875
5858		66.406250
5859		58.593750
5860		62.500000
5861		56.640625
5862		60.546875
5863		52.734375
5864		56.640625
5865		48.828125
5866		54.687500
5867		46.875000
5868		50.781250
5869		42.968750
5870		48.828125
5871		41.015625
5872		44.921875
5873		37.109375
5874		41.015625
5875		33.203125
5876		39.062500
5877		29.296875
5878		35.156250
5879		25.390625
5880		31.250000
5881		21.484375
5882		27.343750
5883		17.578125
5884		23.437500
5885		15.625000
5886		19.531250
5887		11.718750
5888		15.625000
5889		5.859375
5890		11.718750
5891		3.906250
5892		7.812500
5893		0.000000
5894		3.906250
5895		-3.906250
5896		0.000000
5897		-7.812500
5898		-3.906250
5899		-15.625000
5900		-7.812500
5901		-19.531250
5902		-7.812500
5903		-23.437500
5904		-11.718750
5905		-23.437500
5906		-15.625000
5907		-27.343750
5908		-21.484375
5909		-31.250000
5910		-25.390625
5911		-35.156250
5912		-29.296875
5913		-37.109375
5914		-33.203125
5915		-41.015625
5916		-35.156250
5917		-46.875000
5918		-37.109375
5919		-48.828125
5920		-41.015625
5921		-52.734375
5922		-42.968750
5923		-52.734375
5924		-48.828125
5925		-54.687500
5926		-50.781250
5927		-56.640625
5928		-52.734375
5929		-58.593750
5930		-54.687500
5931		-62.500000
5932		-58.593750
5933		-66.406250
5934		-58.593750
5935		-68.359375
5936		-58.593750
5937		-70.312500
5938		-60.546875
5939		-70.312500
5940		-60.546875
5941		-68.359375
5942		-66.406250
5943		-70.312500
5944		-66.406250
5945		-70.312500
5946		-68.359375
5947		-70.312500
5948		-68.359375
5949		-72.265625
5950		-68.359375
5951		-76.171875
5952		-66.406250
5953		-76.171875
5954		-66.406250
5955		-74.218750
5956		-66.406250
5957		-70.312500
5958		-68.359375
5959		-70.312500
5960		-68.359375
5961		-70.312500
5962		-66.406250
5963		-68.359375
5964		-66.406250
5965		-68.359375
5966		-64.453125
5967		-68.359375
5968		-60.546875
5969		-68.359375
5970		-58.593750
5971		-66.406250
5972		-56.640625
5973		-62.500000
5974		-56.640625
5975		-58.593750
5976		-54.687500
5977		-56.640625
5978		-52.734375
5979		-54.687500
5980		-50.781250
5981		-52.734375
5982		-46.875000
5983		-48.828125
5984		-41.015625
5985		-48.828125
5986		-39.062500
5987		-46.875000
5988		-35.156250
5989		-42.968750
5990		-33.203125
5991		-37.109375
5992		-31.250000
5993		-33.203125
5994		-29.296875
5995		-29.296875
5996		-25.390625
5997		-25.390625
5998		-21.484375
5999		-23.437500
6000		-17.578125
6001		-21.484375
6002		-11.718750
6003		-17.578125
6004		-7.812500
6005		-13.671875
6006		-3.906250
6007		-7.812500
6008		-1.953125
6009		-3.906250
6010		1.953125
6011		0.000000
6012		5.859375
6013		3.906250
6014		9.765625
6015		7.812500
6016		13.671875
6017		11.718750
6018		21.484375
6019		11.718750
6020		25.390625
6021		15.625000
6022		27.343750
6023		19.531250
6024		29.296875
6025		27.343750
6026		31.250000
6027		31.250000
6028		35.156250
6029		33.203125
6030		39.062500
6031		37.109375
6032		42.968750
6033		41.015625
6034		44.921875
6035		41.015625
6036		50.781250
6037		44.921875
6038		54.687500
6039		46.875000
6040		56.640625
6041		52.734375
6042		58.593750
6043		56.640625
6044		60.546875
6045		58.593750
6046		62.500000
6047		62.500000
6048		66.406250
6049		64.453125
6050		68.359375
6051		64.453125
6052		74.218750
6053		66.406250
6054		76.171875
6055		68.359375
6056		78.125000
6057		70.312500
6058		78.125000
6059		74.218750
6060		78.125000
6061		76.171875
6062		80.078125
6063		78.125000
6064		80.078125
6065		78.125000
6066		82.031250
6067		80.078125
6068		82.031250
6069		78.125000
6070		87.890625
6071		78.125000
6072		87.890625
6073		78.125000
6074		87.890625
6075		82.031250
6076		85.937500
6077		83.984375
6078		85.937500
6079		83.984375
6080		85.937500
6081		83.984375
6082		85.937500
6083		83.984375
6084		85.937500
6085		82.031250
6086		83.984375
6087		78.125000
6088		85.937500
6089		78.125000
6090		85.937500
6091		80.078125
6092		83.984375
6093		78.125000
6094		82.031250
6095		78.125000
6096		80.078125
6097		76.171875
6098		78.125000
6099		74.218750
6100		78.125000
6101		72.265625
6102		76.171875
6103		68.359375
6104		76.171875
6105		66.406250
6106		74.218750
6107		66.406250
6108		70.312500
6109		64.453125
6110		68.359375
6111		60.546875
6112		66.406250
6113		58.593750
6114		62.500000
6115		54.687500
6116		60.546875
6117		52.734375
6118		56.640625
6119		48.828125
6120		56.640625
6121		44.921875
6122		52.734375
6123		42.968750
6124		48.828125
6125		39.062500
6126		44.921875
6127		37.109375
6128		41.015625
6129		33.203125
6130		39.062500
6131		29.296875
6132		35.156250
6133		25.390625
6134		31.250000
6135		21.484375
6136		27.343750
6137		17.578125
6138		23.437500
6139		13.671875
6140		19.531250
6141		9.765625
6142		15.625000
6143		5.859375
6144		11.718750
6145		1.953125
6146		7.812500
6147		-1.953125
6148		3.906250
6149		-3.906250
6150		0.000000
6151		-9.765625
6152		-3.906250
6153		-11.718750
6154		-7.812500
6155		-15.625000
6156		-11.718750
6157		-19.531250
6158		-15.625000
6159		-23.437500
6160		-19.531250
6161		-27.343750
6162		-23.437500
6163		-31.250000
6164		-25.390625
6165		-35.156250
6166		-29.296875
6167		-37.109375
6168		-33.203125
6169		-41.015625
6170		-35.156250
6171		-42.968750
6172		-39.062500
6173		-46.875000
6174		-42.968750
6175		-48.828125
6176		-44.921875
6177		-52.734375
6178		-46.875000
6179		-54.687500
6180		-50.781250
6181		-56.640625
6182		-52.734375
6183		-60.546875
6184		-56.640625
6185		-62.500000
6186		-58.593750
6187		-64.453125
6188		-60.546875
6189		-64.453125
6190		-62.500000
6191		-66.406250
6192		-62.500000
6193		-68.359375
6194		-64.453125
6195		-68.359375
6196		-66.406250
6197		-70.312500
6198		-66.406250
6199		-70.312500
6200		-68.359375
6201		-70.312500
6202		-68.359375
6203		-72.265625
6204		-66.406250
6205		-72.265625
6206		-68.359375
6207		-70.312500
6208		-68.359375
6209		-72.265625
6210		-66.406250
6211		-70.312500
6212		-68.359375
6213		-70.312500
6214		-66.406250
6215		-68.359375
6216		-66.406250
6217		-68.359375
6218		-64.453125
6219		-68.359375
6220		-62.500000
6221		-66.406250
6222		-62.500000
6223		-62.500000
6224		-60.546875
6225		-62.500000
6226		-56.640625
6227		-60.546875
6228		-54.687500
6229		-56.640625
6230		-54.687500
6231		-54.687500
6232		-50.781250
6233		-52.734375
6234		-48.828125
6235		-50.781250
6236		-44.921875
6237		-48.828125
6238		-42.968750
6239		-44.921875
6240		-39.062500
6241		-41.015625
6242		-37.109375
6243		-39.062500
6244		-33.203125
6245		-35.156250
6246		-29.296875
6247		-31.250000
6248		-27.343750
6249		-27.343750
6250		-23.437500
6251		-23.437500
6252		-19.531250
6253		-21.484375
6254		-15.625000
6255		-17.578125
6256		-11.718750
6257		-13.671875
6258		-7.812500
6259		-9.765625
6260		-3.906250
6261		-5.859375
6262		0.000000
6263		-1.953125
6264		3.906250
6265		1.953125
6266		7.812500
6267		5.859375
6268		11.718750
6269		9.765625
6270		15.625000
6271		11.718750
6272		19.531250
6273		17.578125
6274		23.437500
6275		21.484375
6276		27.343750
6277		23.437500
6278		31.250000
6279		27.343750
6280		33.203125
6281		33.203125
6282		37.109375
6283		35.156250
6284		41.015625
6285		39.062500
6286		44.921875
6287		41.015625
6288		46.875000
6289		44.921875
6290		50.781250
6291		48.828125
6292		52.734375
6293		52.734375
6294		56.640625
6295		54.687500
6296		58.593750
6297		58.593750
6298		62.500000
6299		60.546875
6300		64.453125
6301		62.500000
6302		66.406250
6303		66.406250
6304		70.312500
6305		66.406250
6306		72.265625
6307		70.312500
6308		74.218750
6309		72.265625
6310		76.171875
6311		74.218750
6312		78.125000
6313		76.171875
6314		78.125000
6315		78.125000
6316		80.078125
6317		78.125000
6318		82.031250
6319		80.078125
6320		82.031250
6321		78.125000
6322		83.984375
6323		80.078125
6324		83.984375
6325		82.031250
6326		83.984375
6327		82.031250
6328		85.937500
6329		82.031250
6330		85.937500
6331		83.984375
6332		85.937500
6333		83.984375
6334		85.937500
6335		83.984375
6336		85.937500
6337		82.031250
6338		87.890625
6339		82.031250
6340		85.937500
6341		82.031250
6342		83.984375
6343		80.078125
6344		83.984375
6345		80.078125
6346		83.984375
6347		78.125000
6348		82.031250
6349		78.125000
6350		80.078125
6351		76.171875
6352		78.125000
6353		72.265625
6354		78.125000
6355		72.265625
6356		76.171875
6357		70.312500
6358		74.218750
6359		68.359375
6360		72.265625
6361		64.453125
6362		70.312500
6363		62.500000
6364		68.359375
6365		60.546875
6366		64.453125
6367		58.593750
6368		62.500000
6369		54.687500
6370		58.593750
6371		52.734375
6372		56.640625
6373		48.828125
6374		52.734375
6375		44.921875
6376		50.781250
6377		41.015625
6378		46.875000
6379		39.062500
6380		44.921875
6381		35.156250
6382		41.015625
6383		31.250000
6384		37.109375
6385		27.343750
6386		33.203125
6387		25.390625
6388		29.296875
6389		21.484375
6390		25.390625
6391		17.578125
6392		23.437500
6393		13.671875
6394		19.531250
6395		9.765625
6396		15.625000
6397		5.859375
6398		11.718750
6399		1.953125
6400		5.859375
6401		-1.953125
6402		3.906250
6403		-7.812500
6404		0.000000
6405		-9.765625
6406		-3.906250
6407		-13.671875
6408		-7.812500
6409		-17.578125
6410		-11.718750
6411		-21.484375
6412		-15.625000
6413		-25.390625
6414		-19.531250
6415		-29.296875
6416		-23.437500
6417		-31.250000
6418		-27.343750
6419		-35.156250
6420		-31.250000
6421		-39.062500
6422		-33.203125
6423		-41.015625
6424		-37.109375
6425		-44.921875
6426		-39.062500
6427		-46.875000
6428		-42.968750
6429		-50.781250
6430		-46.875000
6431		-52.734375
6432		-48.828125
6433		-54.687500
6434		-50.781250
6435		-58.593750
6436		-54.687500
6437		-60.546875
6438		-56.640625
6439		-62.500000
6440		-58.593750
6441		-62.500000
6442		-60.546875
6443		-64.453125
6444		-62.500000
6445		-66.406250
6446		-62.500000
6447		-66.406250
6448		-64.453125
6449		-68.359375
6450		-64.453125
6451		-68.359375
6452		-66.406250
6453		-70.312500
6454		-68.359375
6455		-70.312500
6456		-68.359375
6457		-70.312500
6458		-68.359375
6459		-70.312500
6460		-68.359375
6461		-70.312500
6462		-68.359375
6463		-70.312500
6464		-68.359375
6465		-70.312500
6466		-66.406250
6467		-68.359375
6468		-66.406250
6469		-68.359375
6470		-66.406250
6471		-66.406250
6472		-64.453125
6473		-66.406250
6474		-62.500000
6475		-64.453125
6476		-60.546875
6477		-62.500000
6478		-58.593750
6479		-60.546875
6480		-56.640625
6481		-58.593750
6482		-54.687500
6483		-56.640625
6484		-52.734375
6485		-54.687500
6486		-50.781250
6487		-50.781250
6488		-46.875000
6489		-50.781250
6490		-44.921875
6491		-46.875000
6492		-41.015625
6493		-42.968750
6494		-39.062500
6495		-39.062500
6496		-35.156250
6497		-37.109375
6498		-31.250000
6499		-33.203125
6500		-29.296875
6501		-29.296875
6502		-25.390625
6503		-27.343750
6504		-21.484375
6505		-23.437500
6506		-17.578125
6507		-19.531250
6508		-13.671875
6509		-15.625000
6510		-9.765625
6511		-11.718750
6512		-5.859375
6513		-7.812500
6514		-1.953125
6515		-3.906250
6516		1.953125
6517		0.000000
6518		3.906250
6519		3.906250
6520		7.812500
6521		7.812500
6522		13.671875
6523		9.765625
6524		17.578125
6525		11.718750
6526		21.484375
6527		19.531250
6528		23.437500
6529		23.437500
6530		27.343750
6531		27.343750
6532		31.250000
6533		29.296875
6534		35.156250
6535		33.203125
6536		39.062500
6537		37.109375
6538		41.015625
6539		39.062500
6540		46.875000
6541		42.968750
6542		48.828125
6543		46.875000
6544		52.734375
6545		50.781250
6546		54.687500
6547		52.734375
6548		56.640625
6549		56.640625
6550		60.546875
6551		58.593750
6552		62.500000
6553		62.500000
6554		66.406250
6555		62.500000
6556		70.312500
6557		66.406250
6558		72.265625
6559		68.359375
6560		72.265625
6561		70.312500
6562		74.218750
6563		74.218750
6564		76.171875
6565		74.218750
6566		78.125000
6567		76.171875
6568		80.078125
6569		78.125000
6570		82.031250
6571		80.078125
6572		82.031250
6573		78.125000
6574		85.937500
6575		80.078125
6576		85.937500
6577		82.031250
6578		85.937500
6579		83.984375
6580		85.937500
6581		83.984375
6582		85.937500
6583		83.984375
6584		85.937500
6585		83.984375
6586		85.937500
6587		83.984375
6588		85.937500
6589		82.031250
6590		87.890625
6591		82.031250
6592		87.890625
6593		83.984375
6594		85.937500
6595		82.031250
6596		85.937500
6597		82.031250
6598		83.984375
6599		80.078125
6600		82.031250
6601		78.125000
6602		82.031250
6603		78.125000
6604		80.078125
6605		72.265625
6606		80.078125
6607		72.265625
6608		80.078125
6609		72.265625
6610		78.125000
6611		70.312500
6612		74.218750
6613		68.359375
6614		72.265625
6615		66.406250
6616		70.312500
6617		62.500000
6618		66.406250
6619		60.546875
6620		64.453125
6621		56.640625
6622		62.500000
6623		54.687500
6624		60.546875
6625		50.781250
6626		56.640625
6627		48.828125
6628		52.734375
6629		44.921875
6630		50.781250
6631		41.015625
6632		46.875000
6633		39.062500
6634		42.968750
6635		35.156250
6636		41.015625
6637		31.250000
6638		37.109375
6639		25.390625
6640		33.203125
6641		23.437500
6642		31.250000
6643		21.484375
6644		25.390625
6645		17.578125
6646		21.484375
6647		13.671875
6648		17.578125
6649		9.765625
6650		13.671875
6651		5.859375
6652		9.765625
6653		1.953125
6654		5.859375
6655		-1.953125
6656		1.953125
6657		-7.812500
6658		0.000000
6659		-9.765625
6660		-3.906250
6661		-13.671875
6662		-9.765625
6663		-17.578125
6664		-11.718750
6665		-21.484375
6666		-15.625000
6667		-25.390625
6668		-19.531250
6669		-29.296875
6670		-23.437500
6671		-31.250000
6672		-27.343750
6673		-37.109375
6674		-31.250000
6675		-39.062500
6676		-33.203125
6677		-42.968750
6678		-37.109375
6679		-44.921875
6680		-41.015625
6681		-46.875000
6682		-42.968750
6683		-50.781250
6684		-46.875000
6685		-52.734375
6686		-48.828125
6687		-54.687500
6688		-50.781250
6689		-60.546875
6690		-54.687500
6691		-60.546875
6692		-54.687500
6693		-62.500000
6694		-56.640625
6695		-62.500000
6696		-60.546875
6697		-64.453125
6698		-62.500000
6699		-66.406250
6700		-62.500000
6701		-66.406250
6702		-64.453125
6703		-68.359375
6704		-66.406250
6705		-68.359375
6706		-66.406250
6707		-70.312500
6708		-66.406250
6709		-70.312500
6710		-66.406250
6711		-70.312500
6712		-68.359375
6713		-70.312500
6714		-68.359375
6715		-70.312500
6716		-68.359375
6717		-70.312500
6718		-66.406250
6719		-68.359375
6720		-66.406250
6721		-68.359375
6722		-66.406250
6723		-68.359375
6724		-64.453125
6725		-66.406250
6726		-62.500000
6727		-64.453125
6728		-62.500000
6729		-62.500000
6730		-60.546875
6731		-62.500000
6732		-58.593750
6733		-58.593750
6734		-56.640625
6735		-58.593750
6736		-54.687500
6737		-56.640625
6738		-50.781250
6739		-52.734375
6740		-48.828125
6741		-50.781250
6742		-46.875000
6743		-46.875000
6744		-42.968750
6745		-44.921875
6746		-41.015625
6747		-42.968750
6748		-37.109375
6749		-39.062500
6750		-33.203125
6751		-35.156250
6752		-31.250000
6753		-33.203125
6754		-27.343750
6755		-29.296875
6756		-23.437500
6757		-25.390625
6758		-19.531250
6759		-21.484375
6760		-15.625000
6761		-17.578125
6762		-11.718750
6763		-13.671875
6764		-9.765625
6765		-9.765625
6766		-5.859375
6767		-5.859375
6768		-1.953125
6769		-1.953125
6770		1.953125
6771		1.953125
6772		5.859375
6773		5.859375
6774		9.765625
6775		9.765625
6776		13.671875
6777		13.671875
6778		17.578125
6779		15.625000
6780		21.484375
6781		19.531250
6782		25.390625
6783		23.437500
6784		29.296875
6785		27.343750
6786		33.203125
6787		31.250000
6788		37.109375
6789		35.156250
6790		39.062500
6791		39.062500
6792		42.968750
6793		41.015625
6794		46.875000
6795		44.921875
6796		48.828125
6797		48.828125
6798		52.734375
6799		50.781250
6800		56.640625
6801		54.687500
6802		58.593750
6803		56.640625
6804		60.546875
6805		60.546875
6806		64.453125
6807		62.500000
6808		66.406250
6809		64.453125
6810		68.359375
6811		66.406250
6812		70.312500
6813		70.312500
6814		72.265625
6815		72.265625
6816		74.218750
6817		74.218750
6818		76.171875
6819		76.171875
6820		78.125000
6821		76.171875
6822		80.078125
6823		78.125000
6824		82.031250
6825		80.078125
6826		82.031250
6827		80.078125
6828		83.984375
6829		82.031250
6830		83.984375
6831		82.031250
6832		85.937500
6833		82.031250
6834		85.937500
6835		83.984375
6836		85.937500
6837		83.984375
6838		85.937500
6839		83.984375
6840		85.937500
6841		83.984375
6842		85.937500
6843		83.984375
6844		85.937500
6845		83.984375
6846		85.937500
6847		82.031250
6848		85.937500
6849		82.031250
6850		83.984375
6851		80.078125
6852		83.984375
6853		80.078125
6854		82.031250
6855		78.125000
6856		82.031250
6857		76.171875
6858		80.078125
6859		76.171875
6860		78.125000
6861		72.265625
6862		76.171875
6863		72.265625
6864		74.218750
6865		70.312500
6866		72.265625
6867		66.406250
6868		70.312500
6869		64.453125
6870		68.359375
6871		62.500000
6872		66.406250
6873		58.593750
6874		64.453125
6875		56.640625
6876		60.546875
6877		52.734375
6878		58.593750
6879		50.781250
6880		54.687500
6881		46.875000
6882		52.734375
6883		44.921875
6884		48.828125
6885		41.015625
6886		44.921875
6887		37.109375
6888		42.968750
6889		33.203125
6890		39.062500
6891		29.296875
6892		35.156250
6893		27.343750
6894		31.250000
6895		23.437500
6896		27.343750
6897		19.531250
6898		23.437500
6899		15.625000
6900		19.531250
6901		11.718750
6902		15.625000
6903		7.812500
6904		11.718750
6905		3.906250
6906		9.765625
6907		0.000000
6908		5.859375
6909		-3.906250
6910		1.953125
6911		-7.812500
6912		-1.953125
6913		-11.718750
6914		-5.859375
6915		-15.625000
6916		-9.765625
6917		-19.531250
6918		-13.671875
6919		-23.437500
6920		-17.578125
6921		-27.343750
6922		-21.484375
6923		-29.296875
6924		-25.390625
6925		-33.203125
6926		-29.296875
6927		-37.109375
6928		-31.250000
6929		-39.062500
6930		-35.156250
6931		-42.968750
6932		-39.062500
6933		-44.921875
6934		-41.015625
6935		-48.828125
6936		-44.921875
6937		-50.781250
6938		-46.875000
6939		-52.734375
6940		-48.828125
6941		-56.640625
6942		-52.734375
6943		-58.593750
6944		-54.687500
6945		-60.546875
6946		-56.640625
6947		-62.500000
6948		-58.593750
6949		-64.453125
6950		-60.546875
6951		-66.406250
6952		-62.500000
6953		-66.406250
6954		-64.453125
6955		-68.359375
6956		-64.453125
6957		-68.359375
6958		-66.406250
6959		-68.359375
6960		-66.406250
6961		-70.312500
6962		-66.406250
6963		-70.312500
6964		-68.359375
6965		-70.312500
6966		-68.359375
6967		-70.312500
6968		-68.359375
6969		-70.312500
6970		-68.359375
6971		-70.312500
6972		-66.406250
6973		-68.359375
6974		-66.406250
6975		-68.359375
6976		-64.453125
6977		-66.406250
6978		-64.453125
6979		-66.406250
6980		-62.500000
6981		-64.453125
6982		-60.546875
6983		-62.500000
6984		-58.593750
6985		-60.546875
6986		-56.640625
6987		-58.593750
6988		-54.687500
6989		-56.640625
6990		-52.734375
6991		-54.687500
6992		-50.781250
6993		-52.734375
6994		-48.828125
6995		-48.828125
6996		-44.921875
6997		-46.875000
6998		-42.968750
6999		-42.968750
7000		-39.062500
7001		-41.015625
7002		-37.109375
7003		-37.109375
7004		-33.203125
7005		-35.156250
7006		-29.296875
7007		-31.250000
7008		-25.390625
7009		-27.343750
7010		-21.484375
7011		-23.437500
7012		-19.531250
7013		-19.531250
7014		-15.625000
7015		-15.625000
7016		-11.718750
7017		-13.671875
7018		-7.812500
7019		-9.765625
7020		-3.906250
7021		-5.859375
7022		0.000000
7023		-1.953125
7024		3.906250
7025		1.953125
7026		7.812500
7027		5.859375
7028		11.718750
7029		9.765625
7030		15.625000
7031		13.671875
7032		19.531250
7033		17.578125
7034		23.437500
7035		21.484375
7036		27.343750
7037		25.390625
7038		31.250000
7039		29.296875
7040		35.156250
7041		33.203125
7042		37.109375
7043		37.109375
7044		41.015625
7045		39.062500
7046		44.921875
7047		42.968750
7048		46.875000
7049		46.875000
7050		50.781250
7051		48.828125
7052		54.687500
7053		52.734375
7054		56.640625
7055		54.687500
7056		60.546875
7057		58.593750
7058		62.500000
7059		60.546875
7060		66.406250
7061		64.453125
7062		68.359375
7063		66.406250
7064		70.312500
7065		68.359375
7066		72.265625
7067		70.312500
7068		74.218750
7069		72.265625
7070		76.171875
7071		74.218750
7072		78.125000
7073		76.171875
7074		80.078125
7075		78.125000
7076		80.078125
7077		80.078125
7078		82.031250
7079		80.078125
7080		83.984375
7081		82.031250
7082		83.984375
7083		82.031250
7084		83.984375
7085		83.984375
7086		85.937500
7087		83.984375
7088		85.937500
7089		83.984375
7090		85.937500
7091		83.984375
7092		85.937500
7093		83.984375
7094		85.937500
7095		83.984375
7096		85.937500
7097		83.984375
7098		85.937500
7099		83.984375
7100		85.937500
7101		82.031250
7102		85.937500
7103		82.031250
7104		83.984375
7105		80.078125
7106		83.984375
7107		78.125000
7108		82.031250
7109		78.125000
7110		82.031250
7111		76.171875
7112		80.078125
7113		74.218750
7114		78.125000
7115		72.265625
7116		76.171875
7117		70.312500
7118		74.218750
7119		68.359375
7120		72.265625
7121		66.406250
7122		70.312500
7123		64.453125
7124		68.359375
7125		60.546875
7126		66.406250
7127		58.593750
7128		62.500000
7129		56.640625
7130		60.546875
7131		52.734375
7132		56.640625
7133		48.828125
7134		54.687500
7135		46.875000
7136		50.781250
7137		42.968750
7138		48.828125
7139		39.062500
7140		44.921875
7141		37.109375
7142		41.015625
7143		33.203125
7144		37.109375
7145		29.296875
7146		35.156250
7147		25.390625
7148		31.250000
7149		21.484375
7150		27.343750
7151		17.578125
7152		23.437500
7153		13.671875
7154		19.531250
7155		9.765625
7156		15.625000
7157		5.859375
7158		11.718750
7159		1.953125
7160		7.812500
7161		-1.953125
7162		3.906250
7163		-5.859375
7164		0.000000
7165		-9.765625
7166		-3.906250
7167		-11.718750
7168		-7.812500
7169		-15.625000
7170		-11.718750
7171		-19.531250
7172		-15.625000
7173		-23.437500
7174		-19.531250
7175		-27.343750
7176		-23.437500
7177		-31.250000
7178		-25.390625
7179		-35.156250
7180		-29.296875
7181		-37.109375
7182		-33.203125
7183		-41.015625
7184		-37.109375
7185		-42.968750
7186		-39.062500
7187		-46.875000
7188		-42.968750
7189		-48.828125
7190		-44.921875
7191		-52.734375
7192		-48.828125
7193		-54.687500
7194		-50.781250
7195		-56.640625
7196		-52.734375
7197		-58.593750
7198		-54.687500
7199		-60.546875
7200		-56.640625
7201		-62.500000
7202		-60.546875
7203		-64.453125
7204		-60.546875
7205		-66.406250
7206		-62.500000
7207		-66.406250
7208		-64.453125
7209		-68.359375
7210		-64.453125
7211		-68.359375
7212		-66.406250
7213		-70.312500
7214		-66.406250
7215		-70.312500
7216		-68.359375
7217		-70.312500
7218		-68.359375
7219		-70.312500
7220		-68.359375
7221		-70.312500
7222		-68.359375
7223		-70.312500
7224		-68.359375
7225		-68.359375
7226		-66.406250
7227		-68.359375
7228		-66.406250
7229		-68.359375
7230		-64.453125
7231		-66.406250
7232		-64.453125
7233		-66.406250
7234		-62.500000
7235		-64.453125
7236		-60.546875
7237		-62.500000
7238		-58.593750
7239		-60.546875
7240		-56.640625
7241		-58.593750
7242		-54.687500
7243		-56.640625
7244		-52.734375
7245		-54.687500
7246		-50.781250
7247		-50.781250
7248		-46.875000
7249		-48.828125
7250		-44.921875
7251		-46.875000
7252		-41.015625
7253		-42.968750
7254		-39.062500
7255		-39.062500
7256		-35.156250
7257		-37.109375
7258		-33.203125
7259		-33.203125
7260		-29.296875
7261		-29.296875
7262		-25.390625
7263		-27.343750
7264		-21.484375
7265		-23.437500
7266		-17.578125
7267		-19.531250
7268		-13.671875
7269		-15.625000
7270		-9.765625
7271		-11.718750
7272		-5.859375
7273		-7.812500
7274		-1.953125
7275		-3.906250
7276		0.000000
7277		0.000000
7278		5.859375
7279		3.906250
7280		7.812500
7281		7.812500
7282		11.718750
7283		11.718750
7284		17.578125
7285		15.625000
7286		19.531250
7287		19.531250
7288		23.437500
7289		23.437500
7290		27.343750
7291		25.390625
7292		31.250000
7293		29.296875
7294		35.156250
7295		33.203125
7296		39.062500
7297		37.109375
7298		41.015625
7299		41.015625
7300		44.921875
7301		42.968750
7302		48.828125
7303		46.875000
7304		50.781250
7305		48.828125
7306		54.687500
7307		52.734375
7308		56.640625
7309		56.640625
7310		60.546875
7311		58.593750
7312		62.500000
7313		62.500000
7314		66.406250
7315		64.453125
7316		68.359375
7317		66.406250
7318		70.312500
7319		68.359375
7320		72.265625
7321		70.312500
7322		74.218750
7323		72.265625
7324		76.171875
7325		74.218750
7326		78.125000
7327		76.171875
7328		80.078125
7329		78.125000
7330		80.078125
7331		80.078125
7332		82.031250
7333		80.078125
7334		83.984375
7335		82.031250
7336		83.984375
7337		82.031250
7338		83.984375
7339		82.031250
7340		85.937500
7341		83.984375
7342		85.937500
7343		83.984375
7344		85.937500
7345		83.984375
7346		85.937500
7347		83.984375
7348		85.937500
7349		83.984375
7350		85.937500
7351		83.984375
7352		85.937500
7353		82.031250
7354		85.937500
7355		82.031250
7356		83.984375
7357		82.031250
7358		83.984375
7359		80.078125
7360		83.984375
7361		78.125000
7362		82.031250
7363		76.171875
7364		80.078125
7365		76.171875
7366		78.125000
7367		74.218750
7368		76.171875
7369		72.265625
7370		76.171875
7371		70.312500
7372		74.218750
7373		68.359375
7374		72.265625
7375		64.453125
7376		68.359375
7377		62.500000
7378		66.406250
7379		60.546875
7380		64.453125
7381		56.640625
7382		60.546875
7383		54.687500
7384		58.593750
7385		50.781250
7386		56.640625
7387		48.828125
7388		52.734375
7389		44.921875
7390		50.781250
7391		41.015625
7392		46.875000
7393		39.062500
7394		42.968750
7395		35.156250
7396		39.062500
7397		31.250000
7398		37.109375
7399		27.343750
7400		33.203125
7401		23.437500
7402		29.296875
7403		19.531250
7404		25.390625
7405		15.625000
7406		21.484375
7407		11.718750
7408		17.578125
7409		7.812500
7410		13.671875
7411		3.906250
7412		9.765625
7413		0.000000
7414		5.859375
7415		-3.906250
7416		1.953125
7417		-7.812500
7418		-1.953125
7419		-11.718750
7420		-5.859375
7421		-15.625000
7422		-9.765625
7423		-17.578125
7424		-13.671875
7425		-21.484375
7426		-17.578125
7427		-25.390625
7428		-21.484375
7429		-29.296875
7430		-23.437500
7431		-33.203125
7432		-27.343750
7433		-35.156250
7434		-31.250000
7435		-39.062500
7436		-35.156250
7437		-42.968750
7438		-37.109375
7439		-44.921875
7440		-41.015625
7441		-48.828125
7442		-42.968750
7443		-50.781250
7444		-46.875000
7445		-52.734375
7446		-48.828125
7447		-56.640625
7448		-52.734375
7449		-58.593750
7450		-54.687500
7451		-60.546875
7452		-56.640625
7453		-62.500000
7454		-58.593750
7455		-64.453125
7456		-60.546875
7457		-64.453125
7458		-62.500000
7459		-66.406250
7460		-64.453125
7461		-68.359375
7462		-64.453125
7463		-68.359375
7464		-66.406250
7465		-70.312500
7466		-66.406250
7467		-70.312500
7468		-68.359375
7469		-70.312500
7470		-68.359375
7471		-70.312500
7472		-68.359375
7473		-70.312500
7474		-68.359375
7475		-70.312500
7476		-68.359375
7477		-70.312500
7478		-68.359375
7479		-70.312500
7480		-66.406250
7481		-68.359375
7482		-66.406250
7483		-68.359375
7484		-64.453125
7485		-66.406250
7486		-64.453125
7487		-66.406250
7488		-62.500000
7489		-64.453125
7490		-60.546875
7491		-62.500000
7492		-58.593750
7493		-60.546875
7494		-56.640625
7495		-58.593750
7496		-54.687500
7497		-56.640625
7498		-52.734375
7499		-54.687500
7500		-50.781250
7501		-50.781250
7502		-46.875000
7503		-48.828125
7504		-44.921875
7505		-44.921875
7506		-41.015625
7507		-42.968750
7508		-39.062500
7509		-39.062500
7510		-35.156250
7511		-37.109375
7512		-31.250000
7513		-33.203125
7514		-27.343750
7515		-29.296875
7516		-25.390625
7517		-25.390625
7518		-21.484375
7519		-23.437500
7520		-17.578125
7521		-19.531250
7522		-13.671875
7523		-15.625000
7524		-9.765625
7525		-11.718750
7526		-5.859375
7527		-7.812500
7528		-1.953125
7529		-3.906250
7530		1.953125
7531		0.000000
7532		5.859375
7533		3.906250
7534		9.765625
7535		7.812500
7536		13.671875
7537		11.718750
7538		17.578125
7539		15.625000
7540		21.484375
7541		19.531250
7542		25.390625
7543		23.437500
7544		27.343750
7545		27.343750
7546		31.250000
7547		31.250000
7548		35.156250
7549		33.203125
7550		39.062500
7551		37.109375
7552		42.968750
7553		41.015625
7554		44.921875
7555		44.921875
7556		50.781250
7557		46.875000
7558		52.734375
7559		50.781250
7560		54.687500
7561		52.734375
7562		58.593750
7563		56.640625
7564		60.546875
7565		58.593750
7566		62.500000
7567		62.500000
7568		66.406250
7569		64.453125
7570		68.359375
7571		66.406250
7572		70.312500
7573		66.406250
7574		74.218750
7575		70.312500
7576		76.171875
7577		72.265625
7578		76.171875
7579		74.218750
7580		78.125000
7581		76.171875
7582		80.078125
7583		76.171875
7584		80.078125
7585		76.171875
7586		82.031250
7587		78.125000
7588		82.031250
7589		78.125000
7590		85.937500
7591		82.031250
7592		83.984375
7593		80.078125
7594		87.890625
7595		82.031250
7596		85.937500
7597		83.984375
7598		85.937500
7599		82.031250
7600		85.937500
7601		82.031250
7602		87.890625
7603		82.031250
7604		85.937500
7605		82.031250
7606		85.937500
7607		80.078125
7608		85.937500
7609		78.125000
7610		85.937500
7611		80.078125
7612		82.031250
7613		78.125000
7614		82.031250
7615		76.171875
7616		80.078125
7617		72.265625
7618		82.031250
7619		74.218750
7620		80.078125
7621		72.265625
7622		76.171875
7623		70.312500
7624		76.171875
7625		68.359375
7626		72.265625
7627		66.406250
7628		72.265625
7629		64.453125
7630		68.359375
7631		60.546875
7632		64.453125
7633		54.687500
7634		64.453125
7635		54.687500
7636		60.546875
7637		52.734375
7638		56.640625
7639		46.875000
7640		54.687500
7641		44.921875
7642		54.687500
7643		39.062500
7644		48.828125
7645		39.062500
7646		44.921875
7647		37.109375
7648		41.015625
7649		33.203125
7650		39.062500
7651		25.390625
7652		37.109375
7653		25.390625
7654		31.250000
7655		21.484375
7656		27.343750
7657		15.625000
7658		25.390625
7659		9.765625
7660		19.531250
7661		9.765625
7662		15.625000
7663		5.859375
7664		11.718750
7665		0.000000
7666		7.812500
7667		-3.906250
7668		5.859375
7669		-5.859375
7670		1.953125
7671		-9.765625
7672		-3.906250
7673		-15.625000
7674		-5.859375
7675		-17.578125
7676		-7.812500
7677		-23.437500
7678		-11.718750
7679		-23.437500
7680		-19.531250
7681		-29.296875
7682		-23.437500
7683		-33.203125
7684		-25.390625
7685		-35.156250
7686		-27.343750
7687		-37.109375
7688		-31.250000
7689		-41.015625
7690		-37.109375
7691		-46.875000
7692		-37.109375
7693		-50.781250
7694		-41.015625
7695		-50.781250
7696		-44.921875
7697		-52.734375
7698		-48.828125
7699		-56.640625
7700		-50.781250
7701		-60.546875
7702		-50.781250
7703		-58.593750
7704		-54.687500
7705		-62.500000
7706		-58.593750
7707		-66.406250
7708		-56.640625
7709		-66.406250
7710		-56.640625
7711		-68.359375
7712		-60.546875
7713		-68.359375
7714		-64.453125
7715		-70.312500
7716		-64.453125
7717		-74.218750
7718		-64.453125
7719		-72.265625
7720		-66.406250
7721		-70.312500
7722		-68.359375
7723		-74.218750
7724		-66.406250
7725		-76.171875
7726		-66.406250
7727		-76.171875
7728		-66.406250
7729		-72.265625
7730		-68.359375
7731		-72.265625
7732		-68.359375
7733		-72.265625
7734		-66.406250
7735		-72.265625
7736		-64.453125
7737		-70.312500
7738		-64.453125
7739		-68.359375
7740		-64.453125
7741		-70.312500
7742		-58.593750
7743		-66.406250
7744		-58.593750
7745		-62.500000
7746		-58.593750
7747		-60.546875
7748		-56.640625
7749		-58.593750
7750		-54.687500
7751		-58.593750
7752		-48.828125
7753		-54.687500
7754		-48.828125
7755		-50.781250
7756		-46.875000
7757		-48.828125
7758		-41.015625
7759		-48.828125
7760		-39.062500
7761		-44.921875
7762		-37.109375
7763		-39.062500
7764		-35.156250
7765		-37.109375
7766		-31.250000
7767		-33.203125
7768		-25.390625
7769		-33.203125
7770		-23.437500
7771		-27.343750
7772		-21.484375
7773		-21.484375
7774		-15.625000
7775		-21.484375
7776		-11.718750
7777		-15.625000
7778		-7.812500
7779		-9.765625
7780		-5.859375
7781		-7.812500
7782		-1.953125
7783		-3.906250
7784		1.953125
7785		-1.953125
7786		7.812500
7787		1.953125
7788		9.765625
7789		7.812500
7790		13.671875
7791		11.718750
7792		19.531250
7793		13.671875
7794		21.484375
7795		17.578125
7796		25.390625
7797		23.437500
7798		29.296875
7799		27.343750
7800		33.203125
7801		29.296875
7802		39.062500
7803		35.156250
7804		41.015625
7805		37.109375
7806		42.968750
7807		41.015625
7808		48.828125
7809		41.015625
7810		50.781250
7811		46.875000
7812		54.687500
7813		50.781250
7814		54.687500
7815		52.734375
7816		58.593750
7817		56.640625
7818		62.500000
7819		56.640625
7820		66.406250
7821		60.546875
7822		66.406250
7823		64.453125
7824		68.359375
7825		66.406250
7826		72.265625
7827		68.359375
7828		76.171875
7829		68.359375
7830		74.218750
7831		72.265625
7832		76.171875
7833		74.218750
7834		78.125000
7835		74.218750
7836		82.031250
7837		74.218750
7838		82.031250
7839		78.125000
7840		82.031250
7841		78.125000
7842		83.984375
7843		80.078125
7844		83.984375
7845		82.031250
7846		83.984375
7847		82.031250
7848		83.984375
7849		82.031250
7850		83.984375
7851		82.031250
7852		83.984375
7853		80.078125
7854		85.937500
7855		82.031250
7856		85.937500
7857		80.078125
7858		85.937500
7859		80.078125
7860		85.937500
7861		80.078125
7862		83.984375
7863		80.078125
7864		82.031250
7865		78.125000
7866		82.031250
7867		78.125000
7868		80.078125
7869		76.171875
7870		80.078125
7871		74.218750
7872		78.125000
7873		72.265625
7874		76.171875
7875		72.265625
7876		74.218750
7877		70.312500
7878		72.265625
7879		66.406250
7880		72.265625
7881		64.453125
7882		68.359375
7883		62.500000
7884		66.406250
7885		60.546875
7886		64.453125
7887		56.640625
7888		60.546875
7889		54.687500
7890		58.593750
7891		50.781250
7892		54.687500
7893		48.828125
7894		52.734375
7895		44.921875
7896		48.828125
7897		41.015625
7898		46.875000
7899		39.062500
7900		42.968750
7901		33.203125
7902		39.062500
7903		31.250000
7904		37.109375
7905		27.343750
7906		35.156250
7907		21.484375
7908		29.296875
7909		19.531250
7910		27.343750
7911		15.625000
7912		23.437500
7913		11.718750
7914		19.531250
7915		7.812500
7916		13.671875
7917		3.906250
7918		9.765625
7919		0.000000
7920		7.812500
7921		-3.906250
7922		3.906250
7923		-7.812500
7924		0.000000
7925		-11.718750
7926		-3.906250
7927		-15.625000
7928		-7.812500
7929		-17.578125
7930		-11.718750
7931		-21.484375
7932		-17.578125
7933		-25.390625
7934		-21.484375
7935		-29.296875
7936		-21.484375
7937		-33.203125
7938		-27.343750
7939		-37.109375
7940		-31.250000
7941		-41.015625
7942		-33.203125
7943		-42.968750
7944		-37.109375
7945		-46.875000
7946		-39.062500
7947		-48.828125
7948		-44.921875
7949		-50.781250
7950		-46.875000
7951		-54.687500
7952		-48.828125
7953		-56.640625
7954		-50.781250
7955		-58.593750
7956		-52.734375
7957		-62.500000
7958		-54.687500
7959		-64.453125
7960		-58.593750
7961		-66.406250
7962		-60.546875
7963		-66.406250
7964		-62.500000
7965		-68.359375
7966		-64.453125
7967		-68.359375
7968		-66.406250
7969		-70.312500
7970		-66.406250
7971		-72.265625
7972		-66.406250
7973		-74.218750
7974		-66.406250
7975		-72.265625
7976		-68.359375
7977		-72.265625
7978		-68.359375
7979		-72.265625
7980		-68.359375
7981		-72.265625
7982		-70.312500
7983		-72.265625
7984		-70.312500
7985		-72.265625
7986		-68.359375
7987		-70.312500
7988		-66.406250
7989		-70.312500
7990		-66.406250
7991		-70.312500
7992		-64.453125
7993		-68.359375
7994		-64.453125
7995		-66.406250
7996		-60.546875
7997		-64.453125
7998		-60.546875
7999		-62.500000
8000		-58.593750
8001		-60.546875
8002		-56.640625
8003		-58.593750
8004		-54.687500
8005		-56.640625
8006		-52.734375
8007		-54.687500
8008		-46.875000
8009		-52.734375
8010		-44.921875
8011		-48.828125
8012		-42.968750
8013		-44.921875
8014		-41.015625
8015		-42.968750
8016		-37.109375
8017		-39.062500
8018		-35.156250
8019		-37.109375
8020		-31.250000
8021		-31.250000
8022		-25.390625
8023		-29.296875
8024		-21.484375
8025		-27.343750
8026		-19.531250
8027		-21.484375
8028		-15.625000
8029		-17.578125
8030		-9.765625
8031		-15.625000
8032		-7.812500
8033		-9.765625
8034		-3.906250
8035		-5.859375
8036		0.000000
8037		-1.953125
8038		3.906250
8039		1.953125
8040		5.859375
8041		3.906250
8042		11.718750
8043		9.765625
8044		15.625000
8045		11.718750
8046		17.578125
8047		17.578125
8048		21.484375
8049		21.484375
8050		25.390625
8051		23.437500
8052		29.296875
8053		27.343750
8054		33.203125
8055		31.250000
8056		37.109375
8057		35.156250
8058		41.015625
8059		39.062500
8060		42.968750
8061		41.015625
8062		46.875000
8063		44.921875
8064		50.781250
8065		48.828125
8066		52.734375
8067		50.781250
8068		56.640625
8069		54.687500
8070		58.593750
8071		56.640625
8072		60.546875
8073		58.593750
8074		64.453125
8075		62.500000
8076		66.406250
8077		64.453125
8078		68.359375
8079		66.406250
8080		72.265625
8081		68.359375
8082		72.265625
8083		70.312500
8084		74.218750
8085		72.265625
8086		76.171875
8087		74.218750
8088		78.125000
8089		76.171875
8090		80.078125
8091		76.171875
8092		82.031250
8093		78.125000
8094		82.031250
8095		78.125000
8096		82.031250
8097		80.078125
8098		83.984375
8099		82.031250
8100		83.984375
8101		82.031250
8102		83.984375
8103		82.031250
8104		85.937500
8105		82.031250
8106		85.937500
8107		82.031250
8108		85.937500
8109		80.078125
8110		85.937500
8111		82.031250
8112		83.984375
8113		80.078125
8114		83.984375
8115		80.078125
8116		83.984375
8117		80.078125
8118		82.031250
8119		78.125000
8120		82.031250
8121		76.171875
8122		80.078125
8123		76.171875
8124		78.125000
8125		74.218750
8126		78.125000
8127		72.265625
8128		76.171875
8129		70.312500
8130		74.218750
8131		68.359375
8132		72.265625
8133		66.406250
8134		70.312500
8135		62.500000
8136		68.359375
8137		60.546875
8138		66.406250
8139		58.593750
8140		62.500000
8141		54.687500
8142		60.546875
8143		52.734375
8144		58.593750
8145		50.781250
8146		54.687500
8147		46.875000
8148		52.734375
8149		42.968750
8150		48.828125
8151		41.015625
8152		44.921875
8153		37.109375
8154		42.968750
8155		33.203125
8156		39.062500
8157		29.296875
8158		35.156250
8159		25.390625
8160		31.250000
8161		21.484375
8162		27.343750
8163		19.531250
8164		23.437500
8165		15.625000
8166		21.484375
8167		11.718750
8168		17.578125
8169		7.812500
8170		11.718750
8171		3.906250
8172		7.812500
8173		-1.953125
8174		5.859375
8175		-3.906250
8176		0.000000
8177		-7.812500
8178		-1.953125
8179		-11.718750
8180		-5.859375
8181		-15.625000
8182		-9.765625
8183		-19.531250
8184		-13.671875
8185		-23.437500
8186		-17.578125
8187		-27.343750
8188		-21.484375
8189		-31.250000
8190		-25.390625
8191		-33.203125
8192		-29.296875
8193		-37.109375
8194		-33.203125
8195		-41.015625
8196		-35.156250
8197		-44.921875
8198		-39.062500
8199		-46.875000
8200		-41.015625
8201		-48.828125
8202		-44.921875
8203		-52.734375
8204		-46.875000
8205		-54.687500
8206		-50.781250
8207		-58.593750
8208		-52.734375
8209		-60.546875
8210		-54.687500
8211		-62.500000
8212		-58.593750
8213		-64.453125
8214		-58.593750
8215		-66.406250
8216		-62.500000
8217		-66.406250
8218		-64.453125
8219		-70.312500
8220		-64.453125
8221		-70.312500
8222		-66.406250
8223		-72.265625
8224		-68.359375
8225		-72.265625
8226		-68.359375
8227		-72.265625
8228		-68.359375
8229		-72.265625
8230		-68.359375
8231		-74.218750
8232		-70.312500
8233		-72.265625
8234		-70.312500
8235		-72.265625
8236		-70.312500
8237		-72.265625
8238		-68.359375
8239		-72.265625
8240		-68.359375
8241		-72.265625
8242		-68.359375
8243		-70.312500
8244		-66.406250
8245		-68.359375
8246		-64.453125
8247		-68.359375
8248		-64.453125
8249		-66.406250
8250		-62.500000
8251		-64.453125
8252		-60.546875
8253		-62.500000
8254		-58.593750
8255		-60.546875
8256		-54.687500
8257		-58.593750
8258		-54.687500
8259		-56.640625
8260		-50.781250
8261		-52.734375
8262		-48.828125
8263		-50.781250
8264		-46.875000
8265		-48.828125
8266		-42.968750
8267		-44.921875
8268		-39.062500
8269		-41.015625
8270		-37.109375
8271		-39.062500
8272		-33.203125
8273		-35.156250
8274		-29.296875
8275		-31.250000
8276		-25.390625
8277		-27.343750
8278		-21.484375
8279		-23.437500
8280		-19.531250
8281		-21.484375
8282		-15.625000
8283		-19.531250
8284		-11.718750
8285		-13.671875
8286		-7.812500
8287		-9.765625
8288		-3.906250
8289		-5.859375
8290		0.000000
8291		-1.953125
8292		3.906250
8293		1.953125
8294		7.812500
8295		5.859375
8296		11.718750
8297		9.765625
8298		15.625000
8299		13.671875
8300		19.531250
8301		17.578125
8302		23.437500
8303		21.484375
8304		29.296875
8305		25.390625
8306		31.250000
8307		29.296875
8308		35.156250
8309		33.203125
8310		37.109375
8311		35.156250
8312		41.015625
8313		39.062500
8314		44.921875
8315		42.968750
8316		48.828125
8317		46.875000
8318		50.781250
8319		48.828125
8320		54.687500
8321		52.734375
8322		58.593750
8323		54.687500
8324		58.593750
8325		56.640625
8326		62.500000
8327		60.546875
8328		64.453125
8329		62.500000
8330		68.359375
8331		64.453125
8332		68.359375
8333		66.406250
8334		70.312500
8335		70.312500
8336		72.265625
8337		72.265625
8338		76.171875
8339		72.265625
8340		78.125000
8341		74.218750
8342		78.125000
8343		76.171875
8344		80.078125
8345		78.125000
8346		82.031250
8347		78.125000
8348		82.031250
8349		80.078125
8350		82.031250
8351		80.078125
8352		83.984375
8353		80.078125
8354		83.984375
8355		80.078125
8356		85.937500
8357		82.031250
8358		83.984375
8359		82.031250
8360		83.984375
8361		82.031250
8362		83.984375
8363		80.078125
8364		83.984375
8365		80.078125
8366		83.984375
8367		80.078125
8368		83.984375
8369		80.078125
8370		82.031250
8371		78.125000
8372		82.031250
8373		78.125000
8374		82.031250
8375		76.171875
8376		80.078125
8377		74.218750
8378		78.125000
8379		72.265625
8380		76.171875
8381		70.312500
8382		76.171875
8383		68.359375
8384		74.218750
8385		68.359375
8386		70.312500
8387		64.453125
8388		68.359375
8389		62.500000
8390		66.406250
8391		60.546875
8392		64.453125
8393		56.640625
8394		62.500000
8395		54.687500
8396		58.593750
8397		50.781250
8398		56.640625
8399		46.875000
8400		52.734375
8401		44.921875
8402		50.781250
8403		42.968750
8404		46.875000
8405		39.062500
8406		44.921875
8407		35.156250
8408		41.015625
8409		31.250000
8410		37.109375
8411		27.343750
8412		33.203125
8413		23.437500
8414		29.296875
8415		21.484375
8416		25.390625
8417		17.578125
8418		23.437500
8419		13.671875
8420		17.578125
8421		7.812500
8422		15.625000
8423		5.859375
8424		11.718750
8425		1.953125
8426		7.812500
8427		-1.953125
8428		3.906250
8429		-7.812500
8430		0.000000
8431		-9.765625
8432		-5.859375
8433		-13.671875
8434		-7.812500
8435		-17.578125
8436		-11.718750
8437		-21.484375
8438		-15.625000
8439		-25.390625
8440		-19.531250
8441		-29.296875
8442		-23.437500
8443		-33.203125
8444		-25.390625
8445		-35.156250
8446		-31.250000
8447		-39.062500
8448		-33.203125
8449		-42.968750
8450		-37.109375
8451		-44.921875
8452		-41.015625
8453		-48.828125
8454		-42.968750
8455		-50.781250
8456		-46.875000
8457		-54.687500
8458		-48.828125
8459		-56.640625
8460		-50.781250
8461		-60.546875
8462		-54.687500
8463		-60.546875
8464		-56.640625
8465		-64.453125
8466		-58.593750
8467		-66.406250
8468		-60.546875
8469		-66.406250
8470		-62.500000
8471		-68.359375
8472		-64.453125
8473		-70.312500
8474		-64.453125
8475		-70.312500
8476		-68.359375
8477		-72.265625
8478		-68.359375
8479		-72.265625
8480		-70.312500
8481		-74.218750
8482		-70.312500
8483		-74.218750
8484		-70.312500
8485		-74.218750
8486		-70.312500
8487		-74.218750
8488		-70.312500
8489		-74.218750
8490		-70.312500
8491		-72.265625
8492		-70.312500
8493		-72.265625
8494		-68.359375
8495		-72.265625
8496		-68.359375
8497		-70.312500
8498		-66.406250
8499		-68.359375
8500		-66.406250
8501		-68.359375
8502		-64.453125
8503		-66.406250
8504		-62.500000
8505		-64.453125
8506		-60.546875
8507		-62.500000
8508		-58.593750
8509		-60.546875
8510		-56.640625
8511		-58.593750
8512		-54.687500
8513		-56.640625
8514		-50.781250
8515		-52.734375
8516		-48.828125
8517		-50.781250
8518		-44.921875
8519		-46.875000
8520		-42.968750
8521		-44.921875
8522		-39.062500
8523		-41.015625
8524		-37.109375
8525		-39.062500
8526		-33.203125
8527		-35.156250
8528		-29.296875
8529		-31.250000
8530		-25.390625
8531		-27.343750
8532		-23.437500
8533		-25.390625
8534		-17.578125
8535		-21.484375
8536		-15.625000
8537		-15.625000
8538		-11.718750
8539		-11.718750
8540		-7.812500
8541		-9.765625
8542		-3.906250
8543		-5.859375
8544		0.000000
8545		-1.953125
8546		3.906250
8547		1.953125
8548		7.812500
8549		5.859375
8550		13.671875
8551		9.765625
8552		15.625000
8553		13.671875
8554		19.531250
8555		17.578125
8556		23.437500
8557		19.531250
8558		27.343750
8559		25.390625
8560		31.250000
8561		29.296875
8562		33.203125
8563		33.203125
8564		37.109375
8565		35.156250
8566		41.015625
8567		39.062500
8568		44.921875
8569		42.968750
8570		46.875000
8571		46.875000
8572		50.781250
8573		48.828125
8574		54.687500
8575		50.781250
8576		56.640625
8577		54.687500
8578		58.593750
8579		58.593750
8580		62.500000
8581		60.546875
8582		64.453125
8583		62.500000
8584		66.406250
8585		64.453125
8586		68.359375
8587		68.359375
8588		72.265625
8589		70.312500
8590		74.218750
8591		70.312500
8592		76.171875
8593		72.265625
8594		76.171875
8595		74.218750
8596		78.125000
8597		76.171875
8598		80.078125
8599		78.125000
8600		82.031250
8601		78.125000
8602		82.031250
8603		78.125000
8604		82.031250
8605		80.078125
8606		82.031250
8607		80.078125
8608		83.984375
8609		82.031250
8610		83.984375
8611		82.031250
8612		83.984375
8613		82.031250
8614		83.984375
8615		82.031250
8616		83.984375
8617		80.078125
8618		83.984375
8619		80.078125
8620		83.984375
8621		80.078125
8622		82.031250
8623		78.125000
8624		82.031250
8625		78.125000
8626		82.031250
8627		78.125000
8628		80.078125
8629		76.171875
8630		80.078125
8631		74.218750
8632		78.125000
8633		72.265625
8634		76.171875
8635		70.312500
8636		74.218750
8637		68.359375
8638		72.265625
8639		66.406250
8640		70.312500
8641		64.453125
8642		68.359375
8643		60.546875
8644		66.406250
8645		58.593750
8646		64.453125
8647		56.640625
8648		60.546875
8649		52.734375
8650		58.593750
8651		50.781250
8652		54.687500
8653		48.828125
8654		52.734375
8655		44.921875
8656		48.828125
8657		41.015625
8658		46.875000
8659		37.109375
8660		42.968750
8661		35.156250
8662		39.062500
8663		31.250000
8664		37.109375
8665		27.343750
8666		33.203125
8667		23.437500
8668		29.296875
8669		19.531250
8670		25.390625
8671		15.625000
8672		21.484375
8673		11.718750
8674		17.578125
8675		7.812500
8676		13.671875
8677		3.906250
8678		9.765625
8679		0.000000
8680		5.859375
8681		-3.906250
8682		1.953125
8683		-7.812500
8684		-1.953125
8685		-11.718750
8686		-5.859375
8687		-15.625000
8688		-9.765625
8689		-17.578125
8690		-13.671875
8691		-23.437500
8692		-17.578125
8693		-25.390625
8694		-21.484375
8695		-29.296875
8696		-23.437500
8697		-33.203125
8698		-29.296875
8699		-37.109375
8700		-31.250000
8701		-41.015625
8702		-35.156250
8703		-42.968750
8704		-39.062500
8705		-46.875000
8706		-41.015625
8707		-48.828125
8708		-44.921875
8709		-52.734375
8710		-46.875000
8711		-54.687500
8712		-50.781250
8713		-56.640625
8714		-52.734375
8715		-60.546875
8716		-54.687500
8717		-62.500000
8718		-56.640625
8719		-64.453125
8720		-58.593750
8721		-66.406250
8722		-62.500000
8723		-66.406250
8724		-64.453125
8725		-68.359375
8726		-64.453125
8727		-70.312500
8728		-66.406250
8729		-70.312500
8730		-68.359375
8731		-72.265625
8732		-68.359375
8733		-72.265625
8734		-70.312500
8735		-72.265625
8736		-70.312500
8737		-74.218750
8738		-70.312500
8739		-72.265625
8740		-70.312500
8741		-74.218750
8742		-70.312500
8743		-72.265625
8744		-70.312500
8745		-72.265625
8746		-70.312500
8747		-70.312500
8748		-68.359375
8749		-70.312500
8750		-68.359375
8751		-70.312500
8752		-66.406250
8753		-68.359375
8754		-64.453125
8755		-66.406250
8756		-64.453125
8757		-64.453125
8758		-60.546875
8759		-64.453125
8760		-60.546875
8761		-62.500000
8762		-56.640625
8763		-58.593750
8764		-54.687500
8765		-58.593750
8766		-52.734375
8767		-54.687500
8768		-50.781250
8769		-52.734375
8770		-46.875000
8771		-48.828125
8772		-44.921875
8773		-44.921875
8774		-41.015625
8775		-44.921875
8776		-37.109375
8777		-39.062500
8778		-35.156250
8779		-37.109375
8780		-31.250000
8781		-33.203125
8782		-27.343750
8783		-29.296875
8784		-23.437500
8785		-25.390625
8786		-21.484375
8787		-23.437500
8788		-17.578125
8789		-17.578125
8790		-13.671875
8791		-15.625000
8792		-9.765625
8793		-11.718750
8794		-5.859375
8795		-7.812500
8796		-1.953125
8797		-3.906250
8798		1.953125
8799		0.000000
8800		5.859375
8801		3.906250
8802		9.765625
8803		7.812500
8804		13.671875
8805		11.718750
8806		17.578125
8807		15.625000
8808		21.484375
8809		19.531250
8810		25.390625
8811		23.437500
8812		29.296875
8813		27.343750
8814		33.203125
8815		31.250000
8816		35.156250
8817		35.156250
8818		39.062500
8819		37.109375
8820		42.968750
8821		41.015625
8822		44.921875
8823		44.921875
8824		48.828125
8825		46.875000
8826		52.734375
8827		50.781250
8828		56.640625
8829		52.734375
8830		58.593750
8831		54.687500
8832		60.546875
8833		58.593750
8834		62.500000
8835		60.546875
8836		66.406250
8837		64.453125
8838		68.359375
8839		66.406250
8840		70.312500
8841		68.359375
8842		72.265625
8843		70.312500
8844		74.218750
8845		72.265625
8846		76.171875
8847		74.218750
8848		78.125000
8849		76.171875
8850		78.125000
8851		76.171875
8852		80.078125
8853		76.171875
8854		82.031250
8855		78.125000
8856		82.031250
8857		80.078125
8858		82.031250
8859		80.078125
8860		83.984375
8861		80.078125
8862		83.984375
8863		82.031250
8864		83.984375
8865		82.031250
8866		83.984375
8867		82.031250
8868		83.984375
8869		82.031250
8870		83.984375
8871		80.078125
8872		83.984375
8873		80.078125
8874		83.984375
8875		78.125000
8876		83.984375
8877		78.125000
8878		82.031250
8879		76.171875
8880		82.031250
8881		74.218750
8882		80.078125
8883		74.218750
8884		78.125000
8885		72.265625
8886		76.171875
8887		70.312500
8888		76.171875
8889		70.312500
8890		74.218750
8891		68.359375
8892		72.265625
8893		64.453125
8894		70.312500
8895		62.500000
8896		68.359375
8897		60.546875
8898		64.453125
8899		58.593750
8900		62.500000
8901		54.687500
8902		58.593750
8903		52.734375
8904		56.640625
8905		48.828125
8906		54.687500
8907		46.875000
8908		50.781250
8909		42.968750
8910		46.875000
8911		39.062500
8912		44.921875
8913		35.156250
8914		41.015625
8915		31.250000
8916		39.062500
8917		29.296875
8918		33.203125
8919		25.390625
8920		31.250000
8921		21.484375
8922		27.343750
8923		17.578125
8924		23.437500
8925		13.671875
8926		19.531250
8927		9.765625
8928		15.625000
8929		5.859375
8930		11.718750
8931		1.953125
8932		7.812500
8933		-1.953125
8934		3.906250
8935		-5.859375
8936		0.000000
8937		-9.765625
8938		-3.906250
8939		-13.671875
8940		-7.812500
8941		-17.578125
8942		-11.718750
8943		-21.484375
8944		-15.625000
8945		-23.437500
8946		-19.531250
8947		-29.296875
8948		-21.484375
8949		-31.250000
8950		-27.343750
8951		-35.156250
8952		-29.296875
8953		-39.062500
8954		-33.203125
8955		-41.015625
8956		-37.109375
8957		-44.921875
8958		-41.015625
8959		-48.828125
8960		-42.968750
8961		-50.781250
8962		-44.921875
8963		-54.687500
8964		-48.828125
8965		-56.640625
8966		-52.734375
8967		-60.546875
8968		-54.687500
8969		-60.546875
8970		-56.640625
8971		-62.500000
8972		-58.593750
8973		-64.453125
8974		-60.546875
8975		-66.406250
8976		-62.500000
8977		-68.359375
8978		-64.453125
8979		-70.312500
8980		-66.406250
8981		-72.265625
8982		-68.359375
8983		-72.265625
8984		-68.359375
8985		-72.265625
8986		-70.312500
8987		-74.218750
8988		-70.312500
8989		-74.218750
8990		-70.312500
8991		-74.218750
8992		-72.265625
8993		-74.218750
8994		-72.265625
8995		-74.218750
8996		-72.265625
8997		-74.218750
8998		-70.312500
8999		-72.265625
9000		-70.312500
9001		-74.218750
9002		-70.312500
9003		-72.265625
9004		-68.359375
9005		-72.265625
9006		-66.406250
9007		-68.359375
9008		-66.406250
9009		-68.359375
9010		-62.500000
9011		-66.406250
9012		-62.500000
9013		-64.453125
9014		-60.546875
9015		-62.500000
9016		-58.593750
9017		-60.546875
9018		-56.640625
9019		-56.640625
9020		-52.734375
9021		-54.687500
9022		-48.828125
9023		-52.734375
9024		-46.875000
9025		-48.828125
9026		-44.921875
9027		-46.875000
9028		-41.015625
9029		-42.968750
9030		-37.109375
9031		-39.062500
9032		-35.156250
9033		-37.109375
9034		-31.250000
9035		-33.203125
9036		-27.343750
9037		-29.296875
9038		-25.390625
9039		-27.343750
9040		-21.484375
9041		-21.484375
9042		-17.578125
9043		-19.531250
9044		-11.718750
9045		-15.625000
9046		-9.765625
9047		-11.718750
9048		-5.859375
9049		-7.812500
9050		-1.953125
9051		-3.906250
9052		3.906250
9053		0.000000
9054		5.859375
9055		3.906250
9056		9.765625
9057		7.812500
9058		13.671875
9059		11.718750
9060		17.578125
9061		15.625000
9062		21.484375
9063		19.531250
9064		25.390625
9065		21.484375
9066		29.296875
9067		27.343750
9068		33.203125
9069		31.250000
9070		35.156250
9071		33.203125
9072		41.015625
9073		37.109375
9074		42.968750
9075		41.015625
9076		44.921875
9077		44.921875
9078		48.828125
9079		46.875000
9080		52.734375
9081		48.828125
9082		54.687500
9083		52.734375
9084		58.593750
9085		56.640625
9086		60.546875
9087		58.593750
9088		62.500000
9089		60.546875
9090		66.406250
9091		64.453125
9092		68.359375
9093		66.406250
9094		70.312500
9095		66.406250
9096		72.265625
9097		70.312500
9098		74.218750
9099		72.265625
9100		76.171875
9101		74.218750
9102		78.125000
9103		74.218750
9104		78.125000
9105		76.171875
9106		80.078125
9107		78.125000
9108		80.078125
9109		78.125000
9110		82.031250
9111		78.125000
9112		83.984375
9113		80.078125
9114		83.984375
9115		80.078125
9116		83.984375
9117		80.078125
9118		83.984375
9119		80.078125
9120		83.984375
9121		80.078125
9122		83.984375
9123		80.078125
9124		83.984375
9125		80.078125
9126		82.031250
9127		78.125000
9128		83.984375
9129		78.125000
9130		82.031250
9131		78.125000
9132		82.031250
9133		76.171875
9134		80.078125
9135		74.218750
9136		80.078125
9137		74.218750
9138		78.125000
9139		72.265625
9140		76.171875
9141		70.312500
9142		74.218750
9143		68.359375
9144		72.265625
9145		66.406250
9146		72.265625
9147		64.453125
9148		68.359375
9149		62.500000
9150		66.406250
9151		58.593750
9152		64.453125
9153		56.640625
9154		60.546875
9155		52.734375
9156		58.593750
9157		50.781250
9158		56.640625
9159		48.828125
9160		52.734375
9161		44.921875
9162		48.828125
9163		41.015625
9164		46.875000
9165		37.109375
9166		42.968750
9167		35.156250
9168		39.062500
9169		31.250000
9170		37.109375
9171		27.343750
9172		33.203125
9173		23.437500
9174		29.296875
9175		19.531250
9176		25.390625
9177		15.625000
9178		21.484375
9179		11.718750
9180		19.531250
9181		7.812500
9182		13.671875
9183		3.906250
9184		9.765625
9185		0.000000
9186		5.859375
9187		-3.906250
9188		1.953125
9189		-7.812500
9190		-1.953125
9191		-11.718750
9192		-5.859375
9193		-15.625000
9194		-9.765625
9195		-19.531250
9196		-13.671875
9197		-23.437500
9198		-17.578125
9199		-25.390625
9200		-21.484375
9201		-29.296875
9202		-23.437500
9203		-35.156250
9204		-27.343750
9205		-37.109375
9206		-31.250000
9207		-39.062500
9208		-35.156250
9209		-42.968750
9210		-39.062500
9211		-46.875000
9212		-41.015625
9213		-48.828125
9214		-44.921875
9215		-52.734375
9216		-46.875000
9217		-54.687500
9218		-50.781250
9219		-56.640625
9220		-52.734375
9221		-60.546875
9222		-54.687500
9223		-62.500000
9224		-58.593750
9225		-64.453125
9226		-60.546875
9227		-66.406250
9228		-62.500000
9229		-68.359375
9230		-62.500000
9231		-70.312500
9232		-66.406250
9233		-70.312500
9234		-68.359375
9235		-72.265625
9236		-68.359375
9237		-72.265625
9238		-68.359375
9239		-74.218750
9240		-70.312500
9241		-74.218750
9242		-70.312500
9243		-74.218750
9244		-72.265625
9245		-76.171875
9246		-70.312500
9247		-74.218750
9248		-72.265625
9249		-74.218750
9250		-72.265625
9251		-74.218750
9252		-70.312500
9253		-74.218750
9254		-70.312500
9255		-72.265625
9256		-68.359375
9257		-72.265625
9258		-68.359375
9259		-70.312500
9260		-68.359375
9261		-68.359375
9262		-66.406250
9263		-68.359375
9264		-64.453125
9265		-66.406250
9266		-62.500000
9267		-64.453125
9268		-60.546875
9269		-62.500000
9270		-56.640625
9271		-60.546875
9272		-54.687500
9273		-56.640625
9274		-52.734375
9275		-54.687500
9276		-50.781250
9277		-50.781250
9278		-46.875000
9279		-48.828125
9280		-42.968750
9281		-46.875000
9282		-41.015625
9283		-42.968750
9284		-37.109375
9285		-39.062500
9286		-33.203125
9287		-35.156250
9288		-31.250000
9289		-33.203125
9290		-27.343750
9291		-29.296875
9292		-23.437500
9293		-25.390625
9294		-19.531250
9295		-21.484375
9296		-15.625000
9297		-17.578125
9298		-11.718750
9299		-13.671875
9300		-7.812500
9301		-9.765625
9302		-3.906250
9303		-5.859375
9304		0.000000
9305		-3.906250
9306		3.906250
9307		1.953125
9308		7.812500
9309		5.859375
9310		11.718750
9311		9.765625
9312		15.625000
9313		13.671875
9314		19.531250
9315		17.578125
9316		23.437500
9317		19.531250
9318		25.390625
9319		23.437500
9320		29.296875
9321		27.343750
9322		33.203125
9323		31.250000
9324		37.109375
9325		35.156250
9326		39.062500
9327		39.062500
9328		42.968750
9329		41.015625
9330		46.875000
9331		44.921875
9332		48.828125
9333		46.875000
9334		52.734375
9335		50.781250
9336		54.687500
9337		52.734375
9338		58.593750
9339		56.640625
9340		60.546875
9341		58.593750
9342		64.453125
9343		62.500000
9344		66.406250
9345		64.453125
9346		68.359375
9347		64.453125
9348		70.312500
9349		68.359375
9350		72.265625
9351		70.312500
9352		74.218750
9353		72.265625
9354		76.171875
9355		74.218750
9356		78.125000
9357		74.218750
9358		80.078125
9359		76.171875
9360		80.078125
9361		78.125000
9362		80.078125
9363		78.125000
9364		82.031250
9365		80.078125
9366		82.031250
9367		80.078125
9368		83.984375
9369		80.078125
9370		83.984375
9371		80.078125
9372		83.984375
9373		80.078125
9374		83.984375
9375		80.078125
9376		83.984375
9377		80.078125
9378		82.031250
9379		78.125000
9380		82.031250
9381		78.125000
9382		82.031250
9383		78.125000
9384		82.031250
9385		78.125000
9386		80.078125
9387		76.171875
9388		80.078125
9389		74.218750
9390		78.125000
9391		72.265625
9392		76.171875
9393		72.265625
9394		74.218750
9395		70.312500
9396		74.218750
9397		66.406250
9398		72.265625
9399		66.406250
9400		70.312500
9401		62.500000
9402		68.359375
9403		60.546875
9404		64.453125
9405		58.593750
9406		62.500000
9407		54.687500
9408		60.546875
9409		52.734375
9410		58.593750
9411		50.781250
9412		54.687500
9413		46.875000
9414		50.781250
9415		42.968750
9416		48.828125
9417		39.062500
9418		44.921875
9419		37.109375
9420		42.968750
9421		33.203125
9422		39.062500
9423		29.296875
9424		35.156250
9425		25.390625
9426		31.250000
9427		23.437500
9428		27.343750
9429		19.531250
9430		23.437500
9431		15.625000
9432		21.484375
9433		9.765625
9434		15.625000
9435		7.812500
9436		11.718750
9437		1.953125
9438		7.812500
9439		0.000000
9440		5.859375
9441		-3.906250
9442		1.953125
9443		-7.812500
9444		-1.953125
9445		-11.718750
9446		-5.859375
9447		-15.625000
9448		-11.718750
9449		-21.484375
9450		-13.671875
9451		-23.437500
9452		-17.578125
9453		-27.343750
9454		-21.484375
9455		-31.250000
9456		-25.390625
9457		-35.156250
9458		-29.296875
9459		-37.109375
9460		-33.203125
9461		-41.015625
9462		-37.109375
9463		-44.921875
9464		-39.062500
9465		-46.875000
9466		-42.968750
9467		-50.781250
9468		-44.921875
9469		-52.734375
9470		-48.828125
9471		-54.687500
9472		-50.781250
9473		-58.593750
9474		-52.734375
9475		-60.546875
9476		-56.640625
9477		-62.500000
9478		-58.593750
9479		-64.453125
9480		-60.546875
9481		-66.406250
9482		-62.500000
9483		-68.359375
9484		-64.453125
9485		-70.312500
9486		-66.406250
9487		-72.265625
9488		-68.359375
9489		-72.265625
9490		-68.359375
9491		-72.265625
9492		-70.312500
9493		-74.218750
9494		-70.312500
9495		-74.218750
9496		-72.265625
9497		-74.218750
9498		-72.265625
9499		-76.171875
9500		-72.265625
9501		-74.218750
9502		-72.265625
9503		-74.218750
9504		-72.265625
9505		-74.218750
9506		-70.312500
9507		-74.218750
9508		-70.312500
9509		-72.265625
9510		-68.359375
9511		-70.312500
9512		-68.359375
9513		-70.312500
9514		-66.406250
9515		-70.312500
9516		-64.453125
9517		-66.406250
9518		-62.500000
9519		-64.453125
9520		-60.546875
9521		-62.500000
9522		-58.593750
9523		-60.546875
9524		-56.640625
9525		-58.593750
9526		-54.687500
9527		-56.640625
9528		-50.781250
9529		-54.687500
9530		-48.828125
9531		-50.781250
9532		-46.875000
9533		-46.875000
9534		-41.015625
9535		-44.921875
9536		-41.015625
9537		-41.015625
9538		-35.156250
9539		-39.062500
9540		-33.203125
9541		-35.156250
9542		-29.296875
9543		-31.250000
9544		-25.390625
9545		-27.343750
9546		-23.437500
9547		-23.437500
9548		-17.578125
9549		-19.531250
9550		-13.671875
9551		-15.625000
9552		-11.718750
9553		-13.671875
9554		-7.812500
9555		-7.812500
9556		-3.906250
9557		-5.859375
9558		1.953125
9559		0.000000
9560		5.859375
9561		3.906250
9562		9.765625
9563		5.859375
9564		11.718750
9565		9.765625
9566		17.578125
9567		13.671875
9568		19.531250
9569		17.578125
9570		23.437500
9571		21.484375
9572		27.343750
9573		25.390625
9574		31.250000
9575		29.296875
9576		33.203125
9577		33.203125
9578		37.109375
9579		37.109375
9580		41.015625
9581		39.062500
9582		44.921875
9583		42.968750
9584		46.875000
9585		44.921875
9586		50.781250
9587		48.828125
9588		54.687500
9589		52.734375
9590		56.640625
9591		54.687500
9592		58.593750
9593		58.593750
9594		62.500000
9595		60.546875
9596		64.453125
9597		62.500000
9598		66.406250
9599		64.453125
9600		70.312500
9601		68.359375
9602		72.265625
9603		70.312500
9604		72.265625
9605		72.265625
9606		76.171875
9607		72.265625
9608		76.171875
9609		74.218750
9610		78.125000
9611		74.218750
9612		78.125000
9613		78.125000
9614		80.078125
9615		78.125000
9616		82.031250
9617		80.078125
9618		82.031250
9619		80.078125
9620		82.031250
9621		80.078125
9622		83.984375
9623		80.078125
9624		83.984375
9625		80.078125
9626		83.984375
9627		80.078125
9628		83.984375
9629		80.078125
9630		83.984375
9631		80.078125
9632		83.984375
9633		80.078125
9634		83.984375
9635		78.125000
9636		82.031250
9637		78.125000
9638		82.031250
9639		76.171875
9640		80.078125
9641		76.171875
9642		80.078125
9643		74.218750
9644		78.125000
9645		72.265625
9646		76.171875
9647		72.265625
9648		74.218750
9649		68.359375
9650		74.218750
9651		66.406250
9652		72.265625
9653		64.453125
9654		68.359375
9655		62.500000
9656		66.406250
9657		60.546875
9658		64.453125
9659		58.593750
9660		62.500000
9661		54.687500
9662		60.546875
9663		52.734375
9664		56.640625
9665		48.828125
9666		54.687500
9667		46.875000
9668		50.781250
9669		42.968750
9670		46.875000
9671		39.062500
9672		44.921875
9673		35.156250
9674		41.015625
9675		33.203125
9676		37.109375
9677		29.296875
9678		35.156250
9679		25.390625
9680		31.250000
9681		21.484375
9682		27.343750
9683		17.578125
9684		23.437500
9685		13.671875
9686		19.531250
9687		9.765625
9688		15.625000
9689		5.859375
9690		11.718750
9691		1.953125
9692		7.812500
9693		-1.953125
9694		3.906250
9695		-5.859375
9696		0.000000
9697		-7.812500
9698		-3.906250
9699		-13.671875
9700		-7.812500
9701		-15.625000
9702		-11.718750
9703		-21.484375
9704		-13.671875
9705		-25.390625
9706		-19.531250
9707		-27.343750
9708		-21.484375
9709		-31.250000
9710		-25.390625
9711		-35.156250
9712		-29.296875
9713		-39.062500
9714		-33.203125
9715		-41.015625
9716		-37.109375
9717		-44.921875
9718		-39.062500
9719		-46.875000
9720		-42.968750
9721		-50.781250
9722		-46.875000
9723		-54.687500
9724		-48.828125
9725		-56.640625
9726		-50.781250
9727		-58.593750
9728		-54.687500
9729		-60.546875
9730		-56.640625
9731		-62.500000
9732		-58.593750
9733		-64.453125
9734		-60.546875
9735		-66.406250
9736		-62.500000
9737		-68.359375
9738		-64.453125
9739		-70.312500
9740		-66.406250
9741		-70.312500
9742		-68.359375
9743		-72.265625
9744		-68.359375
9745		-72.265625
9746		-68.359375
9747		-72.265625
9748		-70.312500
9749		-74.218750
9750		-70.312500
9751		-74.218750
9752		-70.312500
9753		-74.218750
9754		-70.312500
9755		-74.218750
9756		-70.312500
9757		-74.218750
9758		-70.312500
9759		-74.218750
9760		-70.312500
9761		-74.218750
9762		-68.359375
9763		-72.265625
9764		-68.359375
9765		-70.312500
9766		-66.406250
9767		-68.359375
9768		-66.406250
9769		-68.359375
9770		-64.453125
9771		-66.406250
9772		-62.500000
9773		-64.453125
9774		-60.546875
9775		-62.500000
9776		-58.593750
9777		-60.546875
9778		-54.687500
9779		-58.593750
9780		-52.734375
9781		-54.687500
9782		-50.781250
9783		-52.734375
9784		-44.921875
9785		-52.734375
9786		-42.968750
9787		-48.828125
9788		-41.015625
9789		-42.968750
9790		-39.062500
9791		-41.015625
9792		-35.156250
9793		-37.109375
9794		-31.250000
9795		-33.203125
9796		-29.296875
9797		-29.296875
9798		-25.390625
9799		-25.390625
9800		-21.484375
9801		-23.437500
9802		-15.625000
9803		-21.484375
9804		-11.718750
9805		-15.625000
9806		-9.765625
9807		-11.718750
9808		-5.859375
9809		-7.812500
9810		-1.953125
9811		-3.906250
9812		1.953125
9813		0.000000
9814		5.859375
9815		3.906250
9816		9.765625
9817		7.812500
9818		15.625000
9819		9.765625
9820		19.531250
9821		13.671875
9822		21.484375
9823		19.531250
9824		25.390625
9825		21.484375
9826		29.296875
9827		27.343750
9828		33.203125
9829		29.296875
9830		35.156250
9831		35.156250
9832		39.062500
9833		37.109375
9834		44.921875
9835		39.062500
9836		46.875000
9837		42.968750
9838		50.781250
9839		46.875000
9840		52.734375
9841		48.828125
9842		56.640625
9843		52.734375
9844		58.593750
9845		56.640625
9846		60.546875
9847		58.593750
9848		62.500000
9849		60.546875
9850		66.406250
9851		60.546875
9852		70.312500
9853		64.453125
9854		72.265625
9855		66.406250
9856		74.218750
9857		68.359375
9858		76.171875
9859		70.312500
9860		76.171875
9861		72.265625
9862		78.125000
9863		74.218750
9864		78.125000
9865		76.171875
9866		80.078125
9867		76.171875
9868		83.984375
9869		76.171875
9870		83.984375
9871		78.125000
9872		83.984375
9873		78.125000
9874		85.937500
9875		78.125000
9876		85.937500
9877		80.078125
9878		85.937500
9879		78.125000
9880		85.937500
9881		82.031250
9882		83.984375
9883		82.031250
9884		83.984375
9885		78.125000
9886		85.937500
9887		78.125000
9888		85.937500
9889		78.125000
9890		83.984375
9891		76.171875
9892		83.984375
9893		76.171875
9894		82.031250
9895		74.218750
9896		82.031250
9897		74.218750
9898		80.078125
9899		72.265625
9900		76.171875
9901		70.312500
9902		76.171875
9903		66.406250
9904		74.218750
9905		66.406250
9906		72.265625
9907		64.453125
9908		70.312500
9909		60.546875
9910		68.359375
9911		58.593750
9912		66.406250
9913		56.640625
9914		64.453125
9915		54.687500
9916		58.593750
9917		50.781250
9918		56.640625
9919		46.875000
9920		54.687500
9921		42.968750
9922		52.734375
9923		41.015625
9924		48.828125
9925		37.109375
9926		46.875000
9927		33.203125
9928		42.968750
9929		31.250000
9930		39.062500
9931		29.296875
9932		33.203125
9933		25.390625
9934		29.296875
9935		19.531250
9936		27.343750
9937		15.625000
9938		25.390625
9939		11.718750
9940		19.531250
9941		7.812500
9942		17.578125
9943		3.906250
9944		13.671875
9945		0.000000
9946		9.765625
9947		-1.953125
9948		3.906250
9949		-5.859375
9950		0.000000
9951		-11.718750
9952		-3.906250
9953		-17.578125
9954		-5.859375
9955		-19.531250
9956		-9.765625
9957		-23.437500
9958		-13.671875
9959		-27.343750
9960		-17.578125
9961		-29.296875
9962		-19.531250
9963		-33.203125
9964		-25.390625
9965		-35.156250
9966		-29.296875
9967		-39.062500
9968		-33.203125
9969		-42.968750
9970		-35.156250
9971		-46.875000
9972		-39.062500
9973		-50.781250
9974		-41.015625
9975		-52.734375
9976		-44.921875
9977		-56.640625
9978		-46.875000
9979		-58.593750
9980		-50.781250
9981		-58.593750
9982		-52.734375
9983		-60.546875
9984		-56.640625
9985		-64.453125
9986		-58.593750
9987		-68.359375
9988		-58.593750
9989		-68.359375
9990		-60.546875
9991		-70.312500
9992		-62.500000
9993		-72.265625
9994		-64.453125
9995		-72.265625
9996		-64.453125
9997		-72.265625
9998		-66.406250
9999		-72.265625
10000		-70.312500
