Channel              :		CH1
Frequency            :		1.973kHz
Period               :		0.507ms
PK-PK                :		160.2mV
Probe attenuation    :		1X
Voltage per ADC value:		0.122070mV
Time interval        :		2.00000us

index		CH1_Voltage(mV)
1		82.031250
2		82.031250
3		78.125000
4		80.078125
5		76.171875
6		80.078125
7		76.171875
8		80.078125
9		74.218750
10		78.125000
11		74.218750
12		78.125000
13		72.265625
14		76.171875
15		70.312500
16		74.218750
17		70.312500
18		74.218750
19		68.359375
20		72.265625
21		66.406250
22		70.312500
23		64.453125
24		68.359375
25		62.500000
26		66.406250
27		58.593750
28		64.453125
29		56.640625
30		60.546875
31		54.687500
32		58.593750
33		52.734375
34		56.640625
35		48.828125
36		52.734375
37		46.875000
38		52.734375
39		42.968750
40		46.875000
41		39.062500
42		44.921875
43		37.109375
44		41.015625
45		33.203125
46		39.062500
47		29.296875
48		35.156250
49		25.390625
50		31.250000
51		23.437500
52		27.343750
53		19.531250
54		25.390625
55		15.625000
56		21.484375
57		11.718750
58		17.578125
59		7.812500
60		13.671875
61		3.906250
62		9.765625
63		0.000000
64		5.859375
65		-3.906250
66		1.953125
67		-5.859375
68		0.000000
69		-11.718750
70		-3.906250
71		-13.671875
72		-7.812500
73		-17.578125
74		-13.671875
75		-21.484375
76		-15.625000
77		-25.390625
78		-19.531250
79		-27.343750
80		-23.437500
81		-31.250000
82		-27.343750
83		-35.156250
84		-29.296875
85		-37.109375
86		-33.203125
87		-41.015625
88		-37.109375
89		-44.921875
90		-39.062500
91		-48.828125
92		-42.968750
93		-48.828125
94		-44.921875
95		-52.734375
96		-46.875000
97		-54.687500
98		-50.781250
99		-56.640625
100		-52.734375
101		-58.593750
102		-54.687500
103		-60.546875
104		-56.640625
105		-64.453125
106		-58.593750
107		-64.453125
108		-60.546875
109		-66.406250
110		-62.500000
111		-68.359375
112		-64.453125
113		-68.359375
114		-64.453125
115		-70.312500
116		-66.406250
117		-70.312500
118		-66.406250
119		-70.312500
120		-66.406250
121		-72.265625
122		-68.359375
123		-72.265625
124		-68.359375
125		-72.265625
126		-68.359375
127		-70.312500
128		-68.359375
129		-70.312500
130		-66.406250
131		-70.312500
132		-66.406250
133		-70.312500
134		-64.453125
135		-68.359375
136		-64.453125
137		-66.406250
138		-62.500000
139		-66.406250
140		-62.500000
141		-64.453125
142		-60.546875
143		-62.500000
144		-58.593750
145		-60.546875
146		-56.640625
147		-58.593750
148		-54.687500
149		-56.640625
150		-52.734375
151		-56.640625
152		-50.781250
153		-52.734375
154		-46.875000
155		-48.828125
156		-44.921875
157		-46.875000
158		-42.968750
159		-44.921875
160		-39.062500
161		-41.015625
162		-35.156250
163		-39.062500
164		-33.203125
165		-35.156250
166		-29.296875
167		-31.250000
168		-25.390625
169		-27.343750
170		-21.484375
171		-23.437500
172		-19.531250
173		-21.484375
174		-15.625000
175		-17.578125
176		-11.718750
177		-13.671875
178		-7.812500
179		-9.765625
180		-3.906250
181		-5.859375
182		0.000000
183		-1.953125
184		3.906250
185		1.953125
186		7.812500
187		5.859375
188		9.765625
189		7.812500
190		13.671875
191		11.718750
192		17.578125
193		15.625000
194		23.437500
195		19.531250
196		25.390625
197		23.437500
198		29.296875
199		27.343750
200		31.250000
201		29.296875
202		35.156250
203		33.203125
204		39.062500
205		37.109375
206		41.015625
207		41.015625
208		44.921875
209		42.968750
210		48.828125
211		46.875000
212		50.781250
213		48.828125
214		52.734375
215		52.734375
216		56.640625
217		54.687500
218		58.593750
219		56.640625
220		60.546875
221		58.593750
222		64.453125
223		62.500000
224		66.406250
225		64.453125
226		68.359375
227		66.406250
228		70.312500
229		68.359375
230		72.265625
231		70.312500
232		72.265625
233		72.265625
234		74.218750
235		72.265625
236		76.171875
237		74.218750
238		78.125000
239		74.218750
240		78.125000
241		76.171875
242		80.078125
243		76.171875
244		80.078125
245		78.125000
246		80.078125
247		76.171875
248		80.078125
249		78.125000
250		80.078125
251		78.125000
252		82.031250
253		78.125000
254		80.078125
255		76.171875
256		82.031250
257		76.171875
258		80.078125
259		76.171875
260		80.078125
261		76.171875
262		78.125000
263		74.218750
264		78.125000
265		74.218750
266		76.171875
267		72.265625
268		76.171875
269		70.312500
270		74.218750
271		68.359375
272		72.265625
273		66.406250
274		72.265625
275		64.453125
276		68.359375
277		62.500000
278		68.359375
279		60.546875
280		66.406250
281		58.593750
282		62.500000
283		56.640625
284		60.546875
285		52.734375
286		58.593750
287		50.781250
288		54.687500
289		46.875000
290		52.734375
291		44.921875
292		48.828125
293		41.015625
294		46.875000
295		39.062500
296		44.921875
297		35.156250
298		41.015625
299		33.203125
300		37.109375
301		29.296875
302		33.203125
303		25.390625
304		31.250000
305		21.484375
306		27.343750
307		17.578125
308		23.437500
309		13.671875
310		19.531250
311		9.765625
312		15.625000
313		5.859375
314		13.671875
315		3.906250
316		7.812500
317		0.000000
318		3.906250
319		-3.906250
320		1.953125
321		-7.812500
322		-1.953125
323		-13.671875
324		-5.859375
325		-15.625000
326		-9.765625
327		-19.531250
328		-13.671875
329		-23.437500
330		-17.578125
331		-25.390625
332		-19.531250
333		-29.296875
334		-23.437500
335		-33.203125
336		-27.343750
337		-37.109375
338		-31.250000
339		-39.062500
340		-35.156250
341		-42.968750
342		-37.109375
343		-44.921875
344		-41.015625
345		-48.828125
346		-42.968750
347		-50.781250
348		-46.875000
349		-52.734375
350		-48.828125
351		-56.640625
352		-50.781250
353		-58.593750
354		-52.734375
355		-60.546875
356		-56.640625
357		-62.500000
358		-58.593750
359		-64.453125
360		-60.546875
361		-64.453125
362		-60.546875
363		-68.359375
364		-62.500000
365		-68.359375
366		-64.453125
367		-68.359375
368		-66.406250
369		-70.312500
370		-66.406250
371		-70.312500
372		-68.359375
373		-70.312500
374		-68.359375
375		-70.312500
376		-68.359375
377		-72.265625
378		-68.359375
379		-72.265625
380		-68.359375
381		-72.265625
382		-68.359375
383		-70.312500
384		-68.359375
385		-70.312500
386		-66.406250
387		-70.312500
388		-66.406250
389		-68.359375
390		-64.453125
391		-68.359375
392		-64.453125
393		-66.406250
394		-62.500000
395		-64.453125
396		-60.546875
397		-62.500000
398		-58.593750
399		-60.546875
400		-56.640625
401		-58.593750
402		-54.687500
403		-56.640625
404		-52.734375
405		-54.687500
406		-48.828125
407		-50.781250
408		-46.875000
409		-48.828125
410		-44.921875
411		-46.875000
412		-41.015625
413		-44.921875
414		-37.109375
415		-41.015625
416		-35.156250
417		-37.109375
418		-31.250000
419		-33.203125
420		-29.296875
421		-29.296875
422		-25.390625
423		-27.343750
424		-21.484375
425		-23.437500
426		-17.578125
427		-19.531250
428		-15.625000
429		-15.625000
430		-9.765625
431		-13.671875
432		-7.812500
433		-9.765625
434		-3.906250
435		-5.859375
436		1.953125
437		-1.953125
438		3.906250
439		1.953125
440		7.812500
441		5.859375
442		13.671875
443		9.765625
444		15.625000
445		13.671875
446		19.531250
447		15.625000
448		23.437500
449		21.484375
450		25.390625
451		23.437500
452		29.296875
453		27.343750
454		33.203125
455		31.250000
456		35.156250
457		33.203125
458		41.015625
459		37.109375
460		42.968750
461		41.015625
462		44.921875
463		42.968750
464		48.828125
465		46.875000
466		50.781250
467		48.828125
468		54.687500
469		52.734375
470		56.640625
471		54.687500
472		58.593750
473		58.593750
474		62.500000
475		60.546875
476		64.453125
477		62.500000
478		66.406250
479		64.453125
480		68.359375
481		66.406250
482		70.312500
483		68.359375
484		72.265625
485		70.312500
486		74.218750
487		70.312500
488		74.218750
489		72.265625
490		76.171875
491		74.218750
492		78.125000
493		74.218750
494		78.125000
495		76.171875
496		80.078125
497		76.171875
498		80.078125
499		76.171875
500		80.078125
501		78.125000
502		80.078125
503		76.171875
504		82.031250
505		78.125000
506		80.078125
507		78.125000
508		80.078125
509		76.171875
510		80.078125
511		76.171875
512		80.078125
513		76.171875
514		80.078125
515		74.218750
516		80.078125
517		74.218750
518		78.125000
519		72.265625
520		76.171875
521		72.265625
522		76.171875
523		70.312500
524		74.218750
525		68.359375
526		72.265625
527		66.406250
528		70.312500
529		64.453125
530		68.359375
531		62.500000
532		66.406250
533		60.546875
534		64.453125
535		58.593750
536		62.500000
537		54.687500
538		60.546875
539		52.734375
540		58.593750
541		48.828125
542		54.687500
543		46.875000
544		50.781250
545		44.921875
546		48.828125
547		41.015625
548		44.921875
549		37.109375
550		42.968750
551		35.156250
552		39.062500
553		29.296875
554		35.156250
555		27.343750
556		33.203125
557		23.437500
558		29.296875
559		19.531250
560		25.390625
561		15.625000
562		21.484375
563		13.671875
564		17.578125
565		9.765625
566		15.625000
567		5.859375
568		11.718750
569		1.953125
570		7.812500
571		-1.953125
572		3.906250
573		-5.859375
574		0.000000
575		-9.765625
576		-3.906250
577		-13.671875
578		-7.812500
579		-15.625000
580		-11.718750
581		-19.531250
582		-15.625000
583		-23.437500
584		-17.578125
585		-27.343750
586		-21.484375
587		-31.250000
588		-25.390625
589		-33.203125
590		-29.296875
591		-37.109375
592		-31.250000
593		-41.015625
594		-35.156250
595		-42.968750
596		-39.062500
597		-46.875000
598		-41.015625
599		-48.828125
600		-44.921875
601		-50.781250
602		-46.875000
603		-54.687500
604		-48.828125
605		-56.640625
606		-52.734375
607		-58.593750
608		-54.687500
609		-60.546875
610		-56.640625
611		-62.500000
612		-58.593750
613		-64.453125
614		-60.546875
615		-66.406250
616		-62.500000
617		-66.406250
618		-64.453125
619		-68.359375
620		-64.453125
621		-70.312500
622		-66.406250
623		-70.312500
624		-66.406250
625		-70.312500
626		-66.406250
627		-70.312500
628		-68.359375
629		-70.312500
630		-68.359375
631		-72.265625
632		-68.359375
633		-70.312500
634		-68.359375
635		-70.312500
636		-68.359375
637		-72.265625
638		-66.406250
639		-70.312500
640		-66.406250
641		-70.312500
642		-66.406250
643		-68.359375
644		-64.453125
645		-66.406250
646		-62.500000
647		-66.406250
648		-62.500000
649		-64.453125
650		-60.546875
651		-62.500000
652		-58.593750
653		-60.546875
654		-54.687500
655		-58.593750
656		-52.734375
657		-54.687500
658		-50.781250
659		-54.687500
660		-48.828125
661		-50.781250
662		-46.875000
663		-46.875000
664		-42.968750
665		-44.921875
666		-39.062500
667		-42.968750
668		-37.109375
669		-39.062500
670		-33.203125
671		-35.156250
672		-31.250000
673		-33.203125
674		-27.343750
675		-29.296875
676		-23.437500
677		-25.390625
678		-19.531250
679		-21.484375
680		-17.578125
681		-17.578125
682		-13.671875
683		-15.625000
684		-9.765625
685		-11.718750
686		-5.859375
687		-7.812500
688		-1.953125
689		-5.859375
690		1.953125
691		0.000000
692		5.859375
693		3.906250
694		9.765625
695		7.812500
696		11.718750
697		9.765625
698		17.578125
699		15.625000
700		21.484375
701		17.578125
702		23.437500
703		21.484375
704		27.343750
705		25.390625
706		31.250000
707		29.296875
708		33.203125
709		33.203125
710		37.109375
711		35.156250
712		41.015625
713		39.062500
714		44.921875
715		41.015625
716		46.875000
717		44.921875
718		48.828125
719		48.828125
720		52.734375
721		50.781250
722		56.640625
723		52.734375
724		58.593750
725		56.640625
726		60.546875
727		58.593750
728		62.500000
729		60.546875
730		66.406250
731		62.500000
732		66.406250
733		66.406250
734		70.312500
735		66.406250
736		70.312500
737		68.359375
738		72.265625
739		70.312500
740		74.218750
741		72.265625
742		76.171875
743		74.218750
744		76.171875
745		74.218750
746		78.125000
747		76.171875
748		78.125000
749		76.171875
750		80.078125
751		76.171875
752		80.078125
753		78.125000
754		80.078125
755		78.125000
756		80.078125
757		78.125000
758		80.078125
759		78.125000
760		82.031250
761		78.125000
762		80.078125
763		78.125000
764		80.078125
765		76.171875
766		80.078125
767		76.171875
768		80.078125
769		74.218750
770		78.125000
771		74.218750
772		78.125000
773		72.265625
774		76.171875
775		70.312500
776		74.218750
777		70.312500
778		74.218750
779		68.359375
780		72.265625
781		66.406250
782		70.312500
783		64.453125
784		68.359375
785		62.500000
786		66.406250
787		60.546875
788		64.453125
789		56.640625
790		60.546875
791		54.687500
792		58.593750
793		52.734375
794		56.640625
795		48.828125
796		54.687500
797		44.921875
798		50.781250
799		42.968750
800		48.828125
801		41.015625
802		44.921875
803		37.109375
804		41.015625
805		33.203125
806		39.062500
807		29.296875
808		35.156250
809		27.343750
810		31.250000
811		23.437500
812		29.296875
813		19.531250
814		23.437500
815		15.625000
816		21.484375
817		11.718750
818		17.578125
819		7.812500
820		13.671875
821		3.906250
822		9.765625
823		0.000000
824		5.859375
825		-1.953125
826		1.953125
827		-7.812500
828		0.000000
829		-9.765625
830		-5.859375
831		-13.671875
832		-7.812500
833		-17.578125
834		-11.718750
835		-21.484375
836		-15.625000
837		-25.390625
838		-19.531250
839		-29.296875
840		-23.437500
841		-31.250000
842		-27.343750
843		-35.156250
844		-29.296875
845		-39.062500
846		-33.203125
847		-41.015625
848		-37.109375
849		-44.921875
850		-39.062500
851		-46.875000
852		-42.968750
853		-50.781250
854		-44.921875
855		-52.734375
856		-48.828125
857		-54.687500
858		-48.828125
859		-56.640625
860		-52.734375
861		-58.593750
862		-54.687500
863		-62.500000
864		-58.593750
865		-62.500000
866		-58.593750
867		-64.453125
868		-60.546875
869		-66.406250
870		-62.500000
871		-66.406250
872		-64.453125
873		-70.312500
874		-64.453125
875		-70.312500
876		-66.406250
877		-70.312500
878		-66.406250
879		-70.312500
880		-68.359375
881		-70.312500
882		-68.359375
883		-74.218750
884		-66.406250
885		-72.265625
886		-66.406250
887		-70.312500
888		-68.359375
889		-72.265625
890		-66.406250
891		-72.265625
892		-66.406250
893		-68.359375
894		-66.406250
895		-68.359375
896		-64.453125
897		-66.406250
898		-64.453125
899		-68.359375
900		-60.546875
901		-66.406250
902		-58.593750
903		-62.500000
904		-58.593750
905		-60.546875
906		-56.640625
907		-60.546875
908		-52.734375
909		-56.640625
910		-52.734375
911		-54.687500
912		-50.781250
913		-52.734375
914		-48.828125
915		-48.828125
916		-44.921875
917		-48.828125
918		-41.015625
919		-46.875000
920		-39.062500
921		-41.015625
922		-37.109375
923		-37.109375
924		-31.250000
925		-35.156250
926		-29.296875
927		-31.250000
928		-25.390625
929		-27.343750
930		-23.437500
931		-25.390625
932		-19.531250
933		-21.484375
934		-13.671875
935		-19.531250
936		-11.718750
937		-13.671875
938		-9.765625
939		-9.765625
940		-3.906250
941		-7.812500
942		-1.953125
943		-1.953125
944		1.953125
945		1.953125
946		5.859375
947		3.906250
948		9.765625
949		7.812500
950		15.625000
951		9.765625
952		19.531250
953		15.625000
954		21.484375
955		19.531250
956		25.390625
957		23.437500
958		29.296875
959		27.343750
960		31.250000
961		29.296875
962		35.156250
963		33.203125
964		39.062500
965		37.109375
966		41.015625
967		39.062500
968		46.875000
969		41.015625
970		46.875000
971		46.875000
972		50.781250
973		48.828125
974		56.640625
975		48.828125
976		56.640625
977		54.687500
978		58.593750
979		56.640625
980		60.546875
981		60.546875
982		62.500000
983		60.546875
984		68.359375
985		62.500000
986		70.312500
987		66.406250
988		70.312500
989		68.359375
990		72.265625
991		68.359375
992		74.218750
993		72.265625
994		74.218750
995		72.265625
996		76.171875
997		74.218750
998		76.171875
999		74.218750
1000		78.125000
1001		74.218750
1002		82.031250
1003		74.218750
1004		80.078125
1005		78.125000
1006		80.078125
1007		76.171875
1008		82.031250
1009		76.171875
1010		82.031250
1011		78.125000
1012		80.078125
1013		78.125000
1014		80.078125
1015		78.125000
1016		80.078125
1017		76.171875
1018		82.031250
1019		74.218750
1020		82.031250
1021		76.171875
1022		78.125000
1023		74.218750
1024		78.125000
1025		70.312500
1026		80.078125
1027		72.265625
1028		76.171875
1029		72.265625
1030		74.218750
1031		70.312500
1032		72.265625
1033		66.406250
1034		72.265625
1035		62.500000
1036		72.265625
1037		64.453125
1038		70.312500
1039		60.546875
1040		64.453125
1041		56.640625
1042		64.453125
1043		56.640625
1044		60.546875
1045		54.687500
1046		58.593750
1047		50.781250
1048		56.640625
1049		48.828125
1050		52.734375
1051		42.968750
1052		50.781250
1053		42.968750
1054		48.828125
1055		39.062500
1056		44.921875
1057		33.203125
1058		41.015625
1059		33.203125
1060		39.062500
1061		29.296875
1062		33.203125
1063		25.390625
1064		31.250000
1065		21.484375
1066		27.343750
1067		17.578125
1068		23.437500
1069		13.671875
1070		21.484375
1071		11.718750
1072		17.578125
1073		7.812500
1074		11.718750
1075		1.953125
1076		9.765625
1077		0.000000
1078		5.859375
1079		-3.906250
1080		1.953125
1081		-7.812500
1082		-1.953125
1083		-11.718750
1084		-5.859375
1085		-17.578125
1086		-7.812500
1087		-19.531250
1088		-11.718750
1089		-21.484375
1090		-17.578125
1091		-27.343750
1092		-19.531250
1093		-29.296875
1094		-21.484375
1095		-33.203125
1096		-27.343750
1097		-35.156250
1098		-31.250000
1099		-39.062500
1100		-35.156250
1101		-44.921875
1102		-37.109375
1103		-46.875000
1104		-39.062500
1105		-46.875000
1106		-42.968750
1107		-50.781250
1108		-46.875000
1109		-54.687500
1110		-46.875000
1111		-54.687500
1112		-50.781250
1113		-56.640625
1114		-54.687500
1115		-60.546875
1116		-56.640625
1117		-64.453125
1118		-58.593750
1119		-64.453125
1120		-58.593750
1121		-64.453125
1122		-60.546875
1123		-66.406250
1124		-62.500000
1125		-70.312500
1126		-62.500000
1127		-68.359375
1128		-64.453125
1129		-70.312500
1130		-66.406250
1131		-70.312500
1132		-68.359375
1133		-70.312500
1134		-68.359375
1135		-72.265625
1136		-66.406250
1137		-74.218750
1138		-66.406250
1139		-72.265625
1140		-68.359375
1141		-70.312500
1142		-68.359375
1143		-72.265625
1144		-66.406250
1145		-70.312500
1146		-66.406250
1147		-68.359375
1148		-66.406250
1149		-68.359375
1150		-64.453125
1151		-68.359375
1152		-62.500000
1153		-66.406250
1154		-60.546875
1155		-64.453125
1156		-60.546875
1157		-62.500000
1158		-58.593750
1159		-62.500000
1160		-54.687500
1161		-58.593750
1162		-54.687500
1163		-56.640625
1164		-52.734375
1165		-52.734375
1166		-48.828125
1167		-50.781250
1168		-46.875000
1169		-50.781250
1170		-42.968750
1171		-48.828125
1172		-41.015625
1173		-42.968750
1174		-39.062500
1175		-39.062500
1176		-33.203125
1177		-39.062500
1178		-31.250000
1179		-33.203125
1180		-29.296875
1181		-29.296875
1182		-25.390625
1183		-27.343750
1184		-21.484375
1185		-23.437500
1186		-15.625000
1187		-21.484375
1188		-13.671875
1189		-15.625000
1190		-11.718750
1191		-13.671875
1192		-7.812500
1193		-9.765625
1194		-3.906250
1195		-5.859375
1196		0.000000
1197		-1.953125
1198		3.906250
1199		1.953125
1200		7.812500
1201		5.859375
1202		13.671875
1203		7.812500
1204		15.625000
1205		11.718750
1206		19.531250
1207		17.578125
1208		21.484375
1209		19.531250
1210		27.343750
1211		23.437500
1212		29.296875
1213		27.343750
1214		33.203125
1215		31.250000
1216		35.156250
1217		35.156250
1218		39.062500
1219		37.109375
1220		44.921875
1221		39.062500
1222		46.875000
1223		42.968750
1224		48.828125
1225		46.875000
1226		50.781250
1227		48.828125
1228		54.687500
1229		52.734375
1230		56.640625
1231		54.687500
1232		58.593750
1233		58.593750
1234		62.500000
1235		58.593750
1236		66.406250
1237		60.546875
1238		68.359375
1239		64.453125
1240		68.359375
1241		66.406250
1242		70.312500
1243		66.406250
1244		74.218750
1245		68.359375
1246		74.218750
1247		70.312500
1248		74.218750
1249		72.265625
1250		76.171875
1251		74.218750
1252		76.171875
1253		72.265625
1254		80.078125
1255		74.218750
1256		80.078125
1257		76.171875
1258		80.078125
1259		74.218750
1260		82.031250
1261		76.171875
1262		82.031250
1263		76.171875
1264		82.031250
1265		78.125000
1266		80.078125
1267		78.125000
1268		80.078125
1269		76.171875
1270		82.031250
1271		74.218750
1272		82.031250
1273		76.171875
1274		78.125000
1275		76.171875
1276		78.125000
1277		72.265625
1278		80.078125
1279		70.312500
1280		78.125000
1281		72.265625
1282		74.218750
1283		70.312500
1284		74.218750
1285		66.406250
1286		72.265625
1287		64.453125
1288		72.265625
1289		64.453125
1290		70.312500
1291		62.500000
1292		66.406250
1293		58.593750
1294		64.453125
1295		56.640625
1296		64.453125
1297		54.687500
1298		62.500000
1299		52.734375
1300		56.640625
1301		50.781250
1302		54.687500
1303		44.921875
1304		52.734375
1305		42.968750
1306		50.781250
1307		41.015625
1308		46.875000
1309		37.109375
1310		42.968750
1311		33.203125
1312		41.015625
1313		29.296875
1314		37.109375
1315		27.343750
1316		33.203125
1317		23.437500
1318		29.296875
1319		19.531250
1320		25.390625
1321		15.625000
1322		25.390625
1323		13.671875
1324		17.578125
1325		9.765625
1326		15.625000
1327		5.859375
1328		11.718750
1329		0.000000
1330		9.765625
1331		-1.953125
1332		3.906250
1333		-5.859375
1334		0.000000
1335		-9.765625
1336		-3.906250
1337		-15.625000
1338		-5.859375
1339		-17.578125
1340		-9.765625
1341		-19.531250
1342		-15.625000
1343		-25.390625
1344		-19.531250
1345		-29.296875
1346		-19.531250
1347		-31.250000
1348		-23.437500
1349		-33.203125
1350		-29.296875
1351		-37.109375
1352		-31.250000
1353		-42.968750
1354		-35.156250
1355		-44.921875
1356		-37.109375
1357		-44.921875
1358		-41.015625
1359		-48.828125
1360		-44.921875
1361		-52.734375
1362		-46.875000
1363		-56.640625
1364		-48.828125
1365		-56.640625
1366		-52.734375
1367		-58.593750
1368		-54.687500
1369		-62.500000
1370		-56.640625
1371		-64.453125
1372		-56.640625
1373		-64.453125
1374		-58.593750
1375		-64.453125
1376		-62.500000
1377		-68.359375
1378		-62.500000
1379		-70.312500
1380		-62.500000
1381		-70.312500
1382		-64.453125
1383		-70.312500
1384		-66.406250
1385		-70.312500
1386		-68.359375
1387		-72.265625
1388		-66.406250
1389		-74.218750
1390		-66.406250
1391		-70.312500
1392		-68.359375
1393		-70.312500
1394		-68.359375
1395		-74.218750
1396		-66.406250
1397		-72.265625
1398		-66.406250
1399		-70.312500
1400		-66.406250
1401		-68.359375
1402		-66.406250
1403		-68.359375
1404		-62.500000
1405		-70.312500
1406		-60.546875
1407		-66.406250
1408		-62.500000
1409		-64.453125
1410		-60.546875
1411		-64.453125
1412		-56.640625
1413		-62.500000
1414		-54.687500
1415		-58.593750
1416		-54.687500
1417		-54.687500
1418		-50.781250
1419		-52.734375
1420		-48.828125
1421		-52.734375
1422		-44.921875
1423		-50.781250
1424		-42.968750
1425		-44.921875
1426		-41.015625
1427		-42.968750
1428		-35.156250
1429		-41.015625
1430		-33.203125
1431		-37.109375
1432		-31.250000
1433		-33.203125
1434		-27.343750
1435		-29.296875
1436		-25.390625
1437		-25.390625
1438		-19.531250
1439		-25.390625
1440		-15.625000
1441		-19.531250
1442		-13.671875
1443		-15.625000
1444		-9.765625
1445		-11.718750
1446		-3.906250
1447		-9.765625
1448		0.000000
1449		-3.906250
1450		0.000000
1451		-1.953125
1452		3.906250
1453		3.906250
1454		7.812500
1455		5.859375
1456		13.671875
1457		9.765625
1458		15.625000
1459		13.671875
1460		19.531250
1461		17.578125
1462		25.390625
1463		19.531250
1464		29.296875
1465		23.437500
1466		29.296875
1467		29.296875
1468		33.203125
1469		33.203125
1470		37.109375
1471		35.156250
1472		42.968750
1473		37.109375
1474		44.921875
1475		41.015625
1476		46.875000
1477		44.921875
1478		48.828125
1479		44.921875
1480		54.687500
1481		48.828125
1482		56.640625
1483		52.734375
1484		58.593750
1485		56.640625
1486		60.546875
1487		58.593750
1488		64.453125
1489		58.593750
1490		66.406250
1491		62.500000
1492		66.406250
1493		66.406250
1494		68.359375
1495		66.406250
1496		72.265625
1497		66.406250
1498		74.218750
1499		70.312500
1500		74.218750
1501		72.265625
1502		74.218750
1503		74.218750
1504		76.171875
1505		72.265625
1506		80.078125
1507		74.218750
1508		80.078125
1509		76.171875
1510		80.078125
1511		74.218750
1512		82.031250
1513		76.171875
1514		82.031250
1515		78.125000
1516		80.078125
1517		78.125000
1518		80.078125
1519		78.125000
1520		80.078125
1521		76.171875
1522		82.031250
1523		76.171875
1524		82.031250
1525		78.125000
1526		80.078125
1527		76.171875
1528		78.125000
1529		74.218750
1530		80.078125
1531		74.218750
1532		78.125000
1533		74.218750
1534		76.171875
1535		72.265625
1536		74.218750
1537		70.312500
1538		74.218750
1539		66.406250
1540		74.218750
1541		66.406250
1542		72.265625
1543		64.453125
1544		68.359375
1545		60.546875
1546		66.406250
1547		58.593750
1548		66.406250
1549		58.593750
1550		62.500000
1551		54.687500
1552		58.593750
1553		52.734375
1554		56.640625
1555		46.875000
1556		54.687500
1557		46.875000
1558		52.734375
1559		42.968750
1560		48.828125
1561		41.015625
1562		44.921875
1563		37.109375
1564		42.968750
1565		35.156250
1566		39.062500
1567		31.250000
1568		35.156250
1569		27.343750
1570		33.203125
1571		21.484375
1572		29.296875
1573		17.578125
1574		27.343750
1575		15.625000
1576		23.437500
1577		13.671875
1578		17.578125
1579		7.812500
1580		15.625000
1581		5.859375
1582		9.765625
1583		1.953125
1584		5.859375
1585		-1.953125
1586		3.906250
1587		-5.859375
1588		0.000000
1589		-11.718750
1590		-3.906250
1591		-13.671875
1592		-5.859375
1593		-17.578125
1594		-11.718750
1595		-23.437500
1596		-15.625000
1597		-23.437500
1598		-17.578125
1599		-27.343750
1600		-23.437500
1601		-31.250000
1602		-25.390625
1603		-33.203125
1604		-29.296875
1605		-39.062500
1606		-33.203125
1607		-41.015625
1608		-33.203125
1609		-42.968750
1610		-39.062500
1611		-46.875000
1612		-42.968750
1613		-50.781250
1614		-44.921875
1615		-52.734375
1616		-46.875000
1617		-54.687500
1618		-50.781250
1619		-56.640625
1620		-52.734375
1621		-58.593750
1622		-54.687500
1623		-62.500000
1624		-54.687500
1625		-62.500000
1626		-56.640625
1627		-64.453125
1628		-60.546875
1629		-68.359375
1630		-60.546875
1631		-68.359375
1632		-62.500000
1633		-68.359375
1634		-64.453125
1635		-68.359375
1636		-66.406250
1637		-70.312500
1638		-66.406250
1639		-72.265625
1640		-64.453125
1641		-72.265625
1642		-66.406250
1643		-70.312500
1644		-68.359375
1645		-70.312500
1646		-68.359375
1647		-72.265625
1648		-66.406250
1649		-70.312500
1650		-68.359375
1651		-70.312500
1652		-66.406250
1653		-68.359375
1654		-66.406250
1655		-70.312500
1656		-62.500000
1657		-70.312500
1658		-60.546875
1659		-66.406250
1660		-62.500000
1661		-64.453125
1662		-60.546875
1663		-64.453125
1664		-56.640625
1665		-60.546875
1666		-56.640625
1667		-58.593750
1668		-54.687500
1669		-56.640625
1670		-52.734375
1671		-54.687500
1672		-50.781250
1673		-52.734375
1674		-44.921875
1675		-50.781250
1676		-44.921875
1677		-46.875000
1678		-42.968750
1679		-44.921875
1680		-37.109375
1681		-42.968750
1682		-37.109375
1683		-37.109375
1684		-33.203125
1685		-35.156250
1686		-29.296875
1687		-31.250000
1688		-27.343750
1689		-27.343750
1690		-21.484375
1691		-27.343750
1692		-17.578125
1693		-21.484375
1694		-15.625000
1695		-17.578125
1696		-11.718750
1697		-15.625000
1698		-7.812500
1699		-9.765625
1700		-5.859375
1701		-7.812500
1702		-1.953125
1703		-1.953125
1704		1.953125
1705		1.953125
1706		5.859375
1707		1.953125
1708		11.718750
1709		5.859375
1710		13.671875
1711		11.718750
1712		17.578125
1713		15.625000
1714		23.437500
1715		17.578125
1716		23.437500
1717		23.437500
1718		27.343750
1719		27.343750
1720		31.250000
1721		29.296875
1722		35.156250
1723		33.203125
1724		39.062500
1725		35.156250
1726		42.968750
1727		41.015625
1728		44.921875
1729		42.968750
1730		46.875000
1731		42.968750
1732		50.781250
1733		48.828125
1734		52.734375
1735		50.781250
1736		56.640625
1737		54.687500
1738		58.593750
1739		56.640625
1740		62.500000
1741		56.640625
1742		66.406250
1743		60.546875
1744		66.406250
1745		64.453125
1746		68.359375
1747		64.453125
1748		72.265625
1749		68.359375
1750		70.312500
1751		70.312500
1752		72.265625
1753		72.265625
1754		74.218750
1755		72.265625
1756		76.171875
1757		72.265625
1758		80.078125
1759		72.265625
1760		80.078125
1761		76.171875
1762		78.125000
1763		76.171875
1764		80.078125
1765		76.171875
1766		82.031250
1767		78.125000
1768		80.078125
1769		78.125000
1770		80.078125
1771		78.125000
1772		80.078125
1773		76.171875
1774		82.031250
1775		76.171875
1776		82.031250
1777		78.125000
1778		80.078125
1779		78.125000
1780		80.078125
1781		74.218750
1782		82.031250
1783		76.171875
1784		78.125000
1785		74.218750
1786		76.171875
1787		72.265625
1788		76.171875
1789		72.265625
1790		74.218750
1791		68.359375
1792		76.171875
1793		66.406250
1794		74.218750
1795		66.406250
1796		70.312500
1797		62.500000
1798		68.359375
1799		62.500000
1800		68.359375
1801		60.546875
1802		64.453125
1803		56.640625
1804		60.546875
1805		54.687500
1806		58.593750
1807		48.828125
1808		56.640625
1809		46.875000
1810		56.640625
1811		46.875000
1812		50.781250
1813		42.968750
1814		46.875000
1815		39.062500
1816		46.875000
1817		37.109375
1818		41.015625
1819		33.203125
1820		37.109375
1821		29.296875
1822		35.156250
1823		25.390625
1824		31.250000
1825		21.484375
1826		29.296875
1827		19.531250
1828		25.390625
1829		15.625000
1830		19.531250
1831		9.765625
1832		17.578125
1833		7.812500
1834		13.671875
1835		3.906250
1836		9.765625
1837		0.000000
1838		5.859375
1839		-3.906250
1840		1.953125
1841		-9.765625
1842		-1.953125
1843		-11.718750
1844		-3.906250
1845		-13.671875
1846		-7.812500
1847		-17.578125
1848		-13.671875
1849		-21.484375
1850		-13.671875
1851		-25.390625
1852		-19.531250
1853		-29.296875
1854		-23.437500
1855		-33.203125
1856		-25.390625
1857		-37.109375
1858		-29.296875
1859		-41.015625
1860		-31.250000
1861		-41.015625
1862		-35.156250
1863		-44.921875
1864		-39.062500
1865		-48.828125
1866		-41.015625
1867		-50.781250
1868		-44.921875
1869		-52.734375
1870		-46.875000
1871		-54.687500
1872		-50.781250
1873		-56.640625
1874		-52.734375
1875		-60.546875
1876		-52.734375
1877		-62.500000
1878		-54.687500
1879		-62.500000
1880		-58.593750
1881		-66.406250
1882		-60.546875
1883		-66.406250
1884		-60.546875
1885		-68.359375
1886		-64.453125
1887		-68.359375
1888		-64.453125
1889		-70.312500
1890		-64.453125
1891		-72.265625
1892		-64.453125
1893		-72.265625
1894		-64.453125
1895		-70.312500
1896		-68.359375
1897		-70.312500
1898		-68.359375
1899		-72.265625
1900		-66.406250
1901		-70.312500
1902		-68.359375
1903		-70.312500
1904		-66.406250
1905		-70.312500
1906		-66.406250
1907		-70.312500
1908		-64.453125
1909		-70.312500
1910		-62.500000
1911		-68.359375
1912		-62.500000
1913		-66.406250
1914		-62.500000
1915		-64.453125
1916		-58.593750
1917		-62.500000
1918		-58.593750
1919		-60.546875
1920		-56.640625
1921		-58.593750
1922		-54.687500
1923		-56.640625
1924		-52.734375
1925		-54.687500
1926		-46.875000
1927		-52.734375
1928		-46.875000
1929		-48.828125
1930		-44.921875
1931		-46.875000
1932		-41.015625
1933		-44.921875
1934		-39.062500
1935		-41.015625
1936		-35.156250
1937		-37.109375
1938		-31.250000
1939		-35.156250
1940		-29.296875
1941		-31.250000
1942		-23.437500
1943		-29.296875
1944		-19.531250
1945		-23.437500
1946		-19.531250
1947		-19.531250
1948		-15.625000
1949		-17.578125
1950		-9.765625
1951		-13.671875
1952		-7.812500
1953		-9.765625
1954		-3.906250
1955		-5.859375
1956		0.000000
1957		-1.953125
1958		3.906250
1959		1.953125
1960		9.765625
1961		3.906250
1962		11.718750
1963		9.765625
1964		15.625000
1965		13.671875
1966		21.484375
1967		15.625000
1968		21.484375
1969		21.484375
1970		25.390625
1971		23.437500
1972		29.296875
1973		27.343750
1974		33.203125
1975		31.250000
1976		37.109375
1977		33.203125
1978		39.062500
1979		37.109375
1980		42.968750
1981		41.015625
1982		44.921875
1983		42.968750
1984		48.828125
1985		46.875000
1986		50.781250
1987		48.828125
1988		54.687500
1989		52.734375
1990		56.640625
1991		54.687500
1992		60.546875
1993		54.687500
1994		64.453125
1995		58.593750
1996		64.453125
1997		62.500000
1998		66.406250
1999		64.453125
2000		70.312500
2001		66.406250
2002		70.312500
2003		68.359375
2004		72.265625
2005		70.312500
2006		74.218750
2007		72.265625
2008		76.171875
2009		70.312500
2010		78.125000
2011		72.265625
2012		80.078125
2013		76.171875
2014		78.125000
2015		76.171875
2016		80.078125
2017		74.218750
2018		82.031250
2019		76.171875
2020		80.078125
2021		78.125000
2022		82.031250
2023		78.125000
2024		82.031250
2025		78.125000
2026		82.031250
2027		76.171875
2028		83.984375
2029		78.125000
2030		82.031250
2031		78.125000
2032		80.078125
2033		74.218750
2034		82.031250
2035		76.171875
2036		80.078125
2037		74.218750
2038		78.125000
2039		72.265625
2040		78.125000
2041		72.265625
2042		76.171875
2043		68.359375
2044		76.171875
2045		68.359375
2046		76.171875
2047		68.359375
2048		70.312500
2049		64.453125
2050		70.312500
2051		62.500000
2052		68.359375
2053		60.546875
2054		66.406250
2055		58.593750
2056		62.500000
2057		56.640625
2058		60.546875
2059		52.734375
2060		58.593750
2061		48.828125
2062		56.640625
2063		48.828125
2064		52.734375
2065		44.921875
2066		50.781250
2067		39.062500
2068		46.875000
2069		37.109375
2070		44.921875
2071		35.156250
2072		41.015625
2073		31.250000
2074		39.062500
2075		27.343750
2076		35.156250
2077		23.437500
2078		33.203125
2079		21.484375
2080		29.296875
2081		17.578125
2082		23.437500
2083		13.671875
2084		19.531250
2085		7.812500
2086		17.578125
2087		5.859375
2088		13.671875
2089		0.000000
2090		9.765625
2091		-1.953125
2092		5.859375
2093		-5.859375
2094		1.953125
2095		-7.812500
2096		0.000000
2097		-11.718750
2098		-5.859375
2099		-15.625000
2100		-9.765625
2101		-21.484375
2102		-11.718750
2103		-25.390625
2104		-15.625000
2105		-27.343750
2106		-19.531250
2107		-31.250000
2108		-23.437500
2109		-33.203125
2110		-27.343750
2111		-37.109375
2112		-29.296875
2113		-39.062500
2114		-33.203125
2115		-42.968750
2116		-37.109375
2117		-46.875000
2118		-41.015625
2119		-50.781250
2120		-41.015625
2121		-52.734375
2122		-44.921875
2123		-54.687500
2124		-46.875000
2125		-56.640625
2126		-48.828125
2127		-60.546875
2128		-52.734375
2129		-60.546875
2130		-54.687500
2131		-60.546875
2132		-58.593750
2133		-64.453125
2134		-60.546875
2135		-66.406250
2136		-58.593750
2137		-68.359375
2138		-60.546875
2139		-70.312500
2140		-62.500000
2141		-72.265625
2142		-62.500000
2143		-72.265625
2144		-64.453125
2145		-72.265625
2146		-64.453125
2147		-70.312500
2148		-68.359375
2149		-70.312500
2150		-68.359375
2151		-72.265625
2152		-66.406250
2153		-72.265625
2154		-66.406250
2155		-72.265625
2156		-64.453125
2157		-72.265625
2158		-64.453125
2159		-72.265625
2160		-64.453125
2161		-72.265625
2162		-64.453125
2163		-70.312500
2164		-62.500000
2165		-66.406250
2166		-62.500000
2167		-64.453125
2168		-58.593750
2169		-66.406250
2170		-58.593750
2171		-64.453125
2172		-56.640625
2173		-62.500000
2174		-54.687500
2175		-60.546875
2176		-52.734375
2177		-56.640625
2178		-48.828125
2179		-54.687500
2180		-46.875000
2181		-50.781250
2182		-46.875000
2183		-46.875000
2184		-42.968750
2185		-46.875000
2186		-39.062500
2187		-44.921875
2188		-35.156250
2189		-41.015625
2190		-31.250000
2191		-37.109375
2192		-29.296875
2193		-35.156250
2194		-25.390625
2195		-31.250000
2196		-23.437500
2197		-27.343750
2198		-21.484375
2199		-23.437500
2200		-17.578125
2201		-19.531250
2202		-11.718750
2203		-17.578125
2204		-7.812500
2205		-13.671875
2206		-3.906250
2207		-9.765625
2208		-1.953125
2209		-5.859375
2210		1.953125
2211		-1.953125
2212		7.812500
2213		1.953125
2214		7.812500
2215		5.859375
2216		11.718750
2217		11.718750
2218		17.578125
2219		11.718750
2220		21.484375
2221		17.578125
2222		25.390625
2223		19.531250
2224		27.343750
2225		23.437500
2226		31.250000
2227		27.343750
2228		35.156250
2229		29.296875
2230		39.062500
2231		35.156250
2232		41.015625
2233		39.062500
2234		42.968750
2235		41.015625
2236		46.875000
2237		42.968750
2238		50.781250
2239		44.921875
2240		54.687500
2241		48.828125
2242		58.593750
2243		52.734375
2244		58.593750
2245		52.734375
2246		62.500000
2247		56.640625
2248		62.500000
2249		60.546875
2250		64.453125
2251		62.500000
2252		68.359375
2253		62.500000
2254		70.312500
2255		64.453125
2256		72.265625
2257		68.359375
2258		74.218750
2259		68.359375
2260		76.171875
2261		70.312500
2262		78.125000
2263		70.312500
2264		78.125000
2265		74.218750
2266		78.125000
2267		76.171875
2268		78.125000
2269		74.218750
2270		82.031250
2271		76.171875
2272		82.031250
2273		76.171875
2274		82.031250
2275		76.171875
2276		83.984375
2277		76.171875
2278		83.984375
2279		76.171875
2280		83.984375
2281		76.171875
2282		82.031250
2283		78.125000
2284		80.078125
2285		76.171875
2286		82.031250
2287		74.218750
2288		82.031250
2289		74.218750
2290		80.078125
2291		72.265625
2292		80.078125
2293		70.312500
2294		80.078125
2295		70.312500
2296		78.125000
2297		68.359375
2298		76.171875
2299		68.359375
2300		72.265625
2301		66.406250
2302		70.312500
2303		64.453125
2304		70.312500
2305		60.546875
2306		68.359375
2307		58.593750
2308		66.406250
2309		56.640625
2310		64.453125
2311		54.687500
2312		60.546875
2313		50.781250
2314		58.593750
2315		50.781250
2316		54.687500
2317		46.875000
2318		50.781250
2319		42.968750
2320		48.828125
2321		41.015625
2322		46.875000
2323		37.109375
2324		42.968750
2325		33.203125
2326		39.062500
2327		31.250000
2328		37.109375
2329		25.390625
2330		33.203125
2331		23.437500
2332		31.250000
2333		19.531250
2334		25.390625
2335		15.625000
2336		21.484375
2337		13.671875
2338		19.531250
2339		9.765625
2340		13.671875
2341		5.859375
2342		11.718750
2343		1.953125
2344		7.812500
2345		-3.906250
2346		3.906250
2347		-5.859375
2348		1.953125
2349		-9.765625
2350		-3.906250
2351		-13.671875
2352		-7.812500
2353		-17.578125
2354		-9.765625
2355		-19.531250
2356		-15.625000
2357		-23.437500
2358		-17.578125
2359		-27.343750
2360		-21.484375
2361		-33.203125
2362		-25.390625
2363		-37.109375
2364		-27.343750
2365		-37.109375
2366		-29.296875
2367		-41.015625
2368		-35.156250
2369		-44.921875
2370		-39.062500
2371		-44.921875
2372		-41.015625
2373		-48.828125
2374		-42.968750
2375		-52.734375
2376		-46.875000
2377		-54.687500
2378		-48.828125
2379		-58.593750
2380		-50.781250
2381		-58.593750
2382		-52.734375
2383		-60.546875
2384		-56.640625
2385		-64.453125
2386		-58.593750
2387		-64.453125
2388		-58.593750
2389		-66.406250
2390		-62.500000
2391		-68.359375
2392		-62.500000
2393		-68.359375
2394		-64.453125
2395		-72.265625
2396		-64.453125
2397		-72.265625
2398		-64.453125
2399		-70.312500
2400		-68.359375
2401		-70.312500
2402		-68.359375
2403		-72.265625
2404		-66.406250
2405		-72.265625
2406		-68.359375
2407		-72.265625
2408		-68.359375
2409		-70.312500
2410		-68.359375
2411		-70.312500
2412		-66.406250
2413		-72.265625
2414		-64.453125
2415		-70.312500
2416		-64.453125
2417		-66.406250
2418		-64.453125
2419		-66.406250
2420		-60.546875
2421		-66.406250
2422		-60.546875
2423		-64.453125
2424		-58.593750
2425		-62.500000
2426		-58.593750
2427		-60.546875
2428		-54.687500
2429		-58.593750
2430		-50.781250
2431		-58.593750
2432		-48.828125
2433		-52.734375
2434		-48.828125
2435		-50.781250
2436		-46.875000
2437		-48.828125
2438		-42.968750
2439		-44.921875
2440		-39.062500
2441		-41.015625
2442		-37.109375
2443		-39.062500
2444		-33.203125
2445		-35.156250
2446		-27.343750
2447		-33.203125
2448		-25.390625
2449		-29.296875
2450		-23.437500
2451		-25.390625
2452		-19.531250
2453		-21.484375
2454		-15.625000
2455		-17.578125
2456		-11.718750
2457		-13.671875
2458		-7.812500
2459		-9.765625
2460		-3.906250
2461		-7.812500
2462		-1.953125
2463		-3.906250
2464		3.906250
2465		-1.953125
2466		5.859375
2467		3.906250
2468		9.765625
2469		7.812500
2470		13.671875
2471		9.765625
2472		17.578125
2473		15.625000
2474		21.484375
2475		17.578125
2476		25.390625
2477		21.484375
2478		27.343750
2479		25.390625
2480		33.203125
2481		27.343750
2482		37.109375
2483		33.203125
2484		37.109375
2485		37.109375
2486		41.015625
2487		39.062500
2488		44.921875
2489		41.015625
2490		46.875000
2491		46.875000
2492		50.781250
2493		48.828125
2494		52.734375
2495		50.781250
2496		54.687500
2497		52.734375
2498		60.546875
2499		54.687500
2500		62.500000
2501		58.593750
2502		64.453125
2503		60.546875
2504		66.406250
2505		62.500000
2506		68.359375
2507		64.453125
2508		70.312500
2509		66.406250
2510		72.265625
2511		68.359375
2512		74.218750
2513		70.312500
2514		78.125000
2515		70.312500
2516		78.125000
2517		74.218750
2518		76.171875
2519		76.171875
2520		78.125000
2521		74.218750
2522		80.078125
2523		76.171875
2524		80.078125
2525		78.125000
2526		80.078125
2527		78.125000
2528		80.078125
2529		78.125000
2530		82.031250
2531		76.171875
2532		83.984375
2533		76.171875
2534		82.031250
2535		78.125000
2536		80.078125
2537		76.171875
2538		82.031250
2539		78.125000
2540		80.078125
2541		76.171875
2542		80.078125
2543		76.171875
2544		78.125000
2545		74.218750
2546		78.125000
2547		70.312500
2548		78.125000
2549		70.312500
2550		78.125000
2551		70.312500
2552		74.218750
2553		68.359375
2554		72.265625
2555		66.406250
2556		72.265625
2557		64.453125
2558		68.359375
2559		62.500000
2560		66.406250
2561		60.546875
2562		64.453125
2563		54.687500
2564		62.500000
2565		52.734375
2566		60.546875
2567		52.734375
2568		56.640625
2569		48.828125
2570		54.687500
2571		44.921875
2572		50.781250
2573		42.968750
2574		48.828125
2575		41.015625
2576		44.921875
2577		37.109375
2578		41.015625
2579		33.203125
2580		39.062500
2581		29.296875
2582		37.109375
2583		27.343750
2584		35.156250
2585		23.437500
2586		27.343750
2587		19.531250
2588		25.390625
2589		15.625000
2590		23.437500
2591		11.718750
2592		17.578125
2593		7.812500
2594		13.671875
2595		5.859375
2596		9.765625
2597		-1.953125
2598		5.859375
2599		-3.906250
2600		3.906250
2601		-5.859375
2602		-1.953125
2603		-9.765625
2604		-5.859375
2605		-13.671875
2606		-7.812500
2607		-17.578125
2608		-11.718750
2609		-21.484375
2610		-15.625000
2611		-23.437500
2612		-19.531250
2613		-31.250000
2614		-23.437500
2615		-33.203125
2616		-25.390625
2617		-35.156250
2618		-27.343750
2619		-37.109375
2620		-33.203125
2621		-42.968750
2622		-35.156250
2623		-42.968750
2624		-39.062500
2625		-46.875000
2626		-42.968750
2627		-48.828125
2628		-44.921875
2629		-52.734375
2630		-46.875000
2631		-56.640625
2632		-48.828125
2633		-56.640625
2634		-50.781250
2635		-58.593750
2636		-54.687500
2637		-60.546875
2638		-56.640625
2639		-62.500000
2640		-56.640625
2641		-64.453125
2642		-60.546875
2643		-66.406250
2644		-62.500000
2645		-66.406250
2646		-64.453125
2647		-70.312500
2648		-62.500000
2649		-72.265625
2650		-64.453125
2651		-70.312500
2652		-66.406250
2653		-70.312500
2654		-68.359375
2655		-72.265625
2656		-66.406250
2657		-72.265625
2658		-66.406250
2659		-72.265625
2660		-66.406250
2661		-70.312500
2662		-66.406250
2663		-70.312500
2664		-66.406250
2665		-72.265625
2666		-64.453125
2667		-70.312500
2668		-64.453125
2669		-68.359375
2670		-64.453125
2671		-66.406250
2672		-62.500000
2673		-68.359375
2674		-60.546875
2675		-64.453125
2676		-58.593750
2677		-62.500000
2678		-58.593750
2679		-60.546875
2680		-56.640625
2681		-58.593750
2682		-52.734375
2683		-58.593750
2684		-50.781250
2685		-54.687500
2686		-50.781250
2687		-50.781250
2688		-46.875000
2689		-50.781250
2690		-44.921875
2691		-46.875000
2692		-41.015625
2693		-42.968750
2694		-39.062500
2695		-41.015625
2696		-35.156250
2697		-37.109375
2698		-31.250000
2699		-35.156250
2700		-27.343750
2701		-33.203125
2702		-25.390625
2703		-27.343750
2704		-21.484375
2705		-23.437500
2706		-15.625000
2707		-19.531250
2708		-15.625000
2709		-17.578125
2710		-11.718750
2711		-11.718750
2712		-7.812500
2713		-9.765625
2714		-3.906250
2715		-5.859375
2716		1.953125
2717		-3.906250
2718		3.906250
2719		1.953125
2720		7.812500
2721		5.859375
2722		11.718750
2723		7.812500
2724		15.625000
2725		11.718750
2726		17.578125
2727		17.578125
2728		21.484375
2729		19.531250
2730		25.390625
2731		23.437500
2732		31.250000
2733		25.390625
2734		35.156250
2735		29.296875
2736		35.156250
2737		35.156250
2738		39.062500
2739		37.109375
2740		42.968750
2741		41.015625
2742		46.875000
2743		42.968750
2744		48.828125
2745		46.875000
2746		50.781250
2747		48.828125
2748		54.687500
2749		50.781250
2750		58.593750
2751		52.734375
2752		60.546875
2753		58.593750
2754		60.546875
2755		60.546875
2756		64.453125
2757		60.546875
2758		66.406250
2759		64.453125
2760		68.359375
2761		66.406250
2762		70.312500
2763		68.359375
2764		72.265625
2765		68.359375
2766		76.171875
2767		70.312500
2768		76.171875
2769		72.265625
2770		76.171875
2771		74.218750
2772		78.125000
2773		74.218750
2774		80.078125
2775		76.171875
2776		80.078125
2777		76.171875
2778		80.078125
2779		78.125000
2780		80.078125
2781		78.125000
2782		82.031250
2783		76.171875
2784		83.984375
2785		76.171875
2786		83.984375
2787		78.125000
2788		80.078125
2789		76.171875
2790		82.031250
2791		76.171875
2792		82.031250
2793		76.171875
2794		80.078125
2795		76.171875
2796		78.125000
2797		74.218750
2798		78.125000
2799		72.265625
2800		78.125000
2801		70.312500
2802		78.125000
2803		70.312500
2804		74.218750
2805		70.312500
2806		74.218750
2807		66.406250
2808		72.265625
2809		66.406250
2810		70.312500
2811		64.453125
2812		68.359375
2813		62.500000
2814		66.406250
2815		56.640625
2816		66.406250
2817		54.687500
2818		62.500000
2819		54.687500
2820		60.546875
2821		50.781250
2822		56.640625
2823		46.875000
2824		54.687500
2825		44.921875
2826		50.781250
2827		42.968750
2828		46.875000
2829		39.062500
2830		44.921875
2831		33.203125
2832		41.015625
2833		31.250000
2834		39.062500
2835		29.296875
2836		37.109375
2837		25.390625
2838		31.250000
2839		21.484375
2840		27.343750
2841		17.578125
2842		25.390625
2843		15.625000
2844		19.531250
2845		9.765625
2846		15.625000
2847		5.859375
2848		13.671875
2849		0.000000
2850		11.718750
2851		-1.953125
2852		7.812500
2853		-3.906250
2854		1.953125
2855		-7.812500
2856		-1.953125
2857		-11.718750
2858		-3.906250
2859		-15.625000
2860		-9.765625
2861		-19.531250
2862		-13.671875
2863		-21.484375
2864		-17.578125
2865		-27.343750
2866		-19.531250
2867		-31.250000
2868		-21.484375
2869		-31.250000
2870		-25.390625
2871		-35.156250
2872		-31.250000
2873		-41.015625
2874		-33.203125
2875		-42.968750
2876		-35.156250
2877		-44.921875
2878		-39.062500
2879		-48.828125
2880		-42.968750
2881		-50.781250
2882		-44.921875
2883		-54.687500
2884		-46.875000
2885		-56.640625
2886		-48.828125
2887		-56.640625
2888		-52.734375
2889		-58.593750
2890		-54.687500
2891		-62.500000
2892		-54.687500
2893		-64.453125
2894		-58.593750
2895		-66.406250
2896		-58.593750
2897		-66.406250
2898		-60.546875
2899		-70.312500
2900		-62.500000
2901		-70.312500
2902		-62.500000
2903		-70.312500
2904		-64.453125
2905		-68.359375
2906		-66.406250
2907		-72.265625
2908		-64.453125
2909		-70.312500
2910		-66.406250
2911		-72.265625
2912		-66.406250
2913		-70.312500
2914		-66.406250
2915		-72.265625
2916		-64.453125
2917		-72.265625
2918		-64.453125
2919		-72.265625
2920		-64.453125
2921		-68.359375
2922		-64.453125
2923		-68.359375
2924		-62.500000
2925		-68.359375
2926		-62.500000
2927		-66.406250
2928		-60.546875
2929		-64.453125
2930		-58.593750
2931		-62.500000
2932		-58.593750
2933		-60.546875
2934		-54.687500
2935		-60.546875
2936		-52.734375
2937		-54.687500
2938		-50.781250
2939		-52.734375
2940		-48.828125
2941		-52.734375
2942		-44.921875
2943		-48.828125
2944		-42.968750
2945		-46.875000
2946		-41.015625
2947		-42.968750
2948		-37.109375
2949		-41.015625
2950		-33.203125
2951		-37.109375
2952		-29.296875
2953		-35.156250
2954		-27.343750
2955		-29.296875
2956		-25.390625
2957		-25.390625
2958		-19.531250
2959		-23.437500
2960		-13.671875
2961		-21.484375
2962		-11.718750
2963		-17.578125
2964		-7.812500
2965		-11.718750
2966		-5.859375
2967		-9.765625
2968		-1.953125
2969		-5.859375
2970		1.953125
2971		0.000000
2972		3.906250
2973		3.906250
2974		7.812500
2975		5.859375
2976		13.671875
2977		7.812500
2978		17.578125
2979		11.718750
2980		21.484375
2981		17.578125
2982		25.390625
2983		19.531250
2984		27.343750
2985		23.437500
2986		31.250000
2987		25.390625
2988		33.203125
2989		31.250000
2990		37.109375
2991		35.156250
2992		41.015625
2993		35.156250
2994		44.921875
2995		41.015625
2996		48.828125
2997		42.968750
2998		50.781250
2999		44.921875
3000		54.687500
3001		48.828125
3002		56.640625
3003		50.781250
3004		58.593750
3005		56.640625
3006		60.546875
3007		58.593750
3008		62.500000
3009		58.593750
3010		68.359375
3011		60.546875
3012		68.359375
3013		62.500000
3014		70.312500
3015		64.453125
3016		74.218750
3017		66.406250
3018		74.218750
3019		68.359375
3020		76.171875
3021		72.265625
3022		76.171875
3023		74.218750
3024		76.171875
3025		74.218750
3026		80.078125
3027		74.218750
3028		80.078125
3029		74.218750
3030		82.031250
3031		76.171875
3032		82.031250
3033		76.171875
3034		82.031250
3035		76.171875
3036		83.984375
3037		76.171875
3038		83.984375
3039		78.125000
3040		82.031250
3041		76.171875
3042		82.031250
3043		76.171875
3044		83.984375
3045		74.218750
3046		82.031250
3047		74.218750
3048		82.031250
3049		74.218750
3050		80.078125
3051		72.265625
3052		80.078125
3053		72.265625
3054		80.078125
3055		72.265625
3056		76.171875
3057		72.265625
3058		74.218750
3059		66.406250
3060		74.218750
3061		64.453125
3062		72.265625
3063		62.500000
3064		70.312500
3065		60.546875
3066		70.312500
3067		58.593750
3068		66.406250
3069		56.640625
3070		64.453125
3071		56.640625
3072		62.500000
3073		54.687500
3074		58.593750
3075		48.828125
3076		54.687500
3077		44.921875
3078		54.687500
3079		42.968750
3080		50.781250
3081		39.062500
3082		48.828125
3083		37.109375
3084		46.875000
3085		33.203125
3086		42.968750
3087		31.250000
3088		39.062500
3089		29.296875
3090		33.203125
3091		25.390625
3092		29.296875
3093		19.531250
3094		27.343750
3095		15.625000
3096		23.437500
3097		11.718750
3098		21.484375
3099		7.812500
3100		15.625000
3101		3.906250
3102		11.718750
3103		0.000000
3104		9.765625
3105		0.000000
3106		3.906250
3107		-3.906250
3108		0.000000
3109		-9.765625
3110		-1.953125
3111		-13.671875
3112		-5.859375
3113		-15.625000
3114		-7.812500
3115		-21.484375
3116		-13.671875
3117		-25.390625
3118		-15.625000
3119		-27.343750
3120		-19.531250
3121		-29.296875
3122		-23.437500
3123		-33.203125
3124		-27.343750
3125		-37.109375
3126		-31.250000
3127		-39.062500
3128		-33.203125
3129		-42.968750
3130		-37.109375
3131		-44.921875
3132		-39.062500
3133		-48.828125
3134		-42.968750
3135		-52.734375
3136		-44.921875
3137		-54.687500
3138		-48.828125
3139		-54.687500
3140		-50.781250
3141		-58.593750
3142		-52.734375
3143		-60.546875
3144		-54.687500
3145		-60.546875
3146		-58.593750
3147		-66.406250
3148		-58.593750
3149		-64.453125
3150		-60.546875
3151		-68.359375
3152		-60.546875
3153		-70.312500
3154		-62.500000
3155		-70.312500
3156		-62.500000
3157		-68.359375
3158		-66.406250
3159		-72.265625
3160		-64.453125
3161		-72.265625
3162		-66.406250
3163		-70.312500
3164		-66.406250
3165		-72.265625
3166		-66.406250
3167		-72.265625
3168		-66.406250
3169		-72.265625
3170		-64.453125
3171		-72.265625
3172		-64.453125
3173		-68.359375
3174		-66.406250
3175		-66.406250
3176		-64.453125
3177		-68.359375
3178		-62.500000
3179		-66.406250
3180		-62.500000
3181		-64.453125
3182		-60.546875
3183		-62.500000
3184		-58.593750
3185		-62.500000
3186		-54.687500
3187		-60.546875
3188		-52.734375
3189		-56.640625
3190		-52.734375
3191		-54.687500
3192		-50.781250
3193		-52.734375
3194		-46.875000
3195		-48.828125
3196		-44.921875
3197		-46.875000
3198		-42.968750
3199		-44.921875
3200		-39.062500
3201		-41.015625
3202		-37.109375
3203		-41.015625
3204		-31.250000
3205		-37.109375
3206		-29.296875
3207		-31.250000
3208		-27.343750
3209		-27.343750
3210		-21.484375
3211		-25.390625
3212		-19.531250
3213		-21.484375
3214		-15.625000
3215		-17.578125
3216		-11.718750
3217		-13.671875
3218		-7.812500
3219		-9.765625
3220		-3.906250
3221		-7.812500
3222		0.000000
3223		-1.953125
3224		1.953125
3225		0.000000
3226		5.859375
3227		3.906250
3228		11.718750
3229		7.812500
3230		13.671875
3231		11.718750
3232		17.578125
3233		15.625000
3234		21.484375
3235		19.531250
3236		25.390625
3237		21.484375
3238		29.296875
3239		25.390625
3240		31.250000
3241		29.296875
3242		35.156250
3243		33.203125
3244		41.015625
3245		35.156250
3246		41.015625
3247		39.062500
3248		44.921875
3249		42.968750
3250		48.828125
3251		46.875000
3252		50.781250
3253		48.828125
3254		54.687500
3255		48.828125
3256		56.640625
3257		54.687500
3258		58.593750
3259		56.640625
3260		62.500000
3261		58.593750
3262		64.453125
3263		60.546875
3264		66.406250
3265		64.453125
3266		68.359375
3267		66.406250
3268		70.312500
3269		66.406250
3270		74.218750
3271		68.359375
3272		76.171875
3273		70.312500
3274		74.218750
3275		72.265625
3276		76.171875
3277		72.265625
3278		78.125000
3279		74.218750
3280		80.078125
3281		76.171875
3282		80.078125
3283		76.171875
3284		80.078125
3285		78.125000
3286		80.078125
3287		76.171875
3288		83.984375
3289		78.125000
3290		83.984375
3291		80.078125
3292		82.031250
3293		78.125000
3294		82.031250
3295		76.171875
3296		82.031250
3297		78.125000
3298		82.031250
3299		76.171875
3300		82.031250
3301		76.171875
3302		80.078125
3303		74.218750
3304		80.078125
3305		72.265625
3306		80.078125
3307		74.218750
3308		76.171875
3309		72.265625
3310		76.171875
3311		68.359375
3312		76.171875
3313		68.359375
3314		72.265625
3315		66.406250
3316		72.265625
3317		64.453125
3318		68.359375
3319		60.546875
3320		66.406250
3321		58.593750
3322		66.406250
3323		58.593750
3324		64.453125
3325		54.687500
3326		60.546875
3327		50.781250
3328		56.640625
3329		50.781250
3330		54.687500
3331		46.875000
3332		50.781250
3333		42.968750
3334		48.828125
3335		41.015625
3336		44.921875
3337		35.156250
3338		42.968750
3339		31.250000
3340		41.015625
3341		31.250000
3342		35.156250
3343		27.343750
3344		33.203125
3345		23.437500
3346		31.250000
3347		19.531250
3348		25.390625
3349		15.625000
3350		21.484375
3351		13.671875
3352		17.578125
3353		7.812500
3354		15.625000
3355		1.953125
3356		13.671875
3357		1.953125
3358		7.812500
3359		-1.953125
3360		3.906250
3361		-5.859375
3362		0.000000
3363		-9.765625
3364		-3.906250
3365		-13.671875
3366		-7.812500
3367		-17.578125
3368		-11.718750
3369		-19.531250
3370		-15.625000
3371		-25.390625
3372		-17.578125
3373		-27.343750
3374		-19.531250
3375		-31.250000
3376		-25.390625
3377		-33.203125
3378		-29.296875
3379		-37.109375
3380		-31.250000
3381		-41.015625
3382		-35.156250
3383		-42.968750
3384		-39.062500
3385		-44.921875
3386		-41.015625
3387		-50.781250
3388		-42.968750
3389		-52.734375
3390		-44.921875
3391		-52.734375
3392		-48.828125
3393		-56.640625
3394		-52.734375
3395		-60.546875
3396		-52.734375
3397		-60.546875
3398		-56.640625
3399		-62.500000
3400		-58.593750
3401		-62.500000
3402		-60.546875
3403		-66.406250
3404		-60.546875
3405		-68.359375
3406		-60.546875
3407		-68.359375
3408		-62.500000
3409		-68.359375
3410		-64.453125
3411		-70.312500
3412		-64.453125
3413		-70.312500
3414		-66.406250
3415		-70.312500
3416		-68.359375
3417		-70.312500
3418		-68.359375
3419		-70.312500
3420		-68.359375
3421		-72.265625
3422		-64.453125
3423		-72.265625
3424		-64.453125
3425		-68.359375
3426		-66.406250
3427		-68.359375
3428		-64.453125
3429		-70.312500
3430		-62.500000
3431		-66.406250
3432		-62.500000
3433		-64.453125
3434		-62.500000
3435		-62.500000
3436		-60.546875
3437		-62.500000
3438		-56.640625
3439		-62.500000
3440		-54.687500
3441		-60.546875
3442		-54.687500
3443		-56.640625
3444		-52.734375
3445		-54.687500
3446		-46.875000
3447		-50.781250
3448		-46.875000
3449		-48.828125
3450		-42.968750
3451		-46.875000
3452		-41.015625
3453		-42.968750
3454		-39.062500
3455		-41.015625
3456		-33.203125
3457		-39.062500
3458		-31.250000
3459		-33.203125
3460		-29.296875
3461		-29.296875
3462		-23.437500
3463		-27.343750
3464		-21.484375
3465		-23.437500
3466		-17.578125
3467		-19.531250
3468		-13.671875
3469		-17.578125
3470		-11.718750
3471		-13.671875
3472		-5.859375
3473		-11.718750
3474		-3.906250
3475		-5.859375
3476		0.000000
3477		-1.953125
3478		3.906250
3479		1.953125
3480		7.812500
3481		5.859375
3482		11.718750
3483		9.765625
3484		15.625000
3485		11.718750
3486		19.531250
3487		17.578125
3488		21.484375
3489		19.531250
3490		25.390625
3491		23.437500
3492		29.296875
3493		27.343750
3494		33.203125
3495		31.250000
3496		37.109375
3497		33.203125
3498		39.062500
3499		37.109375
3500		42.968750
3501		41.015625
3502		46.875000
3503		44.921875
3504		48.828125
3505		46.875000
3506		52.734375
3507		50.781250
3508		54.687500
3509		52.734375
3510		56.640625
3511		54.687500
3512		58.593750
3513		56.640625
3514		62.500000
3515		60.546875
3516		64.453125
3517		62.500000
3518		66.406250
3519		64.453125
3520		68.359375
3521		66.406250
3522		72.265625
3523		68.359375
3524		72.265625
3525		70.312500
3526		74.218750
3527		72.265625
3528		76.171875
3529		72.265625
3530		78.125000
3531		74.218750
3532		78.125000
3533		74.218750
3534		80.078125
3535		76.171875
3536		80.078125
3537		78.125000
3538		82.031250
3539		78.125000
3540		82.031250
3541		78.125000
3542		82.031250
3543		78.125000
3544		82.031250
3545		78.125000
3546		82.031250
3547		78.125000
3548		82.031250
3549		78.125000
3550		82.031250
3551		78.125000
3552		82.031250
3553		76.171875
3554		82.031250
3555		76.171875
3556		80.078125
3557		74.218750
3558		80.078125
3559		74.218750
3560		78.125000
3561		74.218750
3562		76.171875
3563		72.265625
3564		76.171875
3565		70.312500
3566		74.218750
3567		68.359375
3568		72.265625
3569		66.406250
3570		70.312500
3571		64.453125
3572		68.359375
3573		62.500000
3574		68.359375
3575		60.546875
3576		64.453125
3577		58.593750
3578		62.500000
3579		54.687500
3580		58.593750
3581		52.734375
3582		58.593750
3583		48.828125
3584		54.687500
3585		44.921875
3586		50.781250
3587		42.968750
3588		48.828125
3589		41.015625
3590		44.921875
3591		37.109375
3592		42.968750
3593		33.203125
3594		39.062500
3595		31.250000
3596		35.156250
3597		27.343750
3598		33.203125
3599		23.437500
3600		29.296875
3601		17.578125
3602		25.390625
3603		15.625000
3604		21.484375
3605		11.718750
3606		17.578125
3607		7.812500
3608		13.671875
3609		3.906250
3610		9.765625
3611		0.000000
3612		5.859375
3613		-3.906250
3614		1.953125
3615		-7.812500
3616		-1.953125
3617		-9.765625
3618		-5.859375
3619		-13.671875
3620		-7.812500
3621		-17.578125
3622		-11.718750
3623		-21.484375
3624		-15.625000
3625		-25.390625
3626		-19.531250
3627		-27.343750
3628		-23.437500
3629		-31.250000
3630		-27.343750
3631		-35.156250
3632		-29.296875
3633		-39.062500
3634		-33.203125
3635		-41.015625
3636		-35.156250
3637		-42.968750
3638		-39.062500
3639		-46.875000
3640		-41.015625
3641		-50.781250
3642		-44.921875
3643		-50.781250
3644		-46.875000
3645		-54.687500
3646		-50.781250
3647		-56.640625
3648		-52.734375
3649		-58.593750
3650		-54.687500
3651		-60.546875
3652		-56.640625
3653		-62.500000
3654		-58.593750
3655		-64.453125
3656		-60.546875
3657		-64.453125
3658		-60.546875
3659		-66.406250
3660		-62.500000
3661		-66.406250
3662		-64.453125
3663		-68.359375
3664		-64.453125
3665		-68.359375
3666		-64.453125
3667		-70.312500
3668		-66.406250
3669		-70.312500
3670		-66.406250
3671		-70.312500
3672		-66.406250
3673		-70.312500
3674		-66.406250
3675		-70.312500
3676		-66.406250
3677		-68.359375
3678		-66.406250
3679		-68.359375
3680		-66.406250
3681		-68.359375
3682		-64.453125
3683		-66.406250
3684		-62.500000
3685		-68.359375
3686		-60.546875
3687		-66.406250
3688		-60.546875
3689		-64.453125
3690		-58.593750
3691		-60.546875
3692		-56.640625
3693		-60.546875
3694		-54.687500
3695		-56.640625
3696		-52.734375
3697		-54.687500
3698		-48.828125
3699		-54.687500
3700		-46.875000
3701		-50.781250
3702		-42.968750
3703		-46.875000
3704		-41.015625
3705		-44.921875
3706		-39.062500
3707		-41.015625
3708		-37.109375
3709		-39.062500
3710		-33.203125
3711		-35.156250
3712		-31.250000
3713		-31.250000
3714		-27.343750
3715		-29.296875
3716		-23.437500
3717		-25.390625
3718		-17.578125
3719		-25.390625
3720		-13.671875
3721		-19.531250
3722		-11.718750
3723		-15.625000
3724		-7.812500
3725		-11.718750
3726		-5.859375
3727		-7.812500
3728		-1.953125
3729		-3.906250
3730		1.953125
3731		0.000000
3732		5.859375
3733		0.000000
3734		9.765625
3735		5.859375
3736		13.671875
3737		9.765625
3738		17.578125
3739		11.718750
3740		21.484375
3741		17.578125
3742		23.437500
3743		21.484375
3744		27.343750
3745		25.390625
3746		29.296875
3747		29.296875
3748		35.156250
3749		29.296875
3750		39.062500
3751		35.156250
3752		41.015625
3753		37.109375
3754		44.921875
3755		41.015625
3756		48.828125
3757		44.921875
3758		50.781250
3759		48.828125
3760		52.734375
3761		50.781250
3762		54.687500
3763		54.687500
3764		58.593750
3765		56.640625
3766		62.500000
3767		56.640625
3768		64.453125
3769		58.593750
3770		68.359375
3771		62.500000
3772		70.312500
3773		64.453125
3774		70.312500
3775		68.359375
3776		72.265625
3777		68.359375
3778		72.265625
3779		72.265625
3780		74.218750
3781		72.265625
3782		78.125000
3783		72.265625
3784		80.078125
3785		74.218750
3786		80.078125
3787		74.218750
3788		80.078125
3789		74.218750
3790		82.031250
3791		78.125000
3792		82.031250
3793		78.125000
3794		82.031250
3795		78.125000
3796		82.031250
3797		80.078125
3798		82.031250
3799		76.171875
3800		83.984375
3801		76.171875
3802		83.984375
3803		76.171875
3804		83.984375
3805		76.171875
3806		83.984375
3807		76.171875
3808		82.031250
3809		76.171875
3810		80.078125
3811		76.171875
3812		80.078125
3813		74.218750
3814		78.125000
3815		72.265625
3816		76.171875
3817		68.359375
3818		78.125000
3819		68.359375
3820		76.171875
3821		66.406250
3822		74.218750
3823		64.453125
3824		72.265625
3825		62.500000
3826		68.359375
3827		62.500000
3828		66.406250
3829		58.593750
3830		62.500000
3831		56.640625
3832		60.546875
3833		52.734375
3834		60.546875
3835		48.828125
3836		56.640625
3837		46.875000
3838		56.640625
3839		42.968750
3840		52.734375
3841		42.968750
3842		46.875000
3843		37.109375
3844		44.921875
3845		37.109375
3846		41.015625
3847		33.203125
3848		37.109375
3849		27.343750
3850		35.156250
3851		23.437500
3852		33.203125
3853		19.531250
3854		29.296875
3855		15.625000
3856		25.390625
3857		13.671875
3858		19.531250
3859		9.765625
3860		15.625000
3861		7.812500
3862		13.671875
3863		3.906250
3864		7.812500
3865		0.000000
3866		5.859375
3867		-5.859375
3868		1.953125
3869		-9.765625
3870		-1.953125
3871		-11.718750
3872		-5.859375
3873		-17.578125
3874		-7.812500
3875		-19.531250
3876		-13.671875
3877		-21.484375
3878		-17.578125
3879		-25.390625
3880		-21.484375
3881		-29.296875
3882		-23.437500
3883		-35.156250
3884		-25.390625
3885		-37.109375
3886		-29.296875
3887		-39.062500
3888		-33.203125
3889		-42.968750
3890		-35.156250
3891		-44.921875
3892		-37.109375
3893		-46.875000
3894		-42.968750
3895		-48.828125
3896		-44.921875
3897		-52.734375
3898		-48.828125
3899		-56.640625
3900		-50.781250
3901		-58.593750
3902		-50.781250
3903		-60.546875
3904		-52.734375
3905		-62.500000
3906		-54.687500
3907		-64.453125
3908		-56.640625
3909		-64.453125
3910		-60.546875
3911		-66.406250
3912		-62.500000
3913		-66.406250
3914		-64.453125
3915		-68.359375
3916		-64.453125
3917		-70.312500
3918		-64.453125
3919		-70.312500
3920		-64.453125
3921		-72.265625
3922		-64.453125
3923		-72.265625
3924		-64.453125
3925		-72.265625
3926		-66.406250
3927		-70.312500
3928		-66.406250
3929		-70.312500
3930		-66.406250
3931		-70.312500
3932		-66.406250
3933		-68.359375
3934		-64.453125
3935		-68.359375
3936		-64.453125
3937		-68.359375
3938		-60.546875
3939		-66.406250
3940		-60.546875
3941		-64.453125
3942		-58.593750
3943		-62.500000
3944		-58.593750
3945		-60.546875
3946		-56.640625
3947		-58.593750
3948		-54.687500
3949		-56.640625
3950		-52.734375
3951		-56.640625
3952		-48.828125
3953		-52.734375
3954		-46.875000
3955		-50.781250
3956		-44.921875
3957		-48.828125
3958		-42.968750
3959		-44.921875
3960		-39.062500
3961		-41.015625
3962		-37.109375
3963		-37.109375
3964		-33.203125
3965		-35.156250
3966		-29.296875
3967		-33.203125
3968		-27.343750
3969		-29.296875
3970		-23.437500
3971		-25.390625
3972		-19.531250
3973		-23.437500
3974		-15.625000
3975		-17.578125
3976		-11.718750
3977		-13.671875
3978		-7.812500
3979		-11.718750
3980		-5.859375
3981		-5.859375
3982		-1.953125
3983		-3.906250
3984		3.906250
3985		1.953125
3986		5.859375
3987		3.906250
3988		9.765625
3989		7.812500
3990		13.671875
3991		11.718750
3992		17.578125
3993		15.625000
3994		21.484375
3995		19.531250
3996		23.437500
3997		23.437500
3998		27.343750
3999		27.343750
4000		31.250000
4001		29.296875
4002		35.156250
4003		33.203125
4004		39.062500
4005		37.109375
4006		41.015625
4007		39.062500
4008		44.921875
4009		42.968750
4010		46.875000
4011		44.921875
4012		50.781250
4013		48.828125
4014		52.734375
4015		52.734375
4016		56.640625
4017		54.687500
4018		58.593750
4019		56.640625
4020		62.500000
4021		60.546875
4022		64.453125
4023		60.546875
4024		66.406250
4025		64.453125
4026		68.359375
4027		66.406250
4028		70.312500
4029		68.359375
4030		72.265625
4031		70.312500
4032		74.218750
4033		72.265625
4034		76.171875
4035		72.265625
4036		76.171875
4037		74.218750
4038		78.125000
4039		76.171875
4040		80.078125
4041		76.171875
4042		80.078125
4043		78.125000
4044		80.078125
4045		78.125000
4046		82.031250
4047		78.125000
4048		82.031250
4049		78.125000
4050		82.031250
4051		78.125000
4052		82.031250
4053		78.125000
4054		82.031250
4055		78.125000
4056		82.031250
4057		78.125000
4058		82.031250
4059		78.125000
4060		82.031250
4061		76.171875
4062		80.078125
4063		76.171875
4064		80.078125
4065		76.171875
4066		78.125000
4067		74.218750
4068		78.125000
4069		72.265625
4070		76.171875
4071		70.312500
4072		74.218750
4073		68.359375
4074		72.265625
4075		66.406250
4076		72.265625
4077		66.406250
4078		70.312500
4079		62.500000
4080		68.359375
4081		60.546875
4082		64.453125
4083		58.593750
4084		62.500000
4085		54.687500
4086		60.546875
4087		52.734375
4088		58.593750
4089		50.781250
4090		54.687500
4091		46.875000
4092		52.734375
4093		44.921875
4094		48.828125
4095		41.015625
4096		46.875000
4097		39.062500
4098		42.968750
4099		35.156250
4100		39.062500
4101		31.250000
4102		37.109375
4103		27.343750
4104		33.203125
4105		25.390625
4106		29.296875
4107		21.484375
4108		25.390625
4109		15.625000
4110		23.437500
4111		13.671875
4112		19.531250
4113		9.765625
4114		15.625000
4115		5.859375
4116		11.718750
4117		1.953125
4118		7.812500
4119		-1.953125
4120		5.859375
4121		-5.859375
4122		0.000000
4123		-9.765625
4124		-3.906250
4125		-13.671875
4126		-7.812500
4127		-15.625000
4128		-9.765625
4129		-19.531250
4130		-13.671875
4131		-23.437500
4132		-17.578125
4133		-27.343750
4134		-21.484375
4135		-29.296875
4136		-25.390625
4137		-33.203125
4138		-27.343750
4139		-37.109375
4140		-31.250000
4141		-39.062500
4142		-35.156250
4143		-42.968750
4144		-37.109375
4145		-44.921875
4146		-41.015625
4147		-48.828125
4148		-42.968750
4149		-50.781250
4150		-46.875000
4151		-54.687500
4152		-48.828125
4153		-54.687500
4154		-50.781250
4155		-56.640625
4156		-54.687500
4157		-60.546875
4158		-56.640625
4159		-60.546875
4160		-58.593750
4161		-64.453125
4162		-58.593750
4163		-64.453125
4164		-60.546875
4165		-66.406250
4166		-62.500000
4167		-68.359375
4168		-64.453125
4169		-68.359375
4170		-64.453125
4171		-68.359375
4172		-66.406250
4173		-68.359375
4174		-66.406250
4175		-68.359375
4176		-66.406250
4177		-70.312500
4178		-66.406250
4179		-70.312500
4180		-66.406250
4181		-70.312500
4182		-66.406250
4183		-68.359375
4184		-66.406250
4185		-68.359375
4186		-64.453125
4187		-68.359375
4188		-64.453125
4189		-68.359375
4190		-64.453125
4191		-66.406250
4192		-62.500000
4193		-64.453125
4194		-60.546875
4195		-62.500000
4196		-60.546875
4197		-62.500000
4198		-58.593750
4199		-60.546875
4200		-56.640625
4201		-58.593750
4202		-52.734375
4203		-56.640625
4204		-52.734375
4205		-52.734375
4206		-48.828125
4207		-50.781250
4208		-46.875000
4209		-48.828125
4210		-44.921875
4211		-46.875000
4212		-41.015625
4213		-42.968750
4214		-37.109375
4215		-39.062500
4216		-35.156250
4217		-37.109375
4218		-31.250000
4219		-35.156250
4220		-29.296875
4221		-31.250000
4222		-25.390625
4223		-27.343750
4224		-21.484375
4225		-23.437500
4226		-17.578125
4227		-19.531250
4228		-13.671875
4229		-17.578125
4230		-11.718750
4231		-13.671875
4232		-7.812500
4233		-9.765625
4234		-3.906250
4235		-5.859375
4236		0.000000
4237		-1.953125
4238		3.906250
4239		1.953125
4240		7.812500
4241		5.859375
4242		11.718750
4243		9.765625
4244		15.625000
4245		11.718750
4246		17.578125
4247		15.625000
4248		21.484375
4249		19.531250
4250		25.390625
4251		23.437500
4252		31.250000
4253		27.343750
4254		33.203125
4255		31.250000
4256		35.156250
4257		35.156250
4258		39.062500
4259		37.109375
4260		42.968750
4261		41.015625
4262		46.875000
4263		42.968750
4264		48.828125
4265		46.875000
4266		50.781250
4267		48.828125
4268		54.687500
4269		52.734375
4270		58.593750
4271		54.687500
4272		60.546875
4273		56.640625
4274		62.500000
4275		58.593750
4276		64.453125
4277		60.546875
4278		66.406250
4279		64.453125
4280		68.359375
4281		66.406250
4282		70.312500
4283		68.359375
4284		72.265625
4285		70.312500
4286		74.218750
4287		72.265625
4288		76.171875
4289		72.265625
4290		78.125000
4291		74.218750
4292		78.125000
4293		76.171875
4294		78.125000
4295		76.171875
4296		80.078125
4297		78.125000
4298		80.078125
4299		78.125000
4300		82.031250
4301		78.125000
4302		82.031250
4303		78.125000
4304		82.031250
4305		78.125000
4306		82.031250
4307		78.125000
4308		82.031250
4309		78.125000
4310		82.031250
4311		78.125000
4312		82.031250
4313		78.125000
4314		80.078125
4315		76.171875
4316		80.078125
4317		76.171875
4318		78.125000
4319		74.218750
4320		78.125000
4321		72.265625
4322		76.171875
4323		72.265625
4324		76.171875
4325		70.312500
4326		74.218750
4327		68.359375
4328		72.265625
4329		66.406250
4330		72.265625
4331		64.453125
4332		68.359375
4333		62.500000
4334		66.406250
4335		60.546875
4336		64.453125
4337		58.593750
4338		62.500000
4339		54.687500
4340		60.546875
4341		52.734375
4342		56.640625
4343		48.828125
4344		54.687500
4345		44.921875
4346		50.781250
4347		42.968750
4348		48.828125
4349		41.015625
4350		44.921875
4351		37.109375
4352		41.015625
4353		33.203125
4354		39.062500
4355		29.296875
4356		35.156250
4357		27.343750
4358		31.250000
4359		23.437500
4360		29.296875
4361		17.578125
4362		25.390625
4363		15.625000
4364		21.484375
4365		11.718750
4366		17.578125
4367		9.765625
4368		13.671875
4369		3.906250
4370		9.765625
4371		1.953125
4372		7.812500
4373		-1.953125
4374		3.906250
4375		-5.859375
4376		0.000000
4377		-9.765625
4378		-3.906250
4379		-13.671875
4380		-7.812500
4381		-17.578125
4382		-11.718750
4383		-21.484375
4384		-15.625000
4385		-23.437500
4386		-19.531250
4387		-27.343750
4388		-21.484375
4389		-31.250000
4390		-25.390625
4391		-35.156250
4392		-29.296875
4393		-39.062500
4394		-31.250000
4395		-41.015625
4396		-35.156250
4397		-44.921875
4398		-39.062500
4399		-46.875000
4400		-41.015625
4401		-48.828125
4402		-44.921875
4403		-52.734375
4404		-46.875000
4405		-54.687500
4406		-48.828125
4407		-56.640625
4408		-50.781250
4409		-58.593750
4410		-54.687500
4411		-60.546875
4412		-56.640625
4413		-62.500000
4414		-56.640625
4415		-64.453125
4416		-60.546875
4417		-64.453125
4418		-62.500000
4419		-66.406250
4420		-62.500000
4421		-66.406250
4422		-62.500000
4423		-68.359375
4424		-64.453125
4425		-70.312500
4426		-66.406250
4427		-70.312500
4428		-66.406250
4429		-70.312500
4430		-66.406250
4431		-70.312500
4432		-66.406250
4433		-70.312500
4434		-66.406250
4435		-70.312500
4436		-66.406250
4437		-70.312500
4438		-64.453125
4439		-68.359375
4440		-64.453125
4441		-68.359375
4442		-64.453125
4443		-68.359375
4444		-62.500000
4445		-66.406250
4446		-60.546875
4447		-66.406250
4448		-60.546875
4449		-62.500000
4450		-58.593750
4451		-60.546875
4452		-56.640625
4453		-58.593750
4454		-54.687500
4455		-58.593750
4456		-52.734375
4457		-54.687500
4458		-50.781250
4459		-52.734375
4460		-48.828125
4461		-50.781250
4462		-44.921875
4463		-48.828125
4464		-42.968750
4465		-44.921875
4466		-39.062500
4467		-41.015625
4468		-37.109375
4469		-39.062500
4470		-35.156250
4471		-37.109375
4472		-31.250000
4473		-33.203125
4474		-27.343750
4475		-29.296875
4476		-23.437500
4477		-25.390625
4478		-19.531250
4479		-23.437500
4480		-15.625000
4481		-19.531250
4482		-13.671875
4483		-15.625000
4484		-9.765625
4485		-11.718750
4486		-5.859375
4487		-7.812500
4488		0.000000
4489		-5.859375
4490		0.000000
4491		-1.953125
4492		3.906250
4493		1.953125
4494		9.765625
4495		5.859375
4496		11.718750
4497		9.765625
4498		15.625000
4499		13.671875
4500		19.531250
4501		17.578125
4502		23.437500
4503		21.484375
4504		27.343750
4505		23.437500
4506		33.203125
4507		29.296875
4508		35.156250
4509		31.250000
4510		39.062500
4511		35.156250
4512		41.015625
4513		39.062500
4514		42.968750
4515		41.015625
4516		46.875000
4517		44.921875
4518		48.828125
4519		48.828125
4520		52.734375
4521		50.781250
4522		56.640625
4523		50.781250
4524		58.593750
4525		56.640625
4526		60.546875
4527		56.640625
4528		62.500000
4529		60.546875
4530		66.406250
4531		62.500000
4532		68.359375
4533		64.453125
4534		70.312500
4535		68.359375
4536		70.312500
4537		70.312500
4538		74.218750
4539		68.359375
4540		78.125000
4541		72.265625
4542		76.171875
4543		74.218750
4544		78.125000
4545		74.218750
4546		78.125000
4547		74.218750
4548		80.078125
4549		76.171875
4550		80.078125
4551		78.125000
4552		82.031250
4553		78.125000
4554		82.031250
4555		78.125000
4556		83.984375
4557		78.125000
4558		83.984375
4559		78.125000
4560		82.031250
4561		78.125000
4562		83.984375
4563		76.171875
4564		82.031250
4565		78.125000
4566		82.031250
4567		78.125000
4568		82.031250
4569		76.171875
4570		80.078125
4571		74.218750
4572		80.078125
4573		72.265625
4574		80.078125
4575		70.312500
4576		78.125000
4577		70.312500
4578		78.125000
4579		68.359375
4580		76.171875
4581		68.359375
4582		74.218750
4583		66.406250
4584		72.265625
4585		64.453125
4586		68.359375
4587		62.500000
4588		66.406250
4589		56.640625
4590		64.453125
4591		56.640625
4592		64.453125
4593		50.781250
4594		62.500000
4595		50.781250
4596		56.640625
4597		48.828125
4598		54.687500
4599		44.921875
4600		50.781250
4601		42.968750
4602		48.828125
4603		39.062500
4604		44.921875
4605		35.156250
4606		41.015625
4607		31.250000
4608		39.062500
4609		27.343750
4610		37.109375
4611		23.437500
4612		31.250000
4613		19.531250
4614		29.296875
4615		19.531250
4616		25.390625
4617		15.625000
4618		19.531250
4619		11.718750
4620		15.625000
4621		5.859375
4622		13.671875
4623		1.953125
4624		9.765625
4625		-1.953125
4626		7.812500
4627		-5.859375
4628		3.906250
4629		-7.812500
4630		0.000000
4631		-11.718750
4632		-5.859375
4633		-15.625000
4634		-9.765625
4635		-17.578125
4636		-13.671875
4637		-21.484375
4638		-17.578125
4639		-27.343750
4640		-19.531250
4641		-31.250000
4642		-21.484375
4643		-33.203125
4644		-25.390625
4645		-37.109375
4646		-29.296875
4647		-39.062500
4648		-33.203125
4649		-41.015625
4650		-35.156250
4651		-44.921875
4652		-39.062500
4653		-46.875000
4654		-42.968750
4655		-50.781250
4656		-44.921875
4657		-54.687500
4658		-46.875000
4659		-56.640625
4660		-48.828125
4661		-58.593750
4662		-50.781250
4663		-60.546875
4664		-52.734375
4665		-60.546875
4666		-56.640625
4667		-62.500000
4668		-58.593750
4669		-64.453125
4670		-60.546875
4671		-64.453125
4672		-62.500000
4673		-68.359375
4674		-60.546875
4675		-70.312500
4676		-62.500000
4677		-70.312500
4678		-62.500000
4679		-70.312500
4680		-64.453125
4681		-70.312500
4682		-66.406250
4683		-70.312500
4684		-66.406250
4685		-70.312500
4686		-66.406250
4687		-68.359375
4688		-66.406250
4689		-70.312500
4690		-64.453125
4691		-70.312500
4692		-62.500000
4693		-70.312500
4694		-62.500000
4695		-68.359375
4696		-62.500000
4697		-68.359375
4698		-62.500000
4699		-66.406250
4700		-60.546875
4701		-62.500000
4702		-60.546875
4703		-62.500000
4704		-58.593750
4705		-60.546875
4706		-56.640625
4707		-58.593750
4708		-54.687500
4709		-58.593750
4710		-50.781250
4711		-54.687500
4712		-48.828125
4713		-54.687500
4714		-46.875000
4715		-48.828125
4716		-44.921875
4717		-46.875000
4718		-41.015625
4719		-42.968750
4720		-39.062500
4721		-41.015625
4722		-37.109375
4723		-39.062500
4724		-33.203125
4725		-35.156250
4726		-27.343750
4727		-35.156250
4728		-23.437500
4729		-31.250000
4730		-21.484375
4731		-25.390625
4732		-19.531250
4733		-21.484375
4734		-15.625000
4735		-17.578125
4736		-13.671875
4737		-13.671875
4738		-9.765625
4739		-9.765625
4740		-3.906250
4741		-7.812500
4742		-1.953125
4743		-3.906250
4744		3.906250
4745		0.000000
4746		5.859375
4747		3.906250
4748		9.765625
4749		7.812500
4750		13.671875
4751		11.718750
4752		17.578125
4753		15.625000
4754		21.484375
4755		19.531250
4756		23.437500
4757		23.437500
4758		27.343750
4759		25.390625
4760		31.250000
4761		29.296875
4762		35.156250
4763		33.203125
4764		39.062500
4765		37.109375
4766		42.968750
4767		39.062500
4768		44.921875
4769		42.968750
4770		46.875000
4771		46.875000
4772		50.781250
4773		48.828125
4774		52.734375
4775		52.734375
4776		56.640625
4777		52.734375
4778		58.593750
4779		56.640625
4780		62.500000
4781		58.593750
4782		64.453125
4783		60.546875
4784		66.406250
4785		64.453125
4786		68.359375
4787		66.406250
4788		70.312500
4789		68.359375
4790		72.265625
4791		70.312500
4792		74.218750
4793		72.265625
4794		76.171875
4795		72.265625
4796		76.171875
4797		74.218750
4798		78.125000
4799		76.171875
4800		80.078125
4801		76.171875
4802		80.078125
4803		78.125000
4804		80.078125
4805		78.125000
4806		80.078125
4807		78.125000
4808		82.031250
4809		78.125000
4810		83.984375
4811		78.125000
4812		82.031250
4813		78.125000
4814		82.031250
4815		80.078125
4816		82.031250
4817		80.078125
4818		82.031250
4819		78.125000
4820		82.031250
4821		78.125000
4822		80.078125
4823		76.171875
4824		80.078125
4825		76.171875
4826		80.078125
4827		74.218750
4828		78.125000
4829		72.265625
4830		76.171875
4831		70.312500
4832		76.171875
4833		68.359375
4834		74.218750
4835		68.359375
4836		72.265625
4837		66.406250
4838		70.312500
4839		64.453125
4840		68.359375
4841		60.546875
4842		66.406250
4843		58.593750
4844		62.500000
4845		56.640625
4846		60.546875
4847		52.734375
4848		58.593750
4849		50.781250
4850		56.640625
4851		48.828125
4852		54.687500
4853		44.921875
4854		50.781250
4855		42.968750
4856		46.875000
4857		39.062500
4858		42.968750
4859		35.156250
4860		41.015625
4861		33.203125
4862		37.109375
4863		27.343750
4864		33.203125
4865		25.390625
4866		31.250000
4867		21.484375
4868		27.343750
4869		17.578125
4870		23.437500
4871		13.671875
4872		19.531250
4873		9.765625
4874		15.625000
4875		7.812500
4876		13.671875
4877		3.906250
4878		7.812500
4879		-1.953125
4880		5.859375
4881		-3.906250
4882		1.953125
4883		-7.812500
4884		-1.953125
4885		-13.671875
4886		-5.859375
4887		-15.625000
4888		-9.765625
4889		-17.578125
4890		-13.671875
4891		-23.437500
4892		-17.578125
4893		-25.390625
4894		-21.484375
4895		-29.296875
4896		-23.437500
4897		-33.203125
4898		-27.343750
4899		-35.156250
4900		-31.250000
4901		-39.062500
4902		-33.203125
4903		-41.015625
4904		-37.109375
4905		-44.921875
4906		-39.062500
4907		-48.828125
4908		-42.968750
4909		-48.828125
4910		-44.921875
4911		-52.734375
4912		-48.828125
4913		-54.687500
4914		-50.781250
4915		-56.640625
4916		-52.734375
4917		-58.593750
4918		-54.687500
4919		-60.546875
4920		-56.640625
4921		-62.500000
4922		-58.593750
4923		-62.500000
4924		-60.546875
4925		-66.406250
4926		-60.546875
4927		-66.406250
4928		-62.500000
4929		-68.359375
4930		-62.500000
4931		-68.359375
4932		-64.453125
4933		-68.359375
4934		-64.453125
4935		-68.359375
4936		-66.406250
4937		-70.312500
4938		-66.406250
4939		-68.359375
4940		-66.406250
4941		-70.312500
4942		-64.453125
4943		-68.359375
4944		-66.406250
4945		-68.359375
4946		-64.453125
4947		-66.406250
4948		-64.453125
4949		-66.406250
4950		-62.500000
4951		-64.453125
4952		-60.546875
4953		-64.453125
4954		-60.546875
4955		-62.500000
4956		-58.593750
4957		-60.546875
4958		-56.640625
4959		-60.546875
4960		-54.687500
4961		-56.640625
4962		-52.734375
4963		-54.687500
4964		-50.781250
4965		-52.734375
4966		-48.828125
4967		-50.781250
4968		-44.921875
4969		-46.875000
4970		-42.968750
4971		-44.921875
4972		-41.015625
4973		-42.968750
4974		-37.109375
4975		-39.062500
4976		-35.156250
4977		-37.109375
4978		-31.250000
4979		-33.203125
4980		-27.343750
4981		-29.296875
4982		-25.390625
4983		-25.390625
4984		-21.484375
4985		-23.437500
4986		-17.578125
4987		-19.531250
4988		-13.671875
4989		-15.625000
4990		-9.765625
4991		-11.718750
4992		-5.859375
4993		-9.765625
4994		-3.906250
4995		-3.906250
4996		0.000000
4997		-1.953125
4998		3.906250
4999		1.953125
5000		7.812500
5001		5.859375
5002		11.718750
5003		9.765625
5004		15.625000
5005		13.671875
5006		19.531250
5007		17.578125
5008		21.484375
5009		21.484375
5010		25.390625
5011		23.437500
5012		29.296875
5013		27.343750
5014		33.203125
5015		31.250000
5016		37.109375
5017		35.156250
5018		41.015625
5019		37.109375
5020		42.968750
5021		41.015625
5022		46.875000
5023		44.921875
5024		48.828125
5025		46.875000
5026		54.687500
5027		50.781250
5028		54.687500
5029		52.734375
5030		58.593750
5031		56.640625
5032		60.546875
5033		58.593750
5034		62.500000
5035		60.546875
5036		66.406250
5037		62.500000
5038		68.359375
5039		66.406250
5040		68.359375
5041		68.359375
5042		70.312500
5043		68.359375
5044		72.265625
5045		72.265625
5046		74.218750
5047		72.265625
5048		76.171875
5049		74.218750
5050		78.125000
5051		74.218750
5052		80.078125
5053		76.171875
5054		80.078125
5055		78.125000
5056		80.078125
5057		78.125000
5058		82.031250
5059		78.125000
5060		82.031250
5061		80.078125
5062		82.031250
5063		80.078125
5064		82.031250
5065		80.078125
5066		83.984375
5067		80.078125
5068		82.031250
5069		80.078125
5070		82.031250
5071		78.125000
5072		82.031250
5073		78.125000
5074		82.031250
5075		78.125000
5076		82.031250
5077		76.171875
5078		80.078125
5079		74.218750
5080		78.125000
5081		74.218750
5082		78.125000
5083		74.218750
5084		76.171875
5085		72.265625
5086		76.171875
5087		68.359375
5088		74.218750
5089		68.359375
5090		72.265625
5091		66.406250
5092		70.312500
5093		62.500000
5094		68.359375
5095		62.500000
5096		64.453125
5097		58.593750
5098		64.453125
5099		56.640625
5100		60.546875
5101		52.734375
5102		58.593750
5103		50.781250
5104		54.687500
5105		46.875000
5106		52.734375
5107		44.921875
5108		48.828125
5109		41.015625
5110		46.875000
5111		39.062500
5112		42.968750
5113		35.156250
5114		39.062500
5115		31.250000
5116		37.109375
5117		27.343750
5118		33.203125
5119		23.437500
5120		29.296875
5121		21.484375
5122		27.343750
5123		17.578125
5124		23.437500
5125		13.671875
5126		19.531250
5127		9.765625
5128		15.625000
5129		5.859375
5130		11.718750
5131		1.953125
5132		7.812500
5133		-1.953125
5134		3.906250
5135		-3.906250
5136		0.000000
5137		-9.765625
5138		-1.953125
5139		-11.718750
5140		-5.859375
5141		-15.625000
5142		-11.718750
5143		-19.531250
5144		-13.671875
5145		-23.437500
5146		-17.578125
5147		-25.390625
5148		-21.484375
5149		-29.296875
5150		-23.437500
5151		-33.203125
5152		-29.296875
5153		-37.109375
5154		-31.250000
5155		-39.062500
5156		-35.156250
5157		-42.968750
5158		-37.109375
5159		-44.921875
5160		-41.015625
5161		-48.828125
5162		-42.968750
5163		-50.781250
5164		-46.875000
5165		-52.734375
5166		-48.828125
5167		-54.687500
5168		-50.781250
5169		-56.640625
5170		-52.734375
5171		-60.546875
5172		-54.687500
5173		-60.546875
5174		-56.640625
5175		-62.500000
5176		-58.593750
5177		-64.453125
5178		-60.546875
5179		-66.406250
5180		-62.500000
5181		-66.406250
5182		-62.500000
5183		-66.406250
5184		-64.453125
5185		-68.359375
5186		-64.453125
5187		-68.359375
5188		-66.406250
5189		-68.359375
5190		-66.406250
5191		-68.359375
5192		-66.406250
5193		-70.312500
5194		-64.453125
5195		-68.359375
5196		-66.406250
5197		-68.359375
5198		-64.453125
5199		-68.359375
5200		-64.453125
5201		-66.406250
5202		-62.500000
5203		-66.406250
5204		-62.500000
5205		-64.453125
5206		-62.500000
5207		-62.500000
5208		-60.546875
5209		-62.500000
5210		-58.593750
5211		-62.500000
5212		-56.640625
5213		-58.593750
5214		-54.687500
5215		-56.640625
5216		-52.734375
5217		-54.687500
5218		-50.781250
5219		-52.734375
5220		-48.828125
5221		-48.828125
5222		-44.921875
5223		-48.828125
5224		-42.968750
5225		-44.921875
5226		-39.062500
5227		-41.015625
5228		-37.109375
5229		-39.062500
5230		-33.203125
5231		-35.156250
5232		-31.250000
5233		-31.250000
5234		-27.343750
5235		-29.296875
5236		-23.437500
5237		-25.390625
5238		-19.531250
5239		-21.484375
5240		-17.578125
5241		-17.578125
5242		-13.671875
5243		-13.671875
5244		-9.765625
5245		-11.718750
5246		-5.859375
5247		-7.812500
5248		-1.953125
5249		-3.906250
5250		1.953125
5251		0.000000
5252		5.859375
5253		3.906250
5254		9.765625
5255		7.812500
5256		13.671875
5257		11.718750
5258		15.625000
5259		15.625000
5260		19.531250
5261		17.578125
5262		23.437500
5263		21.484375
5264		27.343750
5265		25.390625
5266		31.250000
5267		29.296875
5268		33.203125
5269		31.250000
5270		37.109375
5271		35.156250
5272		41.015625
5273		39.062500
5274		44.921875
5275		42.968750
5276		46.875000
5277		44.921875
5278		50.781250
5279		48.828125
5280		52.734375
5281		50.781250
5282		56.640625
5283		54.687500
5284		58.593750
5285		56.640625
5286		62.500000
5287		58.593750
5288		64.453125
5289		60.546875
5290		66.406250
5291		64.453125
5292		68.359375
5293		66.406250
5294		70.312500
5295		68.359375
5296		72.265625
5297		70.312500
5298		74.218750
5299		72.265625
5300		76.171875
5301		72.265625
5302		76.171875
5303		74.218750
5304		78.125000
5305		76.171875
5306		80.078125
5307		76.171875
5308		80.078125
5309		78.125000
5310		80.078125
5311		78.125000
5312		82.031250
5313		80.078125
5314		82.031250
5315		80.078125
5316		82.031250
5317		80.078125
5318		82.031250
5319		80.078125
5320		82.031250
5321		80.078125
5322		83.984375
5323		80.078125
5324		82.031250
5325		80.078125
5326		82.031250
5327		78.125000
5328		82.031250
5329		78.125000
5330		80.078125
5331		76.171875
5332		80.078125
5333		76.171875
5334		80.078125
5335		74.218750
5336		78.125000
5337		72.265625
5338		76.171875
5339		70.312500
5340		74.218750
5341		70.312500
5342		72.265625
5343		68.359375
5344		70.312500
5345		64.453125
5346		70.312500
5347		62.500000
5348		66.406250
5349		60.546875
5350		64.453125
5351		58.593750
5352		62.500000
5353		54.687500
5354		60.546875
5355		52.734375
5356		58.593750
5357		50.781250
5358		54.687500
5359		46.875000
5360		52.734375
5361		42.968750
5362		48.828125
5363		41.015625
5364		46.875000
5365		37.109375
5366		42.968750
5367		35.156250
5368		39.062500
5369		31.250000
5370		35.156250
5371		27.343750
5372		31.250000
5373		23.437500
5374		29.296875
5375		19.531250
5376		25.390625
5377		17.578125
5378		21.484375
5379		11.718750
5380		17.578125
5381		7.812500
5382		13.671875
5383		5.859375
5384		9.765625
5385		1.953125
5386		7.812500
5387		-1.953125
5388		3.906250
5389		-5.859375
5390		0.000000
5391		-11.718750
5392		-3.906250
5393		-13.671875
5394		-7.812500
5395		-17.578125
5396		-11.718750
5397		-21.484375
5398		-13.671875
5399		-23.437500
5400		-17.578125
5401		-27.343750
5402		-21.484375
5403		-31.250000
5404		-25.390625
5405		-35.156250
5406		-29.296875
5407		-37.109375
5408		-31.250000
5409		-39.062500
5410		-35.156250
5411		-44.921875
5412		-39.062500
5413		-44.921875
5414		-41.015625
5415		-48.828125
5416		-42.968750
5417		-50.781250
5418		-46.875000
5419		-52.734375
5420		-48.828125
5421		-56.640625
5422		-50.781250
5423		-58.593750
5424		-52.734375
5425		-58.593750
5426		-56.640625
5427		-60.546875
5428		-56.640625
5429		-62.500000
5430		-58.593750
5431		-64.453125
5432		-60.546875
5433		-64.453125
5434		-62.500000
5435		-66.406250
5436		-62.500000
5437		-68.359375
5438		-64.453125
5439		-68.359375
5440		-64.453125
5441		-68.359375
5442		-64.453125
5443		-68.359375
5444		-66.406250
5445		-68.359375
5446		-66.406250
5447		-68.359375
5448		-66.406250
5449		-68.359375
5450		-64.453125
5451		-68.359375
5452		-64.453125
5453		-66.406250
5454		-64.453125
5455		-66.406250
5456		-62.500000
5457		-66.406250
5458		-62.500000
5459		-64.453125
5460		-60.546875
5461		-62.500000
5462		-58.593750
5463		-62.500000
5464		-58.593750
5465		-58.593750
5466		-56.640625
5467		-56.640625
5468		-54.687500
5469		-54.687500
5470		-50.781250
5471		-52.734375
5472		-48.828125
5473		-50.781250
5474		-46.875000
5475		-48.828125
5476		-44.921875
5477		-44.921875
5478		-41.015625
5479		-42.968750
5480		-37.109375
5481		-39.062500
5482		-35.156250
5483		-37.109375
5484		-33.203125
5485		-33.203125
5486		-29.296875
5487		-31.250000
5488		-25.390625
5489		-27.343750
5490		-21.484375
5491		-23.437500
5492		-17.578125
5493		-19.531250
5494		-15.625000
5495		-17.578125
5496		-9.765625
5497		-13.671875
5498		-7.812500
5499		-9.765625
5500		-3.906250
5501		-5.859375
5502		0.000000
5503		-1.953125
5504		3.906250
5505		1.953125
5506		7.812500
5507		5.859375
5508		11.718750
5509		9.765625
5510		13.671875
5511		13.671875
5512		17.578125
5513		15.625000
5514		21.484375
5515		19.531250
5516		25.390625
5517		23.437500
5518		29.296875
5519		27.343750
5520		31.250000
5521		31.250000
5522		37.109375
5523		33.203125
5524		39.062500
5525		37.109375
5526		42.968750
5527		41.015625
5528		44.921875
5529		42.968750
5530		48.828125
5531		44.921875
5532		52.734375
5533		48.828125
5534		54.687500
5535		50.781250
5536		56.640625
5537		54.687500
5538		60.546875
5539		58.593750
5540		62.500000
5541		60.546875
5542		64.453125
5543		62.500000
5544		66.406250
5545		64.453125
5546		68.359375
5547		66.406250
5548		70.312500
5549		68.359375
5550		72.265625
5551		70.312500
5552		76.171875
5553		72.265625
5554		76.171875
5555		74.218750
5556		78.125000
5557		76.171875
5558		80.078125
5559		76.171875
5560		80.078125
5561		78.125000
5562		80.078125
5563		78.125000
5564		82.031250
5565		78.125000
5566		82.031250
5567		78.125000
5568		83.984375
5569		80.078125
5570		83.984375
5571		80.078125
5572		83.984375
5573		80.078125
5574		83.984375
5575		78.125000
5576		83.984375
5577		80.078125
5578		82.031250
5579		80.078125
5580		82.031250
5581		78.125000
5582		82.031250
5583		76.171875
5584		82.031250
5585		76.171875
5586		80.078125
5587		74.218750
5588		80.078125
5589		72.265625
5590		78.125000
5591		72.265625
5592		76.171875
5593		70.312500
5594		74.218750
5595		68.359375
5596		72.265625
5597		66.406250
5598		70.312500
5599		64.453125
5600		70.312500
5601		60.546875
5602		68.359375
5603		58.593750
5604		64.453125
5605		56.640625
5606		62.500000
5607		54.687500
5608		60.546875
5609		52.734375
5610		56.640625
5611		48.828125
5612		52.734375
5613		44.921875
5614		50.781250
5615		42.968750
5616		48.828125
5617		39.062500
5618		46.875000
5619		35.156250
5620		42.968750
5621		33.203125
5622		39.062500
5623		29.296875
5624		35.156250
5625		25.390625
5626		33.203125
5627		23.437500
5628		27.343750
5629		19.531250
5630		23.437500
5631		13.671875
5632		21.484375
5633		9.765625
5634		17.578125
5635		7.812500
5636		13.671875
5637		3.906250
5638		9.765625
5639		0.000000
5640		5.859375
5641		-3.906250
5642		1.953125
5643		-5.859375
5644		0.000000
5645		-11.718750
5646		-5.859375
5647		-13.671875
5648		-9.765625
5649		-17.578125
5650		-11.718750
5651		-21.484375
5652		-15.625000
5653		-25.390625
5654		-19.531250
5655		-27.343750
5656		-23.437500
5657		-31.250000
5658		-27.343750
5659		-35.156250
5660		-29.296875
5661		-37.109375
5662		-33.203125
5663		-41.015625
5664		-37.109375
5665		-42.968750
5666		-39.062500
5667		-46.875000
5668		-42.968750
5669		-48.828125
5670		-44.921875
5671		-50.781250
5672		-46.875000
5673		-54.687500
5674		-48.828125
5675		-56.640625
5676		-52.734375
5677		-58.593750
5678		-54.687500
5679		-58.593750
5680		-56.640625
5681		-60.546875
5682		-58.593750
5683		-62.500000
5684		-58.593750
5685		-64.453125
5686		-60.546875
5687		-64.453125
5688		-62.500000
5689		-66.406250
5690		-64.453125
5691		-68.359375
5692		-64.453125
5693		-68.359375
5694		-64.453125
5695		-68.359375
5696		-64.453125
5697		-68.359375
5698		-66.406250
5699		-68.359375
5700		-66.406250
5701		-68.359375
5702		-66.406250
5703		-68.359375
5704		-64.453125
5705		-68.359375
5706		-64.453125
5707		-66.406250
5708		-64.453125
5709		-66.406250
5710		-62.500000
5711		-64.453125
5712		-62.500000
5713		-62.500000
5714		-60.546875
5715		-62.500000
5716		-58.593750
5717		-60.546875
5718		-56.640625
5719		-58.593750
5720		-54.687500
5721		-56.640625
5722		-52.734375
5723		-54.687500
5724		-50.781250
5725		-52.734375
5726		-48.828125
5727		-50.781250
5728		-46.875000
5729		-46.875000
5730		-42.968750
5731		-44.921875
5732		-41.015625
5733		-42.968750
5734		-37.109375
5735		-39.062500
5736		-35.156250
5737		-37.109375
5738		-31.250000
5739		-33.203125
5740		-27.343750
5741		-29.296875
5742		-25.390625
5743		-27.343750
5744		-21.484375
5745		-23.437500
5746		-17.578125
5747		-19.531250
5748		-13.671875
5749		-19.531250
5750		-9.765625
5751		-15.625000
5752		-5.859375
5753		-11.718750
5754		-1.953125
5755		-3.906250
5756		0.000000
5757		-1.953125
5758		3.906250
5759		1.953125
5760		7.812500
5761		5.859375
5762		11.718750
5763		9.765625
5764		15.625000
5765		11.718750
5766		21.484375
5767		15.625000
5768		25.390625
5769		19.531250
5770		27.343750
5771		23.437500
5772		29.296875
5773		27.343750
5774		33.203125
5775		31.250000
5776		35.156250
5777		35.156250
5778		39.062500
5779		39.062500
5780		42.968750
5781		41.015625
5782		48.828125
5783		41.015625
5784		52.734375
5785		42.968750
5786		54.687500
5787		46.875000
5788		56.640625
5789		52.734375
5790		56.640625
5791		56.640625
5792		60.546875
5793		58.593750
5794		62.500000
5795		60.546875
5796		64.453125
5797		64.453125
5798		66.406250
5799		62.500000
5800		72.265625
5801		64.453125
5802		74.218750
5803		66.406250
5804		76.171875
5805		72.265625
5806		74.218750
5807		72.265625
5808		76.171875
5809		74.218750
5810		78.125000
5811		76.171875
5812		78.125000
5813		76.171875
5814		80.078125
5815		76.171875
5816		83.984375
5817		76.171875
5818		83.984375
5819		76.171875
5820		85.937500
5821		76.171875
5822		85.937500
5823		80.078125
5824		82.031250
5825		80.078125
5826		82.031250
5827		80.078125
5828		82.031250
5829		80.078125
5830		82.031250
5831		80.078125
5832		82.031250
5833		76.171875
5834		85.937500
5835		74.218750
5836		83.984375
5837		74.218750
5838		83.984375
5839		76.171875
5840		80.078125
5841		74.218750
5842		78.125000
5843		74.218750
5844		76.171875
5845		72.265625
5846		76.171875
5847		70.312500
5848		74.218750
5849		66.406250
5850		76.171875
5851		62.500000
5852		72.265625
5853		60.546875
5854		70.312500
5855		62.500000
5856		66.406250
5857		58.593750
5858		62.500000
5859		56.640625
5860		60.546875
5861		54.687500
5862		58.593750
5863		50.781250
5864		56.640625
5865		44.921875
5866		54.687500
5867		41.015625
5868		52.734375
5869		37.109375
5870		50.781250
5871		37.109375
5872		46.875000
5873		35.156250
5874		41.015625
5875		31.250000
5876		37.109375
5877		29.296875
5878		33.203125
5879		25.390625
5880		29.296875
5881		21.484375
5882		27.343750
5883		15.625000
5884		25.390625
5885		11.718750
5886		21.484375
5887		7.812500
5888		17.578125
5889		7.812500
5890		11.718750
5891		3.906250
5892		7.812500
5893		0.000000
5894		3.906250
5895		-3.906250
5896		0.000000
5897		-7.812500
5898		-1.953125
5899		-15.625000
5900		-5.859375
5901		-17.578125
5902		-7.812500
5903		-21.484375
5904		-9.765625
5905		-21.484375
5906		-13.671875
5907		-25.390625
5908		-21.484375
5909		-29.296875
5910		-23.437500
5911		-33.203125
5912		-27.343750
5913		-35.156250
5914		-31.250000
5915		-39.062500
5916		-35.156250
5917		-42.968750
5918		-33.203125
5919		-46.875000
5920		-37.109375
5921		-48.828125
5922		-39.062500
5923		-50.781250
5924		-44.921875
5925		-52.734375
5926		-48.828125
5927		-54.687500
5928		-50.781250
5929		-56.640625
5930		-52.734375
5931		-58.593750
5932		-54.687500
5933		-60.546875
5934		-56.640625
5935		-64.453125
5936		-56.640625
5937		-66.406250
5938		-56.640625
5939		-64.453125
5940		-62.500000
5941		-66.406250
5942		-62.500000
5943		-66.406250
5944		-64.453125
5945		-68.359375
5946		-64.453125
5947		-68.359375
5948		-64.453125
5949		-68.359375
5950		-66.406250
5951		-70.312500
5952		-62.500000
5953		-70.312500
5954		-64.453125
5955		-70.312500
5956		-64.453125
5957		-68.359375
5958		-66.406250
5959		-66.406250
5960		-64.453125
5961		-66.406250
5962		-64.453125
5963		-66.406250
5964		-62.500000
5965		-64.453125
5966		-62.500000
5967		-64.453125
5968		-60.546875
5969		-62.500000
5970		-58.593750
5971		-60.546875
5972		-56.640625
5973		-58.593750
5974		-54.687500
5975		-56.640625
5976		-52.734375
5977		-54.687500
5978		-50.781250
5979		-52.734375
5980		-48.828125
5981		-48.828125
5982		-44.921875
5983		-46.875000
5984		-42.968750
5985		-44.921875
5986		-41.015625
5987		-41.015625
5988		-37.109375
5989		-39.062500
5990		-33.203125
5991		-35.156250
5992		-31.250000
5993		-33.203125
5994		-27.343750
5995		-29.296875
5996		-23.437500
5997		-25.390625
5998		-19.531250
5999		-21.484375
6000		-17.578125
6001		-17.578125
6002		-13.671875
6003		-15.625000
6004		-9.765625
6005		-11.718750
6006		-5.859375
6007		-7.812500
6008		-1.953125
6009		-3.906250
6010		1.953125
6011		0.000000
6012		5.859375
6013		3.906250
6014		7.812500
6015		7.812500
6016		11.718750
6017		11.718750
6018		15.625000
6019		15.625000
6020		19.531250
6021		17.578125
6022		23.437500
6023		21.484375
6024		27.343750
6025		25.390625
6026		31.250000
6027		29.296875
6028		33.203125
6029		33.203125
6030		37.109375
6031		35.156250
6032		41.015625
6033		39.062500
6034		44.921875
6035		41.015625
6036		48.828125
6037		44.921875
6038		50.781250
6039		48.828125
6040		52.734375
6041		50.781250
6042		56.640625
6043		52.734375
6044		58.593750
6045		56.640625
6046		60.546875
6047		58.593750
6048		64.453125
6049		62.500000
6050		66.406250
6051		62.500000
6052		68.359375
6053		66.406250
6054		70.312500
6055		68.359375
6056		72.265625
6057		70.312500
6058		74.218750
6059		70.312500
6060		74.218750
6061		74.218750
6062		76.171875
6063		74.218750
6064		78.125000
6065		76.171875
6066		78.125000
6067		76.171875
6068		80.078125
6069		78.125000
6070		82.031250
6071		78.125000
6072		82.031250
6073		80.078125
6074		82.031250
6075		80.078125
6076		83.984375
6077		80.078125
6078		83.984375
6079		80.078125
6080		82.031250
6081		80.078125
6082		82.031250
6083		80.078125
6084		82.031250
6085		78.125000
6086		83.984375
6087		78.125000
6088		82.031250
6089		78.125000
6090		80.078125
6091		76.171875
6092		80.078125
6093		76.171875
6094		80.078125
6095		74.218750
6096		78.125000
6097		72.265625
6098		76.171875
6099		72.265625
6100		74.218750
6101		68.359375
6102		74.218750
6103		68.359375
6104		72.265625
6105		66.406250
6106		70.312500
6107		62.500000
6108		68.359375
6109		60.546875
6110		66.406250
6111		58.593750
6112		62.500000
6113		56.640625
6114		60.546875
6115		52.734375
6116		58.593750
6117		48.828125
6118		54.687500
6119		46.875000
6120		52.734375
6121		44.921875
6122		50.781250
6123		41.015625
6124		44.921875
6125		37.109375
6126		42.968750
6127		35.156250
6128		41.015625
6129		31.250000
6130		37.109375
6131		27.343750
6132		33.203125
6133		23.437500
6134		29.296875
6135		19.531250
6136		25.390625
6137		17.578125
6138		21.484375
6139		13.671875
6140		17.578125
6141		9.765625
6142		15.625000
6143		5.859375
6144		11.718750
6145		1.953125
6146		7.812500
6147		-1.953125
6148		3.906250
6149		-5.859375
6150		0.000000
6151		-9.765625
6152		-3.906250
6153		-13.671875
6154		-5.859375
6155		-15.625000
6156		-11.718750
6157		-19.531250
6158		-15.625000
6159		-23.437500
6160		-17.578125
6161		-27.343750
6162		-21.484375
6163		-29.296875
6164		-25.390625
6165		-33.203125
6166		-27.343750
6167		-37.109375
6168		-31.250000
6169		-39.062500
6170		-33.203125
6171		-42.968750
6172		-37.109375
6173		-44.921875
6174		-41.015625
6175		-48.828125
6176		-42.968750
6177		-50.781250
6178		-44.921875
6179		-52.734375
6180		-48.828125
6181		-54.687500
6182		-50.781250
6183		-56.640625
6184		-52.734375
6185		-60.546875
6186		-54.687500
6187		-60.546875
6188		-56.640625
6189		-62.500000
6190		-58.593750
6191		-64.453125
6192		-60.546875
6193		-64.453125
6194		-60.546875
6195		-66.406250
6196		-62.500000
6197		-66.406250
6198		-64.453125
6199		-68.359375
6200		-64.453125
6201		-68.359375
6202		-66.406250
6203		-68.359375
6204		-64.453125
6205		-68.359375
6206		-64.453125
6207		-68.359375
6208		-66.406250
6209		-68.359375
6210		-64.453125
6211		-68.359375
6212		-64.453125
6213		-66.406250
6214		-64.453125
6215		-66.406250
6216		-62.500000
6217		-64.453125
6218		-62.500000
6219		-64.453125
6220		-60.546875
6221		-62.500000
6222		-60.546875
6223		-60.546875
6224		-58.593750
6225		-60.546875
6226		-56.640625
6227		-58.593750
6228		-54.687500
6229		-54.687500
6230		-52.734375
6231		-52.734375
6232		-48.828125
6233		-50.781250
6234		-46.875000
6235		-48.828125
6236		-44.921875
6237		-46.875000
6238		-41.015625
6239		-42.968750
6240		-39.062500
6241		-41.015625
6242		-35.156250
6243		-37.109375
6244		-33.203125
6245		-33.203125
6246		-29.296875
6247		-31.250000
6248		-25.390625
6249		-27.343750
6250		-23.437500
6251		-23.437500
6252		-19.531250
6253		-19.531250
6254		-15.625000
6255		-17.578125
6256		-11.718750
6257		-13.671875
6258		-7.812500
6259		-9.765625
6260		-3.906250
6261		-5.859375
6262		-1.953125
6263		-3.906250
6264		1.953125
6265		1.953125
6266		5.859375
6267		5.859375
6268		9.765625
6269		7.812500
6270		13.671875
6271		11.718750
6272		17.578125
6273		15.625000
6274		21.484375
6275		19.531250
6276		25.390625
6277		23.437500
6278		29.296875
6279		27.343750
6280		31.250000
6281		29.296875
6282		35.156250
6283		33.203125
6284		39.062500
6285		37.109375
6286		42.968750
6287		39.062500
6288		44.921875
6289		42.968750
6290		48.828125
6291		46.875000
6292		50.781250
6293		48.828125
6294		54.687500
6295		52.734375
6296		56.640625
6297		54.687500
6298		58.593750
6299		58.593750
6300		62.500000
6301		60.546875
6302		64.453125
6303		62.500000
6304		66.406250
6305		64.453125
6306		68.359375
6307		66.406250
6308		70.312500
6309		68.359375
6310		72.265625
6311		70.312500
6312		74.218750
6313		72.265625
6314		76.171875
6315		74.218750
6316		78.125000
6317		76.171875
6318		78.125000
6319		76.171875
6320		80.078125
6321		78.125000
6322		80.078125
6323		78.125000
6324		80.078125
6325		80.078125
6326		82.031250
6327		80.078125
6328		82.031250
6329		80.078125
6330		82.031250
6331		80.078125
6332		82.031250
6333		80.078125
6334		82.031250
6335		80.078125
6336		82.031250
6337		78.125000
6338		82.031250
6339		80.078125
6340		82.031250
6341		78.125000
6342		82.031250
6343		78.125000
6344		80.078125
6345		76.171875
6346		80.078125
6347		76.171875
6348		78.125000
6349		74.218750
6350		78.125000
6351		72.265625
6352		76.171875
6353		70.312500
6354		74.218750
6355		70.312500
6356		72.265625
6357		68.359375
6358		70.312500
6359		64.453125
6360		68.359375
6361		62.500000
6362		66.406250
6363		60.546875
6364		64.453125
6365		58.593750
6366		62.500000
6367		54.687500
6368		58.593750
6369		52.734375
6370		56.640625
6371		48.828125
6372		56.640625
6373		46.875000
6374		52.734375
6375		42.968750
6376		48.828125
6377		41.015625
6378		44.921875
6379		37.109375
6380		41.015625
6381		33.203125
6382		39.062500
6383		29.296875
6384		35.156250
6385		27.343750
6386		31.250000
6387		21.484375
6388		29.296875
6389		19.531250
6390		25.390625
6391		15.625000
6392		21.484375
6393		11.718750
6394		17.578125
6395		7.812500
6396		13.671875
6397		3.906250
6398		9.765625
6399		1.953125
6400		5.859375
6401		-1.953125
6402		1.953125
6403		-7.812500
6404		0.000000
6405		-11.718750
6406		-1.953125
6407		-13.671875
6408		-7.812500
6409		-17.578125
6410		-11.718750
6411		-21.484375
6412		-15.625000
6413		-23.437500
6414		-19.531250
6415		-27.343750
6416		-23.437500
6417		-31.250000
6418		-25.390625
6419		-35.156250
6420		-29.296875
6421		-37.109375
6422		-31.250000
6423		-41.015625
6424		-35.156250
6425		-42.968750
6426		-39.062500
6427		-46.875000
6428		-41.015625
6429		-48.828125
6430		-44.921875
6431		-50.781250
6432		-46.875000
6433		-52.734375
6434		-48.828125
6435		-56.640625
6436		-52.734375
6437		-58.593750
6438		-52.734375
6439		-60.546875
6440		-54.687500
6441		-60.546875
6442		-58.593750
6443		-62.500000
6444		-58.593750
6445		-64.453125
6446		-60.546875
6447		-64.453125
6448		-62.500000
6449		-66.406250
6450		-62.500000
6451		-66.406250
6452		-64.453125
6453		-68.359375
6454		-64.453125
6455		-70.312500
6456		-64.453125
6457		-70.312500
6458		-64.453125
6459		-68.359375
6460		-66.406250
6461		-68.359375
6462		-66.406250
6463		-68.359375
6464		-64.453125
6465		-66.406250
6466		-64.453125
6467		-66.406250
6468		-64.453125
6469		-66.406250
6470		-62.500000
6471		-66.406250
6472		-60.546875
6473		-64.453125
6474		-58.593750
6475		-62.500000
6476		-58.593750
6477		-60.546875
6478		-56.640625
6479		-58.593750
6480		-54.687500
6481		-56.640625
6482		-52.734375
6483		-54.687500
6484		-50.781250
6485		-52.734375
6486		-48.828125
6487		-50.781250
6488		-44.921875
6489		-48.828125
6490		-41.015625
6491		-44.921875
6492		-41.015625
6493		-41.015625
6494		-37.109375
6495		-39.062500
6496		-35.156250
6497		-35.156250
6498		-31.250000
6499		-33.203125
6500		-27.343750
6501		-29.296875
6502		-25.390625
6503		-25.390625
6504		-21.484375
6505		-23.437500
6506		-17.578125
6507		-21.484375
6508		-13.671875
6509		-15.625000
6510		-11.718750
6511		-11.718750
6512		-7.812500
6513		-7.812500
6514		-3.906250
6515		-3.906250
6516		0.000000
6517		-1.953125
6518		3.906250
6519		1.953125
6520		7.812500
6521		5.859375
6522		13.671875
6523		7.812500
6524		15.625000
6525		13.671875
6526		19.531250
6527		17.578125
6528		21.484375
6529		21.484375
6530		25.390625
6531		25.390625
6532		29.296875
6533		27.343750
6534		33.203125
6535		31.250000
6536		37.109375
6537		35.156250
6538		41.015625
6539		37.109375
6540		44.921875
6541		39.062500
6542		46.875000
6543		44.921875
6544		48.828125
6545		46.875000
6546		52.734375
6547		50.781250
6548		54.687500
6549		52.734375
6550		58.593750
6551		56.640625
6552		60.546875
6553		58.593750
6554		62.500000
6555		60.546875
6556		66.406250
6557		62.500000
6558		66.406250
6559		66.406250
6560		68.359375
6561		68.359375
6562		72.265625
6563		70.312500
6564		72.265625
6565		72.265625
6566		74.218750
6567		72.265625
6568		76.171875
6569		74.218750
6570		78.125000
6571		76.171875
6572		80.078125
6573		76.171875
6574		80.078125
6575		78.125000
6576		80.078125
6577		78.125000
6578		82.031250
6579		80.078125
6580		82.031250
6581		80.078125
6582		82.031250
6583		80.078125
6584		82.031250
6585		80.078125
6586		83.984375
6587		80.078125
6588		83.984375
6589		80.078125
6590		83.984375
6591		80.078125
6592		82.031250
6593		80.078125
6594		82.031250
6595		78.125000
6596		82.031250
6597		78.125000
6598		80.078125
6599		76.171875
6600		80.078125
6601		76.171875
6602		78.125000
6603		74.218750
6604		76.171875
6605		72.265625
6606		76.171875
6607		70.312500
6608		74.218750
6609		68.359375
6610		72.265625
6611		66.406250
6612		70.312500
6613		64.453125
6614		68.359375
6615		62.500000
6616		66.406250
6617		60.546875
6618		64.453125
6619		56.640625
6620		60.546875
6621		54.687500
6622		58.593750
6623		52.734375
6624		56.640625
6625		48.828125
6626		52.734375
6627		44.921875
6628		50.781250
6629		42.968750
6630		46.875000
6631		39.062500
6632		44.921875
6633		37.109375
6634		41.015625
6635		33.203125
6636		37.109375
6637		29.296875
6638		35.156250
6639		25.390625
6640		31.250000
6641		21.484375
6642		27.343750
6643		19.531250
6644		23.437500
6645		15.625000
6646		19.531250
6647		11.718750
6648		15.625000
6649		7.812500
6650		11.718750
6651		3.906250
6652		9.765625
6653		0.000000
6654		5.859375
6655		-3.906250
6656		1.953125
6657		-7.812500
6658		-1.953125
6659		-11.718750
6660		-5.859375
6661		-15.625000
6662		-9.765625
6663		-17.578125
6664		-13.671875
6665		-21.484375
6666		-17.578125
6667		-25.390625
6668		-19.531250
6669		-29.296875
6670		-23.437500
6671		-31.250000
6672		-27.343750
6673		-35.156250
6674		-31.250000
6675		-39.062500
6676		-33.203125
6677		-41.015625
6678		-37.109375
6679		-44.921875
6680		-39.062500
6681		-46.875000
6682		-42.968750
6683		-48.828125
6684		-44.921875
6685		-52.734375
6686		-46.875000
6687		-54.687500
6688		-50.781250
6689		-56.640625
6690		-52.734375
6691		-58.593750
6692		-54.687500
6693		-60.546875
6694		-56.640625
6695		-62.500000
6696		-58.593750
6697		-64.453125
6698		-60.546875
6699		-64.453125
6700		-60.546875
6701		-64.453125
6702		-62.500000
6703		-66.406250
6704		-64.453125
6705		-66.406250
6706		-64.453125
6707		-68.359375
6708		-64.453125
6709		-68.359375
6710		-66.406250
6711		-68.359375
6712		-66.406250
6713		-68.359375
6714		-66.406250
6715		-68.359375
6716		-66.406250
6717		-68.359375
6718		-64.453125
6719		-66.406250
6720		-64.453125
6721		-66.406250
6722		-64.453125
6723		-66.406250
6724		-62.500000
6725		-64.453125
6726		-62.500000
6727		-62.500000
6728		-60.546875
6729		-62.500000
6730		-58.593750
6731		-60.546875
6732		-56.640625
6733		-58.593750
6734		-54.687500
6735		-56.640625
6736		-52.734375
6737		-54.687500
6738		-50.781250
6739		-52.734375
6740		-48.828125
6741		-48.828125
6742		-44.921875
6743		-46.875000
6744		-42.968750
6745		-44.921875
6746		-41.015625
6747		-41.015625
6748		-37.109375
6749		-39.062500
6750		-33.203125
6751		-35.156250
6752		-31.250000
6753		-33.203125
6754		-27.343750
6755		-29.296875
6756		-23.437500
6757		-25.390625
6758		-21.484375
6759		-21.484375
6760		-17.578125
6761		-17.578125
6762		-13.671875
6763		-15.625000
6764		-9.765625
6765		-11.718750
6766		-5.859375
6767		-7.812500
6768		-1.953125
6769		-3.906250
6770		0.000000
6771		0.000000
6772		3.906250
6773		3.906250
6774		7.812500
6775		7.812500
6776		11.718750
6777		11.718750
6778		15.625000
6779		13.671875
6780		19.531250
6781		17.578125
6782		23.437500
6783		21.484375
6784		27.343750
6785		25.390625
6786		29.296875
6787		29.296875
6788		33.203125
6789		31.250000
6790		37.109375
6791		35.156250
6792		41.015625
6793		39.062500
6794		42.968750
6795		41.015625
6796		46.875000
6797		44.921875
6798		48.828125
6799		48.828125
6800		52.734375
6801		50.781250
6802		54.687500
6803		54.687500
6804		58.593750
6805		56.640625
6806		60.546875
6807		58.593750
6808		62.500000
6809		62.500000
6810		64.453125
6811		64.453125
6812		68.359375
6813		66.406250
6814		70.312500
6815		68.359375
6816		72.265625
6817		70.312500
6818		74.218750
6819		72.265625
6820		74.218750
6821		74.218750
6822		76.171875
6823		74.218750
6824		78.125000
6825		76.171875
6826		78.125000
6827		78.125000
6828		80.078125
6829		78.125000
6830		80.078125
6831		80.078125
6832		82.031250
6833		80.078125
6834		82.031250
6835		80.078125
6836		82.031250
6837		80.078125
6838		83.984375
6839		80.078125
6840		82.031250
6841		80.078125
6842		82.031250
6843		80.078125
6844		82.031250
6845		80.078125
6846		82.031250
6847		78.125000
6848		82.031250
6849		78.125000
6850		80.078125
6851		76.171875
6852		80.078125
6853		76.171875
6854		78.125000
6855		74.218750
6856		78.125000
6857		74.218750
6858		76.171875
6859		72.265625
6860		74.218750
6861		70.312500
6862		74.218750
6863		68.359375
6864		72.265625
6865		66.406250
6866		70.312500
6867		64.453125
6868		68.359375
6869		62.500000
6870		64.453125
6871		58.593750
6872		64.453125
6873		56.640625
6874		60.546875
6875		54.687500
6876		58.593750
6877		50.781250
6878		54.687500
6879		48.828125
6880		52.734375
6881		44.921875
6882		48.828125
6883		41.015625
6884		46.875000
6885		39.062500
6886		42.968750
6887		35.156250
6888		39.062500
6889		31.250000
6890		37.109375
6891		27.343750
6892		33.203125
6893		25.390625
6894		29.296875
6895		21.484375
6896		25.390625
6897		17.578125
6898		21.484375
6899		13.671875
6900		17.578125
6901		9.765625
6902		15.625000
6903		5.859375
6904		11.718750
6905		1.953125
6906		7.812500
6907		-1.953125
6908		3.906250
6909		-5.859375
6910		0.000000
6911		-7.812500
6912		-3.906250
6913		-11.718750
6914		-7.812500
6915		-15.625000
6916		-11.718750
6917		-19.531250
6918		-13.671875
6919		-23.437500
6920		-17.578125
6921		-27.343750
6922		-21.484375
6923		-29.296875
6924		-25.390625
6925		-33.203125
6926		-29.296875
6927		-35.156250
6928		-31.250000
6929		-39.062500
6930		-35.156250
6931		-42.968750
6932		-37.109375
6933		-44.921875
6934		-41.015625
6935		-46.875000
6936		-42.968750
6937		-50.781250
6938		-46.875000
6939		-52.734375
6940		-48.828125
6941		-54.687500
6942		-50.781250
6943		-56.640625
6944		-52.734375
6945		-58.593750
6946		-54.687500
6947		-60.546875
6948		-56.640625
6949		-62.500000
6950		-58.593750
6951		-64.453125
6952		-60.546875
6953		-64.453125
6954		-62.500000
6955		-66.406250
6956		-62.500000
6957		-66.406250
6958		-64.453125
6959		-66.406250
6960		-64.453125
6961		-68.359375
6962		-64.453125
6963		-68.359375
6964		-66.406250
6965		-68.359375
6966		-66.406250
6967		-68.359375
6968		-66.406250
6969		-68.359375
6970		-66.406250
6971		-68.359375
6972		-64.453125
6973		-66.406250
6974		-64.453125
6975		-66.406250
6976		-64.453125
6977		-64.453125
6978		-62.500000
6979		-64.453125
6980		-60.546875
6981		-62.500000
6982		-60.546875
6983		-60.546875
6984		-58.593750
6985		-58.593750
6986		-56.640625
6987		-58.593750
6988		-54.687500
6989		-56.640625
6990		-52.734375
6991		-52.734375
6992		-48.828125
6993		-50.781250
6994		-46.875000
6995		-48.828125
6996		-44.921875
6997		-46.875000
6998		-42.968750
6999		-42.968750
7000		-39.062500
7001		-41.015625
7002		-37.109375
7003		-37.109375
7004		-33.203125
7005		-35.156250
7006		-29.296875
7007		-31.250000
7008		-27.343750
7009		-27.343750
7010		-23.437500
7011		-25.390625
7012		-19.531250
7013		-21.484375
7014		-15.625000
7015		-17.578125
7016		-11.718750
7017		-13.671875
7018		-7.812500
7019		-9.765625
7020		-5.859375
7021		-7.812500
7022		-1.953125
7023		-1.953125
7024		1.953125
7025		0.000000
7026		5.859375
7027		3.906250
7028		9.765625
7029		7.812500
7030		13.671875
7031		11.718750
7032		17.578125
7033		15.625000
7034		19.531250
7035		19.531250
7036		23.437500
7037		23.437500
7038		27.343750
7039		27.343750
7040		31.250000
7041		29.296875
7042		35.156250
7043		33.203125
7044		37.109375
7045		37.109375
7046		41.015625
7047		39.062500
7048		44.921875
7049		42.968750
7050		46.875000
7051		44.921875
7052		50.781250
7053		48.828125
7054		52.734375
7055		52.734375
7056		56.640625
7057		54.687500
7058		58.593750
7059		56.640625
7060		60.546875
7061		60.546875
7062		64.453125
7063		62.500000
7064		66.406250
7065		64.453125
7066		68.359375
7067		66.406250
7068		70.312500
7069		68.359375
7070		72.265625
7071		70.312500
7072		74.218750
7073		72.265625
7074		76.171875
7075		74.218750
7076		76.171875
7077		74.218750
7078		78.125000
7079		76.171875
7080		78.125000
7081		78.125000
7082		80.078125
7083		78.125000
7084		82.031250
7085		80.078125
7086		82.031250
7087		80.078125
7088		82.031250
7089		80.078125
7090		82.031250
7091		80.078125
7092		82.031250
7093		80.078125
7094		82.031250
7095		80.078125
7096		82.031250
7097		80.078125
7098		82.031250
7099		78.125000
7100		82.031250
7101		78.125000
7102		82.031250
7103		78.125000
7104		80.078125
7105		76.171875
7106		80.078125
7107		76.171875
7108		78.125000
7109		74.218750
7110		78.125000
7111		72.265625
7112		76.171875
7113		70.312500
7114		74.218750
7115		70.312500
7116		72.265625
7117		68.359375
7118		72.265625
7119		64.453125
7120		68.359375
7121		62.500000
7122		66.406250
7123		60.546875
7124		64.453125
7125		58.593750
7126		62.500000
7127		56.640625
7128		60.546875
7129		52.734375
7130		56.640625
7131		48.828125
7132		54.687500
7133		46.875000
7134		50.781250
7135		42.968750
7136		48.828125
7137		41.015625
7138		44.921875
7139		37.109375
7140		42.968750
7141		33.203125
7142		39.062500
7143		31.250000
7144		35.156250
7145		27.343750
7146		31.250000
7147		23.437500
7148		29.296875
7149		19.531250
7150		25.390625
7151		15.625000
7152		21.484375
7153		11.718750
7154		17.578125
7155		7.812500
7156		13.671875
7157		5.859375
7158		9.765625
7159		1.953125
7160		5.859375
7161		-3.906250
7162		1.953125
7163		-5.859375
7164		-1.953125
7165		-9.765625
7166		-3.906250
7167		-13.671875
7168		-7.812500
7169		-17.578125
7170		-11.718750
7171		-19.531250
7172		-15.625000
7173		-23.437500
7174		-19.531250
7175		-27.343750
7176		-23.437500
7177		-31.250000
7178		-25.390625
7179		-33.203125
7180		-29.296875
7181		-37.109375
7182		-33.203125
7183		-41.015625
7184		-35.156250
7185		-42.968750
7186		-39.062500
7187		-44.921875
7188		-41.015625
7189		-48.828125
7190		-44.921875
7191		-50.781250
7192		-46.875000
7193		-52.734375
7194		-48.828125
7195		-56.640625
7196		-52.734375
7197		-58.593750
7198		-52.734375
7199		-60.546875
7200		-56.640625
7201		-60.546875
7202		-58.593750
7203		-62.500000
7204		-60.546875
7205		-64.453125
7206		-60.546875
7207		-64.453125
7208		-62.500000
7209		-66.406250
7210		-62.500000
7211		-66.406250
7212		-64.453125
7213		-68.359375
7214		-64.453125
7215		-68.359375
7216		-66.406250
7217		-68.359375
7218		-66.406250
7219		-68.359375
7220		-66.406250
7221		-68.359375
7222		-66.406250
7223		-68.359375
7224		-66.406250
7225		-68.359375
7226		-64.453125
7227		-66.406250
7228		-64.453125
7229		-66.406250
7230		-62.500000
7231		-64.453125
7232		-62.500000
7233		-64.453125
7234		-60.546875
7235		-62.500000
7236		-60.546875
7237		-60.546875
7238		-58.593750
7239		-58.593750
7240		-56.640625
7241		-56.640625
7242		-52.734375
7243		-54.687500
7244		-50.781250
7245		-52.734375
7246		-48.828125
7247		-50.781250
7248		-46.875000
7249		-48.828125
7250		-44.921875
7251		-44.921875
7252		-41.015625
7253		-42.968750
7254		-39.062500
7255		-39.062500
7256		-35.156250
7257		-37.109375
7258		-31.250000
7259		-33.203125
7260		-29.296875
7261		-29.296875
7262		-25.390625
7263		-27.343750
7264		-21.484375
7265		-23.437500
7266		-19.531250
7267		-19.531250
7268		-15.625000
7269		-15.625000
7270		-11.718750
7271		-13.671875
7272		-7.812500
7273		-9.765625
7274		-3.906250
7275		-5.859375
7276		0.000000
7277		-1.953125
7278		3.906250
7279		1.953125
7280		7.812500
7281		5.859375
7282		9.765625
7283		9.765625
7284		13.671875
7285		13.671875
7286		17.578125
7287		17.578125
7288		21.484375
7289		19.531250
7290		25.390625
7291		23.437500
7292		29.296875
7293		27.343750
7294		33.203125
7295		31.250000
7296		37.109375
7297		35.156250
7298		39.062500
7299		37.109375
7300		42.968750
7301		41.015625
7302		44.921875
7303		44.921875
7304		48.828125
7305		46.875000
7306		50.781250
7307		48.828125
7308		54.687500
7309		52.734375
7310		56.640625
7311		54.687500
7312		60.546875
7313		58.593750
7314		62.500000
7315		60.546875
7316		64.453125
7317		62.500000
7318		66.406250
7319		64.453125
7320		68.359375
7321		66.406250
7322		70.312500
7323		70.312500
7324		72.265625
7325		72.265625
7326		74.218750
7327		72.265625
7328		76.171875
7329		74.218750
7330		78.125000
7331		76.171875
7332		78.125000
7333		76.171875
7334		80.078125
7335		78.125000
7336		80.078125
7337		78.125000
7338		82.031250
7339		80.078125
7340		82.031250
7341		80.078125
7342		82.031250
7343		80.078125
7344		82.031250
7345		80.078125
7346		82.031250
7347		80.078125
7348		82.031250
7349		80.078125
7350		82.031250
7351		80.078125
7352		82.031250
7353		80.078125
7354		82.031250
7355		78.125000
7356		82.031250
7357		78.125000
7358		80.078125
7359		76.171875
7360		80.078125
7361		76.171875
7362		78.125000
7363		74.218750
7364		76.171875
7365		72.265625
7366		76.171875
7367		70.312500
7368		74.218750
7369		68.359375
7370		72.265625
7371		66.406250
7372		70.312500
7373		64.453125
7374		68.359375
7375		62.500000
7376		66.406250
7377		60.546875
7378		64.453125
7379		56.640625
7380		60.546875
7381		54.687500
7382		58.593750
7383		52.734375
7384		56.640625
7385		48.828125
7386		52.734375
7387		46.875000
7388		50.781250
7389		42.968750
7390		46.875000
7391		39.062500
7392		44.921875
7393		37.109375
7394		41.015625
7395		33.203125
7396		37.109375
7397		29.296875
7398		35.156250
7399		25.390625
7400		31.250000
7401		23.437500
7402		27.343750
7403		17.578125
7404		23.437500
7405		15.625000
7406		19.531250
7407		11.718750
7408		17.578125
7409		7.812500
7410		13.671875
7411		3.906250
7412		9.765625
7413		0.000000
7414		5.859375
7415		-3.906250
7416		1.953125
7417		-7.812500
7418		0.000000
7419		-11.718750
7420		-5.859375
7421		-13.671875
7422		-7.812500
7423		-17.578125
7424		-13.671875
7425		-21.484375
7426		-13.671875
7427		-25.390625
7428		-19.531250
7429		-29.296875
7430		-23.437500
7431		-31.250000
7432		-27.343750
7433		-35.156250
7434		-29.296875
7435		-39.062500
7436		-33.203125
7437		-42.968750
7438		-35.156250
7439		-42.968750
7440		-39.062500
7441		-48.828125
7442		-41.015625
7443		-48.828125
7444		-44.921875
7445		-50.781250
7446		-46.875000
7447		-54.687500
7448		-48.828125
7449		-58.593750
7450		-52.734375
7451		-58.593750
7452		-52.734375
7453		-60.546875
7454		-56.640625
7455		-62.500000
7456		-56.640625
7457		-66.406250
7458		-58.593750
7459		-64.453125
7460		-62.500000
7461		-64.453125
7462		-62.500000
7463		-66.406250
7464		-62.500000
7465		-70.312500
7466		-62.500000
7467		-68.359375
7468		-62.500000
7469		-68.359375
7470		-64.453125
7471		-70.312500
7472		-64.453125
7473		-68.359375
7474		-66.406250
7475		-70.312500
7476		-64.453125
7477		-68.359375
7478		-66.406250
7479		-66.406250
7480		-64.453125
7481		-68.359375
7482		-60.546875
7483		-66.406250
7484		-60.546875
7485		-64.453125
7486		-60.546875
7487		-64.453125
7488		-60.546875
7489		-64.453125
7490		-56.640625
7491		-64.453125
7492		-54.687500
7493		-58.593750
7494		-54.687500
7495		-56.640625
7496		-52.734375
7497		-54.687500
7498		-48.828125
7499		-54.687500
7500		-46.875000
7501		-52.734375
7502		-44.921875
7503		-48.828125
7504		-42.968750
7505		-46.875000
7506		-37.109375
7507		-41.015625
7508		-37.109375
7509		-42.968750
7510		-33.203125
7511		-35.156250
7512		-31.250000
7513		-33.203125
7514		-27.343750
7515		-29.296875
7516		-21.484375
7517		-27.343750
7518		-19.531250
7519		-21.484375
7520		-17.578125
7521		-19.531250
7522		-9.765625
7523		-17.578125
7524		-9.765625
7525		-13.671875
7526		-3.906250
7527		-7.812500
7528		-3.906250
7529		-3.906250
7530		0.000000
7531		-1.953125
7532		5.859375
7533		0.000000
7534		9.765625
7535		5.859375
7536		11.718750
7537		9.765625
7538		15.625000
7539		11.718750
7540		21.484375
7541		17.578125
7542		25.390625
7543		21.484375
7544		27.343750
7545		25.390625
7546		29.296875
7547		27.343750
7548		33.203125
7549		31.250000
7550		39.062500
7551		35.156250
7552		41.015625
7553		39.062500
7554		42.968750
7555		41.015625
7556		50.781250
7557		41.015625
7558		50.781250
7559		44.921875
7560		54.687500
7561		50.781250
7562		54.687500
7563		52.734375
7564		60.546875
7565		54.687500
7566		64.453125
7567		54.687500
7568		64.453125
7569		62.500000
7570		64.453125
7571		64.453125
7572		68.359375
7573		62.500000
7574		72.265625
7575		64.453125
7576		74.218750
7577		70.312500
7578		74.218750
7579		72.265625
7580		74.218750
7581		72.265625
7582		78.125000
7583		72.265625
7584		80.078125
7585		74.218750
7586		80.078125
7587		78.125000
7588		80.078125
7589		74.218750
7590		83.984375
7591		76.171875
7592		82.031250
7593		76.171875
7594		83.984375
7595		80.078125
7596		82.031250
7597		80.078125
7598		83.984375
7599		78.125000
7600		85.937500
7601		78.125000
7602		83.984375
7603		80.078125
7604		82.031250
7605		78.125000
7606		83.984375
7607		76.171875
7608		85.937500
7609		76.171875
7610		83.984375
7611		78.125000
7612		80.078125
7613		76.171875
7614		78.125000
7615		74.218750
7616		78.125000
7617		70.312500
7618		80.078125
7619		72.265625
7620		76.171875
7621		68.359375
7622		74.218750
7623		66.406250
7624		74.218750
7625		64.453125
7626		70.312500
7627		64.453125
7628		68.359375
7629		62.500000
7630		66.406250
7631		58.593750
7632		62.500000
7633		54.687500
7634		62.500000
7635		52.734375
7636		58.593750
7637		50.781250
7638		54.687500
7639		44.921875
7640		54.687500
7641		44.921875
7642		52.734375
7643		41.015625
7644		48.828125
7645		39.062500
7646		42.968750
7647		35.156250
7648		39.062500
7649		31.250000
7650		37.109375
7651		27.343750
7652		35.156250
7653		25.390625
7654		31.250000
7655		21.484375
7656		25.390625
7657		13.671875
7658		25.390625
7659		11.718750
7660		19.531250
7661		9.765625
7662		15.625000
7663		5.859375
7664		11.718750
7665		1.953125
7666		7.812500
7667		-1.953125
7668		5.859375
7669		-3.906250
7670		1.953125
7671		-7.812500
7672		-3.906250
7673		-11.718750
7674		-5.859375
7675		-15.625000
7676		-11.718750
7677		-19.531250
7678		-11.718750
7679		-23.437500
7680		-17.578125
7681		-25.390625
7682		-21.484375
7683		-33.203125
7684		-25.390625
7685		-33.203125
7686		-27.343750
7687		-35.156250
7688		-31.250000
7689		-39.062500
7690		-35.156250
7691		-41.015625
7692		-37.109375
7693		-44.921875
7694		-41.015625
7695		-48.828125
7696		-42.968750
7697		-50.781250
7698		-46.875000
7699		-52.734375
7700		-48.828125
7701		-56.640625
7702		-50.781250
7703		-56.640625
7704		-52.734375
7705		-58.593750
7706		-54.687500
7707		-62.500000
7708		-54.687500
7709		-62.500000
7710		-58.593750
7711		-64.453125
7712		-60.546875
7713		-64.453125
7714		-62.500000
7715		-66.406250
7716		-62.500000
7717		-66.406250
7718		-64.453125
7719		-66.406250
7720		-64.453125
7721		-68.359375
7722		-64.453125
7723		-68.359375
7724		-66.406250
7725		-68.359375
7726		-66.406250
7727		-68.359375
7728		-64.453125
7729		-68.359375
7730		-66.406250
7731		-68.359375
7732		-64.453125
7733		-66.406250
7734		-64.453125
7735		-66.406250
7736		-64.453125
7737		-66.406250
7738		-62.500000
7739		-64.453125
7740		-60.546875
7741		-62.500000
7742		-60.546875
7743		-60.546875
7744		-56.640625
7745		-60.546875
7746		-56.640625
7747		-58.593750
7748		-54.687500
7749		-56.640625
7750		-50.781250
7751		-54.687500
7752		-48.828125
7753		-52.734375
7754		-46.875000
7755		-50.781250
7756		-42.968750
7757		-46.875000
7758		-41.015625
7759		-44.921875
7760		-37.109375
7761		-41.015625
7762		-37.109375
7763		-37.109375
7764		-33.203125
7765		-35.156250
7766		-27.343750
7767		-33.203125
7768		-25.390625
7769		-29.296875
7770		-23.437500
7771		-25.390625
7772		-17.578125
7773		-21.484375
7774		-15.625000
7775		-17.578125
7776		-11.718750
7777		-15.625000
7778		-9.765625
7779		-9.765625
7780		-5.859375
7781		-5.859375
7782		-1.953125
7783		-3.906250
7784		1.953125
7785		0.000000
7786		7.812500
7787		3.906250
7788		11.718750
7789		7.812500
7790		13.671875
7791		11.718750
7792		17.578125
7793		13.671875
7794		21.484375
7795		17.578125
7796		23.437500
7797		23.437500
7798		27.343750
7799		25.390625
7800		33.203125
7801		29.296875
7802		35.156250
7803		33.203125
7804		39.062500
7805		35.156250
7806		42.968750
7807		39.062500
7808		44.921875
7809		42.968750
7810		48.828125
7811		44.921875
7812		50.781250
7813		48.828125
7814		52.734375
7815		50.781250
7816		56.640625
7817		54.687500
7818		60.546875
7819		56.640625
7820		62.500000
7821		58.593750
7822		66.406250
7823		62.500000
7824		66.406250
7825		64.453125
7826		70.312500
7827		66.406250
7828		72.265625
7829		68.359375
7830		72.265625
7831		70.312500
7832		74.218750
7833		70.312500
7834		76.171875
7835		74.218750
7836		78.125000
7837		74.218750
7838		80.078125
7839		74.218750
7840		82.031250
7841		76.171875
7842		82.031250
7843		78.125000
7844		82.031250
7845		78.125000
7846		82.031250
7847		80.078125
7848		82.031250
7849		80.078125
7850		83.984375
7851		80.078125
7852		83.984375
7853		80.078125
7854		83.984375
7855		78.125000
7856		83.984375
7857		80.078125
7858		83.984375
7859		78.125000
7860		82.031250
7861		78.125000
7862		82.031250
7863		78.125000
7864		80.078125
7865		78.125000
7866		80.078125
7867		76.171875
7868		80.078125
7869		74.218750
7870		78.125000
7871		72.265625
7872		78.125000
7873		70.312500
7874		76.171875
7875		70.312500
7876		72.265625
7877		68.359375
7878		72.265625
7879		66.406250
7880		70.312500
7881		64.453125
7882		68.359375
7883		60.546875
7884		64.453125
7885		58.593750
7886		62.500000
7887		56.640625
7888		60.546875
7889		52.734375
7890		58.593750
7891		50.781250
7892		54.687500
7893		46.875000
7894		52.734375
7895		44.921875
7896		48.828125
7897		41.015625
7898		46.875000
7899		35.156250
7900		42.968750
7901		35.156250
7902		41.015625
7903		31.250000
7904		37.109375
7905		25.390625
7906		33.203125
7907		23.437500
7908		31.250000
7909		21.484375
7910		25.390625
7911		15.625000
7912		21.484375
7913		13.671875
7914		17.578125
7915		9.765625
7916		13.671875
7917		5.859375
7918		11.718750
7919		1.953125
7920		7.812500
7921		-1.953125
7922		3.906250
7923		-5.859375
7924		0.000000
7925		-9.765625
7926		-3.906250
7927		-13.671875
7928		-7.812500
7929		-17.578125
7930		-11.718750
7931		-19.531250
7932		-15.625000
7933		-23.437500
7934		-17.578125
7935		-27.343750
7936		-21.484375
7937		-31.250000
7938		-25.390625
7939		-33.203125
7940		-27.343750
7941		-37.109375
7942		-31.250000
7943		-39.062500
7944		-35.156250
7945		-42.968750
7946		-37.109375
7947		-44.921875
7948		-41.015625
7949		-48.828125
7950		-42.968750
7951		-50.781250
7952		-46.875000
7953		-52.734375
7954		-48.828125
7955		-54.687500
7956		-50.781250
7957		-58.593750
7958		-52.734375
7959		-58.593750
7960		-54.687500
7961		-60.546875
7962		-56.640625
7963		-62.500000
7964		-58.593750
7965		-64.453125
7966		-60.546875
7967		-66.406250
7968		-62.500000
7969		-66.406250
7970		-62.500000
7971		-66.406250
7972		-62.500000
7973		-68.359375
7974		-64.453125
7975		-68.359375
7976		-64.453125
7977		-68.359375
7978		-66.406250
7979		-68.359375
7980		-64.453125
7981		-68.359375
7982		-66.406250
7983		-68.359375
7984		-66.406250
7985		-68.359375
7986		-64.453125
7987		-66.406250
7988		-64.453125
7989		-66.406250
7990		-62.500000
7991		-66.406250
7992		-62.500000
7993		-64.453125
7994		-60.546875
7995		-62.500000
7996		-58.593750
7997		-62.500000
7998		-58.593750
7999		-58.593750
8000		-56.640625
8001		-56.640625
8002		-52.734375
8003		-56.640625
8004		-52.734375
8005		-52.734375
8006		-48.828125
8007		-50.781250
8008		-46.875000
8009		-48.828125
8010		-42.968750
8011		-46.875000
8012		-41.015625
8013		-42.968750
8014		-39.062500
8015		-41.015625
8016		-35.156250
8017		-37.109375
8018		-33.203125
8019		-35.156250
8020		-29.296875
8021		-31.250000
8022		-25.390625
8023		-27.343750
8024		-21.484375
8025		-23.437500
8026		-17.578125
8027		-21.484375
8028		-15.625000
8029		-17.578125
8030		-11.718750
8031		-13.671875
8032		-7.812500
8033		-9.765625
8034		-3.906250
8035		-7.812500
8036		0.000000
8037		-1.953125
8038		1.953125
8039		1.953125
8040		5.859375
8041		5.859375
8042		11.718750
8043		7.812500
8044		13.671875
8045		11.718750
8046		17.578125
8047		15.625000
8048		21.484375
8049		19.531250
8050		25.390625
8051		23.437500
8052		29.296875
8053		25.390625
8054		31.250000
8055		29.296875
8056		35.156250
8057		33.203125
8058		39.062500
8059		37.109375
8060		41.015625
8061		41.015625
8062		46.875000
8063		42.968750
8064		48.828125
8065		46.875000
8066		50.781250
8067		48.828125
8068		54.687500
8069		52.734375
8070		56.640625
8071		54.687500
8072		58.593750
8073		56.640625
8074		62.500000
8075		60.546875
8076		64.453125
8077		62.500000
8078		66.406250
8079		64.453125
8080		70.312500
8081		66.406250
8082		70.312500
8083		68.359375
8084		72.265625
8085		70.312500
8086		74.218750
8087		72.265625
8088		76.171875
8089		74.218750
8090		78.125000
8091		74.218750
8092		78.125000
8093		76.171875
8094		80.078125
8095		78.125000
8096		80.078125
8097		78.125000
8098		82.031250
8099		80.078125
8100		82.031250
8101		78.125000
8102		82.031250
8103		80.078125
8104		82.031250
8105		80.078125
8106		82.031250
8107		80.078125
8108		82.031250
8109		80.078125
8110		82.031250
8111		80.078125
8112		82.031250
8113		78.125000
8114		82.031250
8115		78.125000
8116		82.031250
8117		78.125000
8118		80.078125
8119		76.171875
8120		80.078125
8121		74.218750
8122		78.125000
8123		74.218750
8124		78.125000
8125		72.265625
8126		76.171875
8127		70.312500
8128		74.218750
8129		68.359375
8130		72.265625
8131		66.406250
8132		70.312500
8133		64.453125
8134		68.359375
8135		62.500000
8136		66.406250
8137		60.546875
8138		64.453125
8139		56.640625
8140		62.500000
8141		54.687500
8142		58.593750
8143		52.734375
8144		56.640625
8145		48.828125
8146		52.734375
8147		44.921875
8148		50.781250
8149		42.968750
8150		48.828125
8151		39.062500
8152		44.921875
8153		37.109375
8154		42.968750
8155		33.203125
8156		39.062500
8157		29.296875
8158		35.156250
8159		25.390625
8160		31.250000
8161		21.484375
8162		27.343750
8163		19.531250
8164		25.390625
8165		15.625000
8166		21.484375
8167		11.718750
8168		15.625000
8169		7.812500
8170		13.671875
8171		3.906250
8172		9.765625
8173		0.000000
8174		5.859375
8175		-3.906250
8176		1.953125
8177		-7.812500
8178		-1.953125
8179		-11.718750
8180		-5.859375
8181		-13.671875
8182		-9.765625
8183		-17.578125
8184		-13.671875
8185		-23.437500
8186		-17.578125
8187		-25.390625
8188		-19.531250
8189		-29.296875
8190		-23.437500
8191		-31.250000
8192		-27.343750
8193		-35.156250
8194		-29.296875
8195		-39.062500
8196		-33.203125
8197		-42.968750
8198		-37.109375
8199		-44.921875
8200		-39.062500
8201		-46.875000
8202		-42.968750
8203		-48.828125
8204		-44.921875
8205		-50.781250
8206		-46.875000
8207		-54.687500
8208		-50.781250
8209		-56.640625
8210		-52.734375
8211		-58.593750
8212		-54.687500
8213		-60.546875
8214		-56.640625
8215		-62.500000
8216		-58.593750
8217		-62.500000
8218		-60.546875
8219		-64.453125
8220		-62.500000
8221		-66.406250
8222		-62.500000
8223		-66.406250
8224		-64.453125
8225		-68.359375
8226		-64.453125
8227		-68.359375
8228		-64.453125
8229		-68.359375
8230		-64.453125
8231		-70.312500
8232		-64.453125
8233		-68.359375
8234		-66.406250
8235		-68.359375
8236		-66.406250
8237		-70.312500
8238		-64.453125
8239		-68.359375
8240		-64.453125
8241		-68.359375
8242		-64.453125
8243		-66.406250
8244		-62.500000
8245		-66.406250
8246		-62.500000
8247		-64.453125
8248		-60.546875
8249		-62.500000
8250		-58.593750
8251		-60.546875
8252		-56.640625
8253		-58.593750
8254		-54.687500
8255		-56.640625
8256		-52.734375
8257		-54.687500
8258		-50.781250
8259		-52.734375
8260		-48.828125
8261		-50.781250
8262		-46.875000
8263		-48.828125
8264		-42.968750
8265		-46.875000
8266		-41.015625
8267		-42.968750
8268		-37.109375
8269		-39.062500
8270		-33.203125
8271		-37.109375
8272		-31.250000
8273		-33.203125
8274		-27.343750
8275		-31.250000
8276		-25.390625
8277		-27.343750
8278		-21.484375
8279		-23.437500
8280		-17.578125
8281		-19.531250
8282		-13.671875
8283		-15.625000
8284		-11.718750
8285		-11.718750
8286		-7.812500
8287		-7.812500
8288		-3.906250
8289		-5.859375
8290		0.000000
8291		-1.953125
8292		3.906250
8293		1.953125
8294		7.812500
8295		5.859375
8296		11.718750
8297		9.765625
8298		15.625000
8299		13.671875
8300		17.578125
8301		17.578125
8302		21.484375
8303		21.484375
8304		27.343750
8305		23.437500
8306		29.296875
8307		27.343750
8308		33.203125
8309		31.250000
8310		35.156250
8311		35.156250
8312		39.062500
8313		37.109375
8314		42.968750
8315		41.015625
8316		46.875000
8317		44.921875
8318		48.828125
8319		46.875000
8320		52.734375
8321		48.828125
8322		54.687500
8323		52.734375
8324		58.593750
8325		54.687500
8326		60.546875
8327		58.593750
8328		62.500000
8329		60.546875
8330		64.453125
8331		62.500000
8332		66.406250
8333		64.453125
8334		68.359375
8335		68.359375
8336		70.312500
8337		70.312500
8338		74.218750
8339		70.312500
8340		74.218750
8341		72.265625
8342		76.171875
8343		74.218750
8344		78.125000
8345		76.171875
8346		78.125000
8347		76.171875
8348		80.078125
8349		76.171875
8350		82.031250
8351		78.125000
8352		80.078125
8353		80.078125
8354		82.031250
8355		80.078125
8356		82.031250
8357		80.078125
8358		82.031250
8359		80.078125
8360		82.031250
8361		80.078125
8362		82.031250
8363		78.125000
8364		82.031250
8365		78.125000
8366		82.031250
8367		78.125000
8368		82.031250
8369		78.125000
8370		80.078125
8371		76.171875
8372		80.078125
8373		76.171875
8374		78.125000
8375		74.218750
8376		78.125000
8377		72.265625
8378		76.171875
8379		72.265625
8380		76.171875
8381		70.312500
8382		74.218750
8383		68.359375
8384		72.265625
8385		66.406250
8386		70.312500
8387		62.500000
8388		68.359375
8389		62.500000
8390		66.406250
8391		58.593750
8392		62.500000
8393		56.640625
8394		60.546875
8395		52.734375
8396		58.593750
8397		50.781250
8398		54.687500
8399		46.875000
8400		52.734375
8401		44.921875
8402		50.781250
8403		41.015625
8404		46.875000
8405		39.062500
8406		42.968750
8407		35.156250
8408		41.015625
8409		31.250000
8410		37.109375
8411		27.343750
8412		33.203125
8413		25.390625
8414		29.296875
8415		19.531250
8416		25.390625
8417		17.578125
8418		23.437500
8419		13.671875
8420		19.531250
8421		9.765625
8422		15.625000
8423		5.859375
8424		11.718750
8425		1.953125
8426		7.812500
8427		-1.953125
8428		3.906250
8429		-3.906250
8430		0.000000
8431		-9.765625
8432		-3.906250
8433		-11.718750
8434		-7.812500
8435		-15.625000
8436		-11.718750
8437		-21.484375
8438		-13.671875
8439		-23.437500
8440		-17.578125
8441		-25.390625
8442		-21.484375
8443		-29.296875
8444		-25.390625
8445		-33.203125
8446		-27.343750
8447		-37.109375
8448		-31.250000
8449		-39.062500
8450		-35.156250
8451		-42.968750
8452		-37.109375
8453		-44.921875
8454		-41.015625
8455		-48.828125
8456		-42.968750
8457		-50.781250
8458		-44.921875
8459		-54.687500
8460		-48.828125
8461		-54.687500
8462		-50.781250
8463		-56.640625
8464		-52.734375
8465		-58.593750
8466		-54.687500
8467		-60.546875
8468		-56.640625
8469		-62.500000
8470		-58.593750
8471		-64.453125
8472		-60.546875
8473		-64.453125
8474		-62.500000
8475		-66.406250
8476		-62.500000
8477		-66.406250
8478		-64.453125
8479		-68.359375
8480		-64.453125
8481		-68.359375
8482		-64.453125
8483		-70.312500
8484		-66.406250
8485		-68.359375
8486		-66.406250
8487		-68.359375
8488		-66.406250
8489		-70.312500
8490		-66.406250
8491		-68.359375
8492		-64.453125
8493		-68.359375
8494		-64.453125
8495		-66.406250
8496		-64.453125
8497		-66.406250
8498		-62.500000
8499		-66.406250
8500		-62.500000
8501		-64.453125
8502		-60.546875
8503		-62.500000
8504		-58.593750
8505		-60.546875
8506		-56.640625
8507		-58.593750
8508		-54.687500
8509		-58.593750
8510		-52.734375
8511		-54.687500
8512		-50.781250
8513		-52.734375
8514		-48.828125
8515		-50.781250
8516		-44.921875
8517		-46.875000
8518		-42.968750
8519		-44.921875
8520		-41.015625
8521		-41.015625
8522		-37.109375
8523		-39.062500
8524		-35.156250
8525		-35.156250
8526		-31.250000
8527		-33.203125
8528		-27.343750
8529		-29.296875
8530		-25.390625
8531		-25.390625
8532		-19.531250
8533		-23.437500
8534		-17.578125
8535		-19.531250
8536		-13.671875
8537		-15.625000
8538		-9.765625
8539		-11.718750
8540		-5.859375
8541		-7.812500
8542		-3.906250
8543		-3.906250
8544		1.953125
8545		0.000000
8546		3.906250
8547		3.906250
8548		9.765625
8549		5.859375
8550		11.718750
8551		9.765625
8552		15.625000
8553		13.671875
8554		19.531250
8555		17.578125
8556		23.437500
8557		21.484375
8558		27.343750
8559		25.390625
8560		29.296875
8561		27.343750
8562		33.203125
8563		31.250000
8564		37.109375
8565		35.156250
8566		41.015625
8567		39.062500
8568		42.968750
8569		41.015625
8570		46.875000
8571		44.921875
8572		48.828125
8573		48.828125
8574		52.734375
8575		50.781250
8576		54.687500
8577		52.734375
8578		58.593750
8579		56.640625
8580		60.546875
8581		58.593750
8582		62.500000
8583		60.546875
8584		64.453125
8585		62.500000
8586		68.359375
8587		66.406250
8588		68.359375
8589		68.359375
8590		70.312500
8591		68.359375
8592		72.265625
8593		72.265625
8594		74.218750
8595		72.265625
8596		76.171875
8597		74.218750
8598		78.125000
8599		76.171875
8600		78.125000
8601		76.171875
8602		80.078125
8603		78.125000
8604		80.078125
8605		78.125000
8606		80.078125
8607		76.171875
8608		82.031250
8609		78.125000
8610		82.031250
8611		80.078125
8612		82.031250
8613		80.078125
8614		82.031250
8615		80.078125
8616		82.031250
8617		78.125000
8618		82.031250
8619		78.125000
8620		82.031250
8621		78.125000
8622		82.031250
8623		76.171875
8624		80.078125
8625		76.171875
8626		80.078125
8627		74.218750
8628		78.125000
8629		74.218750
8630		76.171875
8631		70.312500
8632		76.171875
8633		70.312500
8634		74.218750
8635		68.359375
8636		72.265625
8637		66.406250
8638		70.312500
8639		64.453125
8640		68.359375
8641		62.500000
8642		66.406250
8643		60.546875
8644		64.453125
8645		58.593750
8646		62.500000
8647		54.687500
8648		58.593750
8649		52.734375
8650		56.640625
8651		48.828125
8652		54.687500
8653		46.875000
8654		50.781250
8655		42.968750
8656		46.875000
8657		41.015625
8658		44.921875
8659		37.109375
8660		41.015625
8661		33.203125
8662		39.062500
8663		29.296875
8664		35.156250
8665		27.343750
8666		31.250000
8667		23.437500
8668		27.343750
8669		19.531250
8670		25.390625
8671		15.625000
8672		21.484375
8673		11.718750
8674		17.578125
8675		7.812500
8676		13.671875
8677		3.906250
8678		9.765625
8679		0.000000
8680		5.859375
8681		-3.906250
8682		1.953125
8683		-7.812500
8684		-1.953125
8685		-11.718750
8686		-5.859375
8687		-13.671875
8688		-7.812500
8689		-17.578125
8690		-11.718750
8691		-21.484375
8692		-13.671875
8693		-25.390625
8694		-19.531250
8695		-27.343750
8696		-23.437500
8697		-31.250000
8698		-27.343750
8699		-35.156250
8700		-29.296875
8701		-39.062500
8702		-33.203125
8703		-41.015625
8704		-35.156250
8705		-42.968750
8706		-39.062500
8707		-46.875000
8708		-42.968750
8709		-48.828125
8710		-44.921875
8711		-50.781250
8712		-46.875000
8713		-54.687500
8714		-48.828125
8715		-56.640625
8716		-52.734375
8717		-58.593750
8718		-54.687500
8719		-60.546875
8720		-56.640625
8721		-62.500000
8722		-58.593750
8723		-64.453125
8724		-60.546875
8725		-66.406250
8726		-60.546875
8727		-66.406250
8728		-62.500000
8729		-66.406250
8730		-64.453125
8731		-68.359375
8732		-64.453125
8733		-68.359375
8734		-66.406250
8735		-70.312500
8736		-66.406250
8737		-70.312500
8738		-66.406250
8739		-68.359375
8740		-66.406250
8741		-70.312500
8742		-66.406250
8743		-70.312500
8744		-66.406250
8745		-68.359375
8746		-66.406250
8747		-68.359375
8748		-64.453125
8749		-68.359375
8750		-64.453125
8751		-66.406250
8752		-62.500000
8753		-66.406250
8754		-62.500000
8755		-64.453125
8756		-60.546875
8757		-62.500000
8758		-58.593750
8759		-60.546875
8760		-56.640625
8761		-58.593750
8762		-54.687500
8763		-56.640625
8764		-52.734375
8765		-56.640625
8766		-50.781250
8767		-52.734375
8768		-48.828125
8769		-50.781250
8770		-44.921875
8771		-46.875000
8772		-42.968750
8773		-44.921875
8774		-39.062500
8775		-42.968750
8776		-37.109375
8777		-39.062500
8778		-33.203125
8779		-35.156250
8780		-29.296875
8781		-31.250000
8782		-27.343750
8783		-29.296875
8784		-23.437500
8785		-25.390625
8786		-19.531250
8787		-21.484375
8788		-15.625000
8789		-17.578125
8790		-13.671875
8791		-15.625000
8792		-9.765625
8793		-11.718750
8794		-5.859375
8795		-7.812500
8796		-1.953125
8797		-3.906250
8798		1.953125
8799		0.000000
8800		5.859375
8801		3.906250
8802		9.765625
8803		7.812500
8804		11.718750
8805		11.718750
8806		15.625000
8807		15.625000
8808		21.484375
8809		17.578125
8810		23.437500
8811		21.484375
8812		27.343750
8813		25.390625
8814		31.250000
8815		29.296875
8816		33.203125
8817		31.250000
8818		37.109375
8819		35.156250
8820		41.015625
8821		39.062500
8822		44.921875
8823		42.968750
8824		46.875000
8825		44.921875
8826		50.781250
8827		48.828125
8828		52.734375
8829		50.781250
8830		56.640625
8831		52.734375
8832		58.593750
8833		56.640625
8834		60.546875
8835		58.593750
8836		64.453125
8837		60.546875
8838		66.406250
8839		64.453125
8840		68.359375
8841		66.406250
8842		70.312500
8843		68.359375
8844		72.265625
8845		68.359375
8846		74.218750
8847		72.265625
8848		74.218750
8849		72.265625
8850		76.171875
8851		74.218750
8852		78.125000
8853		74.218750
8854		78.125000
8855		76.171875
8856		80.078125
8857		78.125000
8858		80.078125
8859		78.125000
8860		82.031250
8861		78.125000
8862		82.031250
8863		78.125000
8864		82.031250
8865		78.125000
8866		82.031250
8867		78.125000
8868		82.031250
8869		78.125000
8870		82.031250
8871		78.125000
8872		82.031250
8873		78.125000
8874		80.078125
8875		76.171875
8876		82.031250
8877		76.171875
8878		80.078125
8879		76.171875
8880		78.125000
8881		74.218750
8882		78.125000
8883		72.265625
8884		76.171875
8885		70.312500
8886		74.218750
8887		68.359375
8888		74.218750
8889		68.359375
8890		72.265625
8891		64.453125
8892		70.312500
8893		64.453125
8894		68.359375
8895		60.546875
8896		66.406250
8897		58.593750
8898		64.453125
8899		56.640625
8900		60.546875
8901		52.734375
8902		58.593750
8903		50.781250
8904		56.640625
8905		48.828125
8906		52.734375
8907		44.921875
8908		50.781250
8909		41.015625
8910		46.875000
8911		39.062500
8912		42.968750
8913		35.156250
8914		41.015625
8915		33.203125
8916		37.109375
8917		29.296875
8918		33.203125
8919		25.390625
8920		29.296875
8921		21.484375
8922		27.343750
8923		17.578125
8924		23.437500
8925		13.671875
8926		19.531250
8927		9.765625
8928		15.625000
8929		5.859375
8930		11.718750
8931		3.906250
8932		7.812500
8933		0.000000
8934		5.859375
8935		-3.906250
8936		0.000000
8937		-7.812500
8938		-1.953125
8939		-11.718750
8940		-5.859375
8941		-15.625000
8942		-9.765625
8943		-19.531250
8944		-13.671875
8945		-23.437500
8946		-17.578125
8947		-25.390625
8948		-21.484375
8949		-29.296875
8950		-23.437500
8951		-33.203125
8952		-27.343750
8953		-37.109375
8954		-31.250000
8955		-39.062500
8956		-33.203125
8957		-42.968750
8958		-37.109375
8959		-44.921875
8960		-41.015625
8961		-48.828125
8962		-42.968750
8963		-50.781250
8964		-44.921875
8965		-52.734375
8966		-48.828125
8967		-54.687500
8968		-50.781250
8969		-56.640625
8970		-52.734375
8971		-58.593750
8972		-54.687500
8973		-60.546875
8974		-56.640625
8975		-62.500000
8976		-58.593750
8977		-64.453125
8978		-60.546875
8979		-66.406250
8980		-62.500000
8981		-66.406250
8982		-62.500000
8983		-68.359375
8984		-64.453125
8985		-68.359375
8986		-64.453125
8987		-70.312500
8988		-66.406250
8989		-70.312500
8990		-66.406250
8991		-70.312500
8992		-66.406250
8993		-70.312500
8994		-66.406250
8995		-70.312500
8996		-66.406250
8997		-70.312500
8998		-66.406250
8999		-68.359375
9000		-66.406250
9001		-70.312500
9002		-64.453125
9003		-68.359375
9004		-64.453125
9005		-66.406250
9006		-62.500000
9007		-64.453125
9008		-62.500000
9009		-64.453125
9010		-60.546875
9011		-62.500000
9012		-58.593750
9013		-60.546875
9014		-56.640625
9015		-58.593750
9016		-54.687500
9017		-56.640625
9018		-52.734375
9019		-54.687500
9020		-50.781250
9021		-52.734375
9022		-46.875000
9023		-48.828125
9024		-44.921875
9025		-46.875000
9026		-42.968750
9027		-44.921875
9028		-39.062500
9029		-41.015625
9030		-35.156250
9031		-37.109375
9032		-33.203125
9033		-35.156250
9034		-29.296875
9035		-31.250000
9036		-27.343750
9037		-27.343750
9038		-23.437500
9039		-25.390625
9040		-19.531250
9041		-21.484375
9042		-15.625000
9043		-17.578125
9044		-11.718750
9045		-13.671875
9046		-7.812500
9047		-9.765625
9048		-5.859375
9049		-5.859375
9050		0.000000
9051		-3.906250
9052		1.953125
9053		0.000000
9054		5.859375
9055		3.906250
9056		9.765625
9057		7.812500
9058		13.671875
9059		11.718750
9060		17.578125
9061		15.625000
9062		21.484375
9063		19.531250
9064		23.437500
9065		23.437500
9066		27.343750
9067		25.390625
9068		31.250000
9069		29.296875
9070		35.156250
9071		33.203125
9072		39.062500
9073		37.109375
9074		41.015625
9075		39.062500
9076		44.921875
9077		42.968750
9078		46.875000
9079		46.875000
9080		50.781250
9081		48.828125
9082		54.687500
9083		52.734375
9084		56.640625
9085		54.687500
9086		58.593750
9087		56.640625
9088		60.546875
9089		58.593750
9090		64.453125
9091		62.500000
9092		66.406250
9093		64.453125
9094		68.359375
9095		66.406250
9096		70.312500
9097		68.359375
9098		72.265625
9099		70.312500
9100		74.218750
9101		72.265625
9102		76.171875
9103		72.265625
9104		76.171875
9105		74.218750
9106		78.125000
9107		76.171875
9108		78.125000
9109		76.171875
9110		80.078125
9111		76.171875
9112		80.078125
9113		78.125000
9114		80.078125
9115		78.125000
9116		82.031250
9117		78.125000
9118		82.031250
9119		78.125000
9120		82.031250
9121		78.125000
9122		82.031250
9123		78.125000
9124		82.031250
9125		78.125000
9126		80.078125
9127		78.125000
9128		80.078125
9129		76.171875
9130		80.078125
9131		76.171875
9132		80.078125
9133		74.218750
9134		78.125000
9135		74.218750
9136		78.125000
9137		72.265625
9138		76.171875
9139		70.312500
9140		74.218750
9141		68.359375
9142		72.265625
9143		66.406250
9144		70.312500
9145		64.453125
9146		70.312500
9147		62.500000
9148		66.406250
9149		60.546875
9150		64.453125
9151		58.593750
9152		62.500000
9153		54.687500
9154		60.546875
9155		52.734375
9156		56.640625
9157		50.781250
9158		54.687500
9159		46.875000
9160		50.781250
9161		42.968750
9162		48.828125
9163		41.015625
9164		46.875000
9165		37.109375
9166		42.968750
9167		33.203125
9168		39.062500
9169		29.296875
9170		35.156250
9171		27.343750
9172		31.250000
9173		23.437500
9174		29.296875
9175		19.531250
9176		25.390625
9177		15.625000
9178		21.484375
9179		11.718750
9180		17.578125
9181		9.765625
9182		13.671875
9183		5.859375
9184		11.718750
9185		1.953125
9186		5.859375
9187		-1.953125
9188		3.906250
9189		-5.859375
9190		0.000000
9191		-9.765625
9192		-3.906250
9193		-13.671875
9194		-7.812500
9195		-17.578125
9196		-11.718750
9197		-19.531250
9198		-15.625000
9199		-23.437500
9200		-19.531250
9201		-27.343750
9202		-23.437500
9203		-31.250000
9204		-25.390625
9205		-35.156250
9206		-29.296875
9207		-37.109375
9208		-31.250000
9209		-41.015625
9210		-35.156250
9211		-44.921875
9212		-39.062500
9213		-46.875000
9214		-41.015625
9215		-48.828125
9216		-42.968750
9217		-50.781250
9218		-46.875000
9219		-54.687500
9220		-48.828125
9221		-56.640625
9222		-52.734375
9223		-58.593750
9224		-54.687500
9225		-60.546875
9226		-56.640625
9227		-62.500000
9228		-58.593750
9229		-64.453125
9230		-58.593750
9231		-66.406250
9232		-62.500000
9233		-66.406250
9234		-62.500000
9235		-68.359375
9236		-64.453125
9237		-68.359375
9238		-66.406250
9239		-70.312500
9240		-66.406250
9241		-70.312500
9242		-66.406250
9243		-70.312500
9244		-68.359375
9245		-70.312500
9246		-68.359375
9247		-70.312500
9248		-68.359375
9249		-70.312500
9250		-68.359375
9251		-70.312500
9252		-66.406250
9253		-70.312500
9254		-66.406250
9255		-68.359375
9256		-66.406250
9257		-68.359375
9258		-64.453125
9259		-66.406250
9260		-64.453125
9261		-66.406250
9262		-60.546875
9263		-64.453125
9264		-60.546875
9265		-62.500000
9266		-58.593750
9267		-60.546875
9268		-56.640625
9269		-58.593750
9270		-54.687500
9271		-56.640625
9272		-52.734375
9273		-54.687500
9274		-48.828125
9275		-50.781250
9276		-46.875000
9277		-48.828125
9278		-44.921875
9279		-46.875000
9280		-41.015625
9281		-42.968750
9282		-39.062500
9283		-41.015625
9284		-35.156250
9285		-37.109375
9286		-33.203125
9287		-35.156250
9288		-29.296875
9289		-31.250000
9290		-25.390625
9291		-27.343750
9292		-23.437500
9293		-23.437500
9294		-19.531250
9295		-19.531250
9296		-15.625000
9297		-15.625000
9298		-11.718750
9299		-13.671875
9300		-7.812500
9301		-9.765625
9302		-3.906250
9303		-5.859375
9304		0.000000
9305		-1.953125
9306		3.906250
9307		1.953125
9308		5.859375
9309		5.859375
9310		11.718750
9311		9.765625
9312		13.671875
9313		11.718750
9314		17.578125
9315		15.625000
9316		21.484375
9317		19.531250
9318		25.390625
9319		23.437500
9320		29.296875
9321		27.343750
9322		33.203125
9323		31.250000
9324		37.109375
9325		33.203125
9326		39.062500
9327		37.109375
9328		42.968750
9329		41.015625
9330		46.875000
9331		42.968750
9332		48.828125
9333		46.875000
9334		50.781250
9335		48.828125
9336		54.687500
9337		52.734375
9338		56.640625
9339		54.687500
9340		58.593750
9341		58.593750
9342		62.500000
9343		60.546875
9344		64.453125
9345		62.500000
9346		68.359375
9347		64.453125
9348		68.359375
9349		66.406250
9350		70.312500
9351		68.359375
9352		72.265625
9353		70.312500
9354		74.218750
9355		72.265625
9356		74.218750
9357		72.265625
9358		76.171875
9359		74.218750
9360		78.125000
9361		76.171875
9362		78.125000
9363		76.171875
9364		80.078125
9365		78.125000
9366		80.078125
9367		78.125000
9368		82.031250
9369		78.125000
9370		80.078125
9371		78.125000
9372		82.031250
9373		78.125000
9374		82.031250
9375		78.125000
9376		82.031250
9377		78.125000
9378		82.031250
9379		78.125000
9380		82.031250
9381		78.125000
9382		80.078125
9383		76.171875
9384		80.078125
9385		76.171875
9386		78.125000
9387		74.218750
9388		78.125000
9389		74.218750
9390		76.171875
9391		70.312500
9392		74.218750
9393		70.312500
9394		74.218750
9395		68.359375
9396		72.265625
9397		66.406250
9398		70.312500
9399		64.453125
9400		68.359375
9401		62.500000
9402		66.406250
9403		58.593750
9404		64.453125
9405		56.640625
9406		60.546875
9407		54.687500
9408		58.593750
9409		52.734375
9410		56.640625
9411		48.828125
9412		52.734375
9413		46.875000
9414		50.781250
9415		42.968750
9416		48.828125
9417		39.062500
9418		44.921875
9419		37.109375
9420		41.015625
9421		33.203125
9422		39.062500
9423		29.296875
9424		35.156250
9425		27.343750
9426		31.250000
9427		23.437500
9428		27.343750
9429		17.578125
9430		23.437500
9431		15.625000
9432		21.484375
9433		11.718750
9434		17.578125
9435		7.812500
9436		13.671875
9437		3.906250
9438		9.765625
9439		0.000000
9440		5.859375
9441		-3.906250
9442		1.953125
9443		-7.812500
9444		-1.953125
9445		-9.765625
9446		-5.859375
9447		-15.625000
9448		-7.812500
9449		-17.578125
9450		-13.671875
9451		-21.484375
9452		-15.625000
9453		-25.390625
9454		-19.531250
9455		-29.296875
9456		-23.437500
9457		-31.250000
9458		-27.343750
9459		-35.156250
9460		-29.296875
9461		-37.109375
9462		-33.203125
9463		-41.015625
9464		-37.109375
9465		-42.968750
9466		-39.062500
9467		-46.875000
9468		-42.968750
9469		-50.781250
9470		-44.921875
9471		-52.734375
9472		-46.875000
9473		-54.687500
9474		-50.781250
9475		-56.640625
9476		-52.734375
9477		-58.593750
9478		-54.687500
9479		-60.546875
9480		-56.640625
9481		-62.500000
9482		-58.593750
9483		-64.453125
9484		-60.546875
9485		-66.406250
9486		-62.500000
9487		-68.359375
9488		-64.453125
9489		-68.359375
9490		-64.453125
9491		-68.359375
9492		-64.453125
9493		-70.312500
9494		-64.453125
9495		-70.312500
9496		-66.406250
9497		-70.312500
9498		-66.406250
9499		-70.312500
9500		-68.359375
9501		-70.312500
9502		-66.406250
9503		-70.312500
9504		-66.406250
9505		-70.312500
9506		-66.406250
9507		-68.359375
9508		-66.406250
9509		-70.312500
9510		-64.453125
9511		-66.406250
9512		-64.453125
9513		-66.406250
9514		-62.500000
9515		-64.453125
9516		-60.546875
9517		-62.500000
9518		-58.593750
9519		-60.546875
9520		-58.593750
9521		-60.546875
9522		-56.640625
9523		-58.593750
9524		-52.734375
9525		-54.687500
9526		-50.781250
9527		-52.734375
9528		-48.828125
9529		-50.781250
9530		-46.875000
9531		-46.875000
9532		-42.968750
9533		-44.921875
9534		-41.015625
9535		-42.968750
9536		-37.109375
9537		-39.062500
9538		-35.156250
9539		-37.109375
9540		-31.250000
9541		-33.203125
9542		-27.343750
9543		-29.296875
9544		-25.390625
9545		-25.390625
9546		-21.484375
9547		-21.484375
9548		-17.578125
9549		-19.531250
9550		-13.671875
9551		-15.625000
9552		-9.765625
9553		-11.718750
9554		-5.859375
9555		-7.812500
9556		-1.953125
9557		-3.906250
9558		0.000000
9559		-1.953125
9560		5.859375
9561		3.906250
9562		7.812500
9563		7.812500
9564		11.718750
9565		9.765625
9566		15.625000
9567		13.671875
9568		19.531250
9569		17.578125
9570		23.437500
9571		21.484375
9572		27.343750
9573		25.390625
9574		29.296875
9575		29.296875
9576		33.203125
9577		31.250000
9578		37.109375
9579		35.156250
9580		39.062500
9581		39.062500
9582		42.968750
9583		41.015625
9584		46.875000
9585		44.921875
9586		48.828125
9587		48.828125
9588		52.734375
9589		50.781250
9590		54.687500
9591		52.734375
9592		58.593750
9593		54.687500
9594		60.546875
9595		58.593750
9596		62.500000
9597		60.546875
9598		66.406250
9599		62.500000
9600		68.359375
9601		66.406250
9602		68.359375
9603		66.406250
9604		72.265625
9605		68.359375
9606		74.218750
9607		70.312500
9608		74.218750
9609		72.265625
9610		76.171875
9611		74.218750
9612		76.171875
9613		76.171875
9614		78.125000
9615		76.171875
9616		80.078125
9617		76.171875
9618		80.078125
9619		76.171875
9620		82.031250
9621		78.125000
9622		82.031250
9623		78.125000
9624		82.031250
9625		78.125000
9626		82.031250
9627		78.125000
9628		82.031250
9629		78.125000
9630		82.031250
9631		78.125000
9632		82.031250
9633		78.125000
9634		80.078125
9635		78.125000
9636		80.078125
9637		76.171875
9638		80.078125
9639		76.171875
9640		78.125000
9641		74.218750
9642		78.125000
9643		72.265625
9644		76.171875
9645		72.265625
9646		74.218750
9647		70.312500
9648		74.218750
9649		68.359375
9650		72.265625
9651		64.453125
9652		70.312500
9653		64.453125
9654		68.359375
9655		62.500000
9656		66.406250
9657		58.593750
9658		64.453125
9659		56.640625
9660		62.500000
9661		54.687500
9662		60.546875
9663		50.781250
9664		56.640625
9665		46.875000
9666		52.734375
9667		44.921875
9668		50.781250
9669		42.968750
9670		46.875000
9671		39.062500
9672		42.968750
9673		37.109375
9674		41.015625
9675		33.203125
9676		39.062500
9677		29.296875
9678		33.203125
9679		25.390625
9680		31.250000
9681		21.484375
9682		27.343750
9683		19.531250
9684		25.390625
9685		15.625000
9686		19.531250
9687		11.718750
9688		17.578125
9689		7.812500
9690		11.718750
9691		3.906250
9692		7.812500
9693		0.000000
9694		5.859375
9695		-3.906250
9696		1.953125
9697		-7.812500
9698		-1.953125
9699		-11.718750
9700		-5.859375
9701		-15.625000
9702		-9.765625
9703		-19.531250
9704		-13.671875
9705		-21.484375
9706		-17.578125
9707		-25.390625
9708		-21.484375
9709		-29.296875
9710		-23.437500
9711		-31.250000
9712		-27.343750
9713		-35.156250
9714		-31.250000
9715		-41.015625
9716		-33.203125
9717		-41.015625
9718		-35.156250
9719		-44.921875
9720		-39.062500
9721		-46.875000
9722		-42.968750
9723		-50.781250
9724		-44.921875
9725		-54.687500
9726		-46.875000
9727		-56.640625
9728		-48.828125
9729		-56.640625
9730		-52.734375
9731		-58.593750
9732		-54.687500
9733		-62.500000
9734		-54.687500
9735		-62.500000
9736		-58.593750
9737		-64.453125
9738		-60.546875
9739		-66.406250
9740		-62.500000
9741		-68.359375
9742		-62.500000
9743		-70.312500
9744		-62.500000
9745		-68.359375
9746		-64.453125
9747		-68.359375
9748		-66.406250
9749		-72.265625
9750		-64.453125
9751		-70.312500
9752		-68.359375
9753		-70.312500
9754		-66.406250
9755		-70.312500
9756		-66.406250
9757		-68.359375
9758		-66.406250
9759		-70.312500
9760		-64.453125
9761		-70.312500
9762		-64.453125
9763		-68.359375
9764		-64.453125
9765		-66.406250
9766		-62.500000
9767		-68.359375
9768		-60.546875
9769		-64.453125
9770		-60.546875
9771		-62.500000
9772		-58.593750
9773		-60.546875
9774		-56.640625
9775		-60.546875
9776		-52.734375
9777		-58.593750
9778		-50.781250
9779		-54.687500
9780		-50.781250
9781		-52.734375
9782		-46.875000
9783		-50.781250
9784		-42.968750
9785		-46.875000
9786		-42.968750
9787		-42.968750
9788		-39.062500
9789		-41.015625
9790		-37.109375
9791		-37.109375
9792		-33.203125
9793		-37.109375
9794		-27.343750
9795		-33.203125
9796		-27.343750
9797		-27.343750
9798		-23.437500
9799		-25.390625
9800		-17.578125
9801		-23.437500
9802		-15.625000
9803		-17.578125
9804		-11.718750
9805		-13.671875
9806		-9.765625
9807		-9.765625
9808		-5.859375
9809		-5.859375
9810		0.000000
9811		-5.859375
9812		3.906250
9813		0.000000
9814		5.859375
9815		3.906250
9816		9.765625
9817		5.859375
9818		13.671875
9819		11.718750
9820		17.578125
9821		15.625000
9822		21.484375
9823		19.531250
9824		23.437500
9825		23.437500
9826		29.296875
9827		25.390625
9828		33.203125
9829		29.296875
9830		35.156250
9831		33.203125
9832		39.062500
9833		37.109375
9834		42.968750
9835		41.015625
9836		44.921875
9837		42.968750
9838		48.828125
9839		46.875000
9840		50.781250
9841		48.828125
9842		52.734375
9843		50.781250
9844		58.593750
9845		52.734375
9846		60.546875
9847		56.640625
9848		62.500000
9849		60.546875
9850		64.453125
9851		60.546875
9852		66.406250
9853		64.453125
9854		68.359375
9855		66.406250
9856		70.312500
9857		68.359375
9858		72.265625
9859		68.359375
9860		76.171875
9861		70.312500
9862		76.171875
9863		72.265625
9864		76.171875
9865		74.218750
9866		80.078125
9867		74.218750
9868		82.031250
9869		76.171875
9870		80.078125
9871		78.125000
9872		80.078125
9873		78.125000
9874		80.078125
9875		78.125000
9876		82.031250
9877		78.125000
9878		83.984375
9879		78.125000
9880		83.984375
9881		80.078125
9882		82.031250
9883		76.171875
9884		83.984375
9885		76.171875
9886		83.984375
9887		78.125000
9888		80.078125
9889		78.125000
9890		82.031250
9891		76.171875
9892		80.078125
9893		72.265625
9894		80.078125
9895		72.265625
9896		80.078125
9897		72.265625
9898		76.171875
9899		70.312500
9900		74.218750
9901		68.359375
9902		74.218750
9903		68.359375
9904		72.265625
9905		66.406250
9906		70.312500
9907		64.453125
9908		68.359375
9909		60.546875
9910		66.406250
9911		56.640625
9912		66.406250
9913		56.640625
9914		62.500000
9915		54.687500
9916		58.593750
9917		46.875000
9918		54.687500
9919		48.828125
9920		52.734375
9921		44.921875
9922		48.828125
9923		42.968750
9924		46.875000
9925		39.062500
9926		42.968750
9927		33.203125
9928		41.015625
9929		31.250000
9930		39.062500
9931		29.296875
9932		33.203125
9933		25.390625
9934		31.250000
9935		21.484375
9936		29.296875
9937		17.578125
9938		23.437500
9939		13.671875
9940		19.531250
9941		9.765625
9942		15.625000
9943		3.906250
9944		11.718750
9945		0.000000
9946		9.765625
9947		0.000000
9948		5.859375
9949		-3.906250
9950		0.000000
9951		-9.765625
9952		-1.953125
9953		-11.718750
9954		-7.812500
9955		-15.625000
9956		-9.765625
9957		-19.531250
9958		-13.671875
9959		-23.437500
9960		-17.578125
9961		-27.343750
9962		-19.531250
9963		-29.296875
9964		-23.437500
9965		-33.203125
9966		-29.296875
9967		-39.062500
9968		-31.250000
9969		-39.062500
9970		-33.203125
9971		-42.968750
9972		-37.109375
9973		-44.921875
9974		-41.015625
9975		-48.828125
9976		-42.968750
9977		-52.734375
9978		-44.921875
9979		-54.687500
9980		-46.875000
9981		-54.687500
9982		-50.781250
9983		-56.640625
9984		-52.734375
9985		-60.546875
9986		-54.687500
9987		-60.546875
9988		-56.640625
9989		-62.500000
9990		-58.593750
9991		-64.453125
9992		-60.546875
9993		-66.406250
9994		-62.500000
9995		-68.359375
9996		-62.500000
9997		-68.359375
9998		-62.500000
9999		-68.359375
10000		-64.453125
