Channel              :		CH1
Frequency            :		1.975kHz
Period               :		0.506ms
PK-PK                :		177.7mV
Probe attenuation    :		1X
Voltage per ADC value:		0.122070mV
Time interval        :		2.00000us

index		CH1_Voltage(mV)
1		87.890625
2		87.890625
3		89.843750
4		87.890625
5		91.796875
6		87.890625
7		89.843750
8		85.937500
9		89.843750
10		85.937500
11		89.843750
12		85.937500
13		87.890625
14		83.984375
15		87.890625
16		83.984375
17		85.937500
18		80.078125
19		85.937500
20		80.078125
21		83.984375
22		78.125000
23		82.031250
24		76.171875
25		80.078125
26		74.218750
27		78.125000
28		72.265625
29		76.171875
30		70.312500
31		74.218750
32		66.406250
33		70.312500
34		62.500000
35		68.359375
36		60.546875
37		66.406250
38		56.640625
39		62.500000
40		54.687500
41		60.546875
42		50.781250
43		56.640625
44		48.828125
45		52.734375
46		44.921875
47		50.781250
48		41.015625
49		46.875000
50		37.109375
51		42.968750
52		33.203125
53		39.062500
54		29.296875
55		35.156250
56		25.390625
57		31.250000
58		21.484375
59		27.343750
60		17.578125
61		23.437500
62		13.671875
63		19.531250
64		9.765625
65		15.625000
66		5.859375
67		11.718750
68		1.953125
69		5.859375
70		-3.906250
71		3.906250
72		-7.812500
73		-1.953125
74		-11.718750
75		-5.859375
76		-15.625000
77		-9.765625
78		-19.531250
79		-13.671875
80		-23.437500
81		-17.578125
82		-27.343750
83		-21.484375
84		-33.203125
85		-25.390625
86		-35.156250
87		-29.296875
88		-39.062500
89		-33.203125
90		-42.968750
91		-37.109375
92		-44.921875
93		-41.015625
94		-48.828125
95		-42.968750
96		-52.734375
97		-46.875000
98		-54.687500
99		-50.781250
100		-58.593750
101		-52.734375
102		-60.546875
103		-56.640625
104		-62.500000
105		-58.593750
106		-66.406250
107		-60.546875
108		-68.359375
109		-64.453125
110		-70.312500
111		-66.406250
112		-72.265625
113		-68.359375
114		-74.218750
115		-70.312500
116		-74.218750
117		-70.312500
118		-76.171875
119		-72.265625
120		-76.171875
121		-72.265625
122		-78.125000
123		-74.218750
124		-78.125000
125		-74.218750
126		-78.125000
127		-74.218750
128		-78.125000
129		-74.218750
130		-78.125000
131		-74.218750
132		-78.125000
133		-76.171875
134		-76.171875
135		-74.218750
136		-78.125000
137		-74.218750
138		-76.171875
139		-72.265625
140		-74.218750
141		-70.312500
142		-72.265625
143		-70.312500
144		-72.265625
145		-68.359375
146		-70.312500
147		-66.406250
148		-68.359375
149		-64.453125
150		-66.406250
151		-60.546875
152		-62.500000
153		-58.593750
154		-60.546875
155		-54.687500
156		-58.593750
157		-52.734375
158		-54.687500
159		-50.781250
160		-52.734375
161		-46.875000
162		-48.828125
163		-42.968750
164		-44.921875
165		-41.015625
166		-42.968750
167		-37.109375
168		-39.062500
169		-31.250000
170		-35.156250
171		-29.296875
172		-31.250000
173		-25.390625
174		-27.343750
175		-21.484375
176		-23.437500
177		-17.578125
178		-19.531250
179		-13.671875
180		-15.625000
181		-7.812500
182		-11.718750
183		-5.859375
184		-5.859375
185		-1.953125
186		-1.953125
187		3.906250
188		0.000000
189		7.812500
190		5.859375
191		11.718750
192		9.765625
193		15.625000
194		13.671875
195		19.531250
196		17.578125
197		23.437500
198		21.484375
199		27.343750
200		25.390625
201		31.250000
202		29.296875
203		35.156250
204		33.203125
205		39.062500
206		37.109375
207		42.968750
208		41.015625
209		46.875000
210		44.921875
211		50.781250
212		48.828125
213		52.734375
214		50.781250
215		56.640625
216		54.687500
217		58.593750
218		58.593750
219		62.500000
220		58.593750
221		66.406250
222		64.453125
223		68.359375
224		66.406250
225		70.312500
226		68.359375
227		74.218750
228		70.312500
229		76.171875
230		74.218750
231		78.125000
232		76.171875
233		80.078125
234		78.125000
235		82.031250
236		80.078125
237		83.984375
238		80.078125
239		83.984375
240		82.031250
241		85.937500
242		83.984375
243		87.890625
244		83.984375
245		87.890625
246		85.937500
247		87.890625
248		85.937500
249		89.843750
250		87.890625
251		89.843750
252		87.890625
253		89.843750
254		87.890625
255		89.843750
256		87.890625
257		89.843750
258		87.890625
259		89.843750
260		85.937500
261		89.843750
262		85.937500
263		89.843750
264		83.984375
265		87.890625
266		83.984375
267		87.890625
268		83.984375
269		85.937500
270		82.031250
271		85.937500
272		80.078125
273		83.984375
274		78.125000
275		82.031250
276		76.171875
277		80.078125
278		74.218750
279		80.078125
280		72.265625
281		76.171875
282		70.312500
283		74.218750
284		68.359375
285		72.265625
286		64.453125
287		70.312500
288		62.500000
289		68.359375
290		58.593750
291		64.453125
292		56.640625
293		60.546875
294		52.734375
295		58.593750
296		50.781250
297		54.687500
298		46.875000
299		52.734375
300		42.968750
301		48.828125
302		39.062500
303		44.921875
304		35.156250
305		41.015625
306		31.250000
307		37.109375
308		27.343750
309		33.203125
310		23.437500
311		29.296875
312		19.531250
313		25.390625
314		15.625000
315		21.484375
316		11.718750
317		17.578125
318		7.812500
319		13.671875
320		3.906250
321		9.765625
322		-1.953125
323		3.906250
324		-5.859375
325		1.953125
326		-9.765625
327		-3.906250
328		-13.671875
329		-7.812500
330		-17.578125
331		-11.718750
332		-21.484375
333		-15.625000
334		-25.390625
335		-19.531250
336		-29.296875
337		-23.437500
338		-33.203125
339		-27.343750
340		-37.109375
341		-31.250000
342		-41.015625
343		-35.156250
344		-44.921875
345		-39.062500
346		-48.828125
347		-42.968750
348		-52.734375
349		-46.875000
350		-54.687500
351		-48.828125
352		-56.640625
353		-52.734375
354		-60.546875
355		-54.687500
356		-62.500000
357		-56.640625
358		-64.453125
359		-60.546875
360		-66.406250
361		-62.500000
362		-68.359375
363		-64.453125
364		-70.312500
365		-66.406250
366		-72.265625
367		-68.359375
368		-74.218750
369		-70.312500
370		-76.171875
371		-72.265625
372		-76.171875
373		-72.265625
374		-78.125000
375		-74.218750
376		-78.125000
377		-74.218750
378		-78.125000
379		-74.218750
380		-78.125000
381		-76.171875
382		-80.078125
383		-74.218750
384		-78.125000
385		-76.171875
386		-78.125000
387		-74.218750
388		-78.125000
389		-74.218750
390		-76.171875
391		-74.218750
392		-76.171875
393		-70.312500
394		-74.218750
395		-70.312500
396		-72.265625
397		-68.359375
398		-70.312500
399		-66.406250
400		-70.312500
401		-64.453125
402		-66.406250
403		-62.500000
404		-64.453125
405		-60.546875
406		-62.500000
407		-58.593750
408		-60.546875
409		-54.687500
410		-56.640625
411		-52.734375
412		-54.687500
413		-48.828125
414		-50.781250
415		-44.921875
416		-46.875000
417		-42.968750
418		-44.921875
419		-39.062500
420		-41.015625
421		-35.156250
422		-39.062500
423		-31.250000
424		-33.203125
425		-27.343750
426		-29.296875
427		-23.437500
428		-25.390625
429		-19.531250
430		-21.484375
431		-15.625000
432		-17.578125
433		-11.718750
434		-13.671875
435		-7.812500
436		-9.765625
437		-3.906250
438		-5.859375
439		0.000000
440		-1.953125
441		3.906250
442		3.906250
443		9.765625
444		7.812500
445		13.671875
446		11.718750
447		17.578125
448		15.625000
449		21.484375
450		19.531250
451		25.390625
452		23.437500
453		29.296875
454		27.343750
455		33.203125
456		31.250000
457		37.109375
458		35.156250
459		41.015625
460		39.062500
461		44.921875
462		42.968750
463		48.828125
464		46.875000
465		50.781250
466		48.828125
467		54.687500
468		52.734375
469		58.593750
470		56.640625
471		60.546875
472		58.593750
473		64.453125
474		62.500000
475		66.406250
476		64.453125
477		70.312500
478		68.359375
479		72.265625
480		68.359375
481		74.218750
482		72.265625
483		76.171875
484		74.218750
485		78.125000
486		76.171875
487		80.078125
488		78.125000
489		83.984375
490		80.078125
491		83.984375
492		82.031250
493		85.937500
494		82.031250
495		85.937500
496		83.984375
497		87.890625
498		85.937500
499		89.843750
500		85.937500
501		89.843750
502		87.890625
503		89.843750
504		87.890625
505		89.843750
506		85.937500
507		91.796875
508		87.890625
509		89.843750
510		87.890625
511		89.843750
512		87.890625
513		89.843750
514		85.937500
515		89.843750
516		85.937500
517		89.843750
518		83.984375
519		87.890625
520		83.984375
521		87.890625
522		82.031250
523		87.890625
524		82.031250
525		85.937500
526		80.078125
527		83.984375
528		78.125000
529		82.031250
530		76.171875
531		80.078125
532		74.218750
533		78.125000
534		72.265625
535		76.171875
536		70.312500
537		74.218750
538		66.406250
539		70.312500
540		64.453125
541		68.359375
542		60.546875
543		66.406250
544		58.593750
545		64.453125
546		54.687500
547		60.546875
548		52.734375
549		56.640625
550		46.875000
551		54.687500
552		44.921875
553		50.781250
554		41.015625
555		46.875000
556		37.109375
557		42.968750
558		35.156250
559		39.062500
560		29.296875
561		37.109375
562		27.343750
563		31.250000
564		21.484375
565		29.296875
566		17.578125
567		23.437500
568		13.671875
569		19.531250
570		9.765625
571		15.625000
572		5.859375
573		11.718750
574		1.953125
575		7.812500
576		-1.953125
577		3.906250
578		-5.859375
579		-1.953125
580		-11.718750
581		-3.906250
582		-13.671875
583		-9.765625
584		-19.531250
585		-11.718750
586		-23.437500
587		-17.578125
588		-27.343750
589		-21.484375
590		-31.250000
591		-23.437500
592		-35.156250
593		-29.296875
594		-39.062500
595		-33.203125
596		-41.015625
597		-37.109375
598		-44.921875
599		-41.015625
600		-48.828125
601		-42.968750
602		-50.781250
603		-44.921875
604		-54.687500
605		-50.781250
606		-58.593750
607		-52.734375
608		-60.546875
609		-54.687500
610		-62.500000
611		-58.593750
612		-66.406250
613		-60.546875
614		-66.406250
615		-62.500000
616		-68.359375
617		-64.453125
618		-70.312500
619		-66.406250
620		-72.265625
621		-68.359375
622		-76.171875
623		-70.312500
624		-76.171875
625		-72.265625
626		-76.171875
627		-72.265625
628		-76.171875
629		-74.218750
630		-78.125000
631		-74.218750
632		-78.125000
633		-74.218750
634		-78.125000
635		-74.218750
636		-78.125000
637		-76.171875
638		-78.125000
639		-74.218750
640		-78.125000
641		-74.218750
642		-76.171875
643		-74.218750
644		-76.171875
645		-72.265625
646		-74.218750
647		-70.312500
648		-72.265625
649		-68.359375
650		-72.265625
651		-68.359375
652		-70.312500
653		-66.406250
654		-68.359375
655		-64.453125
656		-66.406250
657		-60.546875
658		-62.500000
659		-58.593750
660		-60.546875
661		-56.640625
662		-58.593750
663		-54.687500
664		-56.640625
665		-50.781250
666		-52.734375
667		-46.875000
668		-48.828125
669		-42.968750
670		-46.875000
671		-41.015625
672		-42.968750
673		-37.109375
674		-39.062500
675		-33.203125
676		-35.156250
677		-29.296875
678		-31.250000
679		-25.390625
680		-27.343750
681		-21.484375
682		-25.390625
683		-17.578125
684		-21.484375
685		-13.671875
686		-17.578125
687		-9.765625
688		-11.718750
689		-5.859375
690		-7.812500
691		-1.953125
692		-3.906250
693		3.906250
694		0.000000
695		5.859375
696		3.906250
697		11.718750
698		9.765625
699		13.671875
700		13.671875
701		19.531250
702		17.578125
703		23.437500
704		21.484375
705		27.343750
706		25.390625
707		31.250000
708		29.296875
709		35.156250
710		33.203125
711		39.062500
712		37.109375
713		42.968750
714		41.015625
715		44.921875
716		42.968750
717		50.781250
718		46.875000
719		52.734375
720		50.781250
721		56.640625
722		54.687500
723		58.593750
724		56.640625
725		62.500000
726		60.546875
727		66.406250
728		62.500000
729		68.359375
730		66.406250
731		70.312500
732		68.359375
733		74.218750
734		72.265625
735		74.218750
736		72.265625
737		76.171875
738		76.171875
739		80.078125
740		78.125000
741		82.031250
742		80.078125
743		82.031250
744		82.031250
745		83.984375
746		82.031250
747		85.937500
748		82.031250
749		87.890625
750		83.984375
751		87.890625
752		85.937500
753		89.843750
754		87.890625
755		89.843750
756		87.890625
757		89.843750
758		85.937500
759		91.796875
760		87.890625
761		91.796875
762		87.890625
763		89.843750
764		87.890625
765		91.796875
766		87.890625
767		89.843750
768		85.937500
769		89.843750
770		85.937500
771		89.843750
772		83.984375
773		87.890625
774		82.031250
775		87.890625
776		82.031250
777		85.937500
778		82.031250
779		83.984375
780		80.078125
781		83.984375
782		78.125000
783		82.031250
784		76.171875
785		80.078125
786		72.265625
787		78.125000
788		70.312500
789		76.171875
790		68.359375
791		72.265625
792		66.406250
793		70.312500
794		62.500000
795		68.359375
796		60.546875
797		64.453125
798		56.640625
799		62.500000
800		54.687500
801		60.546875
802		50.781250
803		56.640625
804		48.828125
805		52.734375
806		44.921875
807		48.828125
808		41.015625
809		44.921875
810		37.109375
811		42.968750
812		33.203125
813		39.062500
814		29.296875
815		35.156250
816		25.390625
817		31.250000
818		21.484375
819		27.343750
820		17.578125
821		23.437500
822		11.718750
823		17.578125
824		7.812500
825		13.671875
826		3.906250
827		9.765625
828		0.000000
829		5.859375
830		-3.906250
831		1.953125
832		-7.812500
833		-1.953125
834		-11.718750
835		-5.859375
836		-15.625000
837		-9.765625
838		-19.531250
839		-13.671875
840		-23.437500
841		-19.531250
842		-27.343750
843		-21.484375
844		-31.250000
845		-25.390625
846		-35.156250
847		-29.296875
848		-39.062500
849		-33.203125
850		-42.968750
851		-37.109375
852		-46.875000
853		-41.015625
854		-48.828125
855		-44.921875
856		-52.734375
857		-46.875000
858		-56.640625
859		-50.781250
860		-58.593750
861		-52.734375
862		-60.546875
863		-56.640625
864		-64.453125
865		-58.593750
866		-66.406250
867		-62.500000
868		-68.359375
869		-64.453125
870		-70.312500
871		-66.406250
872		-70.312500
873		-68.359375
874		-72.265625
875		-70.312500
876		-74.218750
877		-70.312500
878		-76.171875
879		-72.265625
880		-76.171875
881		-74.218750
882		-78.125000
883		-74.218750
884		-78.125000
885		-74.218750
886		-78.125000
887		-74.218750
888		-78.125000
889		-76.171875
890		-78.125000
891		-74.218750
892		-78.125000
893		-74.218750
894		-76.171875
895		-74.218750
896		-76.171875
897		-72.265625
898		-74.218750
899		-72.265625
900		-74.218750
901		-70.312500
902		-72.265625
903		-68.359375
904		-70.312500
905		-66.406250
906		-68.359375
907		-64.453125
908		-66.406250
909		-62.500000
910		-64.453125
911		-60.546875
912		-62.500000
913		-58.593750
914		-60.546875
915		-54.687500
916		-56.640625
917		-52.734375
918		-52.734375
919		-48.828125
920		-50.781250
921		-44.921875
922		-46.875000
923		-42.968750
924		-44.921875
925		-39.062500
926		-41.015625
927		-35.156250
928		-37.109375
929		-31.250000
930		-35.156250
931		-27.343750
932		-29.296875
933		-23.437500
934		-25.390625
935		-19.531250
936		-21.484375
937		-15.625000
938		-19.531250
939		-11.718750
940		-13.671875
941		-7.812500
942		-9.765625
943		-3.906250
944		-5.859375
945		0.000000
946		-1.953125
947		3.906250
948		3.906250
949		9.765625
950		7.812500
951		11.718750
952		11.718750
953		17.578125
954		15.625000
955		21.484375
956		19.531250
957		25.390625
958		23.437500
959		29.296875
960		25.390625
961		33.203125
962		31.250000
963		37.109375
964		35.156250
965		41.015625
966		39.062500
967		44.921875
968		42.968750
969		48.828125
970		46.875000
971		52.734375
972		48.828125
973		54.687500
974		52.734375
975		56.640625
976		54.687500
977		60.546875
978		58.593750
979		64.453125
980		62.500000
981		66.406250
982		64.453125
983		68.359375
984		66.406250
985		72.265625
986		68.359375
987		76.171875
988		72.265625
989		76.171875
990		74.218750
991		78.125000
992		76.171875
993		82.031250
994		78.125000
995		82.031250
996		80.078125
997		83.984375
998		82.031250
999		85.937500
1000		82.031250
1001		87.890625
1002		83.984375
1003		89.843750
1004		83.984375
1005		89.843750
1006		85.937500
1007		89.843750
1008		87.890625
1009		89.843750
1010		87.890625
1011		89.843750
1012		87.890625
1013		89.843750
1014		87.890625
1015		89.843750
1016		85.937500
1017		91.796875
1018		85.937500
1019		91.796875
1020		85.937500
1021		91.796875
1022		85.937500
1023		89.843750
1024		85.937500
1025		87.890625
1026		83.984375
1027		87.890625
1028		82.031250
1029		87.890625
1030		82.031250
1031		85.937500
1032		80.078125
1033		83.984375
1034		78.125000
1035		83.984375
1036		74.218750
1037		82.031250
1038		74.218750
1039		80.078125
1040		72.265625
1041		76.171875
1042		70.312500
1043		74.218750
1044		66.406250
1045		74.218750
1046		62.500000
1047		72.265625
1048		60.546875
1049		68.359375
1050		56.640625
1051		66.406250
1052		54.687500
1053		62.500000
1054		50.781250
1055		60.546875
1056		50.781250
1057		56.640625
1058		46.875000
1059		50.781250
1060		41.015625
1061		48.828125
1062		37.109375
1063		46.875000
1064		33.203125
1065		42.968750
1066		29.296875
1067		39.062500
1068		25.390625
1069		35.156250
1070		21.484375
1071		31.250000
1072		19.531250
1073		27.343750
1074		15.625000
1075		21.484375
1076		9.765625
1077		15.625000
1078		3.906250
1079		13.671875
1080		1.953125
1081		9.765625
1082		-3.906250
1083		5.859375
1084		-7.812500
1085		1.953125
1086		-9.765625
1087		-1.953125
1088		-13.671875
1089		-5.859375
1090		-17.578125
1091		-11.718750
1092		-21.484375
1093		-15.625000
1094		-27.343750
1095		-19.531250
1096		-31.250000
1097		-21.484375
1098		-35.156250
1099		-25.390625
1100		-39.062500
1101		-29.296875
1102		-42.968750
1103		-33.203125
1104		-44.921875
1105		-37.109375
1106		-46.875000
1107		-41.015625
1108		-50.781250
1109		-44.921875
1110		-56.640625
1111		-48.828125
1112		-58.593750
1113		-50.781250
1114		-60.546875
1115		-52.734375
1116		-64.453125
1117		-54.687500
1118		-66.406250
1119		-58.593750
1120		-68.359375
1121		-60.546875
1122		-70.312500
1123		-62.500000
1124		-70.312500
1125		-66.406250
1126		-72.265625
1127		-68.359375
1128		-74.218750
1129		-68.359375
1130		-76.171875
1131		-68.359375
1132		-78.125000
1133		-70.312500
1134		-78.125000
1135		-72.265625
1136		-78.125000
1137		-72.265625
1138		-80.078125
1139		-72.265625
1140		-78.125000
1141		-74.218750
1142		-78.125000
1143		-74.218750
1144		-78.125000
1145		-72.265625
1146		-78.125000
1147		-72.265625
1148		-78.125000
1149		-70.312500
1150		-78.125000
1151		-70.312500
1152		-76.171875
1153		-68.359375
1154		-76.171875
1155		-68.359375
1156		-74.218750
1157		-66.406250
1158		-70.312500
1159		-66.406250
1160		-68.359375
1161		-62.500000
1162		-68.359375
1163		-60.546875
1164		-64.453125
1165		-56.640625
1166		-62.500000
1167		-54.687500
1168		-60.546875
1169		-50.781250
1170		-56.640625
1171		-48.828125
1172		-54.687500
1173		-46.875000
1174		-48.828125
1175		-44.921875
1176		-44.921875
1177		-41.015625
1178		-42.968750
1179		-35.156250
1180		-41.015625
1181		-31.250000
1182		-37.109375
1183		-27.343750
1184		-33.203125
1185		-23.437500
1186		-29.296875
1187		-21.484375
1188		-25.390625
1189		-15.625000
1190		-21.484375
1191		-13.671875
1192		-15.625000
1193		-9.765625
1194		-11.718750
1195		-3.906250
1196		-9.765625
1197		0.000000
1198		-5.859375
1199		3.906250
1200		-1.953125
1201		7.812500
1202		3.906250
1203		13.671875
1204		5.859375
1205		15.625000
1206		9.765625
1207		19.531250
1208		17.578125
1209		23.437500
1210		21.484375
1211		27.343750
1212		23.437500
1213		33.203125
1214		27.343750
1215		37.109375
1216		31.250000
1217		41.015625
1218		35.156250
1219		44.921875
1220		39.062500
1221		48.828125
1222		42.968750
1223		50.781250
1224		46.875000
1225		52.734375
1226		50.781250
1227		56.640625
1228		54.687500
1229		60.546875
1230		54.687500
1231		64.453125
1232		58.593750
1233		66.406250
1234		60.546875
1235		70.312500
1236		64.453125
1237		72.265625
1238		66.406250
1239		74.218750
1240		68.359375
1241		76.171875
1242		74.218750
1243		78.125000
1244		76.171875
1245		82.031250
1246		74.218750
1247		83.984375
1248		78.125000
1249		85.937500
1250		80.078125
1251		85.937500
1252		80.078125
1253		87.890625
1254		82.031250
1255		89.843750
1256		83.984375
1257		91.796875
1258		85.937500
1259		89.843750
1260		87.890625
1261		89.843750
1262		85.937500
1263		91.796875
1264		85.937500
1265		93.750000
1266		85.937500
1267		91.796875
1268		85.937500
1269		93.750000
1270		85.937500
1271		93.750000
1272		85.937500
1273		91.796875
1274		85.937500
1275		91.796875
1276		85.937500
1277		89.843750
1278		83.984375
1279		89.843750
1280		82.031250
1281		89.843750
1282		80.078125
1283		87.890625
1284		80.078125
1285		87.890625
1286		78.125000
1287		85.937500
1288		76.171875
1289		83.984375
1290		74.218750
1291		82.031250
1292		74.218750
1293		78.125000
1294		72.265625
1295		76.171875
1296		68.359375
1297		76.171875
1298		64.453125
1299		74.218750
1300		62.500000
1301		70.312500
1302		58.593750
1303		68.359375
1304		56.640625
1305		64.453125
1306		52.734375
1307		62.500000
1308		52.734375
1309		58.593750
1310		48.828125
1311		54.687500
1312		42.968750
1313		50.781250
1314		39.062500
1315		48.828125
1316		35.156250
1317		44.921875
1318		31.250000
1319		41.015625
1320		27.343750
1321		37.109375
1322		23.437500
1323		33.203125
1324		21.484375
1325		29.296875
1326		17.578125
1327		23.437500
1328		13.671875
1329		19.531250
1330		7.812500
1331		17.578125
1332		3.906250
1333		13.671875
1334		0.000000
1335		9.765625
1336		-3.906250
1337		3.906250
1338		-7.812500
1339		0.000000
1340		-11.718750
1341		-3.906250
1342		-15.625000
1343		-9.765625
1344		-19.531250
1345		-13.671875
1346		-25.390625
1347		-15.625000
1348		-29.296875
1349		-19.531250
1350		-33.203125
1351		-23.437500
1352		-37.109375
1353		-27.343750
1354		-41.015625
1355		-31.250000
1356		-44.921875
1357		-35.156250
1358		-44.921875
1359		-39.062500
1360		-48.828125
1361		-42.968750
1362		-52.734375
1363		-46.875000
1364		-56.640625
1365		-48.828125
1366		-60.546875
1367		-50.781250
1368		-62.500000
1369		-52.734375
1370		-64.453125
1371		-56.640625
1372		-66.406250
1373		-58.593750
1374		-68.359375
1375		-60.546875
1376		-68.359375
1377		-64.453125
1378		-70.312500
1379		-66.406250
1380		-74.218750
1381		-66.406250
1382		-76.171875
1383		-68.359375
1384		-76.171875
1385		-68.359375
1386		-78.125000
1387		-70.312500
1388		-78.125000
1389		-70.312500
1390		-80.078125
1391		-72.265625
1392		-78.125000
1393		-72.265625
1394		-76.171875
1395		-74.218750
1396		-78.125000
1397		-72.265625
1398		-80.078125
1399		-72.265625
1400		-78.125000
1401		-70.312500
1402		-78.125000
1403		-70.312500
1404		-76.171875
1405		-68.359375
1406		-76.171875
1407		-68.359375
1408		-74.218750
1409		-66.406250
1410		-70.312500
1411		-66.406250
1412		-68.359375
1413		-62.500000
1414		-68.359375
1415		-60.546875
1416		-66.406250
1417		-58.593750
1418		-64.453125
1419		-56.640625
1420		-62.500000
1421		-52.734375
1422		-58.593750
1423		-50.781250
1424		-54.687500
1425		-46.875000
1426		-50.781250
1427		-44.921875
1428		-48.828125
1429		-42.968750
1430		-44.921875
1431		-37.109375
1432		-42.968750
1433		-33.203125
1434		-39.062500
1435		-29.296875
1436		-35.156250
1437		-25.390625
1438		-31.250000
1439		-21.484375
1440		-27.343750
1441		-17.578125
1442		-23.437500
1443		-15.625000
1444		-17.578125
1445		-11.718750
1446		-13.671875
1447		-5.859375
1448		-11.718750
1449		-1.953125
1450		-7.812500
1451		1.953125
1452		-3.906250
1453		5.859375
1454		0.000000
1455		9.765625
1456		3.906250
1457		13.671875
1458		7.812500
1459		17.578125
1460		15.625000
1461		21.484375
1462		19.531250
1463		25.390625
1464		21.484375
1465		31.250000
1466		25.390625
1467		35.156250
1468		29.296875
1469		39.062500
1470		33.203125
1471		42.968750
1472		37.109375
1473		46.875000
1474		41.015625
1475		50.781250
1476		42.968750
1477		50.781250
1478		48.828125
1479		54.687500
1480		52.734375
1481		58.593750
1482		54.687500
1483		62.500000
1484		56.640625
1485		66.406250
1486		58.593750
1487		68.359375
1488		62.500000
1489		72.265625
1490		66.406250
1491		74.218750
1492		68.359375
1493		74.218750
1494		72.265625
1495		76.171875
1496		74.218750
1497		80.078125
1498		74.218750
1499		82.031250
1500		76.171875
1501		85.937500
1502		78.125000
1503		85.937500
1504		80.078125
1505		87.890625
1506		82.031250
1507		89.843750
1508		82.031250
1509		89.843750
1510		85.937500
1511		87.890625
1512		85.937500
1513		89.843750
1514		85.937500
1515		91.796875
1516		85.937500
1517		91.796875
1518		85.937500
1519		93.750000
1520		85.937500
1521		93.750000
1522		85.937500
1523		93.750000
1524		85.937500
1525		93.750000
1526		85.937500
1527		91.796875
1528		87.890625
1529		89.843750
1530		83.984375
1531		91.796875
1532		83.984375
1533		89.843750
1534		82.031250
1535		89.843750
1536		80.078125
1537		87.890625
1538		80.078125
1539		87.890625
1540		78.125000
1541		85.937500
1542		76.171875
1543		83.984375
1544		76.171875
1545		80.078125
1546		74.218750
1547		78.125000
1548		68.359375
1549		78.125000
1550		68.359375
1551		76.171875
1552		64.453125
1553		72.265625
1554		62.500000
1555		70.312500
1556		58.593750
1557		68.359375
1558		54.687500
1559		64.453125
1560		54.687500
1561		60.546875
1562		50.781250
1563		54.687500
1564		44.921875
1565		52.734375
1566		41.015625
1567		50.781250
1568		39.062500
1569		46.875000
1570		35.156250
1571		44.921875
1572		29.296875
1573		41.015625
1574		27.343750
1575		35.156250
1576		25.390625
1577		31.250000
1578		21.484375
1579		25.390625
1580		17.578125
1581		21.484375
1582		9.765625
1583		19.531250
1584		5.859375
1585		15.625000
1586		1.953125
1587		11.718750
1588		-1.953125
1589		7.812500
1590		-5.859375
1591		3.906250
1592		-9.765625
1593		0.000000
1594		-11.718750
1595		-7.812500
1596		-15.625000
1597		-11.718750
1598		-21.484375
1599		-13.671875
1600		-25.390625
1601		-15.625000
1602		-31.250000
1603		-21.484375
1604		-33.203125
1605		-25.390625
1606		-37.109375
1607		-27.343750
1608		-41.015625
1609		-33.203125
1610		-42.968750
1611		-35.156250
1612		-46.875000
1613		-41.015625
1614		-50.781250
1615		-44.921875
1616		-54.687500
1617		-46.875000
1618		-58.593750
1619		-48.828125
1620		-60.546875
1621		-52.734375
1622		-62.500000
1623		-54.687500
1624		-64.453125
1625		-56.640625
1626		-66.406250
1627		-58.593750
1628		-68.359375
1629		-64.453125
1630		-70.312500
1631		-66.406250
1632		-74.218750
1633		-66.406250
1634		-74.218750
1635		-66.406250
1636		-76.171875
1637		-68.359375
1638		-76.171875
1639		-70.312500
1640		-78.125000
1641		-70.312500
1642		-78.125000
1643		-70.312500
1644		-78.125000
1645		-72.265625
1646		-76.171875
1647		-74.218750
1648		-78.125000
1649		-72.265625
1650		-78.125000
1651		-72.265625
1652		-78.125000
1653		-72.265625
1654		-78.125000
1655		-70.312500
1656		-76.171875
1657		-70.312500
1658		-76.171875
1659		-68.359375
1660		-74.218750
1661		-68.359375
1662		-70.312500
1663		-68.359375
1664		-70.312500
1665		-66.406250
1666		-70.312500
1667		-62.500000
1668		-68.359375
1669		-58.593750
1670		-66.406250
1671		-56.640625
1672		-62.500000
1673		-54.687500
1674		-60.546875
1675		-52.734375
1676		-58.593750
1677		-48.828125
1678		-52.734375
1679		-46.875000
1680		-48.828125
1681		-44.921875
1682		-46.875000
1683		-39.062500
1684		-44.921875
1685		-35.156250
1686		-41.015625
1687		-31.250000
1688		-37.109375
1689		-29.296875
1690		-33.203125
1691		-25.390625
1692		-31.250000
1693		-21.484375
1694		-27.343750
1695		-19.531250
1696		-19.531250
1697		-13.671875
1698		-15.625000
1699		-7.812500
1700		-13.671875
1701		-3.906250
1702		-9.765625
1703		0.000000
1704		-5.859375
1705		3.906250
1706		-1.953125
1707		7.812500
1708		1.953125
1709		11.718750
1710		5.859375
1711		15.625000
1712		11.718750
1713		17.578125
1714		17.578125
1715		23.437500
1716		19.531250
1717		27.343750
1718		23.437500
1719		31.250000
1720		27.343750
1721		37.109375
1722		31.250000
1723		41.015625
1724		35.156250
1725		42.968750
1726		37.109375
1727		46.875000
1728		41.015625
1729		48.828125
1730		46.875000
1731		52.734375
1732		50.781250
1733		58.593750
1734		52.734375
1735		60.546875
1736		54.687500
1737		64.453125
1738		58.593750
1739		66.406250
1740		60.546875
1741		70.312500
1742		64.453125
1743		72.265625
1744		66.406250
1745		74.218750
1746		72.265625
1747		74.218750
1748		74.218750
1749		78.125000
1750		74.218750
1751		80.078125
1752		76.171875
1753		82.031250
1754		78.125000
1755		83.984375
1756		80.078125
1757		85.937500
1758		82.031250
1759		87.890625
1760		82.031250
1761		87.890625
1762		83.984375
1763		87.890625
1764		85.937500
1765		89.843750
1766		83.984375
1767		91.796875
1768		85.937500
1769		93.750000
1770		85.937500
1771		93.750000
1772		85.937500
1773		93.750000
1774		85.937500
1775		93.750000
1776		85.937500
1777		93.750000
1778		85.937500
1779		93.750000
1780		87.890625
1781		89.843750
1782		85.937500
1783		91.796875
1784		83.984375
1785		91.796875
1786		82.031250
1787		89.843750
1788		82.031250
1789		89.843750
1790		80.078125
1791		87.890625
1792		78.125000
1793		85.937500
1794		78.125000
1795		83.984375
1796		78.125000
1797		80.078125
1798		74.218750
1799		78.125000
1800		70.312500
1801		78.125000
1802		68.359375
1803		76.171875
1804		64.453125
1805		74.218750
1806		62.500000
1807		72.265625
1808		60.546875
1809		68.359375
1810		56.640625
1811		66.406250
1812		56.640625
1813		62.500000
1814		52.734375
1815		58.593750
1816		48.828125
1817		54.687500
1818		44.921875
1819		52.734375
1820		41.015625
1821		48.828125
1822		37.109375
1823		44.921875
1824		33.203125
1825		42.968750
1826		29.296875
1827		39.062500
1828		27.343750
1829		35.156250
1830		23.437500
1831		29.296875
1832		19.531250
1833		25.390625
1834		11.718750
1835		23.437500
1836		7.812500
1837		17.578125
1838		3.906250
1839		13.671875
1840		0.000000
1841		9.765625
1842		-3.906250
1843		5.859375
1844		-7.812500
1845		1.953125
1846		-9.765625
1847		-1.953125
1848		-13.671875
1849		-7.812500
1850		-19.531250
1851		-11.718750
1852		-23.437500
1853		-15.625000
1854		-27.343750
1855		-17.578125
1856		-31.250000
1857		-23.437500
1858		-35.156250
1859		-27.343750
1860		-39.062500
1861		-29.296875
1862		-41.015625
1863		-33.203125
1864		-44.921875
1865		-39.062500
1866		-50.781250
1867		-42.968750
1868		-52.734375
1869		-42.968750
1870		-56.640625
1871		-46.875000
1872		-58.593750
1873		-50.781250
1874		-60.546875
1875		-52.734375
1876		-64.453125
1877		-54.687500
1878		-66.406250
1879		-58.593750
1880		-66.406250
1881		-62.500000
1882		-68.359375
1883		-64.453125
1884		-72.265625
1885		-64.453125
1886		-74.218750
1887		-66.406250
1888		-76.171875
1889		-68.359375
1890		-76.171875
1891		-70.312500
1892		-78.125000
1893		-70.312500
1894		-78.125000
1895		-72.265625
1896		-78.125000
1897		-72.265625
1898		-76.171875
1899		-74.218750
1900		-80.078125
1901		-72.265625
1902		-80.078125
1903		-72.265625
1904		-80.078125
1905		-72.265625
1906		-78.125000
1907		-72.265625
1908		-78.125000
1909		-70.312500
1910		-78.125000
1911		-70.312500
1912		-76.171875
1913		-68.359375
1914		-72.265625
1915		-68.359375
1916		-70.312500
1917		-68.359375
1918		-70.312500
1919		-62.500000
1920		-68.359375
1921		-60.546875
1922		-66.406250
1923		-58.593750
1924		-64.453125
1925		-56.640625
1926		-62.500000
1927		-52.734375
1928		-58.593750
1929		-50.781250
1930		-56.640625
1931		-50.781250
1932		-50.781250
1933		-46.875000
1934		-48.828125
1935		-41.015625
1936		-46.875000
1937		-37.109375
1938		-44.921875
1939		-35.156250
1940		-41.015625
1941		-31.250000
1942		-37.109375
1943		-27.343750
1944		-31.250000
1945		-23.437500
1946		-29.296875
1947		-21.484375
1948		-23.437500
1949		-17.578125
1950		-19.531250
1951		-11.718750
1952		-15.625000
1953		-5.859375
1954		-13.671875
1955		-3.906250
1956		-9.765625
1957		0.000000
1958		-3.906250
1959		3.906250
1960		0.000000
1961		9.765625
1962		3.906250
1963		11.718750
1964		9.765625
1965		15.625000
1966		13.671875
1967		19.531250
1968		17.578125
1969		25.390625
1970		19.531250
1971		29.296875
1972		23.437500
1973		33.203125
1974		27.343750
1975		37.109375
1976		31.250000
1977		41.015625
1978		35.156250
1979		44.921875
1980		41.015625
1981		46.875000
1982		44.921875
1983		50.781250
1984		48.828125
1985		54.687500
1986		48.828125
1987		58.593750
1988		52.734375
1989		62.500000
1990		56.640625
1991		64.453125
1992		58.593750
1993		68.359375
1994		62.500000
1995		70.312500
1996		64.453125
1997		72.265625
1998		68.359375
1999		74.218750
2000		72.265625
2001		76.171875
2002		72.265625
2003		80.078125
2004		74.218750
2005		82.031250
2006		76.171875
2007		83.984375
2008		78.125000
2009		85.937500
2010		80.078125
2011		85.937500
2012		80.078125
2013		87.890625
2014		82.031250
2015		87.890625
2016		85.937500
2017		87.890625
2018		83.984375
2019		91.796875
2020		85.937500
2021		91.796875
2022		85.937500
2023		91.796875
2024		85.937500
2025		91.796875
2026		85.937500
2027		93.750000
2028		85.937500
2029		93.750000
2030		85.937500
2031		91.796875
2032		87.890625
2033		89.843750
2034		85.937500
2035		91.796875
2036		83.984375
2037		91.796875
2038		83.984375
2039		89.843750
2040		82.031250
2041		89.843750
2042		80.078125
2043		87.890625
2044		80.078125
2045		87.890625
2046		78.125000
2047		85.937500
2048		78.125000
2049		82.031250
2050		76.171875
2051		80.078125
2052		70.312500
2053		78.125000
2054		68.359375
2055		78.125000
2056		66.406250
2057		74.218750
2058		64.453125
2059		72.265625
2060		60.546875
2061		70.312500
2062		58.593750
2063		66.406250
2064		58.593750
2065		64.453125
2066		54.687500
2067		58.593750
2068		48.828125
2069		56.640625
2070		44.921875
2071		54.687500
2072		41.015625
2073		50.781250
2074		37.109375
2075		48.828125
2076		35.156250
2077		44.921875
2078		31.250000
2079		41.015625
2080		27.343750
2081		37.109375
2082		25.390625
2083		31.250000
2084		21.484375
2085		27.343750
2086		13.671875
2087		25.390625
2088		11.718750
2089		21.484375
2090		7.812500
2091		15.625000
2092		1.953125
2093		11.718750
2094		-1.953125
2095		7.812500
2096		-5.859375
2097		3.906250
2098		-7.812500
2099		0.000000
2100		-11.718750
2101		-5.859375
2102		-19.531250
2103		-9.765625
2104		-21.484375
2105		-13.671875
2106		-27.343750
2107		-15.625000
2108		-29.296875
2109		-21.484375
2110		-33.203125
2111		-23.437500
2112		-37.109375
2113		-27.343750
2114		-39.062500
2115		-31.250000
2116		-42.968750
2117		-37.109375
2118		-46.875000
2119		-41.015625
2120		-50.781250
2121		-42.968750
2122		-54.687500
2123		-44.921875
2124		-56.640625
2125		-48.828125
2126		-60.546875
2127		-52.734375
2128		-62.500000
2129		-54.687500
2130		-64.453125
2131		-56.640625
2132		-66.406250
2133		-60.546875
2134		-68.359375
2135		-64.453125
2136		-72.265625
2137		-64.453125
2138		-74.218750
2139		-66.406250
2140		-74.218750
2141		-66.406250
2142		-76.171875
2143		-68.359375
2144		-78.125000
2145		-70.312500
2146		-78.125000
2147		-70.312500
2148		-78.125000
2149		-72.265625
2150		-76.171875
2151		-74.218750
2152		-80.078125
2153		-72.265625
2154		-80.078125
2155		-72.265625
2156		-80.078125
2157		-72.265625
2158		-80.078125
2159		-72.265625
2160		-78.125000
2161		-70.312500
2162		-78.125000
2163		-70.312500
2164		-76.171875
2165		-68.359375
2166		-72.265625
2167		-70.312500
2168		-72.265625
2169		-68.359375
2170		-72.265625
2171		-64.453125
2172		-72.265625
2173		-62.500000
2174		-68.359375
2175		-60.546875
2176		-66.406250
2177		-58.593750
2178		-64.453125
2179		-54.687500
2180		-60.546875
2181		-52.734375
2182		-56.640625
2183		-52.734375
2184		-52.734375
2185		-48.828125
2186		-50.781250
2187		-44.921875
2188		-48.828125
2189		-41.015625
2190		-46.875000
2191		-37.109375
2192		-42.968750
2193		-33.203125
2194		-39.062500
2195		-29.296875
2196		-35.156250
2197		-25.390625
2198		-31.250000
2199		-23.437500
2200		-25.390625
2201		-19.531250
2202		-21.484375
2203		-15.625000
2204		-19.531250
2205		-9.765625
2206		-15.625000
2207		-5.859375
2208		-11.718750
2209		-1.953125
2210		-7.812500
2211		1.953125
2212		-1.953125
2213		7.812500
2214		1.953125
2215		9.765625
2216		5.859375
2217		13.671875
2218		11.718750
2219		17.578125
2220		15.625000
2221		23.437500
2222		17.578125
2223		27.343750
2224		21.484375
2225		31.250000
2226		25.390625
2227		33.203125
2228		29.296875
2229		39.062500
2230		33.203125
2231		42.968750
2232		37.109375
2233		44.921875
2234		42.968750
2235		46.875000
2236		44.921875
2237		52.734375
2238		48.828125
2239		56.640625
2240		50.781250
2241		60.546875
2242		54.687500
2243		62.500000
2244		58.593750
2245		66.406250
2246		60.546875
2247		68.359375
2248		62.500000
2249		70.312500
2250		68.359375
2251		72.265625
2252		70.312500
2253		74.218750
2254		70.312500
2255		78.125000
2256		72.265625
2257		82.031250
2258		74.218750
2259		82.031250
2260		76.171875
2261		83.984375
2262		78.125000
2263		85.937500
2264		80.078125
2265		87.890625
2266		83.984375
2267		85.937500
2268		83.984375
2269		87.890625
2270		83.984375
2271		89.843750
2272		83.984375
2273		91.796875
2274		83.984375
2275		91.796875
2276		85.937500
2277		91.796875
2278		85.937500
2279		91.796875
2280		85.937500
2281		93.750000
2282		85.937500
2283		93.750000
2284		87.890625
2285		89.843750
2286		85.937500
2287		91.796875
2288		83.984375
2289		91.796875
2290		83.984375
2291		89.843750
2292		82.031250
2293		89.843750
2294		82.031250
2295		89.843750
2296		80.078125
2297		87.890625
2298		78.125000
2299		85.937500
2300		78.125000
2301		83.984375
2302		78.125000
2303		80.078125
2304		72.265625
2305		80.078125
2306		70.312500
2307		78.125000
2308		68.359375
2309		76.171875
2310		66.406250
2311		74.218750
2312		62.500000
2313		72.265625
2314		60.546875
2315		68.359375
2316		58.593750
2317		66.406250
2318		56.640625
2319		60.546875
2320		50.781250
2321		56.640625
2322		46.875000
2323		56.640625
2324		44.921875
2325		52.734375
2326		41.015625
2327		48.828125
2328		37.109375
2329		46.875000
2330		33.203125
2331		42.968750
2332		29.296875
2333		39.062500
2334		27.343750
2335		33.203125
2336		23.437500
2337		29.296875
2338		17.578125
2339		27.343750
2340		13.671875
2341		23.437500
2342		9.765625
2343		19.531250
2344		5.859375
2345		15.625000
2346		1.953125
2347		9.765625
2348		-3.906250
2349		5.859375
2350		-5.859375
2351		1.953125
2352		-9.765625
2353		-3.906250
2354		-15.625000
2355		-7.812500
2356		-19.531250
2357		-9.765625
2358		-23.437500
2359		-15.625000
2360		-29.296875
2361		-19.531250
2362		-31.250000
2363		-21.484375
2364		-35.156250
2365		-25.390625
2366		-39.062500
2367		-29.296875
2368		-41.015625
2369		-35.156250
2370		-44.921875
2371		-39.062500
2372		-48.828125
2373		-41.015625
2374		-52.734375
2375		-42.968750
2376		-56.640625
2377		-46.875000
2378		-58.593750
2379		-50.781250
2380		-60.546875
2381		-52.734375
2382		-64.453125
2383		-56.640625
2384		-64.453125
2385		-58.593750
2386		-66.406250
2387		-62.500000
2388		-70.312500
2389		-64.453125
2390		-72.265625
2391		-64.453125
2392		-74.218750
2393		-66.406250
2394		-76.171875
2395		-68.359375
2396		-76.171875
2397		-70.312500
2398		-78.125000
2399		-70.312500
2400		-78.125000
2401		-72.265625
2402		-76.171875
2403		-74.218750
2404		-78.125000
2405		-74.218750
2406		-80.078125
2407		-72.265625
2408		-80.078125
2409		-72.265625
2410		-80.078125
2411		-72.265625
2412		-80.078125
2413		-72.265625
2414		-78.125000
2415		-70.312500
2416		-78.125000
2417		-70.312500
2418		-74.218750
2419		-70.312500
2420		-72.265625
2421		-70.312500
2422		-74.218750
2423		-66.406250
2424		-72.265625
2425		-64.453125
2426		-70.312500
2427		-60.546875
2428		-68.359375
2429		-58.593750
2430		-66.406250
2431		-56.640625
2432		-62.500000
2433		-54.687500
2434		-60.546875
2435		-52.734375
2436		-54.687500
2437		-50.781250
2438		-52.734375
2439		-44.921875
2440		-50.781250
2441		-42.968750
2442		-48.828125
2443		-39.062500
2444		-44.921875
2445		-35.156250
2446		-41.015625
2447		-31.250000
2448		-37.109375
2449		-27.343750
2450		-33.203125
2451		-25.390625
2452		-27.343750
2453		-23.437500
2454		-23.437500
2455		-17.578125
2456		-21.484375
2457		-13.671875
2458		-17.578125
2459		-7.812500
2460		-13.671875
2461		-3.906250
2462		-9.765625
2463		0.000000
2464		-5.859375
2465		3.906250
2466		-1.953125
2467		7.812500
2468		3.906250
2469		9.765625
2470		7.812500
2471		15.625000
2472		13.671875
2473		19.531250
2474		15.625000
2475		23.437500
2476		19.531250
2477		29.296875
2478		23.437500
2479		33.203125
2480		27.343750
2481		37.109375
2482		31.250000
2483		41.015625
2484		33.203125
2485		42.968750
2486		41.015625
2487		44.921875
2488		42.968750
2489		50.781250
2490		44.921875
2491		54.687500
2492		48.828125
2493		58.593750
2494		50.781250
2495		60.546875
2496		54.687500
2497		64.453125
2498		58.593750
2499		66.406250
2500		60.546875
2501		70.312500
2502		66.406250
2503		70.312500
2504		68.359375
2505		72.265625
2506		70.312500
2507		78.125000
2508		70.312500
2509		80.078125
2510		72.265625
2511		82.031250
2512		76.171875
2513		83.984375
2514		78.125000
2515		85.937500
2516		78.125000
2517		85.937500
2518		80.078125
2519		87.890625
2520		83.984375
2521		85.937500
2522		83.984375
2523		89.843750
2524		83.984375
2525		89.843750
2526		83.984375
2527		91.796875
2528		83.984375
2529		91.796875
2530		85.937500
2531		93.750000
2532		85.937500
2533		93.750000
2534		85.937500
2535		91.796875
2536		87.890625
2537		89.843750
2538		87.890625
2539		89.843750
2540		83.984375
2541		91.796875
2542		83.984375
2543		91.796875
2544		82.031250
2545		89.843750
2546		82.031250
2547		89.843750
2548		80.078125
2549		87.890625
2550		80.078125
2551		85.937500
2552		80.078125
2553		85.937500
2554		78.125000
2555		82.031250
2556		74.218750
2557		80.078125
2558		72.265625
2559		80.078125
2560		70.312500
2561		78.125000
2562		66.406250
2563		76.171875
2564		64.453125
2565		72.265625
2566		60.546875
2567		70.312500
2568		60.546875
2569		66.406250
2570		58.593750
2571		62.500000
2572		52.734375
2573		58.593750
2574		48.828125
2575		58.593750
2576		44.921875
2577		54.687500
2578		42.968750
2579		50.781250
2580		39.062500
2581		48.828125
2582		35.156250
2583		44.921875
2584		31.250000
2585		41.015625
2586		29.296875
2587		35.156250
2588		25.390625
2589		31.250000
2590		19.531250
2591		27.343750
2592		13.671875
2593		25.390625
2594		9.765625
2595		21.484375
2596		5.859375
2597		17.578125
2598		3.906250
2599		11.718750
2600		-1.953125
2601		9.765625
2602		-3.906250
2603		5.859375
2604		-7.812500
2605		-1.953125
2606		-13.671875
2607		-5.859375
2608		-17.578125
2609		-7.812500
2610		-21.484375
2611		-11.718750
2612		-25.390625
2613		-15.625000
2614		-29.296875
2615		-19.531250
2616		-33.203125
2617		-23.437500
2618		-37.109375
2619		-27.343750
2620		-39.062500
2621		-33.203125
2622		-42.968750
2623		-37.109375
2624		-48.828125
2625		-39.062500
2626		-50.781250
2627		-42.968750
2628		-54.687500
2629		-44.921875
2630		-58.593750
2631		-48.828125
2632		-60.546875
2633		-50.781250
2634		-62.500000
2635		-54.687500
2636		-64.453125
2637		-56.640625
2638		-66.406250
2639		-62.500000
2640		-70.312500
2641		-62.500000
2642		-72.265625
2643		-64.453125
2644		-74.218750
2645		-66.406250
2646		-74.218750
2647		-68.359375
2648		-76.171875
2649		-68.359375
2650		-78.125000
2651		-70.312500
2652		-78.125000
2653		-70.312500
2654		-78.125000
2655		-74.218750
2656		-78.125000
2657		-74.218750
2658		-80.078125
2659		-72.265625
2660		-80.078125
2661		-72.265625
2662		-80.078125
2663		-72.265625
2664		-80.078125
2665		-72.265625
2666		-80.078125
2667		-72.265625
2668		-78.125000
2669		-70.312500
2670		-74.218750
2671		-72.265625
2672		-74.218750
2673		-70.312500
2674		-74.218750
2675		-66.406250
2676		-74.218750
2677		-64.453125
2678		-72.265625
2679		-62.500000
2680		-68.359375
2681		-60.546875
2682		-66.406250
2683		-58.593750
2684		-64.453125
2685		-56.640625
2686		-62.500000
2687		-54.687500
2688		-56.640625
2689		-52.734375
2690		-54.687500
2691		-46.875000
2692		-52.734375
2693		-44.921875
2694		-50.781250
2695		-41.015625
2696		-46.875000
2697		-39.062500
2698		-42.968750
2699		-33.203125
2700		-41.015625
2701		-29.296875
2702		-37.109375
2703		-27.343750
2704		-29.296875
2705		-25.390625
2706		-25.390625
2707		-19.531250
2708		-23.437500
2709		-15.625000
2710		-21.484375
2711		-11.718750
2712		-15.625000
2713		-5.859375
2714		-11.718750
2715		-1.953125
2716		-7.812500
2717		1.953125
2718		-3.906250
2719		5.859375
2720		1.953125
2721		7.812500
2722		5.859375
2723		11.718750
2724		9.765625
2725		17.578125
2726		13.671875
2727		23.437500
2728		15.625000
2729		25.390625
2730		19.531250
2731		29.296875
2732		25.390625
2733		33.203125
2734		27.343750
2735		37.109375
2736		31.250000
2737		39.062500
2738		39.062500
2739		42.968750
2740		41.015625
2741		48.828125
2742		42.968750
2743		52.734375
2744		46.875000
2745		56.640625
2746		50.781250
2747		58.593750
2748		54.687500
2749		62.500000
2750		56.640625
2751		64.453125
2752		60.546875
2753		68.359375
2754		64.453125
2755		68.359375
2756		66.406250
2757		70.312500
2758		68.359375
2759		76.171875
2760		70.312500
2761		78.125000
2762		72.265625
2763		80.078125
2764		74.218750
2765		82.031250
2766		76.171875
2767		83.984375
2768		78.125000
2769		85.937500
2770		80.078125
2771		85.937500
2772		83.984375
2773		85.937500
2774		82.031250
2775		89.843750
2776		83.984375
2777		89.843750
2778		83.984375
2779		91.796875
2780		83.984375
2781		91.796875
2782		83.984375
2783		91.796875
2784		85.937500
2785		91.796875
2786		85.937500
2787		91.796875
2788		87.890625
2789		89.843750
2790		87.890625
2791		89.843750
2792		83.984375
2793		91.796875
2794		83.984375
2795		91.796875
2796		83.984375
2797		89.843750
2798		82.031250
2799		89.843750
2800		82.031250
2801		87.890625
2802		80.078125
2803		87.890625
2804		80.078125
2805		85.937500
2806		80.078125
2807		82.031250
2808		74.218750
2809		82.031250
2810		72.265625
2811		80.078125
2812		70.312500
2813		78.125000
2814		68.359375
2815		76.171875
2816		64.453125
2817		74.218750
2818		62.500000
2819		72.265625
2820		62.500000
2821		68.359375
2822		60.546875
2823		64.453125
2824		56.640625
2825		60.546875
2826		50.781250
2827		60.546875
2828		48.828125
2829		56.640625
2830		42.968750
2831		52.734375
2832		41.015625
2833		50.781250
2834		37.109375
2835		44.921875
2836		33.203125
2837		42.968750
2838		31.250000
2839		37.109375
2840		27.343750
2841		33.203125
2842		21.484375
2843		29.296875
2844		17.578125
2845		27.343750
2846		13.671875
2847		23.437500
2848		9.765625
2849		19.531250
2850		3.906250
2851		15.625000
2852		0.000000
2853		11.718750
2854		-1.953125
2855		5.859375
2856		-5.859375
2857		0.000000
2858		-9.765625
2859		-3.906250
2860		-15.625000
2861		-5.859375
2862		-19.531250
2863		-9.765625
2864		-23.437500
2865		-13.671875
2866		-27.343750
2867		-19.531250
2868		-31.250000
2869		-21.484375
2870		-33.203125
2871		-25.390625
2872		-37.109375
2873		-31.250000
2874		-41.015625
2875		-35.156250
2876		-46.875000
2877		-39.062500
2878		-48.828125
2879		-41.015625
2880		-52.734375
2881		-42.968750
2882		-56.640625
2883		-46.875000
2884		-58.593750
2885		-50.781250
2886		-62.500000
2887		-52.734375
2888		-62.500000
2889		-56.640625
2890		-64.453125
2891		-60.546875
2892		-70.312500
2893		-62.500000
2894		-72.265625
2895		-62.500000
2896		-74.218750
2897		-64.453125
2898		-74.218750
2899		-66.406250
2900		-76.171875
2901		-68.359375
2902		-78.125000
2903		-70.312500
2904		-78.125000
2905		-70.312500
2906		-78.125000
2907		-74.218750
2908		-78.125000
2909		-74.218750
2910		-80.078125
2911		-72.265625
2912		-80.078125
2913		-74.218750
2914		-80.078125
2915		-72.265625
2916		-80.078125
2917		-74.218750
2918		-80.078125
2919		-72.265625
2920		-80.078125
2921		-72.265625
2922		-76.171875
2923		-72.265625
2924		-74.218750
2925		-72.265625
2926		-74.218750
2927		-68.359375
2928		-74.218750
2929		-66.406250
2930		-72.265625
2931		-64.453125
2932		-72.265625
2933		-62.500000
2934		-68.359375
2935		-60.546875
2936		-66.406250
2937		-58.593750
2938		-64.453125
2939		-56.640625
2940		-58.593750
2941		-54.687500
2942		-56.640625
2943		-48.828125
2944		-54.687500
2945		-46.875000
2946		-52.734375
2947		-42.968750
2948		-48.828125
2949		-41.015625
2950		-44.921875
2951		-37.109375
2952		-41.015625
2953		-33.203125
2954		-39.062500
2955		-29.296875
2956		-33.203125
2957		-27.343750
2958		-29.296875
2959		-23.437500
2960		-25.390625
2961		-17.578125
2962		-23.437500
2963		-13.671875
2964		-19.531250
2965		-9.765625
2966		-15.625000
2967		-5.859375
2968		-11.718750
2969		-1.953125
2970		-7.812500
2971		1.953125
2972		-1.953125
2973		5.859375
2974		3.906250
2975		9.765625
2976		7.812500
2977		15.625000
2978		9.765625
2979		19.531250
2980		13.671875
2981		23.437500
2982		17.578125
2983		27.343750
2984		21.484375
2985		31.250000
2986		25.390625
2987		35.156250
2988		29.296875
2989		37.109375
2990		35.156250
2991		41.015625
2992		39.062500
2993		44.921875
2994		41.015625
2995		48.828125
2996		42.968750
2997		52.734375
2998		48.828125
2999		56.640625
3000		50.781250
3001		60.546875
3002		54.687500
3003		62.500000
3004		56.640625
3005		66.406250
3006		60.546875
3007		66.406250
3008		64.453125
3009		68.359375
3010		66.406250
3011		74.218750
3012		68.359375
3013		76.171875
3014		70.312500
3015		78.125000
3016		72.265625
3017		80.078125
3018		74.218750
3019		82.031250
3020		76.171875
3021		83.984375
3022		78.125000
3023		83.984375
3024		82.031250
3025		85.937500
3026		83.984375
3027		85.937500
3028		82.031250
3029		89.843750
3030		83.984375
3031		89.843750
3032		83.984375
3033		91.796875
3034		83.984375
3035		91.796875
3036		83.984375
3037		91.796875
3038		85.937500
3039		91.796875
3040		87.890625
3041		89.843750
3042		87.890625
3043		89.843750
3044		85.937500
3045		91.796875
3046		83.984375
3047		91.796875
3048		83.984375
3049		89.843750
3050		83.984375
3051		89.843750
3052		82.031250
3053		89.843750
3054		80.078125
3055		87.890625
3056		80.078125
3057		87.890625
3058		80.078125
3059		82.031250
3060		76.171875
3061		82.031250
3062		74.218750
3063		82.031250
3064		72.265625
3065		80.078125
3066		68.359375
3067		78.125000
3068		66.406250
3069		76.171875
3070		64.453125
3071		72.265625
3072		62.500000
3073		70.312500
3074		60.546875
3075		64.453125
3076		56.640625
3077		62.500000
3078		52.734375
3079		60.546875
3080		48.828125
3081		58.593750
3082		46.875000
3083		56.640625
3084		42.968750
3085		52.734375
3086		39.062500
3087		48.828125
3088		35.156250
3089		42.968750
3090		33.203125
3091		41.015625
3092		29.296875
3093		35.156250
3094		23.437500
3095		31.250000
3096		19.531250
3097		29.296875
3098		15.625000
3099		25.390625
3100		11.718750
3101		21.484375
3102		7.812500
3103		17.578125
3104		3.906250
3105		11.718750
3106		0.000000
3107		7.812500
3108		-3.906250
3109		1.953125
3110		-7.812500
3111		-1.953125
3112		-13.671875
3113		-3.906250
3114		-17.578125
3115		-7.812500
3116		-21.484375
3117		-11.718750
3118		-25.390625
3119		-15.625000
3120		-29.296875
3121		-19.531250
3122		-33.203125
3123		-23.437500
3124		-35.156250
3125		-29.296875
3126		-39.062500
3127		-33.203125
3128		-44.921875
3129		-37.109375
3130		-48.828125
3131		-39.062500
3132		-50.781250
3133		-42.968750
3134		-54.687500
3135		-44.921875
3136		-56.640625
3137		-48.828125
3138		-60.546875
3139		-50.781250
3140		-60.546875
3141		-54.687500
3142		-64.453125
3143		-60.546875
3144		-66.406250
3145		-62.500000
3146		-70.312500
3147		-62.500000
3148		-72.265625
3149		-64.453125
3150		-74.218750
3151		-66.406250
3152		-76.171875
3153		-68.359375
3154		-76.171875
3155		-68.359375
3156		-78.125000
3157		-70.312500
3158		-76.171875
3159		-74.218750
3160		-78.125000
3161		-74.218750
3162		-80.078125
3163		-74.218750
3164		-80.078125
3165		-74.218750
3166		-80.078125
3167		-74.218750
3168		-80.078125
3169		-74.218750
3170		-80.078125
3171		-72.265625
3172		-80.078125
3173		-72.265625
3174		-80.078125
3175		-72.265625
3176		-76.171875
3177		-72.265625
3178		-76.171875
3179		-70.312500
3180		-78.125000
3181		-68.359375
3182		-74.218750
3183		-66.406250
3184		-72.265625
3185		-64.453125
3186		-70.312500
3187		-62.500000
3188		-68.359375
3189		-60.546875
3190		-66.406250
3191		-58.593750
3192		-60.546875
3193		-56.640625
3194		-58.593750
3195		-52.734375
3196		-58.593750
3197		-48.828125
3198		-54.687500
3199		-46.875000
3200		-50.781250
3201		-42.968750
3202		-48.828125
3203		-39.062500
3204		-44.921875
3205		-35.156250
3206		-41.015625
3207		-31.250000
3208		-35.156250
3209		-29.296875
3210		-31.250000
3211		-27.343750
3212		-29.296875
3213		-19.531250
3214		-25.390625
3215		-15.625000
3216		-21.484375
3217		-11.718750
3218		-17.578125
3219		-7.812500
3220		-13.671875
3221		-3.906250
3222		-9.765625
3223		0.000000
3224		-5.859375
3225		1.953125
3226		0.000000
3227		5.859375
3228		5.859375
3229		13.671875
3230		7.812500
3231		17.578125
3232		9.765625
3233		21.484375
3234		15.625000
3235		25.390625
3236		19.531250
3237		29.296875
3238		23.437500
3239		33.203125
3240		27.343750
3241		37.109375
3242		33.203125
3243		39.062500
3244		37.109375
3245		42.968750
3246		39.062500
3247		46.875000
3248		42.968750
3249		50.781250
3250		44.921875
3251		54.687500
3252		48.828125
3253		56.640625
3254		52.734375
3255		60.546875
3256		54.687500
3257		64.453125
3258		58.593750
3259		64.453125
3260		62.500000
3261		66.406250
3262		64.453125
3263		72.265625
3264		66.406250
3265		74.218750
3266		68.359375
3267		76.171875
3268		70.312500
3269		78.125000
3270		72.265625
3271		82.031250
3272		76.171875
3273		82.031250
3274		78.125000
3275		83.984375
3276		80.078125
3277		83.984375
3278		82.031250
3279		85.937500
3280		82.031250
3281		87.890625
3282		82.031250
3283		89.843750
3284		83.984375
3285		89.843750
3286		83.984375
3287		91.796875
3288		83.984375
3289		91.796875
3290		83.984375
3291		91.796875
3292		87.890625
3293		89.843750
3294		87.890625
3295		89.843750
3296		83.984375
3297		91.796875
3298		83.984375
3299		91.796875
3300		83.984375
3301		91.796875
3302		83.984375
3303		89.843750
3304		82.031250
3305		89.843750
3306		80.078125
3307		87.890625
3308		80.078125
3309		87.890625
3310		80.078125
3311		83.984375
3312		76.171875
3313		82.031250
3314		74.218750
3315		82.031250
3316		72.265625
3317		80.078125
3318		70.312500
3319		78.125000
3320		68.359375
3321		76.171875
3322		66.406250
3323		74.218750
3324		62.500000
3325		72.265625
3326		62.500000
3327		66.406250
3328		58.593750
3329		64.453125
3330		54.687500
3331		62.500000
3332		50.781250
3333		58.593750
3334		46.875000
3335		56.640625
3336		44.921875
3337		52.734375
3338		41.015625
3339		48.828125
3340		37.109375
3341		46.875000
3342		35.156250
3343		42.968750
3344		31.250000
3345		37.109375
3346		25.390625
3347		33.203125
3348		21.484375
3349		31.250000
3350		17.578125
3351		27.343750
3352		13.671875
3353		23.437500
3354		9.765625
3355		19.531250
3356		5.859375
3357		15.625000
3358		1.953125
3359		9.765625
3360		-1.953125
3361		3.906250
3362		-5.859375
3363		0.000000
3364		-11.718750
3365		-1.953125
3366		-15.625000
3367		-5.859375
3368		-19.531250
3369		-9.765625
3370		-23.437500
3371		-15.625000
3372		-27.343750
3373		-19.531250
3374		-31.250000
3375		-21.484375
3376		-33.203125
3377		-27.343750
3378		-37.109375
3379		-31.250000
3380		-42.968750
3381		-35.156250
3382		-46.875000
3383		-37.109375
3384		-48.828125
3385		-41.015625
3386		-52.734375
3387		-42.968750
3388		-56.640625
3389		-46.875000
3390		-58.593750
3391		-50.781250
3392		-60.546875
3393		-54.687500
3394		-62.500000
3395		-58.593750
3396		-66.406250
3397		-60.546875
3398		-68.359375
3399		-60.546875
3400		-72.265625
3401		-64.453125
3402		-74.218750
3403		-66.406250
3404		-76.171875
3405		-68.359375
3406		-76.171875
3407		-68.359375
3408		-78.125000
3409		-70.312500
3410		-76.171875
3411		-74.218750
3412		-78.125000
3413		-74.218750
3414		-80.078125
3415		-74.218750
3416		-80.078125
3417		-74.218750
3418		-80.078125
3419		-74.218750
3420		-82.031250
3421		-74.218750
3422		-82.031250
3423		-74.218750
3424		-80.078125
3425		-74.218750
3426		-80.078125
3427		-74.218750
3428		-76.171875
3429		-74.218750
3430		-76.171875
3431		-72.265625
3432		-76.171875
3433		-70.312500
3434		-74.218750
3435		-68.359375
3436		-72.265625
3437		-66.406250
3438		-70.312500
3439		-64.453125
3440		-68.359375
3441		-62.500000
3442		-66.406250
3443		-60.546875
3444		-62.500000
3445		-58.593750
3446		-60.546875
3447		-56.640625
3448		-60.546875
3449		-50.781250
3450		-56.640625
3451		-46.875000
3452		-52.734375
3453		-44.921875
3454		-50.781250
3455		-41.015625
3456		-46.875000
3457		-37.109375
3458		-42.968750
3459		-35.156250
3460		-37.109375
3461		-33.203125
3462		-33.203125
3463		-29.296875
3464		-31.250000
3465		-21.484375
3466		-27.343750
3467		-17.578125
3468		-23.437500
3469		-13.671875
3470		-19.531250
3471		-9.765625
3472		-15.625000
3473		-5.859375
3474		-11.718750
3475		-1.953125
3476		-7.812500
3477		0.000000
3478		-1.953125
3479		3.906250
3480		1.953125
3481		9.765625
3482		3.906250
3483		13.671875
3484		7.812500
3485		17.578125
3486		11.718750
3487		21.484375
3488		17.578125
3489		25.390625
3490		21.484375
3491		31.250000
3492		25.390625
3493		33.203125
3494		31.250000
3495		35.156250
3496		35.156250
3497		39.062500
3498		37.109375
3499		46.875000
3500		39.062500
3501		48.828125
3502		42.968750
3503		52.734375
3504		46.875000
3505		56.640625
3506		50.781250
3507		58.593750
3508		52.734375
3509		62.500000
3510		56.640625
3511		62.500000
3512		62.500000
3513		66.406250
3514		64.453125
3515		70.312500
3516		64.453125
3517		72.265625
3518		66.406250
3519		76.171875
3520		68.359375
3521		78.125000
3522		72.265625
3523		80.078125
3524		74.218750
3525		82.031250
3526		76.171875
3527		83.984375
3528		80.078125
3529		82.031250
3530		82.031250
3531		83.984375
3532		80.078125
3533		87.890625
3534		82.031250
3535		89.843750
3536		82.031250
3537		89.843750
3538		83.984375
3539		89.843750
3540		83.984375
3541		91.796875
3542		83.984375
3543		91.796875
3544		87.890625
3545		89.843750
3546		87.890625
3547		89.843750
3548		85.937500
3549		91.796875
3550		83.984375
3551		91.796875
3552		83.984375
3553		91.796875
3554		82.031250
3555		89.843750
3556		82.031250
3557		89.843750
3558		82.031250
3559		87.890625
3560		80.078125
3561		87.890625
3562		82.031250
3563		83.984375
3564		78.125000
3565		82.031250
3566		76.171875
3567		83.984375
3568		74.218750
3569		82.031250
3570		72.265625
3571		80.078125
3572		68.359375
3573		78.125000
3574		66.406250
3575		76.171875
3576		64.453125
3577		72.265625
3578		64.453125
3579		68.359375
3580		60.546875
3581		64.453125
3582		56.640625
3583		62.500000
3584		52.734375
3585		62.500000
3586		48.828125
3587		58.593750
3588		46.875000
3589		54.687500
3590		42.968750
3591		52.734375
3592		39.062500
3593		48.828125
3594		37.109375
3595		44.921875
3596		33.203125
3597		39.062500
3598		27.343750
3599		35.156250
3600		23.437500
3601		33.203125
3602		19.531250
3603		29.296875
3604		15.625000
3605		25.390625
3606		11.718750
3607		21.484375
3608		7.812500
3609		17.578125
3610		5.859375
3611		13.671875
3612		1.953125
3613		5.859375
3614		-1.953125
3615		1.953125
3616		-9.765625
3617		0.000000
3618		-11.718750
3619		-3.906250
3620		-17.578125
3621		-7.812500
3622		-21.484375
3623		-11.718750
3624		-25.390625
3625		-15.625000
3626		-29.296875
3627		-19.531250
3628		-31.250000
3629		-25.390625
3630		-35.156250
3631		-29.296875
3632		-41.015625
3633		-33.203125
3634		-44.921875
3635		-35.156250
3636		-46.875000
3637		-39.062500
3638		-50.781250
3639		-41.015625
3640		-54.687500
3641		-44.921875
3642		-56.640625
3643		-48.828125
3644		-58.593750
3645		-50.781250
3646		-60.546875
3647		-56.640625
3648		-64.453125
3649		-60.546875
3650		-68.359375
3651		-58.593750
3652		-70.312500
3653		-62.500000
3654		-72.265625
3655		-64.453125
3656		-74.218750
3657		-66.406250
3658		-76.171875
3659		-68.359375
3660		-76.171875
3661		-68.359375
3662		-76.171875
3663		-72.265625
3664		-78.125000
3665		-74.218750
3666		-80.078125
3667		-72.265625
3668		-80.078125
3669		-74.218750
3670		-80.078125
3671		-74.218750
3672		-82.031250
3673		-74.218750
3674		-80.078125
3675		-74.218750
3676		-80.078125
3677		-74.218750
3678		-80.078125
3679		-74.218750
3680		-78.125000
3681		-74.218750
3682		-78.125000
3683		-72.265625
3684		-78.125000
3685		-70.312500
3686		-76.171875
3687		-68.359375
3688		-76.171875
3689		-66.406250
3690		-74.218750
3691		-64.453125
3692		-70.312500
3693		-62.500000
3694		-68.359375
3695		-62.500000
3696		-64.453125
3697		-60.546875
3698		-62.500000
3699		-58.593750
3700		-60.546875
3701		-52.734375
3702		-58.593750
3703		-50.781250
3704		-56.640625
3705		-46.875000
3706		-52.734375
3707		-42.968750
3708		-48.828125
3709		-41.015625
3710		-44.921875
3711		-35.156250
3712		-41.015625
3713		-35.156250
3714		-37.109375
3715		-31.250000
3716		-33.203125
3717		-25.390625
3718		-31.250000
3719		-21.484375
3720		-27.343750
3721		-17.578125
3722		-23.437500
3723		-13.671875
3724		-19.531250
3725		-9.765625
3726		-13.671875
3727		-5.859375
3728		-11.718750
3729		-1.953125
3730		-3.906250
3731		1.953125
3732		0.000000
3733		5.859375
3734		1.953125
3735		11.718750
3736		5.859375
3737		15.625000
3738		9.765625
3739		19.531250
3740		13.671875
3741		23.437500
3742		17.578125
3743		27.343750
3744		21.484375
3745		31.250000
3746		29.296875
3747		33.203125
3748		31.250000
3749		37.109375
3750		35.156250
3751		42.968750
3752		37.109375
3753		46.875000
3754		41.015625
3755		50.781250
3756		44.921875
3757		52.734375
3758		48.828125
3759		56.640625
3760		52.734375
3761		60.546875
3762		54.687500
3763		60.546875
3764		60.546875
3765		64.453125
3766		62.500000
3767		70.312500
3768		64.453125
3769		72.265625
3770		66.406250
3771		74.218750
3772		68.359375
3773		76.171875
3774		70.312500
3775		78.125000
3776		72.265625
3777		80.078125
3778		74.218750
3779		82.031250
3780		78.125000
3781		82.031250
3782		80.078125
3783		83.984375
3784		80.078125
3785		87.890625
3786		80.078125
3787		87.890625
3788		82.031250
3789		89.843750
3790		82.031250
3791		89.843750
3792		82.031250
3793		89.843750
3794		83.984375
3795		91.796875
3796		83.984375
3797		91.796875
3798		87.890625
3799		89.843750
3800		85.937500
3801		91.796875
3802		83.984375
3803		91.796875
3804		83.984375
3805		91.796875
3806		83.984375
3807		89.843750
3808		83.984375
3809		89.843750
3810		82.031250
3811		89.843750
3812		80.078125
3813		89.843750
3814		82.031250
3815		85.937500
3816		78.125000
3817		83.984375
3818		76.171875
3819		83.984375
3820		74.218750
3821		82.031250
3822		72.265625
3823		80.078125
3824		70.312500
3825		78.125000
3826		68.359375
3827		76.171875
3828		66.406250
3829		74.218750
3830		66.406250
3831		70.312500
3832		62.500000
3833		66.406250
3834		56.640625
3835		64.453125
3836		54.687500
3837		62.500000
3838		52.734375
3839		60.546875
3840		48.828125
3841		56.640625
3842		44.921875
3843		54.687500
3844		41.015625
3845		50.781250
3846		39.062500
3847		46.875000
3848		35.156250
3849		41.015625
3850		31.250000
3851		37.109375
3852		25.390625
3853		35.156250
3854		21.484375
3855		31.250000
3856		17.578125
3857		27.343750
3858		13.671875
3859		23.437500
3860		9.765625
3861		19.531250
3862		7.812500
3863		15.625000
3864		3.906250
3865		9.765625
3866		0.000000
3867		5.859375
3868		-5.859375
3869		1.953125
3870		-9.765625
3871		-1.953125
3872		-13.671875
3873		-5.859375
3874		-17.578125
3875		-9.765625
3876		-23.437500
3877		-13.671875
3878		-27.343750
3879		-17.578125
3880		-29.296875
3881		-21.484375
3882		-33.203125
3883		-27.343750
3884		-39.062500
3885		-31.250000
3886		-42.968750
3887		-33.203125
3888		-46.875000
3889		-37.109375
3890		-46.875000
3891		-41.015625
3892		-50.781250
3893		-42.968750
3894		-54.687500
3895		-48.828125
3896		-58.593750
3897		-50.781250
3898		-58.593750
3899		-54.687500
3900		-62.500000
3901		-58.593750
3902		-66.406250
3903		-58.593750
3904		-68.359375
3905		-60.546875
3906		-70.312500
3907		-64.453125
3908		-74.218750
3909		-66.406250
3910		-72.265625
3911		-68.359375
3912		-76.171875
3913		-68.359375
3914		-76.171875
3915		-72.265625
3916		-76.171875
3917		-74.218750
3918		-80.078125
3919		-72.265625
3920		-80.078125
3921		-74.218750
3922		-80.078125
3923		-74.218750
3924		-80.078125
3925		-76.171875
3926		-80.078125
3927		-76.171875
3928		-80.078125
3929		-76.171875
3930		-80.078125
3931		-74.218750
3932		-78.125000
3933		-76.171875
3934		-78.125000
3935		-72.265625
3936		-78.125000
3937		-72.265625
3938		-76.171875
3939		-70.312500
3940		-74.218750
3941		-70.312500
3942		-72.265625
3943		-68.359375
3944		-70.312500
3945		-66.406250
3946		-68.359375
3947		-64.453125
3948		-66.406250
3949		-62.500000
3950		-64.453125
3951		-60.546875
3952		-62.500000
3953		-54.687500
3954		-58.593750
3955		-52.734375
3956		-54.687500
3957		-50.781250
3958		-52.734375
3959		-46.875000
3960		-48.828125
3961		-44.921875
3962		-46.875000
3963		-41.015625
3964		-42.968750
3965		-37.109375
3966		-39.062500
3967		-33.203125
3968		-35.156250
3969		-27.343750
3970		-33.203125
3971		-25.390625
3972		-29.296875
3973		-21.484375
3974		-23.437500
3975		-17.578125
3976		-19.531250
3977		-13.671875
3978		-15.625000
3979		-9.765625
3980		-11.718750
3981		-5.859375
3982		-7.812500
3983		-1.953125
3984		-3.906250
3985		1.953125
3986		1.953125
3987		5.859375
3988		5.859375
3989		11.718750
3990		9.765625
3991		15.625000
3992		13.671875
3993		19.531250
3994		17.578125
3995		23.437500
3996		21.484375
3997		29.296875
3998		25.390625
3999		31.250000
4000		29.296875
4001		35.156250
4002		33.203125
4003		39.062500
4004		37.109375
4005		42.968750
4006		41.015625
4007		46.875000
4008		44.921875
4009		48.828125
4010		46.875000
4011		52.734375
4012		50.781250
4013		56.640625
4014		54.687500
4015		58.593750
4016		56.640625
4017		62.500000
4018		60.546875
4019		66.406250
4020		62.500000
4021		68.359375
4022		66.406250
4023		70.312500
4024		68.359375
4025		72.265625
4026		70.312500
4027		76.171875
4028		74.218750
4029		78.125000
4030		76.171875
4031		80.078125
4032		78.125000
4033		80.078125
4034		80.078125
4035		82.031250
4036		80.078125
4037		83.984375
4038		82.031250
4039		85.937500
4040		82.031250
4041		87.890625
4042		83.984375
4043		87.890625
4044		83.984375
4045		87.890625
4046		85.937500
4047		89.843750
4048		85.937500
4049		89.843750
4050		87.890625
4051		89.843750
4052		85.937500
4053		89.843750
4054		85.937500
4055		89.843750
4056		85.937500
4057		89.843750
4058		85.937500
4059		87.890625
4060		85.937500
4061		87.890625
4062		83.984375
4063		87.890625
4064		83.984375
4065		87.890625
4066		82.031250
4067		85.937500
4068		82.031250
4069		83.984375
4070		80.078125
4071		83.984375
4072		78.125000
4073		82.031250
4074		76.171875
4075		80.078125
4076		74.218750
4077		78.125000
4078		72.265625
4079		76.171875
4080		68.359375
4081		74.218750
4082		66.406250
4083		70.312500
4084		64.453125
4085		68.359375
4086		60.546875
4087		66.406250
4088		58.593750
4089		62.500000
4090		54.687500
4091		60.546875
4092		52.734375
4093		58.593750
4094		48.828125
4095		54.687500
4096		44.921875
4097		50.781250
4098		41.015625
4099		46.875000
4100		39.062500
4101		42.968750
4102		33.203125
4103		39.062500
4104		29.296875
4105		37.109375
4106		27.343750
4107		31.250000
4108		21.484375
4109		29.296875
4110		17.578125
4111		23.437500
4112		13.671875
4113		21.484375
4114		9.765625
4115		15.625000
4116		5.859375
4117		11.718750
4118		1.953125
4119		7.812500
4120		-1.953125
4121		3.906250
4122		-5.859375
4123		-1.953125
4124		-9.765625
4125		-3.906250
4126		-13.671875
4127		-9.765625
4128		-19.531250
4129		-11.718750
4130		-23.437500
4131		-17.578125
4132		-27.343750
4133		-21.484375
4134		-31.250000
4135		-25.390625
4136		-35.156250
4137		-29.296875
4138		-39.062500
4139		-33.203125
4140		-42.968750
4141		-37.109375
4142		-44.921875
4143		-39.062500
4144		-48.828125
4145		-42.968750
4146		-52.734375
4147		-46.875000
4148		-54.687500
4149		-50.781250
4150		-58.593750
4151		-52.734375
4152		-60.546875
4153		-56.640625
4154		-62.500000
4155		-58.593750
4156		-66.406250
4157		-60.546875
4158		-68.359375
4159		-64.453125
4160		-70.312500
4161		-66.406250
4162		-72.265625
4163		-68.359375
4164		-74.218750
4165		-70.312500
4166		-74.218750
4167		-70.312500
4168		-76.171875
4169		-72.265625
4170		-78.125000
4171		-74.218750
4172		-78.125000
4173		-74.218750
4174		-78.125000
4175		-76.171875
4176		-78.125000
4177		-76.171875
4178		-78.125000
4179		-76.171875
4180		-80.078125
4181		-76.171875
4182		-80.078125
4183		-76.171875
4184		-78.125000
4185		-76.171875
4186		-78.125000
4187		-74.218750
4188		-78.125000
4189		-74.218750
4190		-76.171875
4191		-72.265625
4192		-74.218750
4193		-70.312500
4194		-74.218750
4195		-70.312500
4196		-72.265625
4197		-68.359375
4198		-70.312500
4199		-64.453125
4200		-66.406250
4201		-64.453125
4202		-64.453125
4203		-60.546875
4204		-62.500000
4205		-58.593750
4206		-60.546875
4207		-54.687500
4208		-58.593750
4209		-52.734375
4210		-54.687500
4211		-48.828125
4212		-50.781250
4213		-46.875000
4214		-48.828125
4215		-42.968750
4216		-44.921875
4217		-39.062500
4218		-41.015625
4219		-35.156250
4220		-37.109375
4221		-31.250000
4222		-33.203125
4223		-27.343750
4224		-29.296875
4225		-23.437500
4226		-25.390625
4227		-21.484375
4228		-21.484375
4229		-15.625000
4230		-17.578125
4231		-11.718750
4232		-15.625000
4233		-7.812500
4234		-9.765625
4235		-3.906250
4236		-5.859375
4237		0.000000
4238		-1.953125
4239		3.906250
4240		3.906250
4241		9.765625
4242		7.812500
4243		13.671875
4244		11.718750
4245		17.578125
4246		15.625000
4247		21.484375
4248		19.531250
4249		25.390625
4250		23.437500
4251		29.296875
4252		27.343750
4253		33.203125
4254		31.250000
4255		37.109375
4256		35.156250
4257		41.015625
4258		39.062500
4259		44.921875
4260		42.968750
4261		46.875000
4262		44.921875
4263		50.781250
4264		48.828125
4265		54.687500
4266		52.734375
4267		56.640625
4268		54.687500
4269		60.546875
4270		58.593750
4271		64.453125
4272		62.500000
4273		66.406250
4274		64.453125
4275		68.359375
4276		66.406250
4277		72.265625
4278		70.312500
4279		74.218750
4280		72.265625
4281		76.171875
4282		74.218750
4283		78.125000
4284		76.171875
4285		80.078125
4286		78.125000
4287		82.031250
4288		80.078125
4289		83.984375
4290		80.078125
4291		83.984375
4292		82.031250
4293		85.937500
4294		83.984375
4295		87.890625
4296		83.984375
4297		87.890625
4298		83.984375
4299		89.843750
4300		85.937500
4301		89.843750
4302		85.937500
4303		89.843750
4304		85.937500
4305		89.843750
4306		87.890625
4307		89.843750
4308		85.937500
4309		89.843750
4310		85.937500
4311		89.843750
4312		85.937500
4313		89.843750
4314		83.984375
4315		87.890625
4316		83.984375
4317		87.890625
4318		83.984375
4319		85.937500
4320		82.031250
4321		85.937500
4322		80.078125
4323		83.984375
4324		78.125000
4325		82.031250
4326		78.125000
4327		80.078125
4328		74.218750
4329		78.125000
4330		72.265625
4331		76.171875
4332		70.312500
4333		74.218750
4334		68.359375
4335		72.265625
4336		66.406250
4337		70.312500
4338		62.500000
4339		66.406250
4340		60.546875
4341		64.453125
4342		56.640625
4343		62.500000
4344		52.734375
4345		58.593750
4346		50.781250
4347		54.687500
4348		46.875000
4349		52.734375
4350		42.968750
4351		48.828125
4352		41.015625
4353		44.921875
4354		35.156250
4355		41.015625
4356		31.250000
4357		37.109375
4358		29.296875
4359		33.203125
4360		25.390625
4361		31.250000
4362		21.484375
4363		25.390625
4364		15.625000
4365		21.484375
4366		11.718750
4367		17.578125
4368		7.812500
4369		13.671875
4370		3.906250
4371		9.765625
4372		0.000000
4373		5.859375
4374		-3.906250
4375		1.953125
4376		-9.765625
4377		-1.953125
4378		-11.718750
4379		-7.812500
4380		-17.578125
4381		-9.765625
4382		-21.484375
4383		-15.625000
4384		-25.390625
4385		-19.531250
4386		-29.296875
4387		-23.437500
4388		-33.203125
4389		-27.343750
4390		-35.156250
4391		-31.250000
4392		-41.015625
4393		-35.156250
4394		-44.921875
4395		-39.062500
4396		-46.875000
4397		-41.015625
4398		-50.781250
4399		-44.921875
4400		-54.687500
4401		-46.875000
4402		-56.640625
4403		-52.734375
4404		-58.593750
4405		-54.687500
4406		-62.500000
4407		-56.640625
4408		-64.453125
4409		-60.546875
4410		-66.406250
4411		-62.500000
4412		-68.359375
4413		-64.453125
4414		-70.312500
4415		-66.406250
4416		-72.265625
4417		-68.359375
4418		-74.218750
4419		-70.312500
4420		-76.171875
4421		-72.265625
4422		-78.125000
4423		-74.218750
4424		-78.125000
4425		-74.218750
4426		-78.125000
4427		-76.171875
4428		-80.078125
4429		-76.171875
4430		-80.078125
4431		-76.171875
4432		-80.078125
4433		-76.171875
4434		-80.078125
4435		-76.171875
4436		-78.125000
4437		-76.171875
4438		-78.125000
4439		-74.218750
4440		-78.125000
4441		-74.218750
4442		-76.171875
4443		-74.218750
4444		-76.171875
4445		-70.312500
4446		-74.218750
4447		-70.312500
4448		-74.218750
4449		-68.359375
4450		-70.312500
4451		-66.406250
4452		-68.359375
4453		-64.453125
4454		-66.406250
4455		-62.500000
4456		-64.453125
4457		-60.546875
4458		-62.500000
4459		-56.640625
4460		-58.593750
4461		-52.734375
4462		-56.640625
4463		-50.781250
4464		-52.734375
4465		-48.828125
4466		-50.781250
4467		-44.921875
4468		-46.875000
4469		-41.015625
4470		-42.968750
4471		-37.109375
4472		-41.015625
4473		-33.203125
4474		-35.156250
4475		-31.250000
4476		-31.250000
4477		-25.390625
4478		-29.296875
4479		-23.437500
4480		-25.390625
4481		-19.531250
4482		-19.531250
4483		-13.671875
4484		-15.625000
4485		-9.765625
4486		-11.718750
4487		-5.859375
4488		-7.812500
4489		-1.953125
4490		-3.906250
4491		1.953125
4492		0.000000
4493		7.812500
4494		3.906250
4495		9.765625
4496		9.765625
4497		15.625000
4498		13.671875
4499		17.578125
4500		15.625000
4501		23.437500
4502		21.484375
4503		25.390625
4504		25.390625
4505		31.250000
4506		29.296875
4507		35.156250
4508		33.203125
4509		39.062500
4510		35.156250
4511		41.015625
4512		39.062500
4513		46.875000
4514		44.921875
4515		48.828125
4516		46.875000
4517		52.734375
4518		50.781250
4519		54.687500
4520		54.687500
4521		58.593750
4522		56.640625
4523		62.500000
4524		60.546875
4525		64.453125
4526		62.500000
4527		66.406250
4528		66.406250
4529		70.312500
4530		68.359375
4531		72.265625
4532		70.312500
4533		74.218750
4534		72.265625
4535		76.171875
4536		74.218750
4537		80.078125
4538		76.171875
4539		80.078125
4540		78.125000
4541		82.031250
4542		80.078125
4543		83.984375
4544		82.031250
4545		85.937500
4546		82.031250
4547		85.937500
4548		83.984375
4549		87.890625
4550		83.984375
4551		87.890625
4552		83.984375
4553		89.843750
4554		85.937500
4555		87.890625
4556		85.937500
4557		89.843750
4558		85.937500
4559		89.843750
4560		85.937500
4561		89.843750
4562		85.937500
4563		89.843750
4564		85.937500
4565		89.843750
4566		85.937500
4567		87.890625
4568		83.984375
4569		87.890625
4570		83.984375
4571		85.937500
4572		82.031250
4573		85.937500
4574		80.078125
4575		85.937500
4576		80.078125
4577		83.984375
4578		78.125000
4579		82.031250
4580		76.171875
4581		80.078125
4582		74.218750
4583		78.125000
4584		72.265625
4585		76.171875
4586		68.359375
4587		74.218750
4588		66.406250
4589		70.312500
4590		64.453125
4591		68.359375
4592		62.500000
4593		66.406250
4594		58.593750
4595		64.453125
4596		54.687500
4597		60.546875
4598		52.734375
4599		56.640625
4600		48.828125
4601		54.687500
4602		44.921875
4603		50.781250
4604		42.968750
4605		48.828125
4606		39.062500
4607		42.968750
4608		35.156250
4609		41.015625
4610		31.250000
4611		37.109375
4612		25.390625
4613		33.203125
4614		23.437500
4615		29.296875
4616		17.578125
4617		23.437500
4618		13.671875
4619		19.531250
4620		9.765625
4621		15.625000
4622		5.859375
4623		11.718750
4624		1.953125
4625		7.812500
4626		-1.953125
4627		3.906250
4628		-5.859375
4629		0.000000
4630		-9.765625
4631		-3.906250
4632		-15.625000
4633		-7.812500
4634		-19.531250
4635		-13.671875
4636		-23.437500
4637		-17.578125
4638		-27.343750
4639		-21.484375
4640		-31.250000
4641		-25.390625
4642		-35.156250
4643		-29.296875
4644		-39.062500
4645		-33.203125
4646		-41.015625
4647		-35.156250
4648		-44.921875
4649		-39.062500
4650		-48.828125
4651		-42.968750
4652		-52.734375
4653		-46.875000
4654		-54.687500
4655		-50.781250
4656		-58.593750
4657		-52.734375
4658		-60.546875
4659		-54.687500
4660		-62.500000
4661		-58.593750
4662		-66.406250
4663		-60.546875
4664		-68.359375
4665		-64.453125
4666		-70.312500
4667		-66.406250
4668		-72.265625
4669		-68.359375
4670		-74.218750
4671		-70.312500
4672		-74.218750
4673		-72.265625
4674		-76.171875
4675		-72.265625
4676		-78.125000
4677		-74.218750
4678		-78.125000
4679		-74.218750
4680		-78.125000
4681		-76.171875
4682		-80.078125
4683		-76.171875
4684		-80.078125
4685		-76.171875
4686		-80.078125
4687		-76.171875
4688		-78.125000
4689		-76.171875
4690		-78.125000
4691		-76.171875
4692		-78.125000
4693		-76.171875
4694		-78.125000
4695		-74.218750
4696		-76.171875
4697		-74.218750
4698		-76.171875
4699		-72.265625
4700		-74.218750
4701		-68.359375
4702		-72.265625
4703		-68.359375
4704		-72.265625
4705		-66.406250
4706		-68.359375
4707		-64.453125
4708		-66.406250
4709		-62.500000
4710		-62.500000
4711		-58.593750
4712		-60.546875
4713		-56.640625
4714		-58.593750
4715		-52.734375
4716		-54.687500
4717		-50.781250
4718		-52.734375
4719		-46.875000
4720		-48.828125
4721		-42.968750
4722		-44.921875
4723		-41.015625
4724		-41.015625
4725		-37.109375
4726		-39.062500
4727		-33.203125
4728		-35.156250
4729		-29.296875
4730		-31.250000
4731		-25.390625
4732		-27.343750
4733		-21.484375
4734		-23.437500
4735		-17.578125
4736		-19.531250
4737		-13.671875
4738		-13.671875
4739		-9.765625
4740		-11.718750
4741		-3.906250
4742		-5.859375
4743		0.000000
4744		-1.953125
4745		3.906250
4746		1.953125
4747		7.812500
4748		5.859375
4749		11.718750
4750		9.765625
4751		15.625000
4752		13.671875
4753		19.531250
4754		17.578125
4755		23.437500
4756		23.437500
4757		27.343750
4758		27.343750
4759		33.203125
4760		29.296875
4761		35.156250
4762		33.203125
4763		39.062500
4764		37.109375
4765		42.968750
4766		41.015625
4767		46.875000
4768		44.921875
4769		50.781250
4770		48.828125
4771		52.734375
4772		52.734375
4773		56.640625
4774		54.687500
4775		60.546875
4776		56.640625
4777		62.500000
4778		60.546875
4779		64.453125
4780		64.453125
4781		68.359375
4782		64.453125
4783		70.312500
4784		68.359375
4785		74.218750
4786		70.312500
4787		76.171875
4788		72.265625
4789		76.171875
4790		76.171875
4791		78.125000
4792		76.171875
4793		82.031250
4794		80.078125
4795		83.984375
4796		80.078125
4797		83.984375
4798		82.031250
4799		85.937500
4800		83.984375
4801		85.937500
4802		83.984375
4803		87.890625
4804		83.984375
4805		87.890625
4806		85.937500
4807		87.890625
4808		85.937500
4809		89.843750
4810		85.937500
4811		89.843750
4812		85.937500
4813		89.843750
4814		85.937500
4815		89.843750
4816		85.937500
4817		89.843750
4818		85.937500
4819		89.843750
4820		83.984375
4821		87.890625
4822		83.984375
4823		87.890625
4824		83.984375
4825		85.937500
4826		82.031250
4827		85.937500
4828		80.078125
4829		83.984375
4830		78.125000
4831		83.984375
4832		76.171875
4833		80.078125
4834		76.171875
4835		80.078125
4836		72.265625
4837		78.125000
4838		70.312500
4839		76.171875
4840		68.359375
4841		72.265625
4842		64.453125
4843		70.312500
4844		62.500000
4845		68.359375
4846		60.546875
4847		66.406250
4848		56.640625
4849		62.500000
4850		54.687500
4851		58.593750
4852		50.781250
4853		56.640625
4854		46.875000
4855		52.734375
4856		44.921875
4857		48.828125
4858		41.015625
4859		44.921875
4860		37.109375
4861		42.968750
4862		33.203125
4863		39.062500
4864		29.296875
4865		35.156250
4866		25.390625
4867		31.250000
4868		21.484375
4869		27.343750
4870		15.625000
4871		23.437500
4872		13.671875
4873		19.531250
4874		9.765625
4875		13.671875
4876		3.906250
4877		9.765625
4878		0.000000
4879		5.859375
4880		-3.906250
4881		1.953125
4882		-7.812500
4883		-1.953125
4884		-11.718750
4885		-5.859375
4886		-15.625000
4887		-9.765625
4888		-19.531250
4889		-13.671875
4890		-23.437500
4891		-19.531250
4892		-29.296875
4893		-23.437500
4894		-33.203125
4895		-27.343750
4896		-35.156250
4897		-31.250000
4898		-39.062500
4899		-33.203125
4900		-42.968750
4901		-39.062500
4902		-46.875000
4903		-41.015625
4904		-50.781250
4905		-44.921875
4906		-52.734375
4907		-48.828125
4908		-56.640625
4909		-50.781250
4910		-60.546875
4911		-54.687500
4912		-62.500000
4913		-58.593750
4914		-64.453125
4915		-60.546875
4916		-66.406250
4917		-62.500000
4918		-68.359375
4919		-64.453125
4920		-72.265625
4921		-66.406250
4922		-72.265625
4923		-68.359375
4924		-74.218750
4925		-70.312500
4926		-76.171875
4927		-72.265625
4928		-76.171875
4929		-74.218750
4930		-78.125000
4931		-74.218750
4932		-78.125000
4933		-76.171875
4934		-80.078125
4935		-76.171875
4936		-80.078125
4937		-76.171875
4938		-80.078125
4939		-76.171875
4940		-80.078125
4941		-76.171875
4942		-78.125000
4943		-76.171875
4944		-80.078125
4945		-76.171875
4946		-78.125000
4947		-74.218750
4948		-78.125000
4949		-74.218750
4950		-78.125000
4951		-72.265625
4952		-74.218750
4953		-70.312500
4954		-74.218750
4955		-70.312500
4956		-72.265625
4957		-68.359375
4958		-68.359375
4959		-66.406250
4960		-66.406250
4961		-62.500000
4962		-66.406250
4963		-60.546875
4964		-62.500000
4965		-58.593750
4966		-60.546875
4967		-54.687500
4968		-56.640625
4969		-52.734375
4970		-54.687500
4971		-48.828125
4972		-50.781250
4973		-44.921875
4974		-48.828125
4975		-42.968750
4976		-42.968750
4977		-39.062500
4978		-41.015625
4979		-35.156250
4980		-37.109375
4981		-31.250000
4982		-33.203125
4983		-27.343750
4984		-29.296875
4985		-23.437500
4986		-25.390625
4987		-19.531250
4988		-21.484375
4989		-15.625000
4990		-17.578125
4991		-11.718750
4992		-13.671875
4993		-7.812500
4994		-9.765625
4995		-3.906250
4996		-3.906250
4997		0.000000
4998		0.000000
4999		5.859375
5000		3.906250
5001		9.765625
5002		7.812500
5003		13.671875
5004		11.718750
5005		17.578125
5006		15.625000
5007		21.484375
5008		19.531250
5009		25.390625
5010		23.437500
5011		29.296875
5012		27.343750
5013		33.203125
5014		31.250000
5015		37.109375
5016		35.156250
5017		41.015625
5018		39.062500
5019		46.875000
5020		42.968750
5021		46.875000
5022		44.921875
5023		50.781250
5024		50.781250
5025		54.687500
5026		52.734375
5027		56.640625
5028		56.640625
5029		60.546875
5030		58.593750
5031		64.453125
5032		62.500000
5033		66.406250
5034		64.453125
5035		70.312500
5036		68.359375
5037		72.265625
5038		70.312500
5039		74.218750
5040		72.265625
5041		76.171875
5042		74.218750
5043		78.125000
5044		76.171875
5045		80.078125
5046		78.125000
5047		82.031250
5048		80.078125
5049		82.031250
5050		80.078125
5051		83.984375
5052		82.031250
5053		85.937500
5054		82.031250
5055		87.890625
5056		83.984375
5057		87.890625
5058		85.937500
5059		87.890625
5060		85.937500
5061		87.890625
5062		85.937500
5063		89.843750
5064		85.937500
5065		89.843750
5066		85.937500
5067		89.843750
5068		85.937500
5069		89.843750
5070		85.937500
5071		89.843750
5072		85.937500
5073		87.890625
5074		83.984375
5075		87.890625
5076		83.984375
5077		85.937500
5078		82.031250
5079		85.937500
5080		80.078125
5081		83.984375
5082		80.078125
5083		83.984375
5084		78.125000
5085		82.031250
5086		76.171875
5087		80.078125
5088		74.218750
5089		78.125000
5090		72.265625
5091		76.171875
5092		70.312500
5093		74.218750
5094		66.406250
5095		70.312500
5096		64.453125
5097		70.312500
5098		60.546875
5099		66.406250
5100		58.593750
5101		64.453125
5102		56.640625
5103		60.546875
5104		52.734375
5105		56.640625
5106		48.828125
5107		54.687500
5108		46.875000
5109		50.781250
5110		42.968750
5111		46.875000
5112		39.062500
5113		44.921875
5114		35.156250
5115		41.015625
5116		31.250000
5117		37.109375
5118		27.343750
5119		33.203125
5120		23.437500
5121		29.296875
5122		19.531250
5123		25.390625
5124		15.625000
5125		21.484375
5126		11.718750
5127		15.625000
5128		7.812500
5129		13.671875
5130		1.953125
5131		7.812500
5132		-1.953125
5133		5.859375
5134		-5.859375
5135		0.000000
5136		-9.765625
5137		-3.906250
5138		-13.671875
5139		-7.812500
5140		-17.578125
5141		-11.718750
5142		-21.484375
5143		-15.625000
5144		-27.343750
5145		-21.484375
5146		-29.296875
5147		-23.437500
5148		-33.203125
5149		-27.343750
5150		-37.109375
5151		-31.250000
5152		-41.015625
5153		-37.109375
5154		-44.921875
5155		-39.062500
5156		-48.828125
5157		-42.968750
5158		-50.781250
5159		-46.875000
5160		-54.687500
5161		-50.781250
5162		-56.640625
5163		-52.734375
5164		-60.546875
5165		-54.687500
5166		-62.500000
5167		-58.593750
5168		-66.406250
5169		-60.546875
5170		-68.359375
5171		-64.453125
5172		-70.312500
5173		-66.406250
5174		-72.265625
5175		-68.359375
5176		-74.218750
5177		-70.312500
5178		-74.218750
5179		-72.265625
5180		-76.171875
5181		-72.265625
5182		-78.125000
5183		-74.218750
5184		-78.125000
5185		-76.171875
5186		-80.078125
5187		-76.171875
5188		-80.078125
5189		-76.171875
5190		-82.031250
5191		-76.171875
5192		-80.078125
5193		-76.171875
5194		-80.078125
5195		-78.125000
5196		-80.078125
5197		-76.171875
5198		-80.078125
5199		-76.171875
5200		-78.125000
5201		-74.218750
5202		-78.125000
5203		-74.218750
5204		-76.171875
5205		-72.265625
5206		-74.218750
5207		-70.312500
5208		-72.265625
5209		-68.359375
5210		-70.312500
5211		-66.406250
5212		-70.312500
5213		-64.453125
5214		-66.406250
5215		-62.500000
5216		-64.453125
5217		-60.546875
5218		-62.500000
5219		-56.640625
5220		-58.593750
5221		-54.687500
5222		-56.640625
5223		-50.781250
5224		-52.734375
5225		-48.828125
5226		-50.781250
5227		-44.921875
5228		-46.875000
5229		-41.015625
5230		-44.921875
5231		-37.109375
5232		-39.062500
5233		-33.203125
5234		-35.156250
5235		-29.296875
5236		-31.250000
5237		-27.343750
5238		-27.343750
5239		-21.484375
5240		-23.437500
5241		-17.578125
5242		-19.531250
5243		-13.671875
5244		-15.625000
5245		-9.765625
5246		-11.718750
5247		-5.859375
5248		-7.812500
5249		-1.953125
5250		-3.906250
5251		1.953125
5252		0.000000
5253		5.859375
5254		5.859375
5255		11.718750
5256		9.765625
5257		15.625000
5258		13.671875
5259		19.531250
5260		17.578125
5261		23.437500
5262		21.484375
5263		27.343750
5264		25.390625
5265		31.250000
5266		29.296875
5267		35.156250
5268		33.203125
5269		39.062500
5270		37.109375
5271		42.968750
5272		41.015625
5273		46.875000
5274		42.968750
5275		50.781250
5276		46.875000
5277		52.734375
5278		50.781250
5279		54.687500
5280		52.734375
5281		58.593750
5282		56.640625
5283		62.500000
5284		60.546875
5285		64.453125
5286		62.500000
5287		68.359375
5288		66.406250
5289		70.312500
5290		68.359375
5291		72.265625
5292		70.312500
5293		74.218750
5294		72.265625
5295		76.171875
5296		74.218750
5297		80.078125
5298		76.171875
5299		80.078125
5300		78.125000
5301		82.031250
5302		80.078125
5303		83.984375
5304		80.078125
5305		85.937500
5306		82.031250
5307		85.937500
5308		83.984375
5309		87.890625
5310		83.984375
5311		87.890625
5312		85.937500
5313		87.890625
5314		85.937500
5315		89.843750
5316		85.937500
5317		89.843750
5318		85.937500
5319		89.843750
5320		85.937500
5321		89.843750
5322		85.937500
5323		87.890625
5324		83.984375
5325		87.890625
5326		83.984375
5327		87.890625
5328		83.984375
5329		85.937500
5330		82.031250
5331		85.937500
5332		80.078125
5333		85.937500
5334		80.078125
5335		83.984375
5336		78.125000
5337		82.031250
5338		76.171875
5339		80.078125
5340		74.218750
5341		78.125000
5342		74.218750
5343		78.125000
5344		70.312500
5345		74.218750
5346		66.406250
5347		72.265625
5348		66.406250
5349		72.265625
5350		62.500000
5351		68.359375
5352		60.546875
5353		64.453125
5354		56.640625
5355		62.500000
5356		54.687500
5357		60.546875
5358		50.781250
5359		56.640625
5360		48.828125
5361		52.734375
5362		44.921875
5363		48.828125
5364		41.015625
5365		46.875000
5366		37.109375
5367		42.968750
5368		33.203125
5369		39.062500
5370		29.296875
5371		35.156250
5372		25.390625
5373		31.250000
5374		21.484375
5375		27.343750
5376		17.578125
5377		23.437500
5378		13.671875
5379		19.531250
5380		9.765625
5381		15.625000
5382		5.859375
5383		9.765625
5384		0.000000
5385		5.859375
5386		-3.906250
5387		1.953125
5388		-7.812500
5389		-1.953125
5390		-11.718750
5391		-5.859375
5392		-15.625000
5393		-9.765625
5394		-19.531250
5395		-13.671875
5396		-23.437500
5397		-19.531250
5398		-27.343750
5399		-21.484375
5400		-31.250000
5401		-25.390625
5402		-35.156250
5403		-29.296875
5404		-39.062500
5405		-33.203125
5406		-42.968750
5407		-37.109375
5408		-46.875000
5409		-41.015625
5410		-48.828125
5411		-44.921875
5412		-52.734375
5413		-48.828125
5414		-56.640625
5415		-50.781250
5416		-58.593750
5417		-54.687500
5418		-60.546875
5419		-56.640625
5420		-64.453125
5421		-60.546875
5422		-66.406250
5423		-62.500000
5424		-68.359375
5425		-64.453125
5426		-70.312500
5427		-66.406250
5428		-72.265625
5429		-68.359375
5430		-74.218750
5431		-70.312500
5432		-76.171875
5433		-72.265625
5434		-76.171875
5435		-74.218750
5436		-78.125000
5437		-74.218750
5438		-78.125000
5439		-76.171875
5440		-80.078125
5441		-76.171875
5442		-80.078125
5443		-76.171875
5444		-80.078125
5445		-78.125000
5446		-80.078125
5447		-78.125000
5448		-80.078125
5449		-76.171875
5450		-78.125000
5451		-76.171875
5452		-78.125000
5453		-74.218750
5454		-78.125000
5455		-74.218750
5456		-76.171875
5457		-72.265625
5458		-76.171875
5459		-72.265625
5460		-74.218750
5461		-70.312500
5462		-72.265625
5463		-68.359375
5464		-70.312500
5465		-66.406250
5466		-68.359375
5467		-64.453125
5468		-66.406250
5469		-60.546875
5470		-62.500000
5471		-58.593750
5472		-60.546875
5473		-54.687500
5474		-56.640625
5475		-52.734375
5476		-54.687500
5477		-50.781250
5478		-50.781250
5479		-46.875000
5480		-48.828125
5481		-42.968750
5482		-46.875000
5483		-39.062500
5484		-41.015625
5485		-35.156250
5486		-37.109375
5487		-33.203125
5488		-33.203125
5489		-27.343750
5490		-29.296875
5491		-23.437500
5492		-27.343750
5493		-21.484375
5494		-21.484375
5495		-15.625000
5496		-17.578125
5497		-11.718750
5498		-13.671875
5499		-7.812500
5500		-9.765625
5501		-3.906250
5502		-5.859375
5503		0.000000
5504		-1.953125
5505		3.906250
5506		1.953125
5507		7.812500
5508		5.859375
5509		11.718750
5510		11.718750
5511		15.625000
5512		13.671875
5513		21.484375
5514		19.531250
5515		25.390625
5516		23.437500
5517		29.296875
5518		27.343750
5519		33.203125
5520		31.250000
5521		37.109375
5522		35.156250
5523		41.015625
5524		37.109375
5525		42.968750
5526		41.015625
5527		48.828125
5528		44.921875
5529		50.781250
5530		48.828125
5531		54.687500
5532		52.734375
5533		56.640625
5534		54.687500
5535		60.546875
5536		58.593750
5537		64.453125
5538		60.546875
5539		66.406250
5540		62.500000
5541		68.359375
5542		66.406250
5543		70.312500
5544		68.359375
5545		74.218750
5546		72.265625
5547		76.171875
5548		74.218750
5549		78.125000
5550		76.171875
5551		80.078125
5552		76.171875
5553		82.031250
5554		80.078125
5555		82.031250
5556		80.078125
5557		85.937500
5558		82.031250
5559		85.937500
5560		83.984375
5561		85.937500
5562		83.984375
5563		87.890625
5564		85.937500
5565		87.890625
5566		85.937500
5567		87.890625
5568		85.937500
5569		89.843750
5570		85.937500
5571		89.843750
5572		85.937500
5573		89.843750
5574		85.937500
5575		89.843750
5576		85.937500
5577		87.890625
5578		83.984375
5579		89.843750
5580		83.984375
5581		87.890625
5582		82.031250
5583		87.890625
5584		82.031250
5585		85.937500
5586		82.031250
5587		83.984375
5588		80.078125
5589		82.031250
5590		78.125000
5591		82.031250
5592		76.171875
5593		80.078125
5594		74.218750
5595		78.125000
5596		72.265625
5597		76.171875
5598		70.312500
5599		74.218750
5600		66.406250
5601		72.265625
5602		64.453125
5603		68.359375
5604		62.500000
5605		66.406250
5606		58.593750
5607		64.453125
5608		56.640625
5609		60.546875
5610		52.734375
5611		56.640625
5612		48.828125
5613		54.687500
5614		46.875000
5615		50.781250
5616		42.968750
5617		46.875000
5618		39.062500
5619		44.921875
5620		35.156250
5621		41.015625
5622		31.250000
5623		37.109375
5624		27.343750
5625		33.203125
5626		23.437500
5627		29.296875
5628		19.531250
5629		25.390625
5630		15.625000
5631		21.484375
5632		9.765625
5633		17.578125
5634		7.812500
5635		13.671875
5636		3.906250
5637		7.812500
5638		-1.953125
5639		3.906250
5640		-5.859375
5641		0.000000
5642		-9.765625
5643		-3.906250
5644		-13.671875
5645		-7.812500
5646		-17.578125
5647		-11.718750
5648		-21.484375
5649		-15.625000
5650		-25.390625
5651		-19.531250
5652		-31.250000
5653		-23.437500
5654		-33.203125
5655		-27.343750
5656		-37.109375
5657		-31.250000
5658		-41.015625
5659		-35.156250
5660		-44.921875
5661		-39.062500
5662		-46.875000
5663		-42.968750
5664		-50.781250
5665		-46.875000
5666		-54.687500
5667		-48.828125
5668		-58.593750
5669		-52.734375
5670		-60.546875
5671		-56.640625
5672		-64.453125
5673		-58.593750
5674		-64.453125
5675		-60.546875
5676		-68.359375
5677		-62.500000
5678		-70.312500
5679		-66.406250
5680		-72.265625
5681		-68.359375
5682		-74.218750
5683		-70.312500
5684		-76.171875
5685		-72.265625
5686		-76.171875
5687		-72.265625
5688		-78.125000
5689		-74.218750
5690		-78.125000
5691		-76.171875
5692		-80.078125
5693		-76.171875
5694		-80.078125
5695		-76.171875
5696		-80.078125
5697		-78.125000
5698		-80.078125
5699		-78.125000
5700		-80.078125
5701		-76.171875
5702		-80.078125
5703		-76.171875
5704		-80.078125
5705		-76.171875
5706		-78.125000
5707		-76.171875
5708		-78.125000
5709		-74.218750
5710		-76.171875
5711		-72.265625
5712		-76.171875
5713		-72.265625
5714		-72.265625
5715		-70.312500
5716		-72.265625
5717		-66.406250
5718		-70.312500
5719		-66.406250
5720		-68.359375
5721		-62.500000
5722		-64.453125
5723		-60.546875
5724		-62.500000
5725		-58.593750
5726		-60.546875
5727		-54.687500
5728		-56.640625
5729		-50.781250
5730		-52.734375
5731		-48.828125
5732		-50.781250
5733		-44.921875
5734		-46.875000
5735		-41.015625
5736		-42.968750
5737		-39.062500
5738		-39.062500
5739		-35.156250
5740		-37.109375
5741		-31.250000
5742		-33.203125
5743		-27.343750
5744		-29.296875
5745		-23.437500
5746		-25.390625
5747		-19.531250
5748		-19.531250
5749		-15.625000
5750		-17.578125
5751		-11.718750
5752		-11.718750
5753		-7.812500
5754		-9.765625
5755		-1.953125
5756		-3.906250
5757		1.953125
5758		0.000000
5759		5.859375
5760		3.906250
5761		9.765625
5762		7.812500
5763		13.671875
5764		11.718750
5765		17.578125
5766		15.625000
5767		23.437500
5768		19.531250
5769		25.390625
5770		23.437500
5771		29.296875
5772		27.343750
5773		33.203125
5774		31.250000
5775		37.109375
5776		35.156250
5777		41.015625
5778		39.062500
5779		44.921875
5780		42.968750
5781		48.828125
5782		46.875000
5783		50.781250
5784		50.781250
5785		54.687500
5786		52.734375
5787		58.593750
5788		56.640625
5789		60.546875
5790		58.593750
5791		64.453125
5792		62.500000
5793		68.359375
5794		64.453125
5795		70.312500
5796		66.406250
5797		72.265625
5798		70.312500
5799		74.218750
5800		72.265625
5801		76.171875
5802		74.218750
5803		78.125000
5804		76.171875
5805		80.078125
5806		76.171875
5807		82.031250
5808		78.125000
5809		83.984375
5810		82.031250
5811		85.937500
5812		82.031250
5813		85.937500
5814		83.984375
5815		85.937500
5816		83.984375
5817		87.890625
5818		83.984375
5819		87.890625
5820		85.937500
5821		89.843750
5822		85.937500
5823		89.843750
5824		85.937500
5825		89.843750
5826		85.937500
5827		89.843750
5828		85.937500
5829		87.890625
5830		85.937500
5831		89.843750
5832		83.984375
5833		87.890625
5834		83.984375
5835		87.890625
5836		82.031250
5837		87.890625
5838		80.078125
5839		87.890625
5840		80.078125
5841		83.984375
5842		78.125000
5843		83.984375
5844		76.171875
5845		82.031250
5846		74.218750
5847		80.078125
5848		74.218750
5849		78.125000
5850		72.265625
5851		76.171875
5852		68.359375
5853		74.218750
5854		64.453125
5855		72.265625
5856		62.500000
5857		68.359375
5858		60.546875
5859		66.406250
5860		56.640625
5861		64.453125
5862		52.734375
5863		60.546875
5864		50.781250
5865		56.640625
5866		48.828125
5867		52.734375
5868		44.921875
5869		48.828125
5870		41.015625
5871		46.875000
5872		37.109375
5873		42.968750
5874		33.203125
5875		41.015625
5876		29.296875
5877		35.156250
5878		25.390625
5879		31.250000
5880		21.484375
5881		29.296875
5882		17.578125
5883		23.437500
5884		11.718750
5885		19.531250
5886		7.812500
5887		15.625000
5888		3.906250
5889		11.718750
5890		1.953125
5891		7.812500
5892		-3.906250
5893		3.906250
5894		-7.812500
5895		0.000000
5896		-11.718750
5897		-3.906250
5898		-15.625000
5899		-9.765625
5900		-19.531250
5901		-13.671875
5902		-23.437500
5903		-17.578125
5904		-29.296875
5905		-21.484375
5906		-33.203125
5907		-25.390625
5908		-35.156250
5909		-29.296875
5910		-39.062500
5911		-33.203125
5912		-42.968750
5913		-37.109375
5914		-44.921875
5915		-41.015625
5916		-48.828125
5917		-44.921875
5918		-54.687500
5919		-48.828125
5920		-56.640625
5921		-48.828125
5922		-58.593750
5923		-52.734375
5924		-62.500000
5925		-56.640625
5926		-64.453125
5927		-58.593750
5928		-68.359375
5929		-60.546875
5930		-68.359375
5931		-64.453125
5932		-70.312500
5933		-66.406250
5934		-72.265625
5935		-68.359375
5936		-76.171875
5937		-70.312500
5938		-76.171875
5939		-70.312500
5940		-78.125000
5941		-72.265625
5942		-78.125000
5943		-74.218750
5944		-80.078125
5945		-74.218750
5946		-80.078125
5947		-76.171875
5948		-80.078125
5949		-76.171875
5950		-80.078125
5951		-78.125000
5952		-82.031250
5953		-78.125000
5954		-80.078125
5955		-78.125000
5956		-80.078125
5957		-76.171875
5958		-78.125000
5959		-76.171875
5960		-78.125000
5961		-74.218750
5962		-76.171875
5963		-74.218750
5964		-76.171875
5965		-72.265625
5966		-74.218750
5967		-70.312500
5968		-72.265625
5969		-68.359375
5970		-70.312500
5971		-66.406250
5972		-68.359375
5973		-64.453125
5974		-66.406250
5975		-62.500000
5976		-64.453125
5977		-60.546875
5978		-60.546875
5979		-56.640625
5980		-58.593750
5981		-52.734375
5982		-54.687500
5983		-50.781250
5984		-52.734375
5985		-46.875000
5986		-48.828125
5987		-44.921875
5988		-44.921875
5989		-41.015625
5990		-41.015625
5991		-37.109375
5992		-39.062500
5993		-33.203125
5994		-35.156250
5995		-29.296875
5996		-31.250000
5997		-25.390625
5998		-27.343750
5999		-21.484375
6000		-23.437500
6001		-17.578125
6002		-17.578125
6003		-13.671875
6004		-15.625000
6005		-9.765625
6006		-9.765625
6007		-3.906250
6008		-5.859375
6009		0.000000
6010		-1.953125
6011		3.906250
6012		1.953125
6013		7.812500
6014		5.859375
6015		11.718750
6016		9.765625
6017		15.625000
6018		13.671875
6019		19.531250
6020		17.578125
6021		23.437500
6022		23.437500
6023		27.343750
6024		27.343750
6025		31.250000
6026		29.296875
6027		35.156250
6028		35.156250
6029		39.062500
6030		39.062500
6031		42.968750
6032		41.015625
6033		46.875000
6034		44.921875
6035		50.781250
6036		48.828125
6037		52.734375
6038		52.734375
6039		56.640625
6040		54.687500
6041		60.546875
6042		58.593750
6043		62.500000
6044		60.546875
6045		64.453125
6046		64.453125
6047		68.359375
6048		66.406250
6049		70.312500
6050		68.359375
6051		72.265625
6052		70.312500
6053		78.125000
6054		70.312500
6055		80.078125
6056		72.265625
6057		82.031250
6058		74.218750
6059		82.031250
6060		80.078125
6061		82.031250
6062		80.078125
6063		83.984375
6064		82.031250
6065		83.984375
6066		83.984375
6067		85.937500
6068		83.984375
6069		87.890625
6070		82.031250
6071		91.796875
6072		82.031250
6073		91.796875
6074		82.031250
6075		91.796875
6076		85.937500
6077		87.890625
6078		85.937500
6079		87.890625
6080		85.937500
6081		87.890625
6082		85.937500
6083		87.890625
6084		85.937500
6085		87.890625
6086		82.031250
6087		89.843750
6088		80.078125
6089		89.843750
6090		78.125000
6091		87.890625
6092		78.125000
6093		87.890625
6094		80.078125
6095		83.984375
6096		78.125000
6097		82.031250
6098		76.171875
6099		80.078125
6100		74.218750
6101		78.125000
6102		72.265625
6103		76.171875
6104		68.359375
6105		78.125000
6106		64.453125
6107		76.171875
6108		62.500000
6109		72.265625
6110		62.500000
6111		66.406250
6112		60.546875
6113		64.453125
6114		56.640625
6115		60.546875
6116		52.734375
6117		58.593750
6118		50.781250
6119		54.687500
6120		42.968750
6121		54.687500
6122		41.015625
6123		50.781250
6124		37.109375
6125		48.828125
6126		37.109375
6127		41.015625
6128		33.203125
6129		37.109375
6130		29.296875
6131		33.203125
6132		23.437500
6133		29.296875
6134		21.484375
6135		25.390625
6136		13.671875
6137		21.484375
6138		9.765625
6139		21.484375
6140		3.906250
6141		17.578125
6142		1.953125
6143		13.671875
6144		0.000000
6145		5.859375
6146		-3.906250
6147		1.953125
6148		-7.812500
6149		-3.906250
6150		-13.671875
6151		-7.812500
6152		-17.578125
6153		-11.718750
6154		-23.437500
6155		-11.718750
6156		-27.343750
6157		-17.578125
6158		-31.250000
6159		-19.531250
6160		-33.203125
6161		-27.343750
6162		-37.109375
6163		-31.250000
6164		-39.062500
6165		-35.156250
6166		-42.968750
6167		-39.062500
6168		-46.875000
6169		-42.968750
6170		-54.687500
6171		-42.968750
6172		-56.640625
6173		-44.921875
6174		-60.546875
6175		-48.828125
6176		-60.546875
6177		-52.734375
6178		-62.500000
6179		-58.593750
6180		-64.453125
6181		-60.546875
6182		-66.406250
6183		-62.500000
6184		-70.312500
6185		-66.406250
6186		-70.312500
6187		-68.359375
6188		-76.171875
6189		-64.453125
6190		-78.125000
6191		-68.359375
6192		-78.125000
6193		-70.312500
6194		-78.125000
6195		-74.218750
6196		-78.125000
6197		-74.218750
6198		-78.125000
6199		-76.171875
6200		-80.078125
6201		-76.171875
6202		-80.078125
6203		-78.125000
6204		-83.984375
6205		-74.218750
6206		-83.984375
6207		-74.218750
6208		-82.031250
6209		-74.218750
6210		-78.125000
6211		-76.171875
6212		-78.125000
6213		-76.171875
6214		-78.125000
6215		-74.218750
6216		-76.171875
6217		-72.265625
6218		-76.171875
6219		-72.265625
6220		-74.218750
6221		-68.359375
6222		-74.218750
6223		-64.453125
6224		-72.265625
6225		-62.500000
6226		-72.265625
6227		-62.500000
6228		-64.453125
6229		-60.546875
6230		-62.500000
6231		-58.593750
6232		-60.546875
6233		-56.640625
6234		-56.640625
6235		-52.734375
6236		-54.687500
6237		-48.828125
6238		-50.781250
6239		-44.921875
6240		-48.828125
6241		-41.015625
6242		-44.921875
6243		-37.109375
6244		-41.015625
6245		-35.156250
6246		-37.109375
6247		-31.250000
6248		-33.203125
6249		-27.343750
6250		-29.296875
6251		-23.437500
6252		-25.390625
6253		-19.531250
6254		-21.484375
6255		-15.625000
6256		-17.578125
6257		-9.765625
6258		-15.625000
6259		-5.859375
6260		-9.765625
6261		-3.906250
6262		-3.906250
6263		0.000000
6264		0.000000
6265		3.906250
6266		3.906250
6267		9.765625
6268		7.812500
6269		13.671875
6270		11.718750
6271		19.531250
6272		15.625000
6273		21.484375
6274		17.578125
6275		25.390625
6276		23.437500
6277		29.296875
6278		27.343750
6279		33.203125
6280		31.250000
6281		37.109375
6282		35.156250
6283		41.015625
6284		39.062500
6285		44.921875
6286		42.968750
6287		46.875000
6288		46.875000
6289		50.781250
6290		48.828125
6291		54.687500
6292		52.734375
6293		56.640625
6294		56.640625
6295		60.546875
6296		58.593750
6297		62.500000
6298		62.500000
6299		66.406250
6300		64.453125
6301		68.359375
6302		66.406250
6303		70.312500
6304		70.312500
6305		74.218750
6306		72.265625
6307		76.171875
6308		74.218750
6309		78.125000
6310		76.171875
6311		80.078125
6312		78.125000
6313		82.031250
6314		80.078125
6315		82.031250
6316		82.031250
6317		83.984375
6318		82.031250
6319		85.937500
6320		83.984375
6321		85.937500
6322		83.984375
6323		87.890625
6324		85.937500
6325		87.890625
6326		85.937500
6327		87.890625
6328		85.937500
6329		87.890625
6330		85.937500
6331		87.890625
6332		85.937500
6333		87.890625
6334		85.937500
6335		87.890625
6336		85.937500
6337		87.890625
6338		83.984375
6339		87.890625
6340		82.031250
6341		87.890625
6342		83.984375
6343		85.937500
6344		82.031250
6345		85.937500
6346		80.078125
6347		83.984375
6348		78.125000
6349		83.984375
6350		78.125000
6351		82.031250
6352		76.171875
6353		80.078125
6354		74.218750
6355		78.125000
6356		70.312500
6357		76.171875
6358		70.312500
6359		74.218750
6360		66.406250
6361		70.312500
6362		62.500000
6363		68.359375
6364		62.500000
6365		66.406250
6366		58.593750
6367		62.500000
6368		54.687500
6369		60.546875
6370		52.734375
6371		56.640625
6372		48.828125
6373		52.734375
6374		44.921875
6375		50.781250
6376		42.968750
6377		46.875000
6378		37.109375
6379		42.968750
6380		35.156250
6381		41.015625
6382		31.250000
6383		35.156250
6384		27.343750
6385		31.250000
6386		23.437500
6387		29.296875
6388		17.578125
6389		23.437500
6390		13.671875
6391		21.484375
6392		9.765625
6393		17.578125
6394		5.859375
6395		11.718750
6396		1.953125
6397		7.812500
6398		-1.953125
6399		3.906250
6400		-5.859375
6401		0.000000
6402		-9.765625
6403		-5.859375
6404		-13.671875
6405		-9.765625
6406		-19.531250
6407		-11.718750
6408		-21.484375
6409		-17.578125
6410		-27.343750
6411		-21.484375
6412		-31.250000
6413		-25.390625
6414		-35.156250
6415		-29.296875
6416		-39.062500
6417		-33.203125
6418		-41.015625
6419		-37.109375
6420		-44.921875
6421		-41.015625
6422		-50.781250
6423		-42.968750
6424		-52.734375
6425		-46.875000
6426		-54.687500
6427		-50.781250
6428		-58.593750
6429		-52.734375
6430		-60.546875
6431		-56.640625
6432		-64.453125
6433		-58.593750
6434		-66.406250
6435		-62.500000
6436		-68.359375
6437		-64.453125
6438		-70.312500
6439		-66.406250
6440		-72.265625
6441		-68.359375
6442		-74.218750
6443		-70.312500
6444		-74.218750
6445		-72.265625
6446		-76.171875
6447		-72.265625
6448		-78.125000
6449		-74.218750
6450		-78.125000
6451		-76.171875
6452		-78.125000
6453		-76.171875
6454		-80.078125
6455		-78.125000
6456		-82.031250
6457		-76.171875
6458		-80.078125
6459		-76.171875
6460		-80.078125
6461		-76.171875
6462		-80.078125
6463		-76.171875
6464		-78.125000
6465		-76.171875
6466		-78.125000
6467		-74.218750
6468		-76.171875
6469		-74.218750
6470		-76.171875
6471		-72.265625
6472		-74.218750
6473		-68.359375
6474		-74.218750
6475		-68.359375
6476		-70.312500
6477		-66.406250
6478		-68.359375
6479		-64.453125
6480		-66.406250
6481		-62.500000
6482		-64.453125
6483		-60.546875
6484		-62.500000
6485		-56.640625
6486		-58.593750
6487		-54.687500
6488		-56.640625
6489		-50.781250
6490		-54.687500
6491		-48.828125
6492		-50.781250
6493		-44.921875
6494		-46.875000
6495		-41.015625
6496		-42.968750
6497		-37.109375
6498		-39.062500
6499		-33.203125
6500		-35.156250
6501		-29.296875
6502		-31.250000
6503		-25.390625
6504		-27.343750
6505		-21.484375
6506		-23.437500
6507		-17.578125
6508		-19.531250
6509		-13.671875
6510		-15.625000
6511		-9.765625
6512		-11.718750
6513		-5.859375
6514		-7.812500
6515		-1.953125
6516		-3.906250
6517		1.953125
6518		0.000000
6519		5.859375
6520		5.859375
6521		11.718750
6522		9.765625
6523		15.625000
6524		13.671875
6525		19.531250
6526		17.578125
6527		23.437500
6528		21.484375
6529		27.343750
6530		25.390625
6531		31.250000
6532		29.296875
6533		35.156250
6534		33.203125
6535		39.062500
6536		37.109375
6537		42.968750
6538		41.015625
6539		44.921875
6540		44.921875
6541		48.828125
6542		48.828125
6543		52.734375
6544		50.781250
6545		56.640625
6546		54.687500
6547		58.593750
6548		56.640625
6549		62.500000
6550		60.546875
6551		64.453125
6552		62.500000
6553		66.406250
6554		66.406250
6555		70.312500
6556		68.359375
6557		72.265625
6558		70.312500
6559		74.218750
6560		72.265625
6561		76.171875
6562		76.171875
6563		78.125000
6564		76.171875
6565		80.078125
6566		78.125000
6567		82.031250
6568		80.078125
6569		83.984375
6570		82.031250
6571		83.984375
6572		82.031250
6573		85.937500
6574		83.984375
6575		85.937500
6576		83.984375
6577		87.890625
6578		85.937500
6579		87.890625
6580		85.937500
6581		87.890625
6582		85.937500
6583		87.890625
6584		85.937500
6585		87.890625
6586		85.937500
6587		87.890625
6588		85.937500
6589		87.890625
6590		85.937500
6591		87.890625
6592		83.984375
6593		87.890625
6594		83.984375
6595		85.937500
6596		82.031250
6597		85.937500
6598		82.031250
6599		83.984375
6600		80.078125
6601		83.984375
6602		78.125000
6603		82.031250
6604		76.171875
6605		80.078125
6606		76.171875
6607		78.125000
6608		72.265625
6609		76.171875
6610		70.312500
6611		74.218750
6612		68.359375
6613		72.265625
6614		66.406250
6615		70.312500
6616		62.500000
6617		66.406250
6618		60.546875
6619		64.453125
6620		56.640625
6621		62.500000
6622		54.687500
6623		58.593750
6624		50.781250
6625		54.687500
6626		46.875000
6627		52.734375
6628		42.968750
6629		48.828125
6630		39.062500
6631		44.921875
6632		37.109375
6633		41.015625
6634		33.203125
6635		37.109375
6636		29.296875
6637		33.203125
6638		25.390625
6639		29.296875
6640		21.484375
6641		25.390625
6642		17.578125
6643		23.437500
6644		11.718750
6645		17.578125
6646		7.812500
6647		13.671875
6648		3.906250
6649		9.765625
6650		0.000000
6651		5.859375
6652		-3.906250
6653		1.953125
6654		-7.812500
6655		-1.953125
6656		-11.718750
6657		-7.812500
6658		-15.625000
6659		-11.718750
6660		-19.531250
6661		-15.625000
6662		-23.437500
6663		-19.531250
6664		-27.343750
6665		-23.437500
6666		-31.250000
6667		-27.343750
6668		-37.109375
6669		-31.250000
6670		-39.062500
6671		-35.156250
6672		-42.968750
6673		-39.062500
6674		-48.828125
6675		-41.015625
6676		-50.781250
6677		-44.921875
6678		-52.734375
6679		-48.828125
6680		-56.640625
6681		-52.734375
6682		-58.593750
6683		-54.687500
6684		-62.500000
6685		-58.593750
6686		-64.453125
6687		-60.546875
6688		-66.406250
6689		-62.500000
6690		-68.359375
6691		-66.406250
6692		-72.265625
6693		-66.406250
6694		-74.218750
6695		-68.359375
6696		-74.218750
6697		-72.265625
6698		-76.171875
6699		-72.265625
6700		-78.125000
6701		-74.218750
6702		-78.125000
6703		-76.171875
6704		-80.078125
6705		-76.171875
6706		-80.078125
6707		-76.171875
6708		-82.031250
6709		-76.171875
6710		-82.031250
6711		-76.171875
6712		-80.078125
6713		-78.125000
6714		-80.078125
6715		-76.171875
6716		-80.078125
6717		-76.171875
6718		-78.125000
6719		-76.171875
6720		-78.125000
6721		-74.218750
6722		-76.171875
6723		-74.218750
6724		-76.171875
6725		-70.312500
6726		-76.171875
6727		-68.359375
6728		-74.218750
6729		-68.359375
6730		-70.312500
6731		-66.406250
6732		-68.359375
6733		-64.453125
6734		-66.406250
6735		-62.500000
6736		-62.500000
6737		-58.593750
6738		-60.546875
6739		-56.640625
6740		-58.593750
6741		-52.734375
6742		-56.640625
6743		-48.828125
6744		-52.734375
6745		-46.875000
6746		-48.828125
6747		-42.968750
6748		-44.921875
6749		-39.062500
6750		-41.015625
6751		-37.109375
6752		-37.109375
6753		-33.203125
6754		-33.203125
6755		-29.296875
6756		-29.296875
6757		-25.390625
6758		-25.390625
6759		-19.531250
6760		-23.437500
6761		-13.671875
6762		-19.531250
6763		-11.718750
6764		-13.671875
6765		-7.812500
6766		-9.765625
6767		-3.906250
6768		-5.859375
6769		0.000000
6770		-1.953125
6771		3.906250
6772		1.953125
6773		7.812500
6774		7.812500
6775		11.718750
6776		9.765625
6777		17.578125
6778		13.671875
6779		21.484375
6780		19.531250
6781		25.390625
6782		23.437500
6783		29.296875
6784		27.343750
6785		33.203125
6786		31.250000
6787		37.109375
6788		35.156250
6789		39.062500
6790		39.062500
6791		42.968750
6792		42.968750
6793		48.828125
6794		44.921875
6795		52.734375
6796		48.828125
6797		52.734375
6798		52.734375
6799		56.640625
6800		54.687500
6801		60.546875
6802		58.593750
6803		62.500000
6804		60.546875
6805		66.406250
6806		64.453125
6807		68.359375
6808		66.406250
6809		72.265625
6810		68.359375
6811		74.218750
6812		70.312500
6813		76.171875
6814		74.218750
6815		78.125000
6816		76.171875
6817		80.078125
6818		78.125000
6819		80.078125
6820		80.078125
6821		82.031250
6822		80.078125
6823		83.984375
6824		82.031250
6825		85.937500
6826		82.031250
6827		87.890625
6828		82.031250
6829		89.843750
6830		85.937500
6831		87.890625
6832		85.937500
6833		87.890625
6834		85.937500
6835		87.890625
6836		85.937500
6837		87.890625
6838		85.937500
6839		87.890625
6840		85.937500
6841		87.890625
6842		83.984375
6843		87.890625
6844		83.984375
6845		89.843750
6846		83.984375
6847		87.890625
6848		83.984375
6849		85.937500
6850		82.031250
6851		85.937500
6852		80.078125
6853		83.984375
6854		80.078125
6855		82.031250
6856		78.125000
6857		82.031250
6858		76.171875
6859		80.078125
6860		74.218750
6861		80.078125
6862		72.265625
6863		76.171875
6864		70.312500
6865		74.218750
6866		66.406250
6867		72.265625
6868		64.453125
6869		68.359375
6870		62.500000
6871		66.406250
6872		58.593750
6873		62.500000
6874		56.640625
6875		60.546875
6876		52.734375
6877		56.640625
6878		48.828125
6879		54.687500
6880		46.875000
6881		50.781250
6882		42.968750
6883		46.875000
6884		39.062500
6885		44.921875
6886		35.156250
6887		41.015625
6888		31.250000
6889		37.109375
6890		27.343750
6891		33.203125
6892		23.437500
6893		29.296875
6894		19.531250
6895		25.390625
6896		15.625000
6897		21.484375
6898		11.718750
6899		15.625000
6900		7.812500
6901		11.718750
6902		1.953125
6903		7.812500
6904		-1.953125
6905		3.906250
6906		-5.859375
6907		0.000000
6908		-9.765625
6909		-3.906250
6910		-13.671875
6911		-7.812500
6912		-17.578125
6913		-11.718750
6914		-21.484375
6915		-15.625000
6916		-25.390625
6917		-21.484375
6918		-29.296875
6919		-25.390625
6920		-33.203125
6921		-27.343750
6922		-37.109375
6923		-33.203125
6924		-41.015625
6925		-37.109375
6926		-44.921875
6927		-39.062500
6928		-48.828125
6929		-42.968750
6930		-50.781250
6931		-46.875000
6932		-54.687500
6933		-50.781250
6934		-56.640625
6935		-52.734375
6936		-60.546875
6937		-56.640625
6938		-62.500000
6939		-58.593750
6940		-66.406250
6941		-62.500000
6942		-68.359375
6943		-64.453125
6944		-70.312500
6945		-66.406250
6946		-72.265625
6947		-68.359375
6948		-74.218750
6949		-70.312500
6950		-74.218750
6951		-72.265625
6952		-76.171875
6953		-74.218750
6954		-78.125000
6955		-74.218750
6956		-78.125000
6957		-76.171875
6958		-80.078125
6959		-76.171875
6960		-80.078125
6961		-76.171875
6962		-80.078125
6963		-78.125000
6964		-80.078125
6965		-78.125000
6966		-80.078125
6967		-78.125000
6968		-80.078125
6969		-76.171875
6970		-80.078125
6971		-76.171875
6972		-78.125000
6973		-76.171875
6974		-78.125000
6975		-74.218750
6976		-76.171875
6977		-72.265625
6978		-74.218750
6979		-72.265625
6980		-72.265625
6981		-70.312500
6982		-72.265625
6983		-68.359375
6984		-68.359375
6985		-66.406250
6986		-66.406250
6987		-62.500000
6988		-64.453125
6989		-60.546875
6990		-62.500000
6991		-56.640625
6992		-58.593750
6993		-54.687500
6994		-56.640625
6995		-50.781250
6996		-52.734375
6997		-48.828125
6998		-50.781250
6999		-44.921875
7000		-46.875000
7001		-42.968750
7002		-42.968750
7003		-39.062500
7004		-39.062500
7005		-35.156250
7006		-35.156250
7007		-29.296875
7008		-33.203125
7009		-27.343750
7010		-29.296875
7011		-23.437500
7012		-25.390625
7013		-19.531250
7014		-19.531250
7015		-15.625000
7016		-15.625000
7017		-11.718750
7018		-11.718750
7019		-7.812500
7020		-7.812500
7021		-1.953125
7022		-3.906250
7023		1.953125
7024		0.000000
7025		5.859375
7026		3.906250
7027		9.765625
7028		7.812500
7029		13.671875
7030		13.671875
7031		17.578125
7032		17.578125
7033		21.484375
7034		21.484375
7035		27.343750
7036		25.390625
7037		31.250000
7038		29.296875
7039		33.203125
7040		33.203125
7041		37.109375
7042		37.109375
7043		41.015625
7044		39.062500
7045		44.921875
7046		42.968750
7047		48.828125
7048		46.875000
7049		52.734375
7050		50.781250
7051		54.687500
7052		54.687500
7053		58.593750
7054		56.640625
7055		60.546875
7056		58.593750
7057		64.453125
7058		62.500000
7059		66.406250
7060		64.453125
7061		70.312500
7062		68.359375
7063		72.265625
7064		70.312500
7065		74.218750
7066		72.265625
7067		76.171875
7068		74.218750
7069		78.125000
7070		76.171875
7071		80.078125
7072		78.125000
7073		82.031250
7074		80.078125
7075		82.031250
7076		82.031250
7077		83.984375
7078		82.031250
7079		85.937500
7080		83.984375
7081		85.937500
7082		83.984375
7083		87.890625
7084		85.937500
7085		87.890625
7086		85.937500
7087		87.890625
7088		85.937500
7089		89.843750
7090		85.937500
7091		87.890625
7092		85.937500
7093		87.890625
7094		85.937500
7095		87.890625
7096		85.937500
7097		87.890625
7098		83.984375
7099		87.890625
7100		83.984375
7101		87.890625
7102		83.984375
7103		85.937500
7104		82.031250
7105		85.937500
7106		80.078125
7107		83.984375
7108		78.125000
7109		82.031250
7110		78.125000
7111		80.078125
7112		76.171875
7113		80.078125
7114		74.218750
7115		78.125000
7116		72.265625
7117		74.218750
7118		68.359375
7119		72.265625
7120		66.406250
7121		70.312500
7122		64.453125
7123		68.359375
7124		60.546875
7125		64.453125
7126		58.593750
7127		62.500000
7128		54.687500
7129		58.593750
7130		52.734375
7131		56.640625
7132		48.828125
7133		52.734375
7134		44.921875
7135		48.828125
7136		41.015625
7137		46.875000
7138		37.109375
7139		42.968750
7140		33.203125
7141		39.062500
7142		29.296875
7143		35.156250
7144		25.390625
7145		31.250000
7146		21.484375
7147		27.343750
7148		17.578125
7149		23.437500
7150		13.671875
7151		19.531250
7152		9.765625
7153		15.625000
7154		5.859375
7155		11.718750
7156		1.953125
7157		7.812500
7158		-1.953125
7159		1.953125
7160		-7.812500
7161		-1.953125
7162		-11.718750
7163		-5.859375
7164		-15.625000
7165		-9.765625
7166		-19.531250
7167		-13.671875
7168		-23.437500
7169		-17.578125
7170		-27.343750
7171		-21.484375
7172		-31.250000
7173		-25.390625
7174		-35.156250
7175		-29.296875
7176		-39.062500
7177		-33.203125
7178		-42.968750
7179		-37.109375
7180		-44.921875
7181		-41.015625
7182		-48.828125
7183		-44.921875
7184		-52.734375
7185		-46.875000
7186		-56.640625
7187		-50.781250
7188		-58.593750
7189		-54.687500
7190		-60.546875
7191		-56.640625
7192		-64.453125
7193		-60.546875
7194		-66.406250
7195		-62.500000
7196		-68.359375
7197		-64.453125
7198		-70.312500
7199		-66.406250
7200		-72.265625
7201		-68.359375
7202		-74.218750
7203		-70.312500
7204		-76.171875
7205		-72.265625
7206		-76.171875
7207		-74.218750
7208		-78.125000
7209		-74.218750
7210		-78.125000
7211		-76.171875
7212		-78.125000
7213		-76.171875
7214		-78.125000
7215		-78.125000
7216		-80.078125
7217		-78.125000
7218		-80.078125
7219		-78.125000
7220		-80.078125
7221		-78.125000
7222		-78.125000
7223		-76.171875
7224		-78.125000
7225		-76.171875
7226		-78.125000
7227		-74.218750
7228		-76.171875
7229		-74.218750
7230		-76.171875
7231		-72.265625
7232		-74.218750
7233		-70.312500
7234		-72.265625
7235		-68.359375
7236		-70.312500
7237		-66.406250
7238		-68.359375
7239		-64.453125
7240		-66.406250
7241		-62.500000
7242		-62.500000
7243		-58.593750
7244		-60.546875
7245		-56.640625
7246		-58.593750
7247		-52.734375
7248		-54.687500
7249		-50.781250
7250		-52.734375
7251		-46.875000
7252		-48.828125
7253		-42.968750
7254		-44.921875
7255		-41.015625
7256		-41.015625
7257		-37.109375
7258		-37.109375
7259		-33.203125
7260		-35.156250
7261		-29.296875
7262		-29.296875
7263		-25.390625
7264		-25.390625
7265		-21.484375
7266		-21.484375
7267		-15.625000
7268		-19.531250
7269		-13.671875
7270		-13.671875
7271		-7.812500
7272		-9.765625
7273		-3.906250
7274		-5.859375
7275		0.000000
7276		-1.953125
7277		3.906250
7278		1.953125
7279		7.812500
7280		5.859375
7281		11.718750
7282		11.718750
7283		15.625000
7284		15.625000
7285		19.531250
7286		19.531250
7287		23.437500
7288		23.437500
7289		27.343750
7290		27.343750
7291		31.250000
7292		31.250000
7293		35.156250
7294		35.156250
7295		39.062500
7296		39.062500
7297		42.968750
7298		42.968750
7299		46.875000
7300		44.921875
7301		50.781250
7302		48.828125
7303		52.734375
7304		52.734375
7305		56.640625
7306		54.687500
7307		60.546875
7308		58.593750
7309		62.500000
7310		60.546875
7311		66.406250
7312		64.453125
7313		68.359375
7314		66.406250
7315		70.312500
7316		68.359375
7317		72.265625
7318		72.265625
7319		76.171875
7320		74.218750
7321		76.171875
7322		76.171875
7323		80.078125
7324		78.125000
7325		82.031250
7326		80.078125
7327		82.031250
7328		80.078125
7329		83.984375
7330		82.031250
7331		85.937500
7332		83.984375
7333		85.937500
7334		83.984375
7335		87.890625
7336		83.984375
7337		87.890625
7338		85.937500
7339		87.890625
7340		85.937500
7341		87.890625
7342		85.937500
7343		87.890625
7344		87.890625
7345		89.843750
7346		85.937500
7347		87.890625
7348		85.937500
7349		87.890625
7350		85.937500
7351		87.890625
7352		85.937500
7353		87.890625
7354		83.984375
7355		85.937500
7356		83.984375
7357		85.937500
7358		82.031250
7359		83.984375
7360		80.078125
7361		83.984375
7362		78.125000
7363		82.031250
7364		76.171875
7365		80.078125
7366		74.218750
7367		78.125000
7368		72.265625
7369		76.171875
7370		70.312500
7371		74.218750
7372		68.359375
7373		72.265625
7374		66.406250
7375		70.312500
7376		62.500000
7377		66.406250
7378		60.546875
7379		64.453125
7380		56.640625
7381		62.500000
7382		54.687500
7383		58.593750
7384		50.781250
7385		54.687500
7386		46.875000
7387		52.734375
7388		42.968750
7389		48.828125
7390		41.015625
7391		44.921875
7392		37.109375
7393		41.015625
7394		33.203125
7395		37.109375
7396		29.296875
7397		33.203125
7398		25.390625
7399		29.296875
7400		21.484375
7401		25.390625
7402		15.625000
7403		21.484375
7404		11.718750
7405		17.578125
7406		7.812500
7407		13.671875
7408		3.906250
7409		9.765625
7410		0.000000
7411		5.859375
7412		-3.906250
7413		1.953125
7414		-7.812500
7415		-3.906250
7416		-11.718750
7417		-7.812500
7418		-15.625000
7419		-9.765625
7420		-21.484375
7421		-15.625000
7422		-25.390625
7423		-19.531250
7424		-29.296875
7425		-23.437500
7426		-33.203125
7427		-27.343750
7428		-35.156250
7429		-31.250000
7430		-41.015625
7431		-35.156250
7432		-42.968750
7433		-39.062500
7434		-46.875000
7435		-42.968750
7436		-50.781250
7437		-44.921875
7438		-52.734375
7439		-48.828125
7440		-56.640625
7441		-52.734375
7442		-58.593750
7443		-54.687500
7444		-62.500000
7445		-58.593750
7446		-64.453125
7447		-60.546875
7448		-66.406250
7449		-62.500000
7450		-68.359375
7451		-64.453125
7452		-70.312500
7453		-68.359375
7454		-72.265625
7455		-70.312500
7456		-74.218750
7457		-72.265625
7458		-76.171875
7459		-72.265625
7460		-76.171875
7461		-74.218750
7462		-78.125000
7463		-76.171875
7464		-78.125000
7465		-76.171875
7466		-78.125000
7467		-76.171875
7468		-80.078125
7469		-78.125000
7470		-80.078125
7471		-78.125000
7472		-80.078125
7473		-78.125000
7474		-80.078125
7475		-76.171875
7476		-78.125000
7477		-76.171875
7478		-78.125000
7479		-76.171875
7480		-78.125000
7481		-74.218750
7482		-76.171875
7483		-72.265625
7484		-74.218750
7485		-72.265625
7486		-72.265625
7487		-70.312500
7488		-72.265625
7489		-68.359375
7490		-70.312500
7491		-66.406250
7492		-66.406250
7493		-62.500000
7494		-64.453125
7495		-60.546875
7496		-62.500000
7497		-58.593750
7498		-60.546875
7499		-54.687500
7500		-56.640625
7501		-52.734375
7502		-54.687500
7503		-48.828125
7504		-50.781250
7505		-46.875000
7506		-46.875000
7507		-42.968750
7508		-42.968750
7509		-39.062500
7510		-41.015625
7511		-35.156250
7512		-37.109375
7513		-31.250000
7514		-33.203125
7515		-27.343750
7516		-29.296875
7517		-23.437500
7518		-25.390625
7519		-19.531250
7520		-21.484375
7521		-15.625000
7522		-17.578125
7523		-11.718750
7524		-13.671875
7525		-7.812500
7526		-9.765625
7527		-3.906250
7528		-5.859375
7529		0.000000
7530		0.000000
7531		3.906250
7532		3.906250
7533		9.765625
7534		7.812500
7535		13.671875
7536		11.718750
7537		17.578125
7538		15.625000
7539		21.484375
7540		19.531250
7541		25.390625
7542		23.437500
7543		29.296875
7544		27.343750
7545		33.203125
7546		31.250000
7547		37.109375
7548		35.156250
7549		41.015625
7550		39.062500
7551		44.921875
7552		42.968750
7553		46.875000
7554		46.875000
7555		50.781250
7556		50.781250
7557		54.687500
7558		52.734375
7559		56.640625
7560		56.640625
7561		60.546875
7562		58.593750
7563		62.500000
7564		62.500000
7565		66.406250
7566		64.453125
7567		68.359375
7568		66.406250
7569		72.265625
7570		70.312500
7571		74.218750
7572		72.265625
7573		76.171875
7574		74.218750
7575		78.125000
7576		76.171875
7577		80.078125
7578		78.125000
7579		82.031250
7580		80.078125
7581		82.031250
7582		82.031250
7583		83.984375
7584		82.031250
7585		85.937500
7586		83.984375
7587		85.937500
7588		83.984375
7589		87.890625
7590		83.984375
7591		87.890625
7592		85.937500
7593		87.890625
7594		85.937500
7595		87.890625
7596		85.937500
7597		87.890625
7598		85.937500
7599		87.890625
7600		85.937500
7601		87.890625
7602		85.937500
7603		87.890625
7604		85.937500
7605		87.890625
7606		83.984375
7607		85.937500
7608		83.984375
7609		85.937500
7610		82.031250
7611		85.937500
7612		80.078125
7613		83.984375
7614		80.078125
7615		82.031250
7616		78.125000
7617		80.078125
7618		76.171875
7619		80.078125
7620		74.218750
7621		78.125000
7622		72.265625
7623		76.171875
7624		70.312500
7625		74.218750
7626		66.406250
7627		70.312500
7628		64.453125
7629		68.359375
7630		60.546875
7631		66.406250
7632		58.593750
7633		62.500000
7634		54.687500
7635		60.546875
7636		52.734375
7637		56.640625
7638		48.828125
7639		52.734375
7640		44.921875
7641		50.781250
7642		42.968750
7643		46.875000
7644		39.062500
7645		42.968750
7646		35.156250
7647		39.062500
7648		31.250000
7649		35.156250
7650		27.343750
7651		33.203125
7652		23.437500
7653		29.296875
7654		19.531250
7655		23.437500
7656		15.625000
7657		19.531250
7658		9.765625
7659		15.625000
7660		5.859375
7661		11.718750
7662		1.953125
7663		7.812500
7664		-1.953125
7665		3.906250
7666		-5.859375
7667		0.000000
7668		-9.765625
7669		-3.906250
7670		-13.671875
7671		-9.765625
7672		-17.578125
7673		-13.671875
7674		-23.437500
7675		-17.578125
7676		-27.343750
7677		-21.484375
7678		-31.250000
7679		-25.390625
7680		-33.203125
7681		-29.296875
7682		-39.062500
7683		-33.203125
7684		-41.015625
7685		-37.109375
7686		-44.921875
7687		-41.015625
7688		-48.828125
7689		-42.968750
7690		-52.734375
7691		-46.875000
7692		-54.687500
7693		-50.781250
7694		-58.593750
7695		-52.734375
7696		-60.546875
7697		-56.640625
7698		-64.453125
7699		-58.593750
7700		-66.406250
7701		-60.546875
7702		-68.359375
7703		-64.453125
7704		-72.265625
7705		-66.406250
7706		-72.265625
7707		-68.359375
7708		-74.218750
7709		-70.312500
7710		-74.218750
7711		-72.265625
7712		-76.171875
7713		-74.218750
7714		-78.125000
7715		-74.218750
7716		-78.125000
7717		-76.171875
7718		-78.125000
7719		-76.171875
7720		-82.031250
7721		-76.171875
7722		-80.078125
7723		-76.171875
7724		-80.078125
7725		-76.171875
7726		-82.031250
7727		-76.171875
7728		-82.031250
7729		-74.218750
7730		-78.125000
7731		-76.171875
7732		-78.125000
7733		-74.218750
7734		-78.125000
7735		-74.218750
7736		-76.171875
7737		-72.265625
7738		-76.171875
7739		-70.312500
7740		-72.265625
7741		-68.359375
7742		-70.312500
7743		-66.406250
7744		-68.359375
7745		-64.453125
7746		-68.359375
7747		-60.546875
7748		-64.453125
7749		-60.546875
7750		-60.546875
7751		-56.640625
7752		-60.546875
7753		-54.687500
7754		-54.687500
7755		-48.828125
7756		-52.734375
7757		-46.875000
7758		-48.828125
7759		-42.968750
7760		-46.875000
7761		-41.015625
7762		-42.968750
7763		-35.156250
7764		-39.062500
7765		-33.203125
7766		-35.156250
7767		-29.296875
7768		-31.250000
7769		-23.437500
7770		-29.296875
7771		-21.484375
7772		-25.390625
7773		-17.578125
7774		-19.531250
7775		-13.671875
7776		-17.578125
7777		-9.765625
7778		-11.718750
7779		-5.859375
7780		-7.812500
7781		-1.953125
7782		-1.953125
7783		1.953125
7784		1.953125
7785		7.812500
7786		3.906250
7787		13.671875
7788		7.812500
7789		15.625000
7790		13.671875
7791		19.531250
7792		17.578125
7793		27.343750
7794		19.531250
7795		27.343750
7796		23.437500
7797		33.203125
7798		29.296875
7799		35.156250
7800		33.203125
7801		39.062500
7802		37.109375
7803		42.968750
7804		39.062500
7805		48.828125
7806		44.921875
7807		48.828125
7808		46.875000
7809		54.687500
7810		48.828125
7811		58.593750
7812		52.734375
7813		62.500000
7814		56.640625
7815		62.500000
7816		60.546875
7817		64.453125
7818		62.500000
7819		68.359375
7820		64.453125
7821		72.265625
7822		68.359375
7823		74.218750
7824		70.312500
7825		76.171875
7826		72.265625
7827		80.078125
7828		72.265625
7829		80.078125
7830		74.218750
7831		82.031250
7832		78.125000
7833		82.031250
7834		80.078125
7835		83.984375
7836		80.078125
7837		87.890625
7838		80.078125
7839		87.890625
7840		83.984375
7841		87.890625
7842		83.984375
7843		87.890625
7844		82.031250
7845		91.796875
7846		82.031250
7847		91.796875
7848		85.937500
7849		89.843750
7850		85.937500
7851		87.890625
7852		83.984375
7853		89.843750
7854		83.984375
7855		91.796875
7856		83.984375
7857		89.843750
7858		83.984375
7859		87.890625
7860		80.078125
7861		91.796875
7862		82.031250
7863		89.843750
7864		80.078125
7865		87.890625
7866		80.078125
7867		83.984375
7868		78.125000
7869		82.031250
7870		74.218750
7871		83.984375
7872		74.218750
7873		80.078125
7874		72.265625
7875		76.171875
7876		68.359375
7877		76.171875
7878		66.406250
7879		76.171875
7880		62.500000
7881		72.265625
7882		62.500000
7883		68.359375
7884		60.546875
7885		64.453125
7886		56.640625
7887		62.500000
7888		50.781250
7889		62.500000
7890		50.781250
7891		56.640625
7892		46.875000
7893		52.734375
7894		41.015625
7895		50.781250
7896		39.062500
7897		46.875000
7898		37.109375
7899		42.968750
7900		33.203125
7901		37.109375
7902		29.296875
7903		35.156250
7904		23.437500
7905		33.203125
7906		21.484375
7907		27.343750
7908		17.578125
7909		23.437500
7910		9.765625
7911		19.531250
7912		7.812500
7913		17.578125
7914		3.906250
7915		11.718750
7916		0.000000
7917		5.859375
7918		-3.906250
7919		1.953125
7920		-9.765625
7921		-1.953125
7922		-13.671875
7923		-3.906250
7924		-15.625000
7925		-9.765625
7926		-19.531250
7927		-13.671875
7928		-25.390625
7929		-15.625000
7930		-29.296875
7931		-23.437500
7932		-31.250000
7933		-27.343750
7934		-35.156250
7935		-31.250000
7936		-39.062500
7937		-35.156250
7938		-44.921875
7939		-35.156250
7940		-46.875000
7941		-41.015625
7942		-50.781250
7943		-44.921875
7944		-56.640625
7945		-46.875000
7946		-56.640625
7947		-48.828125
7948		-58.593750
7949		-50.781250
7950		-62.500000
7951		-56.640625
7952		-66.406250
7953		-60.546875
7954		-68.359375
7955		-62.500000
7956		-70.312500
7957		-62.500000
7958		-70.312500
7959		-66.406250
7960		-74.218750
7961		-68.359375
7962		-76.171875
7963		-68.359375
7964		-78.125000
7965		-70.312500
7966		-76.171875
7967		-74.218750
7968		-78.125000
7969		-76.171875
7970		-80.078125
7971		-74.218750
7972		-82.031250
7973		-74.218750
7974		-80.078125
7975		-76.171875
7976		-80.078125
7977		-76.171875
7978		-82.031250
7979		-76.171875
7980		-82.031250
7981		-74.218750
7982		-78.125000
7983		-76.171875
7984		-78.125000
7985		-74.218750
7986		-76.171875
7987		-74.218750
7988		-78.125000
7989		-70.312500
7990		-76.171875
7991		-70.312500
7992		-72.265625
7993		-70.312500
7994		-72.265625
7995		-66.406250
7996		-70.312500
7997		-66.406250
7998		-66.406250
7999		-64.453125
8000		-64.453125
8001		-60.546875
8002		-62.500000
8003		-58.593750
8004		-60.546875
8005		-54.687500
8006		-56.640625
8007		-50.781250
8008		-54.687500
8009		-48.828125
8010		-50.781250
8011		-44.921875
8012		-50.781250
8013		-42.968750
8014		-44.921875
8015		-39.062500
8016		-41.015625
8017		-35.156250
8018		-37.109375
8019		-31.250000
8020		-33.203125
8021		-27.343750
8022		-29.296875
8023		-23.437500
8024		-25.390625
8025		-19.531250
8026		-21.484375
8027		-15.625000
8028		-17.578125
8029		-11.718750
8030		-13.671875
8031		-7.812500
8032		-9.765625
8033		-3.906250
8034		-3.906250
8035		0.000000
8036		0.000000
8037		3.906250
8038		3.906250
8039		7.812500
8040		7.812500
8041		13.671875
8042		11.718750
8043		17.578125
8044		15.625000
8045		21.484375
8046		19.531250
8047		25.390625
8048		23.437500
8049		29.296875
8050		27.343750
8051		33.203125
8052		31.250000
8053		37.109375
8054		35.156250
8055		41.015625
8056		39.062500
8057		44.921875
8058		41.015625
8059		48.828125
8060		44.921875
8061		52.734375
8062		48.828125
8063		54.687500
8064		52.734375
8065		58.593750
8066		54.687500
8067		60.546875
8068		58.593750
8069		64.453125
8070		62.500000
8071		68.359375
8072		64.453125
8073		70.312500
8074		66.406250
8075		72.265625
8076		68.359375
8077		74.218750
8078		72.265625
8079		78.125000
8080		72.265625
8081		80.078125
8082		74.218750
8083		80.078125
8084		78.125000
8085		82.031250
8086		80.078125
8087		83.984375
8088		80.078125
8089		85.937500
8090		82.031250
8091		87.890625
8092		82.031250
8093		87.890625
8094		83.984375
8095		87.890625
8096		83.984375
8097		89.843750
8098		85.937500
8099		89.843750
8100		85.937500
8101		89.843750
8102		87.890625
8103		89.843750
8104		85.937500
8105		89.843750
8106		85.937500
8107		89.843750
8108		83.984375
8109		89.843750
8110		83.984375
8111		89.843750
8112		83.984375
8113		89.843750
8114		82.031250
8115		87.890625
8116		82.031250
8117		85.937500
8118		82.031250
8119		83.984375
8120		80.078125
8121		83.984375
8122		78.125000
8123		83.984375
8124		76.171875
8125		80.078125
8126		72.265625
8127		80.078125
8128		72.265625
8129		76.171875
8130		70.312500
8131		74.218750
8132		66.406250
8133		72.265625
8134		64.453125
8135		68.359375
8136		62.500000
8137		66.406250
8138		58.593750
8139		64.453125
8140		54.687500
8141		60.546875
8142		52.734375
8143		58.593750
8144		50.781250
8145		56.640625
8146		46.875000
8147		52.734375
8148		42.968750
8149		48.828125
8150		39.062500
8151		44.921875
8152		35.156250
8153		41.015625
8154		31.250000
8155		37.109375
8156		27.343750
8157		33.203125
8158		23.437500
8159		29.296875
8160		19.531250
8161		25.390625
8162		15.625000
8163		21.484375
8164		11.718750
8165		17.578125
8166		7.812500
8167		13.671875
8168		3.906250
8169		9.765625
8170		-1.953125
8171		5.859375
8172		-5.859375
8173		0.000000
8174		-9.765625
8175		-1.953125
8176		-15.625000
8177		-7.812500
8178		-17.578125
8179		-9.765625
8180		-21.484375
8181		-15.625000
8182		-25.390625
8183		-19.531250
8184		-29.296875
8185		-23.437500
8186		-33.203125
8187		-27.343750
8188		-37.109375
8189		-31.250000
8190		-41.015625
8191		-35.156250
8192		-44.921875
8193		-39.062500
8194		-48.828125
8195		-41.015625
8196		-50.781250
8197		-46.875000
8198		-54.687500
8199		-48.828125
8200		-56.640625
8201		-52.734375
8202		-58.593750
8203		-54.687500
8204		-64.453125
8205		-58.593750
8206		-64.453125
8207		-60.546875
8208		-68.359375
8209		-62.500000
8210		-72.265625
8211		-64.453125
8212		-72.265625
8213		-68.359375
8214		-72.265625
8215		-70.312500
8216		-76.171875
8217		-70.312500
8218		-76.171875
8219		-72.265625
8220		-76.171875
8221		-74.218750
8222		-78.125000
8223		-74.218750
8224		-78.125000
8225		-76.171875
8226		-78.125000
8227		-76.171875
8228		-80.078125
8229		-74.218750
8230		-80.078125
8231		-76.171875
8232		-80.078125
8233		-76.171875
8234		-80.078125
8235		-76.171875
8236		-78.125000
8237		-76.171875
8238		-78.125000
8239		-74.218750
8240		-76.171875
8241		-72.265625
8242		-76.171875
8243		-72.265625
8244		-74.218750
8245		-70.312500
8246		-72.265625
8247		-68.359375
8248		-70.312500
8249		-66.406250
8250		-68.359375
8251		-64.453125
8252		-66.406250
8253		-62.500000
8254		-64.453125
8255		-60.546875
8256		-62.500000
8257		-56.640625
8258		-58.593750
8259		-52.734375
8260		-54.687500
8261		-48.828125
8262		-54.687500
8263		-46.875000
8264		-48.828125
8265		-42.968750
8266		-46.875000
8267		-39.062500
8268		-42.968750
8269		-37.109375
8270		-39.062500
8271		-33.203125
8272		-35.156250
8273		-29.296875
8274		-31.250000
8275		-25.390625
8276		-27.343750
8277		-21.484375
8278		-23.437500
8279		-17.578125
8280		-19.531250
8281		-13.671875
8282		-15.625000
8283		-9.765625
8284		-11.718750
8285		-5.859375
8286		-7.812500
8287		-1.953125
8288		-1.953125
8289		3.906250
8290		0.000000
8291		7.812500
8292		5.859375
8293		11.718750
8294		7.812500
8295		15.625000
8296		13.671875
8297		19.531250
8298		17.578125
8299		23.437500
8300		21.484375
8301		27.343750
8302		25.390625
8303		31.250000
8304		29.296875
8305		35.156250
8306		33.203125
8307		39.062500
8308		37.109375
8309		42.968750
8310		41.015625
8311		46.875000
8312		44.921875
8313		50.781250
8314		46.875000
8315		52.734375
8316		50.781250
8317		56.640625
8318		54.687500
8319		58.593750
8320		56.640625
8321		62.500000
8322		60.546875
8323		66.406250
8324		62.500000
8325		68.359375
8326		66.406250
8327		70.312500
8328		68.359375
8329		72.265625
8330		70.312500
8331		76.171875
8332		74.218750
8333		78.125000
8334		76.171875
8335		80.078125
8336		78.125000
8337		80.078125
8338		80.078125
8339		82.031250
8340		80.078125
8341		83.984375
8342		82.031250
8343		85.937500
8344		83.984375
8345		87.890625
8346		83.984375
8347		87.890625
8348		85.937500
8349		87.890625
8350		85.937500
8351		89.843750
8352		85.937500
8353		89.843750
8354		87.890625
8355		89.843750
8356		85.937500
8357		89.843750
8358		85.937500
8359		89.843750
8360		85.937500
8361		89.843750
8362		85.937500
8363		89.843750
8364		83.984375
8365		87.890625
8366		83.984375
8367		87.890625
8368		83.984375
8369		87.890625
8370		82.031250
8371		85.937500
8372		80.078125
8373		83.984375
8374		80.078125
8375		83.984375
8376		78.125000
8377		82.031250
8378		76.171875
8379		80.078125
8380		74.218750
8381		78.125000
8382		72.265625
8383		76.171875
8384		68.359375
8385		74.218750
8386		66.406250
8387		70.312500
8388		64.453125
8389		68.359375
8390		60.546875
8391		66.406250
8392		58.593750
8393		62.500000
8394		54.687500
8395		60.546875
8396		52.734375
8397		56.640625
8398		48.828125
8399		54.687500
8400		44.921875
8401		50.781250
8402		41.015625
8403		46.875000
8404		37.109375
8405		42.968750
8406		33.203125
8407		39.062500
8408		31.250000
8409		35.156250
8410		25.390625
8411		33.203125
8412		23.437500
8413		27.343750
8414		19.531250
8415		23.437500
8416		13.671875
8417		19.531250
8418		9.765625
8419		15.625000
8420		5.859375
8421		11.718750
8422		1.953125
8423		7.812500
8424		-1.953125
8425		3.906250
8426		-7.812500
8427		0.000000
8428		-9.765625
8429		-3.906250
8430		-15.625000
8431		-9.765625
8432		-19.531250
8433		-13.671875
8434		-23.437500
8435		-17.578125
8436		-27.343750
8437		-19.531250
8438		-31.250000
8439		-25.390625
8440		-35.156250
8441		-29.296875
8442		-39.062500
8443		-33.203125
8444		-41.015625
8445		-37.109375
8446		-44.921875
8447		-39.062500
8448		-48.828125
8449		-42.968750
8450		-52.734375
8451		-46.875000
8452		-54.687500
8453		-50.781250
8454		-58.593750
8455		-52.734375
8456		-62.500000
8457		-56.640625
8458		-64.453125
8459		-58.593750
8460		-64.453125
8461		-60.546875
8462		-68.359375
8463		-62.500000
8464		-70.312500
8465		-66.406250
8466		-72.265625
8467		-68.359375
8468		-74.218750
8469		-70.312500
8470		-74.218750
8471		-72.265625
8472		-76.171875
8473		-72.265625
8474		-78.125000
8475		-72.265625
8476		-78.125000
8477		-74.218750
8478		-78.125000
8479		-74.218750
8480		-78.125000
8481		-76.171875
8482		-78.125000
8483		-76.171875
8484		-80.078125
8485		-76.171875
8486		-80.078125
8487		-76.171875
8488		-78.125000
8489		-76.171875
8490		-78.125000
8491		-74.218750
8492		-76.171875
8493		-74.218750
8494		-76.171875
8495		-72.265625
8496		-74.218750
8497		-70.312500
8498		-74.218750
8499		-68.359375
8500		-72.265625
8501		-66.406250
8502		-70.312500
8503		-64.453125
8504		-66.406250
8505		-62.500000
8506		-64.453125
8507		-60.546875
8508		-62.500000
8509		-56.640625
8510		-60.546875
8511		-54.687500
8512		-56.640625
8513		-52.734375
8514		-54.687500
8515		-48.828125
8516		-50.781250
8517		-44.921875
8518		-48.828125
8519		-42.968750
8520		-44.921875
8521		-39.062500
8522		-41.015625
8523		-35.156250
8524		-37.109375
8525		-31.250000
8526		-33.203125
8527		-27.343750
8528		-29.296875
8529		-23.437500
8530		-25.390625
8531		-19.531250
8532		-21.484375
8533		-15.625000
8534		-17.578125
8535		-11.718750
8536		-13.671875
8537		-7.812500
8538		-9.765625
8539		-3.906250
8540		-5.859375
8541		1.953125
8542		-1.953125
8543		5.859375
8544		3.906250
8545		9.765625
8546		7.812500
8547		13.671875
8548		11.718750
8549		17.578125
8550		15.625000
8551		21.484375
8552		19.531250
8553		25.390625
8554		23.437500
8555		29.296875
8556		27.343750
8557		33.203125
8558		31.250000
8559		37.109375
8560		35.156250
8561		41.015625
8562		39.062500
8563		44.921875
8564		42.968750
8565		48.828125
8566		44.921875
8567		50.781250
8568		48.828125
8569		54.687500
8570		52.734375
8571		58.593750
8572		56.640625
8573		60.546875
8574		58.593750
8575		64.453125
8576		62.500000
8577		66.406250
8578		64.453125
8579		70.312500
8580		68.359375
8581		72.265625
8582		70.312500
8583		74.218750
8584		72.265625
8585		76.171875
8586		74.218750
8587		78.125000
8588		76.171875
8589		80.078125
8590		78.125000
8591		82.031250
8592		78.125000
8593		83.984375
8594		82.031250
8595		85.937500
8596		82.031250
8597		85.937500
8598		83.984375
8599		87.890625
8600		83.984375
8601		87.890625
8602		85.937500
8603		89.843750
8604		85.937500
8605		89.843750
8606		87.890625
8607		89.843750
8608		85.937500
8609		89.843750
8610		85.937500
8611		89.843750
8612		85.937500
8613		89.843750
8614		85.937500
8615		89.843750
8616		85.937500
8617		89.843750
8618		85.937500
8619		89.843750
8620		83.984375
8621		87.890625
8622		83.984375
8623		85.937500
8624		80.078125
8625		85.937500
8626		80.078125
8627		85.937500
8628		80.078125
8629		83.984375
8630		78.125000
8631		82.031250
8632		76.171875
8633		80.078125
8634		74.218750
8635		78.125000
8636		70.312500
8637		76.171875
8638		68.359375
8639		72.265625
8640		66.406250
8641		70.312500
8642		62.500000
8643		68.359375
8644		60.546875
8645		64.453125
8646		58.593750
8647		62.500000
8648		54.687500
8649		58.593750
8650		50.781250
8651		56.640625
8652		48.828125
8653		52.734375
8654		44.921875
8655		50.781250
8656		41.015625
8657		44.921875
8658		35.156250
8659		42.968750
8660		33.203125
8661		39.062500
8662		29.296875
8663		35.156250
8664		25.390625
8665		31.250000
8666		21.484375
8667		27.343750
8668		17.578125
8669		23.437500
8670		13.671875
8671		19.531250
8672		9.765625
8673		13.671875
8674		5.859375
8675		9.765625
8676		0.000000
8677		7.812500
8678		-5.859375
8679		1.953125
8680		-7.812500
8681		-1.953125
8682		-11.718750
8683		-5.859375
8684		-15.625000
8685		-9.765625
8686		-19.531250
8687		-13.671875
8688		-23.437500
8689		-17.578125
8690		-27.343750
8691		-21.484375
8692		-31.250000
8693		-25.390625
8694		-35.156250
8695		-29.296875
8696		-39.062500
8697		-33.203125
8698		-42.968750
8699		-37.109375
8700		-46.875000
8701		-41.015625
8702		-48.828125
8703		-44.921875
8704		-52.734375
8705		-48.828125
8706		-54.687500
8707		-50.781250
8708		-58.593750
8709		-54.687500
8710		-62.500000
8711		-56.640625
8712		-64.453125
8713		-58.593750
8714		-66.406250
8715		-60.546875
8716		-68.359375
8717		-64.453125
8718		-70.312500
8719		-66.406250
8720		-72.265625
8721		-68.359375
8722		-72.265625
8723		-70.312500
8724		-74.218750
8725		-70.312500
8726		-76.171875
8727		-72.265625
8728		-76.171875
8729		-74.218750
8730		-78.125000
8731		-74.218750
8732		-78.125000
8733		-74.218750
8734		-78.125000
8735		-74.218750
8736		-78.125000
8737		-76.171875
8738		-80.078125
8739		-74.218750
8740		-78.125000
8741		-74.218750
8742		-78.125000
8743		-74.218750
8744		-76.171875
8745		-74.218750
8746		-76.171875
8747		-72.265625
8748		-74.218750
8749		-70.312500
8750		-72.265625
8751		-70.312500
8752		-72.265625
8753		-68.359375
8754		-70.312500
8755		-66.406250
8756		-68.359375
8757		-64.453125
8758		-66.406250
8759		-62.500000
8760		-64.453125
8761		-58.593750
8762		-60.546875
8763		-56.640625
8764		-58.593750
8765		-52.734375
8766		-54.687500
8767		-50.781250
8768		-52.734375
8769		-46.875000
8770		-48.828125
8771		-42.968750
8772		-46.875000
8773		-41.015625
8774		-42.968750
8775		-37.109375
8776		-39.062500
8777		-33.203125
8778		-35.156250
8779		-29.296875
8780		-31.250000
8781		-25.390625
8782		-27.343750
8783		-21.484375
8784		-23.437500
8785		-17.578125
8786		-19.531250
8787		-13.671875
8788		-15.625000
8789		-9.765625
8790		-11.718750
8791		-5.859375
8792		-7.812500
8793		0.000000
8794		-3.906250
8795		1.953125
8796		0.000000
8797		7.812500
8798		5.859375
8799		11.718750
8800		9.765625
8801		15.625000
8802		13.671875
8803		19.531250
8804		17.578125
8805		23.437500
8806		21.484375
8807		27.343750
8808		25.390625
8809		31.250000
8810		29.296875
8811		35.156250
8812		33.203125
8813		39.062500
8814		37.109375
8815		42.968750
8816		41.015625
8817		46.875000
8818		44.921875
8819		50.781250
8820		48.828125
8821		52.734375
8822		50.781250
8823		56.640625
8824		54.687500
8825		60.546875
8826		56.640625
8827		64.453125
8828		60.546875
8829		64.453125
8830		62.500000
8831		68.359375
8832		66.406250
8833		70.312500
8834		68.359375
8835		74.218750
8836		70.312500
8837		76.171875
8838		72.265625
8839		78.125000
8840		76.171875
8841		80.078125
8842		78.125000
8843		80.078125
8844		80.078125
8845		83.984375
8846		80.078125
8847		83.984375
8848		82.031250
8849		85.937500
8850		83.984375
8851		87.890625
8852		83.984375
8853		87.890625
8854		85.937500
8855		87.890625
8856		85.937500
8857		89.843750
8858		87.890625
8859		89.843750
8860		87.890625
8861		89.843750
8862		87.890625
8863		89.843750
8864		87.890625
8865		89.843750
8866		87.890625
8867		89.843750
8868		85.937500
8869		89.843750
8870		85.937500
8871		89.843750
8872		83.984375
8873		89.843750
8874		83.984375
8875		87.890625
8876		83.984375
8877		85.937500
8878		82.031250
8879		85.937500
8880		80.078125
8881		83.984375
8882		78.125000
8883		82.031250
8884		76.171875
8885		80.078125
8886		74.218750
8887		78.125000
8888		72.265625
8889		76.171875
8890		70.312500
8891		74.218750
8892		68.359375
8893		72.265625
8894		64.453125
8895		70.312500
8896		62.500000
8897		66.406250
8898		60.546875
8899		64.453125
8900		56.640625
8901		60.546875
8902		52.734375
8903		58.593750
8904		50.781250
8905		54.687500
8906		46.875000
8907		50.781250
8908		42.968750
8909		48.828125
8910		39.062500
8911		44.921875
8912		35.156250
8913		41.015625
8914		31.250000
8915		37.109375
8916		27.343750
8917		33.203125
8918		23.437500
8919		29.296875
8920		19.531250
8921		25.390625
8922		15.625000
8923		21.484375
8924		9.765625
8925		17.578125
8926		7.812500
8927		13.671875
8928		3.906250
8929		9.765625
8930		0.000000
8931		3.906250
8932		-5.859375
8933		0.000000
8934		-9.765625
8935		-3.906250
8936		-13.671875
8937		-7.812500
8938		-17.578125
8939		-11.718750
8940		-21.484375
8941		-15.625000
8942		-25.390625
8943		-19.531250
8944		-29.296875
8945		-23.437500
8946		-33.203125
8947		-27.343750
8948		-37.109375
8949		-31.250000
8950		-41.015625
8951		-35.156250
8952		-44.921875
8953		-39.062500
8954		-48.828125
8955		-42.968750
8956		-50.781250
8957		-46.875000
8958		-52.734375
8959		-48.828125
8960		-56.640625
8961		-52.734375
8962		-60.546875
8963		-52.734375
8964		-62.500000
8965		-56.640625
8966		-64.453125
8967		-60.546875
8968		-66.406250
8969		-62.500000
8970		-68.359375
8971		-64.453125
8972		-72.265625
8973		-68.359375
8974		-72.265625
8975		-68.359375
8976		-74.218750
8977		-70.312500
8978		-76.171875
8979		-70.312500
8980		-76.171875
8981		-72.265625
8982		-78.125000
8983		-74.218750
8984		-78.125000
8985		-74.218750
8986		-78.125000
8987		-74.218750
8988		-78.125000
8989		-74.218750
8990		-78.125000
8991		-74.218750
8992		-78.125000
8993		-74.218750
8994		-78.125000
8995		-74.218750
8996		-78.125000
8997		-74.218750
8998		-76.171875
8999		-74.218750
9000		-76.171875
9001		-72.265625
9002		-74.218750
9003		-70.312500
9004		-72.265625
9005		-68.359375
9006		-70.312500
9007		-66.406250
9008		-70.312500
9009		-66.406250
9010		-66.406250
9011		-62.500000
9012		-66.406250
9013		-60.546875
9014		-62.500000
9015		-58.593750
9016		-60.546875
9017		-54.687500
9018		-56.640625
9019		-52.734375
9020		-54.687500
9021		-48.828125
9022		-50.781250
9023		-44.921875
9024		-46.875000
9025		-42.968750
9026		-44.921875
9027		-39.062500
9028		-41.015625
9029		-35.156250
9030		-37.109375
9031		-31.250000
9032		-33.203125
9033		-27.343750
9034		-29.296875
9035		-23.437500
9036		-25.390625
9037		-19.531250
9038		-21.484375
9039		-15.625000
9040		-17.578125
9041		-11.718750
9042		-13.671875
9043		-7.812500
9044		-9.765625
9045		-3.906250
9046		-5.859375
9047		0.000000
9048		0.000000
9049		3.906250
9050		3.906250
9051		7.812500
9052		7.812500
9053		11.718750
9054		11.718750
9055		17.578125
9056		15.625000
9057		21.484375
9058		17.578125
9059		25.390625
9060		23.437500
9061		29.296875
9062		27.343750
9063		33.203125
9064		31.250000
9065		37.109375
9066		35.156250
9067		41.015625
9068		39.062500
9069		44.921875
9070		42.968750
9071		46.875000
9072		44.921875
9073		50.781250
9074		48.828125
9075		54.687500
9076		52.734375
9077		58.593750
9078		56.640625
9079		60.546875
9080		58.593750
9081		64.453125
9082		62.500000
9083		66.406250
9084		64.453125
9085		68.359375
9086		68.359375
9087		72.265625
9088		70.312500
9089		74.218750
9090		72.265625
9091		76.171875
9092		74.218750
9093		78.125000
9094		76.171875
9095		80.078125
9096		78.125000
9097		82.031250
9098		80.078125
9099		83.984375
9100		82.031250
9101		85.937500
9102		83.984375
9103		85.937500
9104		83.984375
9105		87.890625
9106		85.937500
9107		87.890625
9108		85.937500
9109		89.843750
9110		87.890625
9111		89.843750
9112		85.937500
9113		89.843750
9114		87.890625
9115		89.843750
9116		87.890625
9117		89.843750
9118		87.890625
9119		89.843750
9120		85.937500
9121		89.843750
9122		85.937500
9123		89.843750
9124		85.937500
9125		89.843750
9126		85.937500
9127		87.890625
9128		83.984375
9129		87.890625
9130		83.984375
9131		85.937500
9132		82.031250
9133		85.937500
9134		80.078125
9135		83.984375
9136		78.125000
9137		82.031250
9138		76.171875
9139		80.078125
9140		74.218750
9141		78.125000
9142		72.265625
9143		76.171875
9144		68.359375
9145		74.218750
9146		66.406250
9147		72.265625
9148		64.453125
9149		68.359375
9150		60.546875
9151		66.406250
9152		58.593750
9153		64.453125
9154		54.687500
9155		60.546875
9156		50.781250
9157		58.593750
9158		48.828125
9159		52.734375
9160		44.921875
9161		50.781250
9162		41.015625
9163		46.875000
9164		37.109375
9165		42.968750
9166		33.203125
9167		39.062500
9168		31.250000
9169		35.156250
9170		25.390625
9171		31.250000
9172		21.484375
9173		29.296875
9174		17.578125
9175		23.437500
9176		13.671875
9177		19.531250
9178		9.765625
9179		15.625000
9180		5.859375
9181		11.718750
9182		1.953125
9183		7.812500
9184		-1.953125
9185		3.906250
9186		-5.859375
9187		-1.953125
9188		-11.718750
9189		-5.859375
9190		-15.625000
9191		-9.765625
9192		-19.531250
9193		-11.718750
9194		-23.437500
9195		-17.578125
9196		-27.343750
9197		-21.484375
9198		-31.250000
9199		-25.390625
9200		-35.156250
9201		-29.296875
9202		-39.062500
9203		-33.203125
9204		-41.015625
9205		-37.109375
9206		-44.921875
9207		-41.015625
9208		-48.828125
9209		-42.968750
9210		-52.734375
9211		-46.875000
9212		-54.687500
9213		-50.781250
9214		-58.593750
9215		-52.734375
9216		-60.546875
9217		-56.640625
9218		-62.500000
9219		-58.593750
9220		-66.406250
9221		-60.546875
9222		-68.359375
9223		-62.500000
9224		-70.312500
9225		-66.406250
9226		-72.265625
9227		-66.406250
9228		-72.265625
9229		-70.312500
9230		-74.218750
9231		-70.312500
9232		-76.171875
9233		-72.265625
9234		-76.171875
9235		-74.218750
9236		-78.125000
9237		-74.218750
9238		-78.125000
9239		-74.218750
9240		-78.125000
9241		-74.218750
9242		-78.125000
9243		-74.218750
9244		-78.125000
9245		-76.171875
9246		-78.125000
9247		-74.218750
9248		-78.125000
9249		-74.218750
9250		-78.125000
9251		-74.218750
9252		-76.171875
9253		-72.265625
9254		-76.171875
9255		-70.312500
9256		-74.218750
9257		-70.312500
9258		-72.265625
9259		-68.359375
9260		-70.312500
9261		-66.406250
9262		-68.359375
9263		-64.453125
9264		-66.406250
9265		-62.500000
9266		-64.453125
9267		-60.546875
9268		-62.500000
9269		-56.640625
9270		-58.593750
9271		-54.687500
9272		-56.640625
9273		-50.781250
9274		-52.734375
9275		-48.828125
9276		-50.781250
9277		-44.921875
9278		-46.875000
9279		-41.015625
9280		-42.968750
9281		-37.109375
9282		-39.062500
9283		-33.203125
9284		-35.156250
9285		-29.296875
9286		-31.250000
9287		-25.390625
9288		-29.296875
9289		-21.484375
9290		-23.437500
9291		-19.531250
9292		-19.531250
9293		-13.671875
9294		-15.625000
9295		-9.765625
9296		-11.718750
9297		-5.859375
9298		-9.765625
9299		-1.953125
9300		-3.906250
9301		1.953125
9302		0.000000
9303		5.859375
9304		3.906250
9305		9.765625
9306		9.765625
9307		13.671875
9308		13.671875
9309		19.531250
9310		15.625000
9311		23.437500
9312		21.484375
9313		27.343750
9314		25.390625
9315		31.250000
9316		29.296875
9317		35.156250
9318		33.203125
9319		39.062500
9320		37.109375
9321		42.968750
9322		41.015625
9323		44.921875
9324		42.968750
9325		48.828125
9326		46.875000
9327		52.734375
9328		50.781250
9329		54.687500
9330		54.687500
9331		60.546875
9332		56.640625
9333		62.500000
9334		60.546875
9335		64.453125
9336		62.500000
9337		68.359375
9338		66.406250
9339		70.312500
9340		68.359375
9341		72.265625
9342		70.312500
9343		76.171875
9344		74.218750
9345		76.171875
9346		76.171875
9347		78.125000
9348		76.171875
9349		80.078125
9350		78.125000
9351		82.031250
9352		80.078125
9353		83.984375
9354		82.031250
9355		85.937500
9356		83.984375
9357		85.937500
9358		83.984375
9359		87.890625
9360		85.937500
9361		87.890625
9362		85.937500
9363		89.843750
9364		85.937500
9365		91.796875
9366		87.890625
9367		89.843750
9368		85.937500
9369		89.843750
9370		87.890625
9371		89.843750
9372		85.937500
9373		89.843750
9374		85.937500
9375		89.843750
9376		85.937500
9377		89.843750
9378		85.937500
9379		87.890625
9380		83.984375
9381		87.890625
9382		83.984375
9383		87.890625
9384		82.031250
9385		85.937500
9386		80.078125
9387		83.984375
9388		78.125000
9389		82.031250
9390		76.171875
9391		82.031250
9392		74.218750
9393		80.078125
9394		74.218750
9395		78.125000
9396		70.312500
9397		74.218750
9398		68.359375
9399		72.265625
9400		66.406250
9401		70.312500
9402		62.500000
9403		68.359375
9404		58.593750
9405		64.453125
9406		56.640625
9407		62.500000
9408		54.687500
9409		58.593750
9410		50.781250
9411		54.687500
9412		46.875000
9413		52.734375
9414		42.968750
9415		48.828125
9416		41.015625
9417		44.921875
9418		37.109375
9419		42.968750
9420		33.203125
9421		37.109375
9422		29.296875
9423		33.203125
9424		23.437500
9425		31.250000
9426		19.531250
9427		25.390625
9428		15.625000
9429		21.484375
9430		11.718750
9431		17.578125
9432		7.812500
9433		13.671875
9434		3.906250
9435		9.765625
9436		0.000000
9437		5.859375
9438		-3.906250
9439		1.953125
9440		-7.812500
9441		-1.953125
9442		-11.718750
9443		-7.812500
9444		-15.625000
9445		-11.718750
9446		-21.484375
9447		-15.625000
9448		-25.390625
9449		-19.531250
9450		-29.296875
9451		-23.437500
9452		-33.203125
9453		-27.343750
9454		-35.156250
9455		-31.250000
9456		-41.015625
9457		-35.156250
9458		-42.968750
9459		-39.062500
9460		-46.875000
9461		-41.015625
9462		-50.781250
9463		-44.921875
9464		-52.734375
9465		-48.828125
9466		-56.640625
9467		-50.781250
9468		-58.593750
9469		-54.687500
9470		-60.546875
9471		-56.640625
9472		-64.453125
9473		-60.546875
9474		-66.406250
9475		-62.500000
9476		-68.359375
9477		-64.453125
9478		-70.312500
9479		-66.406250
9480		-72.265625
9481		-68.359375
9482		-74.218750
9483		-70.312500
9484		-74.218750
9485		-72.265625
9486		-76.171875
9487		-72.265625
9488		-78.125000
9489		-74.218750
9490		-78.125000
9491		-74.218750
9492		-78.125000
9493		-74.218750
9494		-78.125000
9495		-74.218750
9496		-78.125000
9497		-76.171875
9498		-78.125000
9499		-76.171875
9500		-80.078125
9501		-74.218750
9502		-78.125000
9503		-74.218750
9504		-76.171875
9505		-74.218750
9506		-76.171875
9507		-72.265625
9508		-74.218750
9509		-70.312500
9510		-72.265625
9511		-68.359375
9512		-72.265625
9513		-66.406250
9514		-68.359375
9515		-64.453125
9516		-68.359375
9517		-62.500000
9518		-66.406250
9519		-60.546875
9520		-62.500000
9521		-58.593750
9522		-60.546875
9523		-54.687500
9524		-58.593750
9525		-52.734375
9526		-54.687500
9527		-48.828125
9528		-52.734375
9529		-46.875000
9530		-48.828125
9531		-42.968750
9532		-44.921875
9533		-39.062500
9534		-41.015625
9535		-35.156250
9536		-37.109375
9537		-33.203125
9538		-35.156250
9539		-29.296875
9540		-29.296875
9541		-23.437500
9542		-25.390625
9543		-19.531250
9544		-21.484375
9545		-15.625000
9546		-17.578125
9547		-11.718750
9548		-13.671875
9549		-7.812500
9550		-9.765625
9551		-3.906250
9552		-5.859375
9553		0.000000
9554		-1.953125
9555		3.906250
9556		1.953125
9557		7.812500
9558		5.859375
9559		11.718750
9560		9.765625
9561		17.578125
9562		13.671875
9563		19.531250
9564		19.531250
9565		23.437500
9566		23.437500
9567		29.296875
9568		27.343750
9569		31.250000
9570		29.296875
9571		37.109375
9572		35.156250
9573		41.015625
9574		37.109375
9575		42.968750
9576		41.015625
9577		46.875000
9578		44.921875
9579		50.781250
9580		48.828125
9581		54.687500
9582		52.734375
9583		56.640625
9584		54.687500
9585		60.546875
9586		58.593750
9587		64.453125
9588		62.500000
9589		66.406250
9590		64.453125
9591		68.359375
9592		66.406250
9593		72.265625
9594		70.312500
9595		74.218750
9596		72.265625
9597		76.171875
9598		74.218750
9599		78.125000
9600		76.171875
9601		80.078125
9602		78.125000
9603		82.031250
9604		80.078125
9605		83.984375
9606		82.031250
9607		85.937500
9608		82.031250
9609		87.890625
9610		83.984375
9611		87.890625
9612		83.984375
9613		87.890625
9614		85.937500
9615		89.843750
9616		85.937500
9617		89.843750
9618		85.937500
9619		91.796875
9620		87.890625
9621		89.843750
9622		87.890625
9623		89.843750
9624		87.890625
9625		89.843750
9626		87.890625
9627		89.843750
9628		85.937500
9629		89.843750
9630		85.937500
9631		89.843750
9632		85.937500
9633		87.890625
9634		83.984375
9635		87.890625
9636		83.984375
9637		85.937500
9638		82.031250
9639		85.937500
9640		80.078125
9641		83.984375
9642		78.125000
9643		82.031250
9644		76.171875
9645		80.078125
9646		74.218750
9647		78.125000
9648		72.265625
9649		76.171875
9650		70.312500
9651		74.218750
9652		68.359375
9653		72.265625
9654		64.453125
9655		70.312500
9656		62.500000
9657		66.406250
9658		58.593750
9659		64.453125
9660		56.640625
9661		60.546875
9662		52.734375
9663		58.593750
9664		48.828125
9665		54.687500
9666		46.875000
9667		50.781250
9668		42.968750
9669		48.828125
9670		39.062500
9671		44.921875
9672		35.156250
9673		41.015625
9674		31.250000
9675		37.109375
9676		27.343750
9677		33.203125
9678		23.437500
9679		29.296875
9680		19.531250
9681		25.390625
9682		15.625000
9683		21.484375
9684		11.718750
9685		17.578125
9686		5.859375
9687		11.718750
9688		1.953125
9689		7.812500
9690		-1.953125
9691		5.859375
9692		-5.859375
9693		0.000000
9694		-9.765625
9695		-3.906250
9696		-13.671875
9697		-7.812500
9698		-17.578125
9699		-11.718750
9700		-23.437500
9701		-15.625000
9702		-27.343750
9703		-19.531250
9704		-29.296875
9705		-25.390625
9706		-33.203125
9707		-27.343750
9708		-37.109375
9709		-31.250000
9710		-41.015625
9711		-35.156250
9712		-42.968750
9713		-39.062500
9714		-46.875000
9715		-42.968750
9716		-50.781250
9717		-44.921875
9718		-54.687500
9719		-48.828125
9720		-56.640625
9721		-52.734375
9722		-58.593750
9723		-54.687500
9724		-62.500000
9725		-58.593750
9726		-64.453125
9727		-58.593750
9728		-66.406250
9729		-62.500000
9730		-68.359375
9731		-64.453125
9732		-70.312500
9733		-66.406250
9734		-72.265625
9735		-68.359375
9736		-74.218750
9737		-70.312500
9738		-74.218750
9739		-72.265625
9740		-76.171875
9741		-72.265625
9742		-76.171875
9743		-74.218750
9744		-76.171875
9745		-74.218750
9746		-78.125000
9747		-74.218750
9748		-78.125000
9749		-76.171875
9750		-78.125000
9751		-74.218750
9752		-78.125000
9753		-74.218750
9754		-76.171875
9755		-74.218750
9756		-76.171875
9757		-72.265625
9758		-76.171875
9759		-72.265625
9760		-74.218750
9761		-70.312500
9762		-74.218750
9763		-68.359375
9764		-72.265625
9765		-68.359375
9766		-70.312500
9767		-66.406250
9768		-68.359375
9769		-62.500000
9770		-66.406250
9771		-60.546875
9772		-62.500000
9773		-58.593750
9774		-62.500000
9775		-56.640625
9776		-58.593750
9777		-54.687500
9778		-54.687500
9779		-50.781250
9780		-52.734375
9781		-48.828125
9782		-48.828125
9783		-44.921875
9784		-44.921875
9785		-41.015625
9786		-42.968750
9787		-37.109375
9788		-39.062500
9789		-33.203125
9790		-35.156250
9791		-31.250000
9792		-31.250000
9793		-27.343750
9794		-29.296875
9795		-21.484375
9796		-23.437500
9797		-17.578125
9798		-19.531250
9799		-15.625000
9800		-15.625000
9801		-9.765625
9802		-11.718750
9803		-5.859375
9804		-7.812500
9805		-1.953125
9806		-3.906250
9807		1.953125
9808		0.000000
9809		5.859375
9810		1.953125
9811		9.765625
9812		7.812500
9813		13.671875
9814		11.718750
9815		19.531250
9816		17.578125
9817		23.437500
9818		21.484375
9819		27.343750
9820		25.390625
9821		31.250000
9822		29.296875
9823		35.156250
9824		33.203125
9825		37.109375
9826		35.156250
9827		42.968750
9828		41.015625
9829		46.875000
9830		42.968750
9831		48.828125
9832		46.875000
9833		52.734375
9834		50.781250
9835		54.687500
9836		52.734375
9837		58.593750
9838		56.640625
9839		62.500000
9840		60.546875
9841		64.453125
9842		62.500000
9843		68.359375
9844		64.453125
9845		70.312500
9846		66.406250
9847		72.265625
9848		70.312500
9849		74.218750
9850		74.218750
9851		78.125000
9852		76.171875
9853		80.078125
9854		76.171875
9855		82.031250
9856		78.125000
9857		82.031250
9858		80.078125
9859		83.984375
9860		80.078125
9861		87.890625
9862		82.031250
9863		89.843750
9864		83.984375
9865		87.890625
9866		85.937500
9867		87.890625
9868		85.937500
9869		89.843750
9870		85.937500
9871		91.796875
9872		85.937500
9873		91.796875
9874		85.937500
9875		93.750000
9876		85.937500
9877		91.796875
9878		85.937500
9879		91.796875
9880		85.937500
9881		91.796875
9882		87.890625
9883		89.843750
9884		85.937500
9885		89.843750
9886		83.984375
9887		89.843750
9888		82.031250
9889		89.843750
9890		80.078125
9891		87.890625
9892		80.078125
9893		85.937500
9894		78.125000
9895		85.937500
9896		76.171875
9897		83.984375
9898		76.171875
9899		82.031250
9900		74.218750
9901		78.125000
9902		70.312500
9903		76.171875
9904		68.359375
9905		76.171875
9906		66.406250
9907		72.265625
9908		62.500000
9909		70.312500
9910		58.593750
9911		68.359375
9912		56.640625
9913		64.453125
9914		54.687500
9915		60.546875
9916		52.734375
9917		56.640625
9918		48.828125
9919		52.734375
9920		42.968750
9921		50.781250
9922		39.062500
9923		46.875000
9924		35.156250
9925		44.921875
9926		31.250000
9927		41.015625
9928		27.343750
9929		37.109375
9930		25.390625
9931		33.203125
9932		21.484375
9933		27.343750
9934		17.578125
9935		23.437500
9936		11.718750
9937		19.531250
9938		7.812500
9939		17.578125
9940		3.906250
9941		13.671875
9942		0.000000
9943		7.812500
9944		-5.859375
9945		3.906250
9946		-9.765625
9947		0.000000
9948		-11.718750
9949		-3.906250
9950		-15.625000
9951		-9.765625
9952		-19.531250
9953		-13.671875
9954		-25.390625
9955		-15.625000
9956		-29.296875
9957		-19.531250
9958		-33.203125
9959		-23.437500
9960		-37.109375
9961		-27.343750
9962		-41.015625
9963		-31.250000
9964		-42.968750
9965		-35.156250
9966		-44.921875
9967		-41.015625
9968		-48.828125
9969		-44.921875
9970		-54.687500
9971		-46.875000
9972		-56.640625
9973		-48.828125
9974		-60.546875
9975		-50.781250
9976		-62.500000
9977		-54.687500
9978		-66.406250
9979		-56.640625
9980		-68.359375
9981		-58.593750
9982		-66.406250
9983		-62.500000
9984		-68.359375
9985		-66.406250
9986		-72.265625
9987		-66.406250
9988		-74.218750
9989		-68.359375
9990		-76.171875
9991		-68.359375
9992		-78.125000
9993		-70.312500
9994		-78.125000
9995		-70.312500
9996		-78.125000
9997		-72.265625
9998		-80.078125
9999		-72.265625
10000		-78.125000
