Channel              :		CH1
Frequency            :		1.973kHz
Period               :		0.507ms
PK-PK                :		144.5mV
Probe attenuation    :		1X
Voltage per ADC value:		0.122070mV
Time interval        :		2.00000us

index		CH1_Voltage(mV)
1		70.312500
2		70.312500
3		72.265625
4		66.406250
5		74.218750
6		66.406250
7		74.218750
8		64.453125
9		72.265625
10		64.453125
11		72.265625
12		62.500000
13		70.312500
14		60.546875
15		70.312500
16		60.546875
17		68.359375
18		60.546875
19		64.453125
20		58.593750
21		62.500000
22		54.687500
23		62.500000
24		52.734375
25		60.546875
26		50.781250
27		60.546875
28		48.828125
29		56.640625
30		46.875000
31		54.687500
32		44.921875
33		52.734375
34		44.921875
35		48.828125
36		41.015625
37		44.921875
38		37.109375
39		44.921875
40		33.203125
41		42.968750
42		31.250000
43		39.062500
44		27.343750
45		37.109375
46		25.390625
47		33.203125
48		21.484375
49		31.250000
50		21.484375
51		29.296875
52		17.578125
53		21.484375
54		13.671875
55		19.531250
56		9.765625
57		17.578125
58		5.859375
59		15.625000
60		1.953125
61		11.718750
62		0.000000
63		7.812500
64		-3.906250
65		5.859375
66		-5.859375
67		1.953125
68		-7.812500
69		-3.906250
70		-11.718750
71		-7.812500
72		-17.578125
73		-7.812500
74		-19.531250
75		-11.718750
76		-23.437500
77		-15.625000
78		-27.343750
79		-17.578125
80		-29.296875
81		-21.484375
82		-33.203125
83		-23.437500
84		-33.203125
85		-25.390625
86		-35.156250
87		-31.250000
88		-39.062500
89		-35.156250
90		-42.968750
91		-35.156250
92		-44.921875
93		-37.109375
94		-46.875000
95		-41.015625
96		-48.828125
97		-42.968750
98		-50.781250
99		-44.921875
100		-52.734375
101		-46.875000
102		-52.734375
103		-50.781250
104		-54.687500
105		-50.781250
106		-58.593750
107		-50.781250
108		-60.546875
109		-52.734375
110		-60.546875
111		-54.687500
112		-62.500000
113		-54.687500
114		-62.500000
115		-54.687500
116		-62.500000
117		-56.640625
118		-60.546875
119		-58.593750
120		-62.500000
121		-60.546875
122		-64.453125
123		-56.640625
124		-64.453125
125		-56.640625
126		-64.453125
127		-56.640625
128		-64.453125
129		-56.640625
130		-64.453125
131		-56.640625
132		-62.500000
133		-54.687500
134		-60.546875
135		-54.687500
136		-58.593750
137		-54.687500
138		-58.593750
139		-52.734375
140		-58.593750
141		-50.781250
142		-56.640625
143		-48.828125
144		-54.687500
145		-48.828125
146		-52.734375
147		-46.875000
148		-52.734375
149		-42.968750
150		-50.781250
151		-42.968750
152		-44.921875
153		-41.015625
154		-42.968750
155		-39.062500
156		-42.968750
157		-33.203125
158		-41.015625
159		-31.250000
160		-37.109375
161		-29.296875
162		-35.156250
163		-25.390625
164		-31.250000
165		-23.437500
166		-29.296875
167		-19.531250
168		-25.390625
169		-19.531250
170		-21.484375
171		-15.625000
172		-17.578125
173		-11.718750
174		-15.625000
175		-7.812500
176		-13.671875
177		-3.906250
178		-9.765625
179		-1.953125
180		-7.812500
181		1.953125
182		-3.906250
183		5.859375
184		0.000000
185		7.812500
186		5.859375
187		9.765625
188		9.765625
189		13.671875
190		9.765625
191		19.531250
192		11.718750
193		21.484375
194		15.625000
195		25.390625
196		19.531250
197		27.343750
198		21.484375
199		31.250000
200		25.390625
201		35.156250
202		31.250000
203		35.156250
204		33.203125
205		39.062500
206		35.156250
207		42.968750
208		37.109375
209		44.921875
210		39.062500
211		48.828125
212		42.968750
213		50.781250
214		44.921875
215		52.734375
216		46.875000
217		54.687500
218		48.828125
219		56.640625
220		54.687500
221		56.640625
222		54.687500
223		62.500000
224		56.640625
225		64.453125
226		58.593750
227		66.406250
228		58.593750
229		66.406250
230		60.546875
231		68.359375
232		62.500000
233		70.312500
234		62.500000
235		70.312500
236		66.406250
237		70.312500
238		68.359375
239		70.312500
240		66.406250
241		74.218750
242		66.406250
243		74.218750
244		66.406250
245		74.218750
246		68.359375
247		74.218750
248		68.359375
249		76.171875
250		68.359375
251		76.171875
252		68.359375
253		74.218750
254		70.312500
255		72.265625
256		66.406250
257		74.218750
258		66.406250
259		74.218750
260		66.406250
261		74.218750
262		64.453125
263		72.265625
264		64.453125
265		72.265625
266		62.500000
267		70.312500
268		62.500000
269		70.312500
270		62.500000
271		66.406250
272		60.546875
273		64.453125
274		56.640625
275		64.453125
276		54.687500
277		62.500000
278		52.734375
279		60.546875
280		50.781250
281		58.593750
282		48.828125
283		56.640625
284		46.875000
285		54.687500
286		46.875000
287		50.781250
288		42.968750
289		46.875000
290		39.062500
291		46.875000
292		35.156250
293		44.921875
294		33.203125
295		41.015625
296		29.296875
297		39.062500
298		27.343750
299		37.109375
300		23.437500
301		33.203125
302		23.437500
303		31.250000
304		19.531250
305		25.390625
306		15.625000
307		21.484375
308		11.718750
309		19.531250
310		7.812500
311		17.578125
312		5.859375
313		15.625000
314		1.953125
315		9.765625
316		-1.953125
317		7.812500
318		-3.906250
319		3.906250
320		-5.859375
321		-1.953125
322		-9.765625
323		-3.906250
324		-15.625000
325		-5.859375
326		-17.578125
327		-9.765625
328		-21.484375
329		-11.718750
330		-23.437500
331		-15.625000
332		-27.343750
333		-17.578125
334		-29.296875
335		-21.484375
336		-31.250000
337		-25.390625
338		-33.203125
339		-29.296875
340		-39.062500
341		-31.250000
342		-41.015625
343		-33.203125
344		-44.921875
345		-35.156250
346		-46.875000
347		-37.109375
348		-48.828125
349		-39.062500
350		-50.781250
351		-41.015625
352		-52.734375
353		-42.968750
354		-50.781250
355		-48.828125
356		-52.734375
357		-50.781250
358		-56.640625
359		-48.828125
360		-58.593750
361		-50.781250
362		-60.546875
363		-52.734375
364		-60.546875
365		-52.734375
366		-62.500000
367		-54.687500
368		-62.500000
369		-54.687500
370		-60.546875
371		-56.640625
372		-60.546875
373		-58.593750
374		-64.453125
375		-56.640625
376		-64.453125
377		-56.640625
378		-64.453125
379		-56.640625
380		-64.453125
381		-56.640625
382		-62.500000
383		-56.640625
384		-62.500000
385		-54.687500
386		-62.500000
387		-54.687500
388		-58.593750
389		-56.640625
390		-58.593750
391		-52.734375
392		-58.593750
393		-50.781250
394		-56.640625
395		-50.781250
396		-56.640625
397		-48.828125
398		-54.687500
399		-46.875000
400		-52.734375
401		-44.921875
402		-50.781250
403		-42.968750
404		-46.875000
405		-42.968750
406		-42.968750
407		-41.015625
408		-42.968750
409		-35.156250
410		-41.015625
411		-33.203125
412		-39.062500
413		-31.250000
414		-37.109375
415		-27.343750
416		-33.203125
417		-25.390625
418		-31.250000
419		-21.484375
420		-27.343750
421		-21.484375
422		-21.484375
423		-17.578125
424		-19.531250
425		-11.718750
426		-17.578125
427		-9.765625
428		-15.625000
429		-5.859375
430		-11.718750
431		-3.906250
432		-7.812500
433		0.000000
434		-3.906250
435		3.906250
436		-1.953125
437		5.859375
438		3.906250
439		7.812500
440		5.859375
441		11.718750
442		7.812500
443		17.578125
444		11.718750
445		19.531250
446		15.625000
447		23.437500
448		17.578125
449		27.343750
450		21.484375
451		29.296875
452		23.437500
453		33.203125
454		27.343750
455		33.203125
456		31.250000
457		37.109375
458		35.156250
459		41.015625
460		35.156250
461		44.921875
462		39.062500
463		46.875000
464		41.015625
465		48.828125
466		42.968750
467		52.734375
468		46.875000
469		54.687500
470		48.828125
471		54.687500
472		52.734375
473		56.640625
474		54.687500
475		60.546875
476		54.687500
477		62.500000
478		56.640625
479		64.453125
480		58.593750
481		66.406250
482		60.546875
483		68.359375
484		60.546875
485		70.312500
486		62.500000
487		70.312500
488		64.453125
489		68.359375
490		68.359375
491		70.312500
492		66.406250
493		74.218750
494		66.406250
495		74.218750
496		66.406250
497		74.218750
498		68.359375
499		74.218750
500		68.359375
501		76.171875
502		68.359375
503		76.171875
504		68.359375
505		76.171875
506		70.312500
507		72.265625
508		68.359375
509		74.218750
510		68.359375
511		74.218750
512		66.406250
513		74.218750
514		66.406250
515		74.218750
516		64.453125
517		72.265625
518		64.453125
519		72.265625
520		64.453125
521		70.312500
522		64.453125
523		66.406250
524		62.500000
525		64.453125
526		58.593750
527		66.406250
528		56.640625
529		64.453125
530		54.687500
531		62.500000
532		52.734375
533		60.546875
534		50.781250
535		58.593750
536		48.828125
537		56.640625
538		48.828125
539		52.734375
540		44.921875
541		50.781250
542		41.015625
543		48.828125
544		39.062500
545		46.875000
546		35.156250
547		44.921875
548		33.203125
549		41.015625
550		29.296875
551		39.062500
552		27.343750
553		35.156250
554		25.390625
555		33.203125
556		23.437500
557		27.343750
558		17.578125
559		23.437500
560		13.671875
561		23.437500
562		9.765625
563		21.484375
564		7.812500
565		17.578125
566		3.906250
567		13.671875
568		0.000000
569		9.765625
570		-1.953125
571		7.812500
572		-3.906250
573		1.953125
574		-5.859375
575		-1.953125
576		-11.718750
577		-5.859375
578		-15.625000
579		-5.859375
580		-17.578125
581		-9.765625
582		-21.484375
583		-11.718750
584		-25.390625
585		-15.625000
586		-27.343750
587		-19.531250
588		-27.343750
589		-21.484375
590		-31.250000
591		-27.343750
592		-37.109375
593		-29.296875
594		-39.062500
595		-29.296875
596		-41.015625
597		-33.203125
598		-42.968750
599		-35.156250
600		-44.921875
601		-37.109375
602		-48.828125
603		-41.015625
604		-48.828125
605		-42.968750
606		-50.781250
607		-46.875000
608		-52.734375
609		-48.828125
610		-56.640625
611		-48.828125
612		-56.640625
613		-48.828125
614		-58.593750
615		-50.781250
616		-58.593750
617		-52.734375
618		-60.546875
619		-52.734375
620		-62.500000
621		-54.687500
622		-62.500000
623		-54.687500
624		-60.546875
625		-58.593750
626		-62.500000
627		-56.640625
628		-64.453125
629		-56.640625
630		-64.453125
631		-56.640625
632		-64.453125
633		-56.640625
634		-62.500000
635		-56.640625
636		-62.500000
637		-54.687500
638		-62.500000
639		-54.687500
640		-58.593750
641		-56.640625
642		-58.593750
643		-54.687500
644		-58.593750
645		-50.781250
646		-58.593750
647		-48.828125
648		-56.640625
649		-48.828125
650		-54.687500
651		-46.875000
652		-52.734375
653		-44.921875
654		-52.734375
655		-42.968750
656		-46.875000
657		-42.968750
658		-44.921875
659		-41.015625
660		-44.921875
661		-37.109375
662		-42.968750
663		-33.203125
664		-41.015625
665		-31.250000
666		-37.109375
667		-29.296875
668		-35.156250
669		-25.390625
670		-31.250000
671		-23.437500
672		-29.296875
673		-21.484375
674		-23.437500
675		-19.531250
676		-21.484375
677		-13.671875
678		-19.531250
679		-9.765625
680		-17.578125
681		-7.812500
682		-13.671875
683		-3.906250
684		-9.765625
685		0.000000
686		-7.812500
687		1.953125
688		-3.906250
689		3.906250
690		1.953125
691		5.859375
692		5.859375
693		9.765625
694		7.812500
695		15.625000
696		9.765625
697		19.531250
698		13.671875
699		21.484375
700		15.625000
701		25.390625
702		19.531250
703		27.343750
704		21.484375
705		31.250000
706		25.390625
707		31.250000
708		31.250000
709		35.156250
710		33.203125
711		41.015625
712		33.203125
713		42.968750
714		37.109375
715		46.875000
716		39.062500
717		48.828125
718		42.968750
719		50.781250
720		44.921875
721		52.734375
722		46.875000
723		54.687500
724		52.734375
725		54.687500
726		54.687500
727		56.640625
728		54.687500
729		62.500000
730		54.687500
731		64.453125
732		58.593750
733		66.406250
734		58.593750
735		66.406250
736		60.546875
737		70.312500
738		62.500000
739		70.312500
740		66.406250
741		68.359375
742		66.406250
743		70.312500
744		66.406250
745		72.265625
746		66.406250
747		74.218750
748		66.406250
749		74.218750
750		68.359375
751		74.218750
752		68.359375
753		76.171875
754		68.359375
755		76.171875
756		68.359375
757		76.171875
758		72.265625
759		74.218750
760		68.359375
761		76.171875
762		68.359375
763		76.171875
764		68.359375
765		74.218750
766		66.406250
767		74.218750
768		66.406250
769		72.265625
770		64.453125
771		72.265625
772		64.453125
773		72.265625
774		64.453125
775		68.359375
776		64.453125
777		66.406250
778		60.546875
779		66.406250
780		58.593750
781		66.406250
782		56.640625
783		64.453125
784		54.687500
785		62.500000
786		52.734375
787		60.546875
788		50.781250
789		58.593750
790		50.781250
791		56.640625
792		48.828125
793		52.734375
794		42.968750
795		48.828125
796		41.015625
797		48.828125
798		37.109375
799		46.875000
800		35.156250
801		44.921875
802		31.250000
803		41.015625
804		29.296875
805		39.062500
806		27.343750
807		35.156250
808		25.390625
809		29.296875
810		21.484375
811		27.343750
812		15.625000
813		25.390625
814		13.671875
815		23.437500
816		9.765625
817		19.531250
818		5.859375
819		15.625000
820		1.953125
821		13.671875
822		0.000000
823		9.765625
824		0.000000
825		5.859375
826		-3.906250
827		0.000000
828		-9.765625
829		-1.953125
830		-11.718750
831		-3.906250
832		-15.625000
833		-7.812500
834		-17.578125
835		-9.765625
836		-21.484375
837		-13.671875
838		-25.390625
839		-15.625000
840		-25.390625
841		-19.531250
842		-29.296875
843		-25.390625
844		-33.203125
845		-27.343750
846		-37.109375
847		-27.343750
848		-39.062500
849		-31.250000
850		-42.968750
851		-33.203125
852		-44.921875
853		-35.156250
854		-46.875000
855		-39.062500
856		-48.828125
857		-41.015625
858		-48.828125
859		-44.921875
860		-50.781250
861		-46.875000
862		-54.687500
863		-46.875000
864		-56.640625
865		-46.875000
866		-56.640625
867		-48.828125
868		-58.593750
869		-50.781250
870		-60.546875
871		-52.734375
872		-60.546875
873		-52.734375
874		-60.546875
875		-54.687500
876		-60.546875
877		-56.640625
878		-62.500000
879		-56.640625
880		-62.500000
881		-56.640625
882		-62.500000
883		-56.640625
884		-62.500000
885		-56.640625
886		-62.500000
887		-56.640625
888		-62.500000
889		-56.640625
890		-62.500000
891		-54.687500
892		-58.593750
893		-56.640625
894		-58.593750
895		-54.687500
896		-60.546875
897		-52.734375
898		-58.593750
899		-50.781250
900		-56.640625
901		-48.828125
902		-56.640625
903		-46.875000
904		-54.687500
905		-46.875000
906		-52.734375
907		-44.921875
908		-48.828125
909		-44.921875
910		-46.875000
911		-41.015625
912		-44.921875
913		-37.109375
914		-42.968750
915		-35.156250
916		-41.015625
917		-33.203125
918		-39.062500
919		-29.296875
920		-37.109375
921		-27.343750
922		-33.203125
923		-25.390625
924		-31.250000
925		-23.437500
926		-25.390625
927		-21.484375
928		-21.484375
929		-15.625000
930		-21.484375
931		-13.671875
932		-19.531250
933		-9.765625
934		-15.625000
935		-5.859375
936		-11.718750
937		-3.906250
938		-7.812500
939		0.000000
940		-5.859375
941		1.953125
942		0.000000
943		3.906250
944		3.906250
945		7.812500
946		3.906250
947		13.671875
948		7.812500
949		17.578125
950		9.765625
951		19.531250
952		13.671875
953		23.437500
954		17.578125
955		25.390625
956		19.531250
957		29.296875
958		23.437500
959		31.250000
960		29.296875
961		33.203125
962		31.250000
963		39.062500
964		33.203125
965		41.015625
966		35.156250
967		42.968750
968		39.062500
969		46.875000
970		41.015625
971		48.828125
972		42.968750
973		50.781250
974		44.921875
975		52.734375
976		50.781250
977		54.687500
978		52.734375
979		56.640625
980		52.734375
981		60.546875
982		54.687500
983		62.500000
984		56.640625
985		64.453125
986		58.593750
987		66.406250
988		60.546875
989		68.359375
990		62.500000
991		70.312500
992		64.453125
993		68.359375
994		66.406250
995		70.312500
996		66.406250
997		72.265625
998		66.406250
999		74.218750
1000		66.406250
1001		74.218750
1002		68.359375
1003		74.218750
1004		68.359375
1005		76.171875
1006		68.359375
1007		76.171875
1008		68.359375
1009		76.171875
1010		70.312500
1011		74.218750
1012		70.312500
1013		74.218750
1014		68.359375
1015		76.171875
1016		68.359375
1017		76.171875
1018		68.359375
1019		74.218750
1020		66.406250
1021		74.218750
1022		66.406250
1023		74.218750
1024		64.453125
1025		72.265625
1026		66.406250
1027		70.312500
1028		64.453125
1029		68.359375
1030		60.546875
1031		68.359375
1032		58.593750
1033		66.406250
1034		56.640625
1035		66.406250
1036		56.640625
1037		64.453125
1038		54.687500
1039		62.500000
1040		52.734375
1041		60.546875
1042		52.734375
1043		58.593750
1044		50.781250
1045		54.687500
1046		46.875000
1047		50.781250
1048		42.968750
1049		50.781250
1050		39.062500
1051		48.828125
1052		37.109375
1053		46.875000
1054		33.203125
1055		42.968750
1056		31.250000
1057		41.015625
1058		29.296875
1059		37.109375
1060		27.343750
1061		33.203125
1062		25.390625
1063		29.296875
1064		19.531250
1065		27.343750
1066		17.578125
1067		25.390625
1068		13.671875
1069		21.484375
1070		9.765625
1071		19.531250
1072		5.859375
1073		15.625000
1074		3.906250
1075		11.718750
1076		1.953125
1077		7.812500
1078		-1.953125
1079		3.906250
1080		-5.859375
1081		0.000000
1082		-9.765625
1083		-1.953125
1084		-13.671875
1085		-3.906250
1086		-15.625000
1087		-7.812500
1088		-19.531250
1089		-9.765625
1090		-23.437500
1091		-13.671875
1092		-23.437500
1093		-17.578125
1094		-27.343750
1095		-21.484375
1096		-29.296875
1097		-25.390625
1098		-33.203125
1099		-25.390625
1100		-37.109375
1101		-27.343750
1102		-39.062500
1103		-31.250000
1104		-41.015625
1105		-33.203125
1106		-44.921875
1107		-35.156250
1108		-46.875000
1109		-39.062500
1110		-46.875000
1111		-42.968750
1112		-48.828125
1113		-44.921875
1114		-52.734375
1115		-44.921875
1116		-54.687500
1117		-46.875000
1118		-56.640625
1119		-48.828125
1120		-56.640625
1121		-48.828125
1122		-58.593750
1123		-50.781250
1124		-60.546875
1125		-52.734375
1126		-60.546875
1127		-52.734375
1128		-58.593750
1129		-56.640625
1130		-60.546875
1131		-54.687500
1132		-62.500000
1133		-54.687500
1134		-62.500000
1135		-54.687500
1136		-62.500000
1137		-54.687500
1138		-62.500000
1139		-54.687500
1140		-62.500000
1141		-54.687500
1142		-62.500000
1143		-54.687500
1144		-58.593750
1145		-56.640625
1146		-58.593750
1147		-54.687500
1148		-58.593750
1149		-52.734375
1150		-58.593750
1151		-50.781250
1152		-56.640625
1153		-50.781250
1154		-56.640625
1155		-48.828125
1156		-54.687500
1157		-46.875000
1158		-52.734375
1159		-44.921875
1160		-50.781250
1161		-44.921875
1162		-46.875000
1163		-42.968750
1164		-46.875000
1165		-39.062500
1166		-44.921875
1167		-35.156250
1168		-42.968750
1169		-33.203125
1170		-41.015625
1171		-31.250000
1172		-37.109375
1173		-29.296875
1174		-35.156250
1175		-25.390625
1176		-31.250000
1177		-25.390625
1178		-27.343750
1179		-23.437500
1180		-23.437500
1181		-17.578125
1182		-23.437500
1183		-13.671875
1184		-19.531250
1185		-11.718750
1186		-17.578125
1187		-7.812500
1188		-13.671875
1189		-3.906250
1190		-11.718750
1191		-1.953125
1192		-7.812500
1193		1.953125
1194		-1.953125
1195		3.906250
1196		1.953125
1197		5.859375
1198		3.906250
1199		11.718750
1200		5.859375
1201		15.625000
1202		9.765625
1203		17.578125
1204		11.718750
1205		21.484375
1206		15.625000
1207		25.390625
1208		19.531250
1209		27.343750
1210		21.484375
1211		29.296875
1212		27.343750
1213		31.250000
1214		31.250000
1215		37.109375
1216		31.250000
1217		39.062500
1218		33.203125
1219		42.968750
1220		37.109375
1221		44.921875
1222		39.062500
1223		48.828125
1224		41.015625
1225		50.781250
1226		44.921875
1227		52.734375
1228		48.828125
1229		52.734375
1230		52.734375
1231		54.687500
1232		52.734375
1233		60.546875
1234		54.687500
1235		62.500000
1236		56.640625
1237		64.453125
1238		58.593750
1239		66.406250
1240		60.546875
1241		66.406250
1242		60.546875
1243		68.359375
1244		62.500000
1245		68.359375
1246		66.406250
1247		68.359375
1248		66.406250
1249		72.265625
1250		66.406250
1251		74.218750
1252		66.406250
1253		74.218750
1254		68.359375
1255		74.218750
1256		68.359375
1257		76.171875
1258		68.359375
1259		76.171875
1260		68.359375
1261		76.171875
1262		72.265625
1263		74.218750
1264		72.265625
1265		74.218750
1266		68.359375
1267		76.171875
1268		68.359375
1269		76.171875
1270		68.359375
1271		76.171875
1272		68.359375
1273		74.218750
1274		66.406250
1275		74.218750
1276		66.406250
1277		74.218750
1278		68.359375
1279		70.312500
1280		66.406250
1281		68.359375
1282		62.500000
1283		70.312500
1284		62.500000
1285		68.359375
1286		58.593750
1287		68.359375
1288		56.640625
1289		64.453125
1290		56.640625
1291		62.500000
1292		54.687500
1293		60.546875
1294		52.734375
1295		58.593750
1296		52.734375
1297		54.687500
1298		46.875000
1299		52.734375
1300		44.921875
1301		52.734375
1302		41.015625
1303		50.781250
1304		39.062500
1305		46.875000
1306		37.109375
1307		44.921875
1308		33.203125
1309		42.968750
1310		31.250000
1311		41.015625
1312		31.250000
1313		35.156250
1314		27.343750
1315		31.250000
1316		21.484375
1317		29.296875
1318		17.578125
1319		27.343750
1320		15.625000
1321		23.437500
1322		11.718750
1323		21.484375
1324		7.812500
1325		17.578125
1326		3.906250
1327		13.671875
1328		3.906250
1329		11.718750
1330		1.953125
1331		5.859375
1332		-3.906250
1333		1.953125
1334		-7.812500
1335		1.953125
1336		-11.718750
1337		-1.953125
1338		-13.671875
1339		-3.906250
1340		-17.578125
1341		-7.812500
1342		-19.531250
1343		-11.718750
1344		-21.484375
1345		-13.671875
1346		-23.437500
1347		-19.531250
1348		-27.343750
1349		-23.437500
1350		-33.203125
1351		-23.437500
1352		-35.156250
1353		-27.343750
1354		-39.062500
1355		-29.296875
1356		-41.015625
1357		-31.250000
1358		-42.968750
1359		-35.156250
1360		-44.921875
1361		-37.109375
1362		-44.921875
1363		-41.015625
1364		-46.875000
1365		-42.968750
1366		-50.781250
1367		-44.921875
1368		-52.734375
1369		-44.921875
1370		-54.687500
1371		-46.875000
1372		-54.687500
1373		-48.828125
1374		-56.640625
1375		-48.828125
1376		-58.593750
1377		-50.781250
1378		-58.593750
1379		-52.734375
1380		-58.593750
1381		-54.687500
1382		-60.546875
1383		-54.687500
1384		-62.500000
1385		-54.687500
1386		-62.500000
1387		-54.687500
1388		-62.500000
1389		-54.687500
1390		-62.500000
1391		-54.687500
1392		-62.500000
1393		-54.687500
1394		-62.500000
1395		-54.687500
1396		-60.546875
1397		-56.640625
1398		-58.593750
1399		-54.687500
1400		-58.593750
1401		-52.734375
1402		-58.593750
1403		-52.734375
1404		-58.593750
1405		-50.781250
1406		-56.640625
1407		-48.828125
1408		-54.687500
1409		-46.875000
1410		-52.734375
1411		-46.875000
1412		-50.781250
1413		-44.921875
1414		-46.875000
1415		-44.921875
1416		-46.875000
1417		-41.015625
1418		-46.875000
1419		-37.109375
1420		-42.968750
1421		-35.156250
1422		-41.015625
1423		-33.203125
1424		-39.062500
1425		-31.250000
1426		-37.109375
1427		-27.343750
1428		-33.203125
1429		-25.390625
1430		-29.296875
1431		-23.437500
1432		-25.390625
1433		-19.531250
1434		-25.390625
1435		-15.625000
1436		-21.484375
1437		-13.671875
1438		-19.531250
1439		-9.765625
1440		-15.625000
1441		-5.859375
1442		-11.718750
1443		-3.906250
1444		-7.812500
1445		0.000000
1446		-5.859375
1447		1.953125
1448		0.000000
1449		3.906250
1450		1.953125
1451		9.765625
1452		3.906250
1453		11.718750
1454		7.812500
1455		15.625000
1456		11.718750
1457		19.531250
1458		13.671875
1459		23.437500
1460		17.578125
1461		27.343750
1462		19.531250
1463		27.343750
1464		25.390625
1465		29.296875
1466		29.296875
1467		35.156250
1468		29.296875
1469		37.109375
1470		33.203125
1471		41.015625
1472		35.156250
1473		42.968750
1474		37.109375
1475		46.875000
1476		41.015625
1477		48.828125
1478		42.968750
1479		50.781250
1480		48.828125
1481		52.734375
1482		50.781250
1483		54.687500
1484		50.781250
1485		58.593750
1486		52.734375
1487		60.546875
1488		54.687500
1489		62.500000
1490		56.640625
1491		64.453125
1492		58.593750
1493		66.406250
1494		60.546875
1495		68.359375
1496		62.500000
1497		68.359375
1498		66.406250
1499		68.359375
1500		64.453125
1501		72.265625
1502		66.406250
1503		72.265625
1504		66.406250
1505		74.218750
1506		68.359375
1507		74.218750
1508		68.359375
1509		76.171875
1510		68.359375
1511		76.171875
1512		70.312500
1513		76.171875
1514		72.265625
1515		74.218750
1516		72.265625
1517		76.171875
1518		68.359375
1519		76.171875
1520		68.359375
1521		76.171875
1522		68.359375
1523		76.171875
1524		68.359375
1525		76.171875
1526		68.359375
1527		74.218750
1528		66.406250
1529		74.218750
1530		68.359375
1531		72.265625
1532		68.359375
1533		70.312500
1534		62.500000
1535		70.312500
1536		62.500000
1537		70.312500
1538		60.546875
1539		68.359375
1540		58.593750
1541		66.406250
1542		56.640625
1543		64.453125
1544		54.687500
1545		64.453125
1546		54.687500
1547		60.546875
1548		52.734375
1549		56.640625
1550		48.828125
1551		54.687500
1552		46.875000
1553		54.687500
1554		42.968750
1555		52.734375
1556		41.015625
1557		48.828125
1558		39.062500
1559		46.875000
1560		37.109375
1561		44.921875
1562		33.203125
1563		41.015625
1564		33.203125
1565		37.109375
1566		29.296875
1567		33.203125
1568		23.437500
1569		31.250000
1570		21.484375
1571		29.296875
1572		17.578125
1573		25.390625
1574		13.671875
1575		23.437500
1576		11.718750
1577		19.531250
1578		7.812500
1579		17.578125
1580		5.859375
1581		13.671875
1582		3.906250
1583		7.812500
1584		-1.953125
1585		5.859375
1586		-5.859375
1587		3.906250
1588		-7.812500
1589		0.000000
1590		-11.718750
1591		-1.953125
1592		-13.671875
1593		-5.859375
1594		-17.578125
1595		-9.765625
1596		-21.484375
1597		-11.718750
1598		-21.484375
1599		-17.578125
1600		-25.390625
1601		-21.484375
1602		-31.250000
1603		-21.484375
1604		-33.203125
1605		-23.437500
1606		-37.109375
1607		-27.343750
1608		-39.062500
1609		-29.296875
1610		-41.015625
1611		-33.203125
1612		-42.968750
1613		-35.156250
1614		-44.921875
1615		-37.109375
1616		-44.921875
1617		-41.015625
1618		-50.781250
1619		-42.968750
1620		-52.734375
1621		-42.968750
1622		-54.687500
1623		-44.921875
1624		-54.687500
1625		-46.875000
1626		-56.640625
1627		-48.828125
1628		-58.593750
1629		-50.781250
1630		-58.593750
1631		-52.734375
1632		-56.640625
1633		-54.687500
1634		-58.593750
1635		-56.640625
1636		-62.500000
1637		-54.687500
1638		-60.546875
1639		-54.687500
1640		-62.500000
1641		-54.687500
1642		-62.500000
1643		-54.687500
1644		-62.500000
1645		-54.687500
1646		-62.500000
1647		-54.687500
1648		-58.593750
1649		-56.640625
1650		-58.593750
1651		-56.640625
1652		-60.546875
1653		-52.734375
1654		-60.546875
1655		-52.734375
1656		-58.593750
1657		-50.781250
1658		-58.593750
1659		-50.781250
1660		-56.640625
1661		-48.828125
1662		-54.687500
1663		-46.875000
1664		-52.734375
1665		-46.875000
1666		-48.828125
1667		-44.921875
1668		-48.828125
1669		-41.015625
1670		-46.875000
1671		-41.015625
1672		-44.921875
1673		-37.109375
1674		-42.968750
1675		-35.156250
1676		-41.015625
1677		-33.203125
1678		-39.062500
1679		-29.296875
1680		-35.156250
1681		-27.343750
1682		-31.250000
1683		-25.390625
1684		-27.343750
1685		-23.437500
1686		-27.343750
1687		-17.578125
1688		-23.437500
1689		-15.625000
1690		-21.484375
1691		-11.718750
1692		-17.578125
1693		-9.765625
1694		-15.625000
1695		-5.859375
1696		-11.718750
1697		-1.953125
1698		-7.812500
1699		-1.953125
1700		-1.953125
1701		1.953125
1702		0.000000
1703		7.812500
1704		1.953125
1705		9.765625
1706		3.906250
1707		13.671875
1708		7.812500
1709		17.578125
1710		11.718750
1711		21.484375
1712		13.671875
1713		23.437500
1714		17.578125
1715		25.390625
1716		23.437500
1717		27.343750
1718		25.390625
1719		31.250000
1720		27.343750
1721		35.156250
1722		29.296875
1723		39.062500
1724		33.203125
1725		41.015625
1726		35.156250
1727		44.921875
1728		39.062500
1729		46.875000
1730		41.015625
1731		48.828125
1732		46.875000
1733		50.781250
1734		48.828125
1735		52.734375
1736		50.781250
1737		56.640625
1738		50.781250
1739		58.593750
1740		52.734375
1741		60.546875
1742		54.687500
1743		62.500000
1744		56.640625
1745		64.453125
1746		58.593750
1747		66.406250
1748		60.546875
1749		66.406250
1750		64.453125
1751		68.359375
1752		64.453125
1753		70.312500
1754		64.453125
1755		72.265625
1756		66.406250
1757		72.265625
1758		66.406250
1759		74.218750
1760		66.406250
1761		74.218750
1762		68.359375
1763		76.171875
1764		68.359375
1765		76.171875
1766		72.265625
1767		74.218750
1768		72.265625
1769		74.218750
1770		70.312500
1771		76.171875
1772		70.312500
1773		76.171875
1774		70.312500
1775		76.171875
1776		70.312500
1777		74.218750
1778		68.359375
1779		74.218750
1780		68.359375
1781		74.218750
1782		68.359375
1783		72.265625
1784		68.359375
1785		70.312500
1786		64.453125
1787		70.312500
1788		62.500000
1789		70.312500
1790		62.500000
1791		70.312500
1792		60.546875
1793		68.359375
1794		58.593750
1795		66.406250
1796		56.640625
1797		64.453125
1798		54.687500
1799		62.500000
1800		54.687500
1801		58.593750
1802		50.781250
1803		56.640625
1804		46.875000
1805		56.640625
1806		44.921875
1807		54.687500
1808		42.968750
1809		50.781250
1810		41.015625
1811		48.828125
1812		37.109375
1813		46.875000
1814		35.156250
1815		42.968750
1816		35.156250
1817		39.062500
1818		31.250000
1819		35.156250
1820		27.343750
1821		33.203125
1822		23.437500
1823		31.250000
1824		19.531250
1825		29.296875
1826		17.578125
1827		25.390625
1828		13.671875
1829		23.437500
1830		9.765625
1831		19.531250
1832		9.765625
1833		15.625000
1834		5.859375
1835		9.765625
1836		0.000000
1837		7.812500
1838		-1.953125
1839		5.859375
1840		-5.859375
1841		1.953125
1842		-9.765625
1843		0.000000
1844		-13.671875
1845		-3.906250
1846		-15.625000
1847		-7.812500
1848		-17.578125
1849		-9.765625
1850		-19.531250
1851		-15.625000
1852		-23.437500
1853		-19.531250
1854		-29.296875
1855		-19.531250
1856		-31.250000
1857		-21.484375
1858		-33.203125
1859		-25.390625
1860		-35.156250
1861		-27.343750
1862		-39.062500
1863		-31.250000
1864		-41.015625
1865		-33.203125
1866		-41.015625
1867		-35.156250
1868		-44.921875
1869		-41.015625
1870		-48.828125
1871		-41.015625
1872		-48.828125
1873		-42.968750
1874		-52.734375
1875		-44.921875
1876		-54.687500
1877		-46.875000
1878		-56.640625
1879		-46.875000
1880		-56.640625
1881		-48.828125
1882		-58.593750
1883		-50.781250
1884		-56.640625
1885		-54.687500
1886		-58.593750
1887		-54.687500
1888		-60.546875
1889		-52.734375
1890		-60.546875
1891		-54.687500
1892		-62.500000
1893		-54.687500
1894		-62.500000
1895		-54.687500
1896		-62.500000
1897		-54.687500
1898		-62.500000
1899		-54.687500
1900		-60.546875
1901		-56.640625
1902		-58.593750
1903		-56.640625
1904		-60.546875
1905		-52.734375
1906		-60.546875
1907		-52.734375
1908		-58.593750
1909		-52.734375
1910		-58.593750
1911		-50.781250
1912		-56.640625
1913		-48.828125
1914		-56.640625
1915		-48.828125
1916		-54.687500
1917		-46.875000
1918		-50.781250
1919		-46.875000
1920		-48.828125
1921		-42.968750
1922		-48.828125
1923		-41.015625
1924		-46.875000
1925		-39.062500
1926		-44.921875
1927		-35.156250
1928		-42.968750
1929		-33.203125
1930		-39.062500
1931		-31.250000
1932		-37.109375
1933		-29.296875
1934		-31.250000
1935		-27.343750
1936		-29.296875
1937		-25.390625
1938		-29.296875
1939		-19.531250
1940		-25.390625
1941		-17.578125
1942		-21.484375
1943		-13.671875
1944		-19.531250
1945		-9.765625
1946		-17.578125
1947		-7.812500
1948		-13.671875
1949		-3.906250
1950		-9.765625
1951		-3.906250
1952		-3.906250
1953		0.000000
1954		-1.953125
1955		3.906250
1956		1.953125
1957		7.812500
1958		3.906250
1959		11.718750
1960		7.812500
1961		15.625000
1962		9.765625
1963		17.578125
1964		15.625000
1965		21.484375
1966		15.625000
1967		23.437500
1968		21.484375
1969		25.390625
1970		25.390625
1971		29.296875
1972		27.343750
1973		33.203125
1974		27.343750
1975		37.109375
1976		33.203125
1977		39.062500
1978		35.156250
1979		42.968750
1980		37.109375
1981		44.921875
1982		39.062500
1983		48.828125
1984		44.921875
1985		48.828125
1986		46.875000
1987		50.781250
1988		48.828125
1989		52.734375
1990		50.781250
1991		56.640625
1992		54.687500
1993		58.593750
1994		54.687500
1995		62.500000
1996		56.640625
1997		62.500000
1998		60.546875
1999		66.406250
2000		62.500000
2001		66.406250
2002		64.453125
2003		66.406250
2004		64.453125
2005		68.359375
2006		64.453125
2007		70.312500
2008		66.406250
2009		70.312500
2010		68.359375
2011		72.265625
2012		68.359375
2013		74.218750
2014		70.312500
2015		74.218750
2016		70.312500
2017		76.171875
2018		72.265625
2019		74.218750
2020		72.265625
2021		74.218750
2022		72.265625
2023		76.171875
2024		72.265625
2025		76.171875
2026		72.265625
2027		76.171875
2028		72.265625
2029		74.218750
2030		70.312500
2031		76.171875
2032		70.312500
2033		74.218750
2034		70.312500
2035		74.218750
2036		68.359375
2037		72.265625
2038		68.359375
2039		70.312500
2040		66.406250
2041		70.312500
2042		64.453125
2043		68.359375
2044		64.453125
2045		66.406250
2046		62.500000
2047		66.406250
2048		60.546875
2049		64.453125
2050		58.593750
2051		62.500000
2052		56.640625
2053		60.546875
2054		54.687500
2055		58.593750
2056		52.734375
2057		56.640625
2058		50.781250
2059		54.687500
2060		46.875000
2061		52.734375
2062		44.921875
2063		48.828125
2064		41.015625
2065		46.875000
2066		39.062500
2067		42.968750
2068		37.109375
2069		41.015625
2070		33.203125
2071		37.109375
2072		31.250000
2073		35.156250
2074		27.343750
2075		33.203125
2076		25.390625
2077		29.296875
2078		21.484375
2079		27.343750
2080		17.578125
2081		23.437500
2082		15.625000
2083		19.531250
2084		11.718750
2085		17.578125
2086		7.812500
2087		13.671875
2088		3.906250
2089		9.765625
2090		1.953125
2091		7.812500
2092		-1.953125
2093		3.906250
2094		-3.906250
2095		0.000000
2096		-7.812500
2097		-3.906250
2098		-11.718750
2099		-5.859375
2100		-15.625000
2101		-9.765625
2102		-17.578125
2103		-11.718750
2104		-21.484375
2105		-15.625000
2106		-23.437500
2107		-19.531250
2108		-25.390625
2109		-21.484375
2110		-29.296875
2111		-23.437500
2112		-31.250000
2113		-27.343750
2114		-35.156250
2115		-29.296875
2116		-39.062500
2117		-33.203125
2118		-39.062500
2119		-35.156250
2120		-41.015625
2121		-37.109375
2122		-44.921875
2123		-41.015625
2124		-46.875000
2125		-42.968750
2126		-48.828125
2127		-44.921875
2128		-48.828125
2129		-46.875000
2130		-52.734375
2131		-46.875000
2132		-52.734375
2133		-48.828125
2134		-54.687500
2135		-50.781250
2136		-54.687500
2137		-52.734375
2138		-56.640625
2139		-54.687500
2140		-58.593750
2141		-54.687500
2142		-58.593750
2143		-54.687500
2144		-58.593750
2145		-54.687500
2146		-58.593750
2147		-56.640625
2148		-60.546875
2149		-56.640625
2150		-60.546875
2151		-56.640625
2152		-58.593750
2153		-56.640625
2154		-58.593750
2155		-56.640625
2156		-60.546875
2157		-54.687500
2158		-58.593750
2159		-54.687500
2160		-58.593750
2161		-54.687500
2162		-56.640625
2163		-52.734375
2164		-54.687500
2165		-50.781250
2166		-54.687500
2167		-50.781250
2168		-52.734375
2169		-48.828125
2170		-50.781250
2171		-46.875000
2172		-48.828125
2173		-44.921875
2174		-46.875000
2175		-42.968750
2176		-44.921875
2177		-41.015625
2178		-42.968750
2179		-39.062500
2180		-41.015625
2181		-37.109375
2182		-39.062500
2183		-35.156250
2184		-37.109375
2185		-31.250000
2186		-33.203125
2187		-29.296875
2188		-31.250000
2189		-25.390625
2190		-27.343750
2191		-23.437500
2192		-25.390625
2193		-21.484375
2194		-21.484375
2195		-17.578125
2196		-19.531250
2197		-13.671875
2198		-17.578125
2199		-11.718750
2200		-11.718750
2201		-7.812500
2202		-9.765625
2203		-5.859375
2204		-5.859375
2205		-1.953125
2206		-3.906250
2207		1.953125
2208		0.000000
2209		3.906250
2210		1.953125
2211		7.812500
2212		5.859375
2213		11.718750
2214		9.765625
2215		15.625000
2216		13.671875
2217		17.578125
2218		15.625000
2219		21.484375
2220		19.531250
2221		23.437500
2222		23.437500
2223		27.343750
2224		25.390625
2225		31.250000
2226		29.296875
2227		33.203125
2228		33.203125
2229		37.109375
2230		35.156250
2231		39.062500
2232		39.062500
2233		42.968750
2234		41.015625
2235		44.921875
2236		42.968750
2237		46.875000
2238		44.921875
2239		50.781250
2240		48.828125
2241		52.734375
2242		50.781250
2243		54.687500
2244		52.734375
2245		58.593750
2246		54.687500
2247		60.546875
2248		58.593750
2249		60.546875
2250		58.593750
2251		62.500000
2252		60.546875
2253		66.406250
2254		62.500000
2255		66.406250
2256		64.453125
2257		68.359375
2258		66.406250
2259		70.312500
2260		68.359375
2261		70.312500
2262		68.359375
2263		72.265625
2264		70.312500
2265		72.265625
2266		70.312500
2267		74.218750
2268		70.312500
2269		74.218750
2270		72.265625
2271		74.218750
2272		72.265625
2273		74.218750
2274		72.265625
2275		76.171875
2276		72.265625
2277		76.171875
2278		72.265625
2279		76.171875
2280		72.265625
2281		76.171875
2282		72.265625
2283		74.218750
2284		72.265625
2285		74.218750
2286		70.312500
2287		74.218750
2288		70.312500
2289		72.265625
2290		68.359375
2291		72.265625
2292		68.359375
2293		72.265625
2294		66.406250
2295		70.312500
2296		66.406250
2297		68.359375
2298		62.500000
2299		68.359375
2300		62.500000
2301		66.406250
2302		58.593750
2303		64.453125
2304		58.593750
2305		62.500000
2306		56.640625
2307		60.546875
2308		54.687500
2309		58.593750
2310		50.781250
2311		56.640625
2312		48.828125
2313		52.734375
2314		46.875000
2315		50.781250
2316		44.921875
2317		48.828125
2318		41.015625
2319		46.875000
2320		39.062500
2321		44.921875
2322		37.109375
2323		41.015625
2324		33.203125
2325		39.062500
2326		29.296875
2327		35.156250
2328		27.343750
2329		31.250000
2330		23.437500
2331		29.296875
2332		21.484375
2333		25.390625
2334		17.578125
2335		23.437500
2336		13.671875
2337		19.531250
2338		11.718750
2339		15.625000
2340		5.859375
2341		11.718750
2342		3.906250
2343		9.765625
2344		1.953125
2345		5.859375
2346		-1.953125
2347		3.906250
2348		-5.859375
2349		0.000000
2350		-9.765625
2351		-3.906250
2352		-11.718750
2353		-5.859375
2354		-15.625000
2355		-9.765625
2356		-17.578125
2357		-13.671875
2358		-21.484375
2359		-15.625000
2360		-23.437500
2361		-19.531250
2362		-27.343750
2363		-21.484375
2364		-29.296875
2365		-25.390625
2366		-33.203125
2367		-27.343750
2368		-35.156250
2369		-31.250000
2370		-37.109375
2371		-33.203125
2372		-39.062500
2373		-35.156250
2374		-42.968750
2375		-39.062500
2376		-44.921875
2377		-41.015625
2378		-46.875000
2379		-42.968750
2380		-48.828125
2381		-44.921875
2382		-50.781250
2383		-46.875000
2384		-50.781250
2385		-48.828125
2386		-54.687500
2387		-48.828125
2388		-54.687500
2389		-50.781250
2390		-54.687500
2391		-52.734375
2392		-56.640625
2393		-52.734375
2394		-56.640625
2395		-54.687500
2396		-58.593750
2397		-54.687500
2398		-58.593750
2399		-54.687500
2400		-58.593750
2401		-56.640625
2402		-60.546875
2403		-56.640625
2404		-60.546875
2405		-56.640625
2406		-58.593750
2407		-56.640625
2408		-58.593750
2409		-54.687500
2410		-58.593750
2411		-54.687500
2412		-56.640625
2413		-54.687500
2414		-56.640625
2415		-52.734375
2416		-54.687500
2417		-50.781250
2418		-54.687500
2419		-50.781250
2420		-52.734375
2421		-50.781250
2422		-50.781250
2423		-48.828125
2424		-50.781250
2425		-44.921875
2426		-48.828125
2427		-44.921875
2428		-46.875000
2429		-42.968750
2430		-44.921875
2431		-41.015625
2432		-42.968750
2433		-39.062500
2434		-41.015625
2435		-35.156250
2436		-37.109375
2437		-31.250000
2438		-35.156250
2439		-31.250000
2440		-33.203125
2441		-27.343750
2442		-29.296875
2443		-25.390625
2444		-27.343750
2445		-21.484375
2446		-23.437500
2447		-19.531250
2448		-21.484375
2449		-15.625000
2450		-17.578125
2451		-11.718750
2452		-13.671875
2453		-9.765625
2454		-11.718750
2455		-7.812500
2456		-7.812500
2457		-3.906250
2458		-5.859375
2459		0.000000
2460		-1.953125
2461		3.906250
2462		1.953125
2463		7.812500
2464		3.906250
2465		9.765625
2466		7.812500
2467		13.671875
2468		11.718750
2469		15.625000
2470		13.671875
2471		19.531250
2472		17.578125
2473		21.484375
2474		21.484375
2475		25.390625
2476		23.437500
2477		29.296875
2478		27.343750
2479		31.250000
2480		29.296875
2481		35.156250
2482		33.203125
2483		37.109375
2484		35.156250
2485		41.015625
2486		39.062500
2487		42.968750
2488		41.015625
2489		46.875000
2490		44.921875
2491		48.828125
2492		46.875000
2493		50.781250
2494		48.828125
2495		52.734375
2496		50.781250
2497		56.640625
2498		52.734375
2499		58.593750
2500		56.640625
2501		60.546875
2502		58.593750
2503		62.500000
2504		60.546875
2505		64.453125
2506		62.500000
2507		64.453125
2508		64.453125
2509		68.359375
2510		64.453125
2511		68.359375
2512		66.406250
2513		70.312500
2514		66.406250
2515		72.265625
2516		68.359375
2517		72.265625
2518		70.312500
2519		72.265625
2520		70.312500
2521		74.218750
2522		72.265625
2523		74.218750
2524		72.265625
2525		74.218750
2526		72.265625
2527		76.171875
2528		72.265625
2529		76.171875
2530		72.265625
2531		76.171875
2532		72.265625
2533		76.171875
2534		72.265625
2535		76.171875
2536		72.265625
2537		76.171875
2538		70.312500
2539		74.218750
2540		70.312500
2541		74.218750
2542		70.312500
2543		72.265625
2544		68.359375
2545		72.265625
2546		68.359375
2547		70.312500
2548		66.406250
2549		70.312500
2550		64.453125
2551		68.359375
2552		62.500000
2553		66.406250
2554		62.500000
2555		66.406250
2556		60.546875
2557		62.500000
2558		58.593750
2559		62.500000
2560		56.640625
2561		60.546875
2562		52.734375
2563		56.640625
2564		50.781250
2565		56.640625
2566		48.828125
2567		52.734375
2568		46.875000
2569		50.781250
2570		42.968750
2571		48.828125
2572		41.015625
2573		46.875000
2574		39.062500
2575		42.968750
2576		35.156250
2577		39.062500
2578		33.203125
2579		37.109375
2580		29.296875
2581		33.203125
2582		25.390625
2583		31.250000
2584		23.437500
2585		27.343750
2586		19.531250
2587		25.390625
2588		17.578125
2589		21.484375
2590		13.671875
2591		19.531250
2592		9.765625
2593		15.625000
2594		7.812500
2595		13.671875
2596		3.906250
2597		9.765625
2598		0.000000
2599		5.859375
2600		-1.953125
2601		1.953125
2602		-7.812500
2603		-1.953125
2604		-9.765625
2605		-3.906250
2606		-11.718750
2607		-7.812500
2608		-15.625000
2609		-11.718750
2610		-19.531250
2611		-13.671875
2612		-21.484375
2613		-17.578125
2614		-25.390625
2615		-19.531250
2616		-27.343750
2617		-23.437500
2618		-29.296875
2619		-25.390625
2620		-33.203125
2621		-29.296875
2622		-35.156250
2623		-31.250000
2624		-39.062500
2625		-35.156250
2626		-41.015625
2627		-37.109375
2628		-42.968750
2629		-39.062500
2630		-44.921875
2631		-41.015625
2632		-46.875000
2633		-42.968750
2634		-48.828125
2635		-44.921875
2636		-50.781250
2637		-46.875000
2638		-52.734375
2639		-48.828125
2640		-52.734375
2641		-50.781250
2642		-54.687500
2643		-50.781250
2644		-56.640625
2645		-52.734375
2646		-56.640625
2647		-52.734375
2648		-58.593750
2649		-52.734375
2650		-58.593750
2651		-54.687500
2652		-58.593750
2653		-54.687500
2654		-58.593750
2655		-56.640625
2656		-58.593750
2657		-54.687500
2658		-58.593750
2659		-56.640625
2660		-58.593750
2661		-54.687500
2662		-58.593750
2663		-54.687500
2664		-58.593750
2665		-54.687500
2666		-56.640625
2667		-54.687500
2668		-56.640625
2669		-52.734375
2670		-54.687500
2671		-50.781250
2672		-54.687500
2673		-50.781250
2674		-52.734375
2675		-48.828125
2676		-50.781250
2677		-48.828125
2678		-50.781250
2679		-44.921875
2680		-48.828125
2681		-44.921875
2682		-44.921875
2683		-42.968750
2684		-42.968750
2685		-39.062500
2686		-41.015625
2687		-37.109375
2688		-39.062500
2689		-33.203125
2690		-37.109375
2691		-33.203125
2692		-35.156250
2693		-29.296875
2694		-31.250000
2695		-27.343750
2696		-29.296875
2697		-23.437500
2698		-25.390625
2699		-21.484375
2700		-23.437500
2701		-17.578125
2702		-19.531250
2703		-15.625000
2704		-17.578125
2705		-11.718750
2706		-13.671875
2707		-9.765625
2708		-9.765625
2709		-5.859375
2710		-7.812500
2711		-1.953125
2712		-3.906250
2713		1.953125
2714		0.000000
2715		3.906250
2716		1.953125
2717		7.812500
2718		5.859375
2719		9.765625
2720		7.812500
2721		13.671875
2722		11.718750
2723		17.578125
2724		15.625000
2725		19.531250
2726		19.531250
2727		23.437500
2728		21.484375
2729		27.343750
2730		25.390625
2731		29.296875
2732		27.343750
2733		33.203125
2734		31.250000
2735		35.156250
2736		33.203125
2737		39.062500
2738		37.109375
2739		42.968750
2740		39.062500
2741		44.921875
2742		42.968750
2743		46.875000
2744		44.921875
2745		48.828125
2746		48.828125
2747		52.734375
2748		50.781250
2749		54.687500
2750		52.734375
2751		56.640625
2752		54.687500
2753		58.593750
2754		56.640625
2755		60.546875
2756		58.593750
2757		62.500000
2758		60.546875
2759		64.453125
2760		62.500000
2761		66.406250
2762		62.500000
2763		68.359375
2764		66.406250
2765		70.312500
2766		66.406250
2767		70.312500
2768		68.359375
2769		72.265625
2770		68.359375
2771		72.265625
2772		70.312500
2773		74.218750
2774		70.312500
2775		74.218750
2776		72.265625
2777		74.218750
2778		72.265625
2779		76.171875
2780		72.265625
2781		76.171875
2782		72.265625
2783		76.171875
2784		72.265625
2785		76.171875
2786		72.265625
2787		76.171875
2788		72.265625
2789		76.171875
2790		70.312500
2791		76.171875
2792		70.312500
2793		74.218750
2794		70.312500
2795		74.218750
2796		68.359375
2797		72.265625
2798		68.359375
2799		72.265625
2800		68.359375
2801		70.312500
2802		66.406250
2803		70.312500
2804		64.453125
2805		68.359375
2806		62.500000
2807		66.406250
2808		60.546875
2809		64.453125
2810		58.593750
2811		62.500000
2812		56.640625
2813		60.546875
2814		54.687500
2815		58.593750
2816		52.734375
2817		58.593750
2818		50.781250
2819		54.687500
2820		46.875000
2821		52.734375
2822		44.921875
2823		50.781250
2824		42.968750
2825		48.828125
2826		41.015625
2827		44.921875
2828		37.109375
2829		41.015625
2830		35.156250
2831		39.062500
2832		31.250000
2833		37.109375
2834		29.296875
2835		33.203125
2836		25.390625
2837		29.296875
2838		21.484375
2839		27.343750
2840		19.531250
2841		25.390625
2842		15.625000
2843		19.531250
2844		11.718750
2845		17.578125
2846		9.765625
2847		15.625000
2848		5.859375
2849		11.718750
2850		1.953125
2851		7.812500
2852		-1.953125
2853		3.906250
2854		-3.906250
2855		0.000000
2856		-7.812500
2857		-1.953125
2858		-9.765625
2859		-3.906250
2860		-13.671875
2861		-9.765625
2862		-15.625000
2863		-11.718750
2864		-19.531250
2865		-13.671875
2866		-23.437500
2867		-17.578125
2868		-27.343750
2869		-21.484375
2870		-27.343750
2871		-23.437500
2872		-31.250000
2873		-25.390625
2874		-35.156250
2875		-29.296875
2876		-37.109375
2877		-33.203125
2878		-39.062500
2879		-35.156250
2880		-41.015625
2881		-37.109375
2882		-42.968750
2883		-39.062500
2884		-44.921875
2885		-41.015625
2886		-46.875000
2887		-42.968750
2888		-48.828125
2889		-44.921875
2890		-50.781250
2891		-46.875000
2892		-52.734375
2893		-48.828125
2894		-52.734375
2895		-50.781250
2896		-56.640625
2897		-50.781250
2898		-56.640625
2899		-52.734375
2900		-56.640625
2901		-52.734375
2902		-56.640625
2903		-54.687500
2904		-58.593750
2905		-54.687500
2906		-58.593750
2907		-54.687500
2908		-58.593750
2909		-56.640625
2910		-58.593750
2911		-56.640625
2912		-60.546875
2913		-54.687500
2914		-58.593750
2915		-54.687500
2916		-58.593750
2917		-54.687500
2918		-58.593750
2919		-54.687500
2920		-56.640625
2921		-52.734375
2922		-56.640625
2923		-52.734375
2924		-54.687500
2925		-50.781250
2926		-52.734375
2927		-50.781250
2928		-52.734375
2929		-48.828125
2930		-50.781250
2931		-46.875000
2932		-48.828125
2933		-44.921875
2934		-46.875000
2935		-42.968750
2936		-44.921875
2937		-41.015625
2938		-42.968750
2939		-39.062500
2940		-41.015625
2941		-35.156250
2942		-39.062500
2943		-33.203125
2944		-37.109375
2945		-31.250000
2946		-33.203125
2947		-29.296875
2948		-31.250000
2949		-25.390625
2950		-27.343750
2951		-23.437500
2952		-25.390625
2953		-19.531250
2954		-21.484375
2955		-17.578125
2956		-19.531250
2957		-13.671875
2958		-15.625000
2959		-11.718750
2960		-13.671875
2961		-7.812500
2962		-9.765625
2963		-3.906250
2964		-5.859375
2965		-1.953125
2966		-3.906250
2967		1.953125
2968		0.000000
2969		5.859375
2970		3.906250
2971		7.812500
2972		5.859375
2973		11.718750
2974		9.765625
2975		15.625000
2976		13.671875
2977		17.578125
2978		17.578125
2979		21.484375
2980		19.531250
2981		25.390625
2982		23.437500
2983		27.343750
2984		25.390625
2985		31.250000
2986		29.296875
2987		33.203125
2988		31.250000
2989		37.109375
2990		35.156250
2991		39.062500
2992		37.109375
2993		42.968750
2994		41.015625
2995		44.921875
2996		42.968750
2997		48.828125
2998		44.921875
2999		50.781250
3000		48.828125
3001		52.734375
3002		50.781250
3003		54.687500
3004		52.734375
3005		58.593750
3006		54.687500
3007		58.593750
3008		56.640625
3009		62.500000
3010		60.546875
3011		62.500000
3012		62.500000
3013		64.453125
3014		62.500000
3015		66.406250
3016		64.453125
3017		68.359375
3018		66.406250
3019		70.312500
3020		66.406250
3021		70.312500
3022		68.359375
3023		72.265625
3024		68.359375
3025		72.265625
3026		70.312500
3027		74.218750
3028		72.265625
3029		74.218750
3030		70.312500
3031		74.218750
3032		72.265625
3033		76.171875
3034		72.265625
3035		76.171875
3036		72.265625
3037		76.171875
3038		72.265625
3039		76.171875
3040		72.265625
3041		76.171875
3042		72.265625
3043		76.171875
3044		72.265625
3045		74.218750
3046		70.312500
3047		74.218750
3048		70.312500
3049		72.265625
3050		68.359375
3051		72.265625
3052		68.359375
3053		72.265625
3054		66.406250
3055		70.312500
3056		64.453125
3057		70.312500
3058		62.500000
3059		66.406250
3060		62.500000
3061		66.406250
3062		60.546875
3063		64.453125
3064		58.593750
3065		62.500000
3066		56.640625
3067		60.546875
3068		54.687500
3069		58.593750
3070		50.781250
3071		56.640625
3072		48.828125
3073		54.687500
3074		46.875000
3075		50.781250
3076		44.921875
3077		48.828125
3078		41.015625
3079		44.921875
3080		39.062500
3081		42.968750
3082		35.156250
3083		41.015625
3084		33.203125
3085		37.109375
3086		29.296875
3087		35.156250
3088		27.343750
3089		33.203125
3090		23.437500
3091		29.296875
3092		19.531250
3093		25.390625
3094		17.578125
3095		21.484375
3096		13.671875
3097		19.531250
3098		11.718750
3099		17.578125
3100		7.812500
3101		11.718750
3102		3.906250
3103		9.765625
3104		0.000000
3105		5.859375
3106		-1.953125
3107		1.953125
3108		-5.859375
3109		0.000000
3110		-7.812500
3111		-3.906250
3112		-11.718750
3113		-5.859375
3114		-15.625000
3115		-9.765625
3116		-17.578125
3117		-13.671875
3118		-21.484375
3119		-15.625000
3120		-23.437500
3121		-19.531250
3122		-27.343750
3123		-21.484375
3124		-29.296875
3125		-25.390625
3126		-33.203125
3127		-27.343750
3128		-35.156250
3129		-31.250000
3130		-39.062500
3131		-33.203125
3132		-39.062500
3133		-35.156250
3134		-42.968750
3135		-37.109375
3136		-44.921875
3137		-41.015625
3138		-46.875000
3139		-42.968750
3140		-48.828125
3141		-44.921875
3142		-50.781250
3143		-46.875000
3144		-50.781250
3145		-48.828125
3146		-52.734375
3147		-50.781250
3148		-54.687500
3149		-50.781250
3150		-54.687500
3151		-52.734375
3152		-56.640625
3153		-52.734375
3154		-56.640625
3155		-54.687500
3156		-58.593750
3157		-54.687500
3158		-58.593750
3159		-54.687500
3160		-60.546875
3161		-54.687500
3162		-58.593750
3163		-56.640625
3164		-58.593750
3165		-56.640625
3166		-58.593750
3167		-56.640625
3168		-58.593750
3169		-54.687500
3170		-58.593750
3171		-54.687500
3172		-58.593750
3173		-54.687500
3174		-56.640625
3175		-52.734375
3176		-56.640625
3177		-52.734375
3178		-54.687500
3179		-50.781250
3180		-52.734375
3181		-50.781250
3182		-52.734375
3183		-48.828125
3184		-50.781250
3185		-46.875000
3186		-48.828125
3187		-44.921875
3188		-46.875000
3189		-42.968750
3190		-44.921875
3191		-41.015625
3192		-42.968750
3193		-37.109375
3194		-41.015625
3195		-35.156250
3196		-37.109375
3197		-33.203125
3198		-35.156250
3199		-31.250000
3200		-33.203125
3201		-29.296875
3202		-31.250000
3203		-25.390625
3204		-27.343750
3205		-21.484375
3206		-23.437500
3207		-19.531250
3208		-21.484375
3209		-15.625000
3210		-17.578125
3211		-13.671875
3212		-15.625000
3213		-9.765625
3214		-11.718750
3215		-7.812500
3216		-9.765625
3217		-3.906250
3218		-5.859375
3219		0.000000
3220		-1.953125
3221		1.953125
3222		1.953125
3223		5.859375
3224		3.906250
3225		9.765625
3226		7.812500
3227		13.671875
3228		11.718750
3229		15.625000
3230		13.671875
3231		19.531250
3232		17.578125
3233		21.484375
3234		21.484375
3235		25.390625
3236		23.437500
3237		29.296875
3238		27.343750
3239		31.250000
3240		29.296875
3241		35.156250
3242		33.203125
3243		37.109375
3244		37.109375
3245		41.015625
3246		39.062500
3247		42.968750
3248		41.015625
3249		46.875000
3250		42.968750
3251		48.828125
3252		46.875000
3253		50.781250
3254		48.828125
3255		52.734375
3256		52.734375
3257		56.640625
3258		54.687500
3259		58.593750
3260		56.640625
3261		60.546875
3262		58.593750
3263		62.500000
3264		60.546875
3265		64.453125
3266		62.500000
3267		66.406250
3268		64.453125
3269		66.406250
3270		64.453125
3271		68.359375
3272		66.406250
3273		70.312500
3274		68.359375
3275		70.312500
3276		68.359375
3277		72.265625
3278		68.359375
3279		72.265625
3280		70.312500
3281		74.218750
3282		70.312500
3283		74.218750
3284		72.265625
3285		74.218750
3286		72.265625
3287		76.171875
3288		72.265625
3289		76.171875
3290		72.265625
3291		76.171875
3292		72.265625
3293		76.171875
3294		72.265625
3295		76.171875
3296		72.265625
3297		74.218750
3298		72.265625
3299		74.218750
3300		70.312500
3301		74.218750
3302		70.312500
3303		72.265625
3304		68.359375
3305		72.265625
3306		66.406250
3307		70.312500
3308		66.406250
3309		70.312500
3310		64.453125
3311		68.359375
3312		64.453125
3313		66.406250
3314		62.500000
3315		64.453125
3316		58.593750
3317		64.453125
3318		56.640625
3319		62.500000
3320		56.640625
3321		60.546875
3322		52.734375
3323		58.593750
3324		50.781250
3325		54.687500
3326		48.828125
3327		52.734375
3328		46.875000
3329		50.781250
3330		42.968750
3331		48.828125
3332		41.015625
3333		44.921875
3334		37.109375
3335		42.968750
3336		35.156250
3337		41.015625
3338		33.203125
3339		37.109375
3340		29.296875
3341		35.156250
3342		25.390625
3343		31.250000
3344		23.437500
3345		29.296875
3346		19.531250
3347		25.390625
3348		17.578125
3349		21.484375
3350		13.671875
3351		19.531250
3352		9.765625
3353		15.625000
3354		7.812500
3355		11.718750
3356		3.906250
3357		7.812500
3358		0.000000
3359		5.859375
3360		-3.906250
3361		1.953125
3362		-5.859375
3363		0.000000
3364		-9.765625
3365		-3.906250
3366		-11.718750
3367		-7.812500
3368		-15.625000
3369		-11.718750
3370		-19.531250
3371		-13.671875
3372		-21.484375
3373		-17.578125
3374		-25.390625
3375		-19.531250
3376		-27.343750
3377		-23.437500
3378		-31.250000
3379		-25.390625
3380		-33.203125
3381		-29.296875
3382		-35.156250
3383		-31.250000
3384		-37.109375
3385		-33.203125
3386		-41.015625
3387		-35.156250
3388		-42.968750
3389		-39.062500
3390		-44.921875
3391		-41.015625
3392		-46.875000
3393		-42.968750
3394		-48.828125
3395		-44.921875
3396		-50.781250
3397		-46.875000
3398		-52.734375
3399		-48.828125
3400		-54.687500
3401		-48.828125
3402		-54.687500
3403		-50.781250
3404		-54.687500
3405		-52.734375
3406		-56.640625
3407		-52.734375
3408		-58.593750
3409		-54.687500
3410		-58.593750
3411		-54.687500
3412		-58.593750
3413		-54.687500
3414		-58.593750
3415		-56.640625
3416		-58.593750
3417		-56.640625
3418		-58.593750
3419		-56.640625
3420		-58.593750
3421		-54.687500
3422		-58.593750
3423		-54.687500
3424		-58.593750
3425		-54.687500
3426		-56.640625
3427		-54.687500
3428		-56.640625
3429		-52.734375
3430		-54.687500
3431		-52.734375
3432		-54.687500
3433		-50.781250
3434		-52.734375
3435		-48.828125
3436		-52.734375
3437		-46.875000
3438		-50.781250
3439		-44.921875
3440		-46.875000
3441		-44.921875
3442		-46.875000
3443		-41.015625
3444		-44.921875
3445		-41.015625
3446		-42.968750
3447		-37.109375
3448		-39.062500
3449		-35.156250
3450		-37.109375
3451		-33.203125
3452		-35.156250
3453		-29.296875
3454		-31.250000
3455		-27.343750
3456		-29.296875
3457		-25.390625
3458		-25.390625
3459		-21.484375
3460		-23.437500
3461		-19.531250
3462		-19.531250
3463		-15.625000
3464		-17.578125
3465		-11.718750
3466		-13.671875
3467		-9.765625
3468		-11.718750
3469		-5.859375
3470		-7.812500
3471		-1.953125
3472		-3.906250
3473		0.000000
3474		-1.953125
3475		3.906250
3476		1.953125
3477		7.812500
3478		5.859375
3479		9.765625
3480		7.812500
3481		13.671875
3482		11.718750
3483		15.625000
3484		15.625000
3485		19.531250
3486		17.578125
3487		23.437500
3488		21.484375
3489		27.343750
3490		25.390625
3491		29.296875
3492		27.343750
3493		33.203125
3494		29.296875
3495		35.156250
3496		33.203125
3497		39.062500
3498		37.109375
3499		41.015625
3500		39.062500
3501		44.921875
3502		42.968750
3503		48.828125
3504		44.921875
3505		48.828125
3506		46.875000
3507		50.781250
3508		50.781250
3509		54.687500
3510		52.734375
3511		56.640625
3512		54.687500
3513		58.593750
3514		56.640625
3515		60.546875
3516		58.593750
3517		62.500000
3518		60.546875
3519		64.453125
3520		62.500000
3521		66.406250
3522		64.453125
3523		68.359375
3524		66.406250
3525		68.359375
3526		66.406250
3527		70.312500
3528		68.359375
3529		72.265625
3530		68.359375
3531		72.265625
3532		70.312500
3533		72.265625
3534		70.312500
3535		74.218750
3536		72.265625
3537		74.218750
3538		72.265625
3539		74.218750
3540		72.265625
3541		76.171875
3542		72.265625
3543		76.171875
3544		72.265625
3545		76.171875
3546		72.265625
3547		76.171875
3548		72.265625
3549		74.218750
3550		72.265625
3551		74.218750
3552		70.312500
3553		74.218750
3554		70.312500
3555		74.218750
3556		68.359375
3557		72.265625
3558		68.359375
3559		72.265625
3560		66.406250
3561		70.312500
3562		66.406250
3563		70.312500
3564		64.453125
3565		68.359375
3566		62.500000
3567		66.406250
3568		60.546875
3569		66.406250
3570		58.593750
3571		64.453125
3572		56.640625
3573		60.546875
3574		54.687500
3575		58.593750
3576		52.734375
3577		56.640625
3578		50.781250
3579		54.687500
3580		48.828125
3581		52.734375
3582		46.875000
3583		50.781250
3584		41.015625
3585		46.875000
3586		39.062500
3587		44.921875
3588		37.109375
3589		42.968750
3590		35.156250
3591		39.062500
3592		31.250000
3593		37.109375
3594		27.343750
3595		33.203125
3596		25.390625
3597		31.250000
3598		23.437500
3599		27.343750
3600		19.531250
3601		23.437500
3602		15.625000
3603		21.484375
3604		11.718750
3605		17.578125
3606		7.812500
3607		13.671875
3608		5.859375
3609		11.718750
3610		1.953125
3611		7.812500
3612		0.000000
3613		3.906250
3614		-3.906250
3615		1.953125
3616		-7.812500
3617		-1.953125
3618		-9.765625
3619		-5.859375
3620		-13.671875
3621		-7.812500
3622		-17.578125
3623		-11.718750
3624		-19.531250
3625		-15.625000
3626		-23.437500
3627		-17.578125
3628		-25.390625
3629		-21.484375
3630		-29.296875
3631		-23.437500
3632		-31.250000
3633		-27.343750
3634		-33.203125
3635		-29.296875
3636		-35.156250
3637		-31.250000
3638		-39.062500
3639		-33.203125
3640		-41.015625
3641		-37.109375
3642		-42.968750
3643		-39.062500
3644		-44.921875
3645		-41.015625
3646		-46.875000
3647		-42.968750
3648		-48.828125
3649		-44.921875
3650		-50.781250
3651		-46.875000
3652		-52.734375
3653		-48.828125
3654		-54.687500
3655		-50.781250
3656		-54.687500
3657		-52.734375
3658		-56.640625
3659		-52.734375
3660		-56.640625
3661		-52.734375
3662		-56.640625
3663		-54.687500
3664		-58.593750
3665		-54.687500
3666		-58.593750
3667		-56.640625
3668		-60.546875
3669		-54.687500
3670		-60.546875
3671		-56.640625
3672		-58.593750
3673		-56.640625
3674		-58.593750
3675		-56.640625
3676		-58.593750
3677		-54.687500
3678		-58.593750
3679		-54.687500
3680		-56.640625
3681		-52.734375
3682		-54.687500
3683		-52.734375
3684		-54.687500
3685		-52.734375
3686		-54.687500
3687		-50.781250
3688		-52.734375
3689		-48.828125
3690		-50.781250
3691		-46.875000
3692		-48.828125
3693		-44.921875
3694		-46.875000
3695		-42.968750
3696		-44.921875
3697		-41.015625
3698		-44.921875
3699		-39.062500
3700		-41.015625
3701		-37.109375
3702		-39.062500
3703		-33.203125
3704		-37.109375
3705		-31.250000
3706		-33.203125
3707		-29.296875
3708		-31.250000
3709		-25.390625
3710		-27.343750
3711		-21.484375
3712		-25.390625
3713		-19.531250
3714		-21.484375
3715		-17.578125
3716		-19.531250
3717		-13.671875
3718		-15.625000
3719		-11.718750
3720		-13.671875
3721		-7.812500
3722		-9.765625
3723		-3.906250
3724		-5.859375
3725		-1.953125
3726		-3.906250
3727		1.953125
3728		0.000000
3729		3.906250
3730		3.906250
3731		9.765625
3732		5.859375
3733		11.718750
3734		9.765625
3735		15.625000
3736		13.671875
3737		17.578125
3738		17.578125
3739		21.484375
3740		19.531250
3741		23.437500
3742		23.437500
3743		27.343750
3744		25.390625
3745		31.250000
3746		29.296875
3747		33.203125
3748		31.250000
3749		37.109375
3750		35.156250
3751		39.062500
3752		39.062500
3753		42.968750
3754		41.015625
3755		44.921875
3756		42.968750
3757		48.828125
3758		46.875000
3759		50.781250
3760		48.828125
3761		52.734375
3762		50.781250
3763		54.687500
3764		52.734375
3765		58.593750
3766		56.640625
3767		58.593750
3768		56.640625
3769		60.546875
3770		60.546875
3771		64.453125
3772		60.546875
3773		64.453125
3774		62.500000
3775		66.406250
3776		64.453125
3777		68.359375
3778		66.406250
3779		70.312500
3780		66.406250
3781		70.312500
3782		68.359375
3783		72.265625
3784		70.312500
3785		72.265625
3786		70.312500
3787		74.218750
3788		70.312500
3789		74.218750
3790		72.265625
3791		74.218750
3792		72.265625
3793		76.171875
3794		72.265625
3795		76.171875
3796		72.265625
3797		76.171875
3798		72.265625
3799		76.171875
3800		72.265625
3801		74.218750
3802		72.265625
3803		74.218750
3804		72.265625
3805		76.171875
3806		70.312500
3807		74.218750
3808		70.312500
3809		74.218750
3810		70.312500
3811		72.265625
3812		68.359375
3813		72.265625
3814		66.406250
3815		70.312500
3816		66.406250
3817		70.312500
3818		64.453125
3819		68.359375
3820		62.500000
3821		66.406250
3822		60.546875
3823		64.453125
3824		58.593750
3825		62.500000
3826		56.640625
3827		60.546875
3828		54.687500
3829		58.593750
3830		52.734375
3831		56.640625
3832		48.828125
3833		54.687500
3834		46.875000
3835		50.781250
3836		44.921875
3837		48.828125
3838		42.968750
3839		48.828125
3840		39.062500
3841		44.921875
3842		37.109375
3843		41.015625
3844		33.203125
3845		37.109375
3846		29.296875
3847		35.156250
3848		27.343750
3849		33.203125
3850		25.390625
3851		29.296875
3852		21.484375
3853		25.390625
3854		17.578125
3855		23.437500
3856		15.625000
3857		21.484375
3858		11.718750
3859		15.625000
3860		7.812500
3861		13.671875
3862		3.906250
3863		9.765625
3864		1.953125
3865		5.859375
3866		-1.953125
3867		3.906250
3868		-3.906250
3869		0.000000
3870		-9.765625
3871		-3.906250
3872		-11.718750
3873		-5.859375
3874		-13.671875
3875		-9.765625
3876		-17.578125
3877		-11.718750
3878		-21.484375
3879		-15.625000
3880		-23.437500
3881		-17.578125
3882		-27.343750
3883		-21.484375
3884		-29.296875
3885		-25.390625
3886		-31.250000
3887		-27.343750
3888		-35.156250
3889		-29.296875
3890		-37.109375
3891		-33.203125
3892		-39.062500
3893		-35.156250
3894		-41.015625
3895		-37.109375
3896		-44.921875
3897		-39.062500
3898		-46.875000
3899		-42.968750
3900		-48.828125
3901		-42.968750
3902		-48.828125
3903		-46.875000
3904		-50.781250
3905		-46.875000
3906		-52.734375
3907		-48.828125
3908		-54.687500
3909		-50.781250
3910		-54.687500
3911		-50.781250
3912		-56.640625
3913		-52.734375
3914		-56.640625
3915		-54.687500
3916		-58.593750
3917		-54.687500
3918		-58.593750
3919		-54.687500
3920		-58.593750
3921		-56.640625
3922		-58.593750
3923		-54.687500
3924		-58.593750
3925		-56.640625
3926		-58.593750
3927		-54.687500
3928		-58.593750
3929		-54.687500
3930		-58.593750
3931		-54.687500
3932		-56.640625
3933		-54.687500
3934		-56.640625
3935		-52.734375
3936		-54.687500
3937		-52.734375
3938		-54.687500
3939		-50.781250
3940		-52.734375
3941		-48.828125
3942		-50.781250
3943		-48.828125
3944		-50.781250
3945		-46.875000
3946		-48.828125
3947		-44.921875
3948		-46.875000
3949		-41.015625
3950		-44.921875
3951		-41.015625
3952		-42.968750
3953		-39.062500
3954		-39.062500
3955		-35.156250
3956		-37.109375
3957		-33.203125
3958		-35.156250
3959		-31.250000
3960		-33.203125
3961		-27.343750
3962		-29.296875
3963		-25.390625
3964		-27.343750
3965		-21.484375
3966		-23.437500
3967		-17.578125
3968		-21.484375
3969		-15.625000
3970		-17.578125
3971		-13.671875
3972		-15.625000
3973		-9.765625
3974		-11.718750
3975		-7.812500
3976		-9.765625
3977		-3.906250
3978		-3.906250
3979		0.000000
3980		-1.953125
3981		1.953125
3982		1.953125
3983		7.812500
3984		3.906250
3985		9.765625
3986		7.812500
3987		11.718750
3988		11.718750
3989		15.625000
3990		13.671875
3991		19.531250
3992		17.578125
3993		23.437500
3994		21.484375
3995		25.390625
3996		23.437500
3997		29.296875
3998		25.390625
3999		31.250000
4000		29.296875
4001		35.156250
4002		33.203125
4003		37.109375
4004		37.109375
4005		41.015625
4006		37.109375
4007		42.968750
4008		41.015625
4009		46.875000
4010		44.921875
4011		48.828125
4012		46.875000
4013		50.781250
4014		48.828125
4015		52.734375
4016		50.781250
4017		56.640625
4018		52.734375
4019		58.593750
4020		56.640625
4021		60.546875
4022		58.593750
4023		62.500000
4024		60.546875
4025		64.453125
4026		62.500000
4027		64.453125
4028		64.453125
4029		68.359375
4030		64.453125
4031		68.359375
4032		66.406250
4033		70.312500
4034		66.406250
4035		72.265625
4036		68.359375
4037		72.265625
4038		70.312500
4039		74.218750
4040		70.312500
4041		74.218750
4042		72.265625
4043		74.218750
4044		72.265625
4045		74.218750
4046		72.265625
4047		76.171875
4048		72.265625
4049		76.171875
4050		72.265625
4051		76.171875
4052		72.265625
4053		74.218750
4054		72.265625
4055		74.218750
4056		70.312500
4057		76.171875
4058		72.265625
4059		74.218750
4060		70.312500
4061		74.218750
4062		70.312500
4063		72.265625
4064		68.359375
4065		72.265625
4066		68.359375
4067		70.312500
4068		66.406250
4069		70.312500
4070		64.453125
4071		68.359375
4072		62.500000
4073		66.406250
4074		62.500000
4075		64.453125
4076		58.593750
4077		64.453125
4078		58.593750
4079		62.500000
4080		54.687500
4081		60.546875
4082		52.734375
4083		56.640625
4084		50.781250
4085		56.640625
4086		48.828125
4087		52.734375
4088		46.875000
4089		50.781250
4090		42.968750
4091		48.828125
4092		41.015625
4093		46.875000
4094		39.062500
4095		42.968750
4096		35.156250
4097		39.062500
4098		33.203125
4099		37.109375
4100		29.296875
4101		33.203125
4102		25.390625
4103		31.250000
4104		23.437500
4105		27.343750
4106		19.531250
4107		23.437500
4108		15.625000
4109		21.484375
4110		13.671875
4111		17.578125
4112		9.765625
4113		15.625000
4114		7.812500
4115		11.718750
4116		3.906250
4117		7.812500
4118		0.000000
4119		5.859375
4120		-3.906250
4121		1.953125
4122		-7.812500
4123		-1.953125
4124		-9.765625
4125		-3.906250
4126		-11.718750
4127		-7.812500
4128		-15.625000
4129		-9.765625
4130		-19.531250
4131		-13.671875
4132		-21.484375
4133		-17.578125
4134		-25.390625
4135		-19.531250
4136		-27.343750
4137		-23.437500
4138		-31.250000
4139		-27.343750
4140		-33.203125
4141		-29.296875
4142		-35.156250
4143		-31.250000
4144		-39.062500
4145		-33.203125
4146		-41.015625
4147		-37.109375
4148		-42.968750
4149		-39.062500
4150		-44.921875
4151		-41.015625
4152		-46.875000
4153		-41.015625
4154		-48.828125
4155		-44.921875
4156		-52.734375
4157		-46.875000
4158		-52.734375
4159		-48.828125
4160		-54.687500
4161		-50.781250
4162		-54.687500
4163		-52.734375
4164		-56.640625
4165		-52.734375
4166		-56.640625
4167		-54.687500
4168		-58.593750
4169		-54.687500
4170		-58.593750
4171		-56.640625
4172		-58.593750
4173		-56.640625
4174		-60.546875
4175		-54.687500
4176		-60.546875
4177		-56.640625
4178		-60.546875
4179		-56.640625
4180		-60.546875
4181		-54.687500
4182		-58.593750
4183		-54.687500
4184		-58.593750
4185		-54.687500
4186		-58.593750
4187		-54.687500
4188		-56.640625
4189		-54.687500
4190		-54.687500
4191		-52.734375
4192		-54.687500
4193		-50.781250
4194		-52.734375
4195		-48.828125
4196		-52.734375
4197		-46.875000
4198		-50.781250
4199		-46.875000
4200		-48.828125
4201		-42.968750
4202		-46.875000
4203		-42.968750
4204		-44.921875
4205		-41.015625
4206		-41.015625
4207		-37.109375
4208		-41.015625
4209		-35.156250
4210		-37.109375
4211		-33.203125
4212		-35.156250
4213		-29.296875
4214		-31.250000
4215		-27.343750
4216		-31.250000
4217		-23.437500
4218		-27.343750
4219		-21.484375
4220		-23.437500
4221		-19.531250
4222		-19.531250
4223		-15.625000
4224		-17.578125
4225		-11.718750
4226		-15.625000
4227		-7.812500
4228		-11.718750
4229		-5.859375
4230		-9.765625
4231		-1.953125
4232		-5.859375
4233		1.953125
4234		-1.953125
4235		3.906250
4236		0.000000
4237		5.859375
4238		5.859375
4239		9.765625
4240		7.812500
4241		13.671875
4242		9.765625
4243		17.578125
4244		13.671875
4245		21.484375
4246		17.578125
4247		23.437500
4248		19.531250
4249		27.343750
4250		23.437500
4251		29.296875
4252		27.343750
4253		33.203125
4254		31.250000
4255		35.156250
4256		33.203125
4257		37.109375
4258		37.109375
4259		41.015625
4260		37.109375
4261		44.921875
4262		41.015625
4263		46.875000
4264		44.921875
4265		50.781250
4266		46.875000
4267		52.734375
4268		48.828125
4269		54.687500
4270		50.781250
4271		56.640625
4272		54.687500
4273		58.593750
4274		56.640625
4275		60.546875
4276		58.593750
4277		62.500000
4278		58.593750
4279		64.453125
4280		60.546875
4281		66.406250
4282		62.500000
4283		68.359375
4284		64.453125
4285		70.312500
4286		66.406250
4287		70.312500
4288		68.359375
4289		70.312500
4290		68.359375
4291		74.218750
4292		70.312500
4293		72.265625
4294		70.312500
4295		74.218750
4296		72.265625
4297		74.218750
4298		72.265625
4299		74.218750
4300		72.265625
4301		74.218750
4302		72.265625
4303		74.218750
4304		72.265625
4305		74.218750
4306		72.265625
4307		74.218750
4308		70.312500
4309		74.218750
4310		72.265625
4311		74.218750
4312		70.312500
4313		72.265625
4314		70.312500
4315		72.265625
4316		68.359375
4317		72.265625
4318		68.359375
4319		70.312500
4320		66.406250
4321		70.312500
4322		66.406250
4323		68.359375
4324		64.453125
4325		66.406250
4326		62.500000
4327		66.406250
4328		60.546875
4329		64.453125
4330		58.593750
4331		62.500000
4332		56.640625
4333		60.546875
4334		54.687500
4335		58.593750
4336		52.734375
4337		56.640625
4338		50.781250
4339		54.687500
4340		46.875000
4341		50.781250
4342		44.921875
4343		48.828125
4344		42.968750
4345		46.875000
4346		39.062500
4347		42.968750
4348		37.109375
4349		41.015625
4350		33.203125
4351		39.062500
4352		31.250000
4353		35.156250
4354		27.343750
4355		33.203125
4356		25.390625
4357		29.296875
4358		21.484375
4359		25.390625
4360		17.578125
4361		23.437500
4362		15.625000
4363		19.531250
4364		11.718750
4365		17.578125
4366		7.812500
4367		13.671875
4368		5.859375
4369		9.765625
4370		1.953125
4371		5.859375
4372		-1.953125
4373		3.906250
4374		-3.906250
4375		0.000000
4376		-7.812500
4377		-3.906250
4378		-11.718750
4379		-5.859375
4380		-13.671875
4381		-9.765625
4382		-17.578125
4383		-13.671875
4384		-19.531250
4385		-15.625000
4386		-23.437500
4387		-19.531250
4388		-25.390625
4389		-21.484375
4390		-29.296875
4391		-25.390625
4392		-33.203125
4393		-25.390625
4394		-37.109375
4395		-27.343750
4396		-39.062500
4397		-29.296875
4398		-39.062500
4399		-35.156250
4400		-41.015625
4401		-39.062500
4402		-44.921875
4403		-41.015625
4404		-46.875000
4405		-42.968750
4406		-48.828125
4407		-44.921875
4408		-52.734375
4409		-44.921875
4410		-54.687500
4411		-44.921875
4412		-56.640625
4413		-46.875000
4414		-56.640625
4415		-48.828125
4416		-56.640625
4417		-52.734375
4418		-56.640625
4419		-54.687500
4420		-58.593750
4421		-54.687500
4422		-58.593750
4423		-56.640625
4424		-58.593750
4425		-56.640625
4426		-62.500000
4427		-52.734375
4428		-62.500000
4429		-52.734375
4430		-62.500000
4431		-54.687500
4432		-58.593750
4433		-56.640625
4434		-58.593750
4435		-56.640625
4436		-58.593750
4437		-56.640625
4438		-58.593750
4439		-56.640625
4440		-56.640625
4441		-54.687500
4442		-60.546875
4443		-48.828125
4444		-58.593750
4445		-50.781250
4446		-58.593750
4447		-48.828125
4448		-56.640625
4449		-46.875000
4450		-50.781250
4451		-48.828125
4452		-48.828125
4453		-46.875000
4454		-48.828125
4455		-44.921875
4456		-46.875000
4457		-42.968750
4458		-42.968750
4459		-41.015625
4460		-44.921875
4461		-35.156250
4462		-42.968750
4463		-33.203125
4464		-41.015625
4465		-29.296875
4466		-33.203125
4467		-31.250000
4468		-31.250000
4469		-27.343750
4470		-29.296875
4471		-25.390625
4472		-25.390625
4473		-21.484375
4474		-23.437500
4475		-19.531250
4476		-23.437500
4477		-11.718750
4478		-19.531250
4479		-9.765625
4480		-15.625000
4481		-5.859375
4482		-11.718750
4483		-5.859375
4484		-7.812500
4485		-1.953125
4486		-3.906250
4487		0.000000
4488		-1.953125
4489		3.906250
4490		1.953125
4491		7.812500
4492		3.906250
4493		13.671875
4494		5.859375
4495		17.578125
4496		9.765625
4497		21.484375
4498		11.718750
4499		21.484375
4500		19.531250
4501		23.437500
4502		21.484375
4503		25.390625
4504		25.390625
4505		29.296875
4506		27.343750
4507		33.203125
4508		31.250000
4509		35.156250
4510		31.250000
4511		41.015625
4512		35.156250
4513		44.921875
4514		37.109375
4515		46.875000
4516		42.968750
4517		46.875000
4518		44.921875
4519		48.828125
4520		46.875000
4521		50.781250
4522		50.781250
4523		52.734375
4524		52.734375
4525		56.640625
4526		50.781250
4527		62.500000
4528		52.734375
4529		64.453125
4530		54.687500
4531		66.406250
4532		56.640625
4533		66.406250
4534		62.500000
4535		64.453125
4536		64.453125
4537		66.406250
4538		64.453125
4539		68.359375
4540		66.406250
4541		70.312500
4542		68.359375
4543		70.312500
4544		64.453125
4545		76.171875
4546		66.406250
4547		76.171875
4548		66.406250
4549		76.171875
4550		70.312500
4551		74.218750
4552		72.265625
4553		74.218750
4554		72.265625
4555		74.218750
4556		72.265625
4557		74.218750
4558		72.265625
4559		74.218750
4560		68.359375
4561		78.125000
4562		68.359375
4563		78.125000
4564		66.406250
4565		76.171875
4566		70.312500
4567		72.265625
4568		70.312500
4569		72.265625
4570		68.359375
4571		70.312500
4572		68.359375
4573		70.312500
4574		66.406250
4575		68.359375
4576		64.453125
4577		68.359375
4578		62.500000
4579		68.359375
4580		58.593750
4581		68.359375
4582		60.546875
4583		62.500000
4584		58.593750
4585		60.546875
4586		56.640625
4587		58.593750
4588		54.687500
4589		56.640625
4590		50.781250
4591		54.687500
4592		48.828125
4593		52.734375
4594		46.875000
4595		50.781250
4596		41.015625
4597		50.781250
4598		41.015625
4599		46.875000
4600		39.062500
4601		42.968750
4602		35.156250
4603		39.062500
4604		33.203125
4605		37.109375
4606		29.296875
4607		33.203125
4608		25.390625
4609		31.250000
4610		23.437500
4611		27.343750
4612		19.531250
4613		25.390625
4614		15.625000
4615		23.437500
4616		13.671875
4617		19.531250
4618		9.765625
4619		15.625000
4620		7.812500
4621		11.718750
4622		3.906250
4623		7.812500
4624		0.000000
4625		5.859375
4626		-1.953125
4627		1.953125
4628		-5.859375
4629		-1.953125
4630		-9.765625
4631		-3.906250
4632		-11.718750
4633		-7.812500
4634		-15.625000
4635		-11.718750
4636		-19.531250
4637		-13.671875
4638		-21.484375
4639		-17.578125
4640		-25.390625
4641		-19.531250
4642		-27.343750
4643		-23.437500
4644		-31.250000
4645		-25.390625
4646		-33.203125
4647		-29.296875
4648		-35.156250
4649		-31.250000
4650		-39.062500
4651		-35.156250
4652		-41.015625
4653		-37.109375
4654		-42.968750
4655		-39.062500
4656		-44.921875
4657		-41.015625
4658		-46.875000
4659		-42.968750
4660		-48.828125
4661		-44.921875
4662		-50.781250
4663		-46.875000
4664		-52.734375
4665		-48.828125
4666		-54.687500
4667		-50.781250
4668		-54.687500
4669		-52.734375
4670		-56.640625
4671		-52.734375
4672		-58.593750
4673		-54.687500
4674		-58.593750
4675		-56.640625
4676		-58.593750
4677		-56.640625
4678		-58.593750
4679		-56.640625
4680		-60.546875
4681		-56.640625
4682		-60.546875
4683		-56.640625
4684		-60.546875
4685		-56.640625
4686		-60.546875
4687		-56.640625
4688		-58.593750
4689		-56.640625
4690		-58.593750
4691		-56.640625
4692		-58.593750
4693		-56.640625
4694		-58.593750
4695		-52.734375
4696		-56.640625
4697		-52.734375
4698		-54.687500
4699		-52.734375
4700		-54.687500
4701		-50.781250
4702		-52.734375
4703		-48.828125
4704		-50.781250
4705		-46.875000
4706		-48.828125
4707		-46.875000
4708		-46.875000
4709		-44.921875
4710		-44.921875
4711		-41.015625
4712		-44.921875
4713		-39.062500
4714		-41.015625
4715		-37.109375
4716		-39.062500
4717		-35.156250
4718		-37.109375
4719		-31.250000
4720		-35.156250
4721		-29.296875
4722		-31.250000
4723		-27.343750
4724		-27.343750
4725		-23.437500
4726		-25.390625
4727		-21.484375
4728		-23.437500
4729		-17.578125
4730		-19.531250
4731		-13.671875
4732		-15.625000
4733		-11.718750
4734		-11.718750
4735		-7.812500
4736		-9.765625
4737		-5.859375
4738		-5.859375
4739		-1.953125
4740		-3.906250
4741		1.953125
4742		0.000000
4743		5.859375
4744		3.906250
4745		9.765625
4746		5.859375
4747		11.718750
4748		9.765625
4749		13.671875
4750		13.671875
4751		17.578125
4752		15.625000
4753		21.484375
4754		19.531250
4755		23.437500
4756		23.437500
4757		27.343750
4758		25.390625
4759		31.250000
4760		29.296875
4761		33.203125
4762		31.250000
4763		37.109375
4764		35.156250
4765		39.062500
4766		37.109375
4767		42.968750
4768		41.015625
4769		44.921875
4770		42.968750
4771		46.875000
4772		44.921875
4773		50.781250
4774		48.828125
4775		52.734375
4776		50.781250
4777		54.687500
4778		52.734375
4779		58.593750
4780		54.687500
4781		58.593750
4782		56.640625
4783		60.546875
4784		58.593750
4785		62.500000
4786		60.546875
4787		64.453125
4788		62.500000
4789		66.406250
4790		64.453125
4791		66.406250
4792		66.406250
4793		68.359375
4794		66.406250
4795		70.312500
4796		66.406250
4797		72.265625
4798		68.359375
4799		72.265625
4800		70.312500
4801		72.265625
4802		70.312500
4803		74.218750
4804		70.312500
4805		74.218750
4806		72.265625
4807		74.218750
4808		72.265625
4809		74.218750
4810		72.265625
4811		74.218750
4812		70.312500
4813		74.218750
4814		70.312500
4815		74.218750
4816		72.265625
4817		74.218750
4818		70.312500
4819		74.218750
4820		68.359375
4821		72.265625
4822		68.359375
4823		72.265625
4824		68.359375
4825		70.312500
4826		66.406250
4827		70.312500
4828		64.453125
4829		70.312500
4830		64.453125
4831		68.359375
4832		62.500000
4833		66.406250
4834		60.546875
4835		64.453125
4836		58.593750
4837		62.500000
4838		56.640625
4839		62.500000
4840		54.687500
4841		58.593750
4842		52.734375
4843		56.640625
4844		50.781250
4845		54.687500
4846		48.828125
4847		52.734375
4848		44.921875
4849		50.781250
4850		42.968750
4851		46.875000
4852		39.062500
4853		44.921875
4854		37.109375
4855		41.015625
4856		35.156250
4857		39.062500
4858		31.250000
4859		35.156250
4860		29.296875
4861		33.203125
4862		25.390625
4863		29.296875
4864		21.484375
4865		27.343750
4866		19.531250
4867		23.437500
4868		15.625000
4869		19.531250
4870		13.671875
4871		17.578125
4872		9.765625
4873		13.671875
4874		5.859375
4875		11.718750
4876		1.953125
4877		7.812500
4878		0.000000
4879		3.906250
4880		-3.906250
4881		0.000000
4882		-7.812500
4883		-1.953125
4884		-9.765625
4885		-5.859375
4886		-13.671875
4887		-9.765625
4888		-17.578125
4889		-11.718750
4890		-19.531250
4891		-15.625000
4892		-23.437500
4893		-17.578125
4894		-25.390625
4895		-21.484375
4896		-29.296875
4897		-23.437500
4898		-31.250000
4899		-27.343750
4900		-33.203125
4901		-29.296875
4902		-37.109375
4903		-33.203125
4904		-39.062500
4905		-35.156250
4906		-41.015625
4907		-37.109375
4908		-42.968750
4909		-39.062500
4910		-46.875000
4911		-42.968750
4912		-48.828125
4913		-44.921875
4914		-50.781250
4915		-46.875000
4916		-50.781250
4917		-48.828125
4918		-52.734375
4919		-48.828125
4920		-54.687500
4921		-50.781250
4922		-56.640625
4923		-52.734375
4924		-56.640625
4925		-54.687500
4926		-58.593750
4927		-54.687500
4928		-58.593750
4929		-56.640625
4930		-58.593750
4931		-56.640625
4932		-58.593750
4933		-56.640625
4934		-60.546875
4935		-58.593750
4936		-60.546875
4937		-58.593750
4938		-60.546875
4939		-58.593750
4940		-60.546875
4941		-58.593750
4942		-60.546875
4943		-56.640625
4944		-58.593750
4945		-56.640625
4946		-58.593750
4947		-56.640625
4948		-56.640625
4949		-54.687500
4950		-56.640625
4951		-52.734375
4952		-54.687500
4953		-52.734375
4954		-54.687500
4955		-50.781250
4956		-52.734375
4957		-48.828125
4958		-50.781250
4959		-46.875000
4960		-48.828125
4961		-44.921875
4962		-46.875000
4963		-42.968750
4964		-44.921875
4965		-41.015625
4966		-42.968750
4967		-39.062500
4968		-41.015625
4969		-37.109375
4970		-37.109375
4971		-35.156250
4972		-35.156250
4973		-31.250000
4974		-33.203125
4975		-29.296875
4976		-29.296875
4977		-25.390625
4978		-27.343750
4979		-23.437500
4980		-23.437500
4981		-19.531250
4982		-21.484375
4983		-17.578125
4984		-17.578125
4985		-13.671875
4986		-15.625000
4987		-9.765625
4988		-11.718750
4989		-7.812500
4990		-9.765625
4991		-3.906250
4992		-5.859375
4993		-1.953125
4994		-1.953125
4995		1.953125
4996		1.953125
4997		7.812500
4998		3.906250
4999		9.765625
5000		7.812500
5001		11.718750
5002		11.718750
5003		15.625000
5004		13.671875
5005		19.531250
5006		17.578125
5007		21.484375
5008		21.484375
5009		25.390625
5010		23.437500
5011		29.296875
5012		25.390625
5013		31.250000
5014		29.296875
5015		35.156250
5016		31.250000
5017		37.109375
5018		35.156250
5019		41.015625
5020		39.062500
5021		42.968750
5022		41.015625
5023		44.921875
5024		44.921875
5025		48.828125
5026		46.875000
5027		50.781250
5028		48.828125
5029		52.734375
5030		50.781250
5031		56.640625
5032		52.734375
5033		58.593750
5034		54.687500
5035		58.593750
5036		58.593750
5037		60.546875
5038		60.546875
5039		62.500000
5040		60.546875
5041		64.453125
5042		62.500000
5043		66.406250
5044		64.453125
5045		68.359375
5046		66.406250
5047		68.359375
5048		66.406250
5049		72.265625
5050		66.406250
5051		72.265625
5052		70.312500
5053		72.265625
5054		70.312500
5055		72.265625
5056		70.312500
5057		72.265625
5058		72.265625
5059		74.218750
5060		72.265625
5061		74.218750
5062		72.265625
5063		74.218750
5064		70.312500
5065		76.171875
5066		70.312500
5067		76.171875
5068		72.265625
5069		74.218750
5070		72.265625
5071		74.218750
5072		70.312500
5073		72.265625
5074		70.312500
5075		72.265625
5076		68.359375
5077		70.312500
5078		68.359375
5079		70.312500
5080		64.453125
5081		70.312500
5082		62.500000
5083		70.312500
5084		62.500000
5085		68.359375
5086		62.500000
5087		64.453125
5088		60.546875
5089		64.453125
5090		58.593750
5091		62.500000
5092		56.640625
5093		60.546875
5094		52.734375
5095		56.640625
5096		52.734375
5097		56.640625
5098		48.828125
5099		54.687500
5100		46.875000
5101		52.734375
5102		44.921875
5103		48.828125
5104		42.968750
5105		44.921875
5106		39.062500
5107		42.968750
5108		37.109375
5109		41.015625
5110		33.203125
5111		37.109375
5112		31.250000
5113		35.156250
5114		25.390625
5115		31.250000
5116		23.437500
5117		31.250000
5118		21.484375
5119		25.390625
5120		17.578125
5121		21.484375
5122		13.671875
5123		19.531250
5124		11.718750
5125		15.625000
5126		7.812500
5127		11.718750
5128		3.906250
5129		9.765625
5130		1.953125
5131		5.859375
5132		-3.906250
5133		3.906250
5134		-5.859375
5135		0.000000
5136		-7.812500
5137		-3.906250
5138		-11.718750
5139		-5.859375
5140		-13.671875
5141		-9.765625
5142		-17.578125
5143		-13.671875
5144		-21.484375
5145		-17.578125
5146		-23.437500
5147		-19.531250
5148		-29.296875
5149		-21.484375
5150		-31.250000
5151		-25.390625
5152		-33.203125
5153		-29.296875
5154		-35.156250
5155		-31.250000
5156		-37.109375
5157		-33.203125
5158		-41.015625
5159		-35.156250
5160		-42.968750
5161		-39.062500
5162		-44.921875
5163		-41.015625
5164		-48.828125
5165		-42.968750
5166		-50.781250
5167		-42.968750
5168		-50.781250
5169		-44.921875
5170		-52.734375
5171		-48.828125
5172		-54.687500
5173		-50.781250
5174		-54.687500
5175		-52.734375
5176		-56.640625
5177		-52.734375
5178		-56.640625
5179		-54.687500
5180		-58.593750
5181		-56.640625
5182		-60.546875
5183		-54.687500
5184		-60.546875
5185		-54.687500
5186		-60.546875
5187		-58.593750
5188		-60.546875
5189		-58.593750
5190		-60.546875
5191		-58.593750
5192		-60.546875
5193		-58.593750
5194		-60.546875
5195		-58.593750
5196		-60.546875
5197		-56.640625
5198		-60.546875
5199		-54.687500
5200		-58.593750
5201		-56.640625
5202		-56.640625
5203		-54.687500
5204		-56.640625
5205		-52.734375
5206		-54.687500
5207		-52.734375
5208		-52.734375
5209		-50.781250
5210		-52.734375
5211		-48.828125
5212		-50.781250
5213		-46.875000
5214		-48.828125
5215		-44.921875
5216		-48.828125
5217		-42.968750
5218		-44.921875
5219		-41.015625
5220		-42.968750
5221		-39.062500
5222		-41.015625
5223		-37.109375
5224		-37.109375
5225		-33.203125
5226		-35.156250
5227		-31.250000
5228		-33.203125
5229		-29.296875
5230		-29.296875
5231		-25.390625
5232		-27.343750
5233		-21.484375
5234		-23.437500
5235		-19.531250
5236		-21.484375
5237		-15.625000
5238		-17.578125
5239		-13.671875
5240		-15.625000
5241		-9.765625
5242		-11.718750
5243		-7.812500
5244		-7.812500
5245		-3.906250
5246		-5.859375
5247		0.000000
5248		-1.953125
5249		1.953125
5250		1.953125
5251		5.859375
5252		3.906250
5253		9.765625
5254		7.812500
5255		11.718750
5256		11.718750
5257		15.625000
5258		15.625000
5259		19.531250
5260		17.578125
5261		21.484375
5262		21.484375
5263		25.390625
5264		23.437500
5265		29.296875
5266		27.343750
5267		31.250000
5268		31.250000
5269		35.156250
5270		33.203125
5271		37.109375
5272		35.156250
5273		41.015625
5274		39.062500
5275		42.968750
5276		41.015625
5277		44.921875
5278		44.921875
5279		48.828125
5280		46.875000
5281		50.781250
5282		48.828125
5283		52.734375
5284		50.781250
5285		54.687500
5286		52.734375
5287		56.640625
5288		56.640625
5289		58.593750
5290		56.640625
5291		60.546875
5292		60.546875
5293		62.500000
5294		60.546875
5295		64.453125
5296		62.500000
5297		66.406250
5298		64.453125
5299		68.359375
5300		66.406250
5301		68.359375
5302		66.406250
5303		70.312500
5304		68.359375
5305		70.312500
5306		68.359375
5307		70.312500
5308		70.312500
5309		72.265625
5310		70.312500
5311		72.265625
5312		70.312500
5313		72.265625
5314		70.312500
5315		74.218750
5316		70.312500
5317		74.218750
5318		72.265625
5319		72.265625
5320		70.312500
5321		72.265625
5322		70.312500
5323		72.265625
5324		70.312500
5325		72.265625
5326		68.359375
5327		72.265625
5328		68.359375
5329		72.265625
5330		68.359375
5331		70.312500
5332		66.406250
5333		70.312500
5334		66.406250
5335		68.359375
5336		64.453125
5337		66.406250
5338		62.500000
5339		64.453125
5340		60.546875
5341		64.453125
5342		58.593750
5343		62.500000
5344		56.640625
5345		60.546875
5346		54.687500
5347		58.593750
5348		52.734375
5349		56.640625
5350		48.828125
5351		54.687500
5352		48.828125
5353		52.734375
5354		44.921875
5355		48.828125
5356		42.968750
5357		46.875000
5358		41.015625
5359		44.921875
5360		37.109375
5361		41.015625
5362		35.156250
5363		39.062500
5364		31.250000
5365		35.156250
5366		29.296875
5367		33.203125
5368		25.390625
5369		29.296875
5370		21.484375
5371		27.343750
5372		19.531250
5373		23.437500
5374		15.625000
5375		21.484375
5376		13.671875
5377		17.578125
5378		9.765625
5379		13.671875
5380		5.859375
5381		9.765625
5382		1.953125
5383		7.812500
5384		0.000000
5385		3.906250
5386		-3.906250
5387		0.000000
5388		-7.812500
5389		-1.953125
5390		-9.765625
5391		-5.859375
5392		-13.671875
5393		-7.812500
5394		-15.625000
5395		-11.718750
5396		-19.531250
5397		-15.625000
5398		-23.437500
5399		-17.578125
5400		-25.390625
5401		-21.484375
5402		-29.296875
5403		-25.390625
5404		-31.250000
5405		-27.343750
5406		-35.156250
5407		-31.250000
5408		-37.109375
5409		-33.203125
5410		-39.062500
5411		-35.156250
5412		-42.968750
5413		-39.062500
5414		-44.921875
5415		-41.015625
5416		-46.875000
5417		-42.968750
5418		-48.828125
5419		-44.921875
5420		-50.781250
5421		-46.875000
5422		-52.734375
5423		-48.828125
5424		-54.687500
5425		-50.781250
5426		-54.687500
5427		-52.734375
5428		-56.640625
5429		-52.734375
5430		-58.593750
5431		-54.687500
5432		-58.593750
5433		-56.640625
5434		-60.546875
5435		-56.640625
5436		-60.546875
5437		-58.593750
5438		-60.546875
5439		-58.593750
5440		-60.546875
5441		-58.593750
5442		-62.500000
5443		-58.593750
5444		-60.546875
5445		-58.593750
5446		-60.546875
5447		-58.593750
5448		-60.546875
5449		-58.593750
5450		-60.546875
5451		-58.593750
5452		-60.546875
5453		-56.640625
5454		-58.593750
5455		-56.640625
5456		-58.593750
5457		-54.687500
5458		-56.640625
5459		-54.687500
5460		-56.640625
5461		-52.734375
5462		-54.687500
5463		-50.781250
5464		-52.734375
5465		-48.828125
5466		-50.781250
5467		-46.875000
5468		-48.828125
5469		-46.875000
5470		-46.875000
5471		-42.968750
5472		-44.921875
5473		-41.015625
5474		-42.968750
5475		-39.062500
5476		-41.015625
5477		-37.109375
5478		-39.062500
5479		-33.203125
5480		-35.156250
5481		-31.250000
5482		-33.203125
5483		-29.296875
5484		-29.296875
5485		-25.390625
5486		-27.343750
5487		-21.484375
5488		-23.437500
5489		-19.531250
5490		-21.484375
5491		-15.625000
5492		-17.578125
5493		-13.671875
5494		-15.625000
5495		-9.765625
5496		-11.718750
5497		-7.812500
5498		-7.812500
5499		-3.906250
5500		-5.859375
5501		0.000000
5502		-1.953125
5503		1.953125
5504		1.953125
5505		5.859375
5506		3.906250
5507		9.765625
5508		7.812500
5509		11.718750
5510		11.718750
5511		15.625000
5512		15.625000
5513		19.531250
5514		17.578125
5515		21.484375
5516		21.484375
5517		25.390625
5518		23.437500
5519		29.296875
5520		27.343750
5521		31.250000
5522		31.250000
5523		35.156250
5524		33.203125
5525		37.109375
5526		37.109375
5527		41.015625
5528		39.062500
5529		42.968750
5530		41.015625
5531		44.921875
5532		44.921875
5533		48.828125
5534		46.875000
5535		50.781250
5536		48.828125
5537		52.734375
5538		50.781250
5539		54.687500
5540		52.734375
5541		56.640625
5542		54.687500
5543		58.593750
5544		58.593750
5545		60.546875
5546		58.593750
5547		62.500000
5548		60.546875
5549		64.453125
5550		62.500000
5551		66.406250
5552		64.453125
5553		66.406250
5554		64.453125
5555		68.359375
5556		66.406250
5557		70.312500
5558		68.359375
5559		70.312500
5560		68.359375
5561		70.312500
5562		70.312500
5563		72.265625
5564		70.312500
5565		72.265625
5566		70.312500
5567		72.265625
5568		70.312500
5569		72.265625
5570		70.312500
5571		72.265625
5572		70.312500
5573		72.265625
5574		70.312500
5575		72.265625
5576		70.312500
5577		72.265625
5578		70.312500
5579		72.265625
5580		68.359375
5581		72.265625
5582		68.359375
5583		70.312500
5584		66.406250
5585		70.312500
5586		66.406250
5587		68.359375
5588		64.453125
5589		68.359375
5590		62.500000
5591		66.406250
5592		62.500000
5593		64.453125
5594		60.546875
5595		62.500000
5596		58.593750
5597		60.546875
5598		56.640625
5599		58.593750
5600		52.734375
5601		56.640625
5602		50.781250
5603		54.687500
5604		48.828125
5605		52.734375
5606		46.875000
5607		50.781250
5608		44.921875
5609		48.828125
5610		41.015625
5611		44.921875
5612		39.062500
5613		42.968750
5614		37.109375
5615		41.015625
5616		33.203125
5617		37.109375
5618		31.250000
5619		35.156250
5620		27.343750
5621		31.250000
5622		23.437500
5623		29.296875
5624		21.484375
5625		25.390625
5626		17.578125
5627		21.484375
5628		15.625000
5629		19.531250
5630		11.718750
5631		15.625000
5632		7.812500
5633		13.671875
5634		5.859375
5635		9.765625
5636		1.953125
5637		5.859375
5638		-1.953125
5639		3.906250
5640		-5.859375
5641		0.000000
5642		-7.812500
5643		-3.906250
5644		-11.718750
5645		-7.812500
5646		-15.625000
5647		-9.765625
5648		-17.578125
5649		-13.671875
5650		-21.484375
5651		-15.625000
5652		-23.437500
5653		-19.531250
5654		-27.343750
5655		-23.437500
5656		-29.296875
5657		-25.390625
5658		-33.203125
5659		-29.296875
5660		-35.156250
5661		-31.250000
5662		-37.109375
5663		-33.203125
5664		-41.015625
5665		-37.109375
5666		-42.968750
5667		-39.062500
5668		-44.921875
5669		-41.015625
5670		-46.875000
5671		-42.968750
5672		-48.828125
5673		-46.875000
5674		-50.781250
5675		-48.828125
5676		-52.734375
5677		-48.828125
5678		-54.687500
5679		-50.781250
5680		-56.640625
5681		-52.734375
5682		-56.640625
5683		-54.687500
5684		-58.593750
5685		-56.640625
5686		-58.593750
5687		-56.640625
5688		-60.546875
5689		-58.593750
5690		-60.546875
5691		-58.593750
5692		-60.546875
5693		-58.593750
5694		-60.546875
5695		-58.593750
5696		-60.546875
5697		-58.593750
5698		-62.500000
5699		-60.546875
5700		-60.546875
5701		-58.593750
5702		-60.546875
5703		-58.593750
5704		-60.546875
5705		-58.593750
5706		-60.546875
5707		-56.640625
5708		-58.593750
5709		-56.640625
5710		-58.593750
5711		-54.687500
5712		-56.640625
5713		-54.687500
5714		-56.640625
5715		-52.734375
5716		-54.687500
5717		-50.781250
5718		-52.734375
5719		-48.828125
5720		-50.781250
5721		-46.875000
5722		-48.828125
5723		-44.921875
5724		-46.875000
5725		-42.968750
5726		-44.921875
5727		-41.015625
5728		-42.968750
5729		-39.062500
5730		-41.015625
5731		-35.156250
5732		-37.109375
5733		-33.203125
5734		-35.156250
5735		-31.250000
5736		-31.250000
5737		-27.343750
5738		-29.296875
5739		-25.390625
5740		-25.390625
5741		-21.484375
5742		-23.437500
5743		-19.531250
5744		-19.531250
5745		-15.625000
5746		-17.578125
5747		-11.718750
5748		-13.671875
5749		-9.765625
5750		-9.765625
5751		-5.859375
5752		-7.812500
5753		-3.906250
5754		-3.906250
5755		0.000000
5756		0.000000
5757		3.906250
5758		1.953125
5759		7.812500
5760		5.859375
5761		9.765625
5762		9.765625
5763		13.671875
5764		11.718750
5765		17.578125
5766		15.625000
5767		19.531250
5768		19.531250
5769		23.437500
5770		21.484375
5771		27.343750
5772		25.390625
5773		29.296875
5774		27.343750
5775		33.203125
5776		31.250000
5777		35.156250
5778		35.156250
5779		39.062500
5780		37.109375
5781		41.015625
5782		39.062500
5783		42.968750
5784		42.968750
5785		46.875000
5786		44.921875
5787		48.828125
5788		46.875000
5789		50.781250
5790		48.828125
5791		52.734375
5792		52.734375
5793		54.687500
5794		54.687500
5795		58.593750
5796		56.640625
5797		60.546875
5798		58.593750
5799		60.546875
5800		60.546875
5801		62.500000
5802		60.546875
5803		64.453125
5804		62.500000
5805		66.406250
5806		64.453125
5807		68.359375
5808		66.406250
5809		68.359375
5810		66.406250
5811		70.312500
5812		68.359375
5813		70.312500
5814		68.359375
5815		70.312500
5816		68.359375
5817		72.265625
5818		70.312500
5819		72.265625
5820		70.312500
5821		72.265625
5822		70.312500
5823		72.265625
5824		70.312500
5825		72.265625
5826		70.312500
5827		72.265625
5828		70.312500
5829		72.265625
5830		70.312500
5831		72.265625
5832		68.359375
5833		70.312500
5834		68.359375
5835		70.312500
5836		66.406250
5837		70.312500
5838		66.406250
5839		68.359375
5840		64.453125
5841		68.359375
5842		64.453125
5843		66.406250
5844		62.500000
5845		64.453125
5846		60.546875
5847		64.453125
5848		58.593750
5849		62.500000
5850		56.640625
5851		60.546875
5852		54.687500
5853		58.593750
5854		52.734375
5855		56.640625
5856		50.781250
5857		54.687500
5858		48.828125
5859		52.734375
5860		44.921875
5861		48.828125
5862		42.968750
5863		46.875000
5864		41.015625
5865		44.921875
5866		37.109375
5867		41.015625
5868		35.156250
5869		39.062500
5870		31.250000
5871		37.109375
5872		29.296875
5873		33.203125
5874		25.390625
5875		29.296875
5876		23.437500
5877		27.343750
5878		19.531250
5879		23.437500
5880		15.625000
5881		21.484375
5882		13.671875
5883		17.578125
5884		9.765625
5885		13.671875
5886		5.859375
5887		11.718750
5888		3.906250
5889		7.812500
5890		0.000000
5891		3.906250
5892		-3.906250
5893		1.953125
5894		-5.859375
5895		-1.953125
5896		-9.765625
5897		-5.859375
5898		-13.671875
5899		-7.812500
5900		-15.625000
5901		-11.718750
5902		-19.531250
5903		-15.625000
5904		-23.437500
5905		-17.578125
5906		-25.390625
5907		-21.484375
5908		-29.296875
5909		-23.437500
5910		-31.250000
5911		-27.343750
5912		-35.156250
5913		-29.296875
5914		-37.109375
5915		-33.203125
5916		-39.062500
5917		-35.156250
5918		-41.015625
5919		-37.109375
5920		-44.921875
5921		-41.015625
5922		-46.875000
5923		-42.968750
5924		-48.828125
5925		-44.921875
5926		-50.781250
5927		-46.875000
5928		-52.734375
5929		-48.828125
5930		-54.687500
5931		-50.781250
5932		-54.687500
5933		-52.734375
5934		-56.640625
5935		-54.687500
5936		-58.593750
5937		-54.687500
5938		-58.593750
5939		-56.640625
5940		-60.546875
5941		-56.640625
5942		-60.546875
5943		-58.593750
5944		-60.546875
5945		-58.593750
5946		-60.546875
5947		-58.593750
5948		-62.500000
5949		-58.593750
5950		-62.500000
5951		-60.546875
5952		-62.500000
5953		-60.546875
5954		-62.500000
5955		-58.593750
5956		-60.546875
5957		-58.593750
5958		-60.546875
5959		-58.593750
5960		-60.546875
5961		-56.640625
5962		-58.593750
5963		-56.640625
5964		-58.593750
5965		-54.687500
5966		-56.640625
5967		-54.687500
5968		-54.687500
5969		-52.734375
5970		-54.687500
5971		-50.781250
5972		-52.734375
5973		-48.828125
5974		-50.781250
5975		-46.875000
5976		-48.828125
5977		-44.921875
5978		-46.875000
5979		-42.968750
5980		-44.921875
5981		-41.015625
5982		-41.015625
5983		-37.109375
5984		-39.062500
5985		-35.156250
5986		-37.109375
5987		-33.203125
5988		-33.203125
5989		-29.296875
5990		-31.250000
5991		-27.343750
5992		-27.343750
5993		-23.437500
5994		-25.390625
5995		-21.484375
5996		-21.484375
5997		-17.578125
5998		-19.531250
5999		-15.625000
6000		-15.625000
6001		-11.718750
6002		-13.671875
6003		-7.812500
6004		-9.765625
6005		-5.859375
6006		-5.859375
6007		-1.953125
6008		-3.906250
6009		1.953125
6010		0.000000
6011		3.906250
6012		3.906250
6013		7.812500
6014		5.859375
6015		11.718750
6016		9.765625
6017		13.671875
6018		13.671875
6019		17.578125
6020		15.625000
6021		21.484375
6022		19.531250
6023		23.437500
6024		23.437500
6025		27.343750
6026		25.390625
6027		31.250000
6028		29.296875
6029		33.203125
6030		31.250000
6031		35.156250
6032		35.156250
6033		39.062500
6034		37.109375
6035		41.015625
6036		41.015625
6037		44.921875
6038		42.968750
6039		48.828125
6040		44.921875
6041		48.828125
6042		48.828125
6043		52.734375
6044		48.828125
6045		54.687500
6046		52.734375
6047		58.593750
6048		52.734375
6049		58.593750
6050		56.640625
6051		60.546875
6052		58.593750
6053		62.500000
6054		60.546875
6055		64.453125
6056		60.546875
6057		64.453125
6058		64.453125
6059		66.406250
6060		64.453125
6061		70.312500
6062		66.406250
6063		68.359375
6064		66.406250
6065		72.265625
6066		68.359375
6067		70.312500
6068		66.406250
6069		74.218750
6070		70.312500
6071		72.265625
6072		70.312500
6073		72.265625
6074		68.359375
6075		72.265625
6076		70.312500
6077		74.218750
6078		70.312500
6079		74.218750
6080		68.359375
6081		72.265625
6082		68.359375
6083		74.218750
6084		68.359375
6085		74.218750
6086		68.359375
6087		70.312500
6088		68.359375
6089		70.312500
6090		66.406250
6091		70.312500
6092		66.406250
6093		70.312500
6094		62.500000
6095		68.359375
6096		62.500000
6097		66.406250
6098		58.593750
6099		64.453125
6100		60.546875
6101		62.500000
6102		56.640625
6103		64.453125
6104		56.640625
6105		58.593750
6106		52.734375
6107		58.593750
6108		48.828125
6109		56.640625
6110		48.828125
6111		54.687500
6112		46.875000
6113		50.781250
6114		42.968750
6115		48.828125
6116		42.968750
6117		46.875000
6118		37.109375
6119		44.921875
6120		37.109375
6121		41.015625
6122		33.203125
6123		37.109375
6124		29.296875
6125		35.156250
6126		27.343750
6127		33.203125
6128		25.390625
6129		29.296875
6130		21.484375
6131		27.343750
6132		15.625000
6133		25.390625
6134		13.671875
6135		19.531250
6136		11.718750
6137		19.531250
6138		7.812500
6139		13.671875
6140		3.906250
6141		9.765625
6142		0.000000
6143		7.812500
6144		-1.953125
6145		3.906250
6146		-3.906250
6147		0.000000
6148		-9.765625
6149		-3.906250
6150		-11.718750
6151		-1.953125
6152		-15.625000
6153		-7.812500
6154		-17.578125
6155		-13.671875
6156		-21.484375
6157		-15.625000
6158		-25.390625
6159		-17.578125
6160		-29.296875
6161		-19.531250
6162		-29.296875
6163		-25.390625
6164		-33.203125
6165		-29.296875
6166		-37.109375
6167		-27.343750
6168		-42.968750
6169		-31.250000
6170		-41.015625
6171		-37.109375
6172		-42.968750
6173		-39.062500
6174		-46.875000
6175		-41.015625
6176		-50.781250
6177		-41.015625
6178		-50.781250
6179		-42.968750
6180		-50.781250
6181		-48.828125
6182		-56.640625
6183		-46.875000
6184		-56.640625
6185		-48.828125
6186		-60.546875
6187		-48.828125
6188		-56.640625
6189		-54.687500
6190		-60.546875
6191		-56.640625
6192		-64.453125
6193		-52.734375
6194		-62.500000
6195		-56.640625
6196		-60.546875
6197		-58.593750
6198		-62.500000
6199		-56.640625
6200		-66.406250
6201		-56.640625
6202		-64.453125
6203		-56.640625
6204		-62.500000
6205		-60.546875
6206		-62.500000
6207		-60.546875
6208		-62.500000
6209		-58.593750
6210		-64.453125
6211		-54.687500
6212		-62.500000
6213		-56.640625
6214		-60.546875
6215		-56.640625
6216		-62.500000
6217		-50.781250
6218		-58.593750
6219		-52.734375
6220		-60.546875
6221		-52.734375
6222		-54.687500
6223		-52.734375
6224		-54.687500
6225		-48.828125
6226		-54.687500
6227		-44.921875
6228		-52.734375
6229		-44.921875
6230		-48.828125
6231		-44.921875
6232		-46.875000
6233		-39.062500
6234		-46.875000
6235		-37.109375
6236		-42.968750
6237		-35.156250
6238		-39.062500
6239		-35.156250
6240		-37.109375
6241		-33.203125
6242		-33.203125
6243		-29.296875
6244		-33.203125
6245		-25.390625
6246		-29.296875
6247		-23.437500
6248		-25.390625
6249		-19.531250
6250		-25.390625
6251		-13.671875
6252		-19.531250
6253		-11.718750
6254		-15.625000
6255		-11.718750
6256		-11.718750
6257		-7.812500
6258		-9.765625
6259		-3.906250
6260		-7.812500
6261		0.000000
6262		-3.906250
6263		1.953125
6264		0.000000
6265		5.859375
6266		1.953125
6267		13.671875
6268		3.906250
6269		13.671875
6270		7.812500
6271		15.625000
6272		13.671875
6273		17.578125
6274		17.578125
6275		23.437500
6276		19.531250
6277		29.296875
6278		21.484375
6279		29.296875
6280		25.390625
6281		31.250000
6282		29.296875
6283		35.156250
6284		29.296875
6285		39.062500
6286		35.156250
6287		41.015625
6288		37.109375
6289		42.968750
6290		41.015625
6291		44.921875
6292		42.968750
6293		48.828125
6294		44.921875
6295		52.734375
6296		46.875000
6297		52.734375
6298		50.781250
6299		54.687500
6300		50.781250
6301		60.546875
6302		54.687500
6303		58.593750
6304		52.734375
6305		62.500000
6306		58.593750
6307		62.500000
6308		60.546875
6309		64.453125
6310		60.546875
6311		68.359375
6312		60.546875
6313		68.359375
6314		64.453125
6315		68.359375
6316		64.453125
6317		70.312500
6318		66.406250
6319		70.312500
6320		64.453125
6321		72.265625
6322		68.359375
6323		72.265625
6324		68.359375
6325		72.265625
6326		70.312500
6327		72.265625
6328		66.406250
6329		74.218750
6330		68.359375
6331		72.265625
6332		70.312500
6333		72.265625
6334		68.359375
6335		74.218750
6336		68.359375
6337		72.265625
6338		68.359375
6339		70.312500
6340		68.359375
6341		70.312500
6342		66.406250
6343		70.312500
6344		66.406250
6345		68.359375
6346		64.453125
6347		70.312500
6348		64.453125
6349		66.406250
6350		60.546875
6351		66.406250
6352		60.546875
6353		64.453125
6354		58.593750
6355		62.500000
6356		56.640625
6357		60.546875
6358		54.687500
6359		58.593750
6360		52.734375
6361		56.640625
6362		50.781250
6363		54.687500
6364		48.828125
6365		52.734375
6366		46.875000
6367		50.781250
6368		42.968750
6369		46.875000
6370		41.015625
6371		44.921875
6372		39.062500
6373		42.968750
6374		35.156250
6375		39.062500
6376		33.203125
6377		37.109375
6378		29.296875
6379		35.156250
6380		27.343750
6381		31.250000
6382		23.437500
6383		29.296875
6384		19.531250
6385		25.390625
6386		17.578125
6387		21.484375
6388		13.671875
6389		19.531250
6390		9.765625
6391		15.625000
6392		5.859375
6393		11.718750
6394		3.906250
6395		9.765625
6396		0.000000
6397		5.859375
6398		-3.906250
6399		3.906250
6400		-7.812500
6401		0.000000
6402		-9.765625
6403		-3.906250
6404		-11.718750
6405		-7.812500
6406		-15.625000
6407		-9.765625
6408		-19.531250
6409		-13.671875
6410		-23.437500
6411		-15.625000
6412		-25.390625
6413		-19.531250
6414		-29.296875
6415		-21.484375
6416		-31.250000
6417		-25.390625
6418		-35.156250
6419		-29.296875
6420		-37.109375
6421		-31.250000
6422		-39.062500
6423		-33.203125
6424		-41.015625
6425		-37.109375
6426		-44.921875
6427		-39.062500
6428		-46.875000
6429		-41.015625
6430		-48.828125
6431		-42.968750
6432		-50.781250
6433		-44.921875
6434		-52.734375
6435		-46.875000
6436		-54.687500
6437		-48.828125
6438		-56.640625
6439		-50.781250
6440		-56.640625
6441		-54.687500
6442		-60.546875
6443		-54.687500
6444		-60.546875
6445		-54.687500
6446		-60.546875
6447		-56.640625
6448		-62.500000
6449		-56.640625
6450		-62.500000
6451		-58.593750
6452		-62.500000
6453		-58.593750
6454		-64.453125
6455		-58.593750
6456		-62.500000
6457		-60.546875
6458		-62.500000
6459		-60.546875
6460		-62.500000
6461		-58.593750
6462		-62.500000
6463		-58.593750
6464		-62.500000
6465		-58.593750
6466		-64.453125
6467		-54.687500
6468		-60.546875
6469		-56.640625
6470		-60.546875
6471		-54.687500
6472		-60.546875
6473		-54.687500
6474		-56.640625
6475		-52.734375
6476		-54.687500
6477		-50.781250
6478		-54.687500
6479		-48.828125
6480		-52.734375
6481		-46.875000
6482		-50.781250
6483		-44.921875
6484		-48.828125
6485		-42.968750
6486		-46.875000
6487		-41.015625
6488		-44.921875
6489		-39.062500
6490		-41.015625
6491		-37.109375
6492		-39.062500
6493		-33.203125
6494		-37.109375
6495		-31.250000
6496		-33.203125
6497		-27.343750
6498		-29.296875
6499		-25.390625
6500		-29.296875
6501		-21.484375
6502		-25.390625
6503		-19.531250
6504		-21.484375
6505		-15.625000
6506		-19.531250
6507		-13.671875
6508		-13.671875
6509		-9.765625
6510		-11.718750
6511		-5.859375
6512		-7.812500
6513		-3.906250
6514		-3.906250
6515		0.000000
6516		-1.953125
6517		3.906250
6518		1.953125
6519		5.859375
6520		3.906250
6521		9.765625
6522		7.812500
6523		13.671875
6524		11.718750
6525		15.625000
6526		15.625000
6527		21.484375
6528		17.578125
6529		23.437500
6530		21.484375
6531		25.390625
6532		23.437500
6533		31.250000
6534		27.343750
6535		31.250000
6536		29.296875
6537		35.156250
6538		33.203125
6539		39.062500
6540		35.156250
6541		41.015625
6542		39.062500
6543		42.968750
6544		41.015625
6545		46.875000
6546		44.921875
6547		48.828125
6548		46.875000
6549		50.781250
6550		46.875000
6551		52.734375
6552		50.781250
6553		56.640625
6554		52.734375
6555		56.640625
6556		54.687500
6557		58.593750
6558		56.640625
6559		60.546875
6560		58.593750
6561		62.500000
6562		60.546875
6563		64.453125
6564		62.500000
6565		66.406250
6566		62.500000
6567		68.359375
6568		64.453125
6569		68.359375
6570		66.406250
6571		70.312500
6572		66.406250
6573		70.312500
6574		68.359375
6575		70.312500
6576		68.359375
6577		70.312500
6578		68.359375
6579		72.265625
6580		70.312500
6581		72.265625
6582		70.312500
6583		72.265625
6584		68.359375
6585		72.265625
6586		68.359375
6587		72.265625
6588		68.359375
6589		72.265625
6590		68.359375
6591		72.265625
6592		68.359375
6593		70.312500
6594		66.406250
6595		72.265625
6596		66.406250
6597		70.312500
6598		64.453125
6599		68.359375
6600		62.500000
6601		70.312500
6602		62.500000
6603		66.406250
6604		60.546875
6605		66.406250
6606		58.593750
6607		64.453125
6608		58.593750
6609		62.500000
6610		56.640625
6611		60.546875
6612		52.734375
6613		58.593750
6614		52.734375
6615		56.640625
6616		48.828125
6617		54.687500
6618		48.828125
6619		52.734375
6620		44.921875
6621		48.828125
6622		42.968750
6623		46.875000
6624		41.015625
6625		44.921875
6626		37.109375
6627		41.015625
6628		35.156250
6629		39.062500
6630		31.250000
6631		35.156250
6632		27.343750
6633		33.203125
6634		25.390625
6635		31.250000
6636		23.437500
6637		27.343750
6638		19.531250
6639		23.437500
6640		15.625000
6641		21.484375
6642		13.671875
6643		17.578125
6644		7.812500
6645		13.671875
6646		5.859375
6647		11.718750
6648		1.953125
6649		7.812500
6650		0.000000
6651		3.906250
6652		-3.906250
6653		1.953125
6654		-7.812500
6655		-1.953125
6656		-9.765625
6657		-3.906250
6658		-13.671875
6659		-7.812500
6660		-15.625000
6661		-11.718750
6662		-19.531250
6663		-13.671875
6664		-23.437500
6665		-17.578125
6666		-25.390625
6667		-21.484375
6668		-29.296875
6669		-25.390625
6670		-31.250000
6671		-27.343750
6672		-35.156250
6673		-29.296875
6674		-37.109375
6675		-33.203125
6676		-39.062500
6677		-35.156250
6678		-42.968750
6679		-39.062500
6680		-44.921875
6681		-41.015625
6682		-46.875000
6683		-42.968750
6684		-48.828125
6685		-44.921875
6686		-50.781250
6687		-46.875000
6688		-52.734375
6689		-48.828125
6690		-54.687500
6691		-50.781250
6692		-56.640625
6693		-52.734375
6694		-58.593750
6695		-54.687500
6696		-58.593750
6697		-54.687500
6698		-60.546875
6699		-56.640625
6700		-60.546875
6701		-56.640625
6702		-62.500000
6703		-58.593750
6704		-62.500000
6705		-58.593750
6706		-62.500000
6707		-58.593750
6708		-62.500000
6709		-60.546875
6710		-62.500000
6711		-60.546875
6712		-64.453125
6713		-58.593750
6714		-62.500000
6715		-58.593750
6716		-62.500000
6717		-58.593750
6718		-60.546875
6719		-58.593750
6720		-60.546875
6721		-56.640625
6722		-60.546875
6723		-56.640625
6724		-60.546875
6725		-54.687500
6726		-56.640625
6727		-54.687500
6728		-56.640625
6729		-52.734375
6730		-54.687500
6731		-50.781250
6732		-52.734375
6733		-48.828125
6734		-50.781250
6735		-46.875000
6736		-48.828125
6737		-44.921875
6738		-46.875000
6739		-42.968750
6740		-44.921875
6741		-41.015625
6742		-42.968750
6743		-39.062500
6744		-41.015625
6745		-35.156250
6746		-37.109375
6747		-33.203125
6748		-35.156250
6749		-29.296875
6750		-31.250000
6751		-27.343750
6752		-29.296875
6753		-23.437500
6754		-25.390625
6755		-21.484375
6756		-23.437500
6757		-17.578125
6758		-19.531250
6759		-15.625000
6760		-17.578125
6761		-11.718750
6762		-13.671875
6763		-7.812500
6764		-9.765625
6765		-5.859375
6766		-7.812500
6767		-1.953125
6768		-3.906250
6769		1.953125
6770		0.000000
6771		3.906250
6772		1.953125
6773		7.812500
6774		5.859375
6775		9.765625
6776		9.765625
6777		13.671875
6778		11.718750
6779		17.578125
6780		13.671875
6781		19.531250
6782		19.531250
6783		23.437500
6784		21.484375
6785		27.343750
6786		25.390625
6787		29.296875
6788		27.343750
6789		33.203125
6790		31.250000
6791		37.109375
6792		33.203125
6793		39.062500
6794		37.109375
6795		41.015625
6796		39.062500
6797		42.968750
6798		42.968750
6799		46.875000
6800		44.921875
6801		50.781250
6802		46.875000
6803		50.781250
6804		48.828125
6805		54.687500
6806		50.781250
6807		54.687500
6808		52.734375
6809		56.640625
6810		56.640625
6811		58.593750
6812		58.593750
6813		62.500000
6814		58.593750
6815		64.453125
6816		60.546875
6817		64.453125
6818		62.500000
6819		66.406250
6820		64.453125
6821		68.359375
6822		64.453125
6823		68.359375
6824		66.406250
6825		70.312500
6826		68.359375
6827		70.312500
6828		68.359375
6829		70.312500
6830		68.359375
6831		72.265625
6832		68.359375
6833		72.265625
6834		68.359375
6835		72.265625
6836		68.359375
6837		72.265625
6838		70.312500
6839		72.265625
6840		68.359375
6841		72.265625
6842		68.359375
6843		72.265625
6844		68.359375
6845		70.312500
6846		66.406250
6847		70.312500
6848		68.359375
6849		70.312500
6850		66.406250
6851		70.312500
6852		64.453125
6853		68.359375
6854		64.453125
6855		68.359375
6856		62.500000
6857		66.406250
6858		60.546875
6859		64.453125
6860		60.546875
6861		62.500000
6862		58.593750
6863		60.546875
6864		54.687500
6865		60.546875
6866		52.734375
6867		58.593750
6868		50.781250
6869		56.640625
6870		48.828125
6871		52.734375
6872		46.875000
6873		50.781250
6874		42.968750
6875		48.828125
6876		42.968750
6877		46.875000
6878		39.062500
6879		42.968750
6880		37.109375
6881		41.015625
6882		33.203125
6883		39.062500
6884		31.250000
6885		35.156250
6886		27.343750
6887		31.250000
6888		23.437500
6889		29.296875
6890		21.484375
6891		25.390625
6892		17.578125
6893		23.437500
6894		15.625000
6895		19.531250
6896		9.765625
6897		15.625000
6898		7.812500
6899		13.671875
6900		5.859375
6901		9.765625
6902		1.953125
6903		5.859375
6904		-1.953125
6905		3.906250
6906		-5.859375
6907		0.000000
6908		-7.812500
6909		-1.953125
6910		-11.718750
6911		-7.812500
6912		-13.671875
6913		-9.765625
6914		-17.578125
6915		-13.671875
6916		-21.484375
6917		-15.625000
6918		-25.390625
6919		-17.578125
6920		-27.343750
6921		-21.484375
6922		-29.296875
6923		-25.390625
6924		-33.203125
6925		-29.296875
6926		-35.156250
6927		-31.250000
6928		-37.109375
6929		-33.203125
6930		-42.968750
6931		-37.109375
6932		-42.968750
6933		-39.062500
6934		-44.921875
6935		-41.015625
6936		-46.875000
6937		-42.968750
6938		-50.781250
6939		-44.921875
6940		-52.734375
6941		-48.828125
6942		-54.687500
6943		-48.828125
6944		-54.687500
6945		-52.734375
6946		-56.640625
6947		-52.734375
6948		-58.593750
6949		-52.734375
6950		-58.593750
6951		-54.687500
6952		-60.546875
6953		-56.640625
6954		-60.546875
6955		-58.593750
6956		-62.500000
6957		-58.593750
6958		-62.500000
6959		-58.593750
6960		-64.453125
6961		-58.593750
6962		-62.500000
6963		-60.546875
6964		-62.500000
6965		-60.546875
6966		-62.500000
6967		-58.593750
6968		-62.500000
6969		-58.593750
6970		-62.500000
6971		-58.593750
6972		-62.500000
6973		-58.593750
6974		-60.546875
6975		-56.640625
6976		-60.546875
6977		-56.640625
6978		-58.593750
6979		-54.687500
6980		-58.593750
6981		-52.734375
6982		-56.640625
6983		-52.734375
6984		-54.687500
6985		-50.781250
6986		-52.734375
6987		-48.828125
6988		-50.781250
6989		-46.875000
6990		-48.828125
6991		-44.921875
6992		-46.875000
6993		-41.015625
6994		-44.921875
6995		-41.015625
6996		-42.968750
6997		-37.109375
6998		-39.062500
6999		-35.156250
7000		-37.109375
7001		-33.203125
7002		-35.156250
7003		-29.296875
7004		-31.250000
7005		-27.343750
7006		-29.296875
7007		-23.437500
7008		-25.390625
7009		-19.531250
7010		-23.437500
7011		-17.578125
7012		-19.531250
7013		-15.625000
7014		-15.625000
7015		-11.718750
7016		-13.671875
7017		-7.812500
7018		-9.765625
7019		-3.906250
7020		-5.859375
7021		-1.953125
7022		-3.906250
7023		1.953125
7024		0.000000
7025		5.859375
7026		3.906250
7027		7.812500
7028		5.859375
7029		11.718750
7030		9.765625
7031		13.671875
7032		13.671875
7033		17.578125
7034		15.625000
7035		21.484375
7036		19.531250
7037		23.437500
7038		23.437500
7039		27.343750
7040		25.390625
7041		31.250000
7042		27.343750
7043		33.203125
7044		31.250000
7045		37.109375
7046		35.156250
7047		39.062500
7048		37.109375
7049		42.968750
7050		39.062500
7051		44.921875
7052		42.968750
7053		46.875000
7054		44.921875
7055		50.781250
7056		46.875000
7057		50.781250
7058		48.828125
7059		54.687500
7060		52.734375
7061		56.640625
7062		54.687500
7063		58.593750
7064		56.640625
7065		60.546875
7066		58.593750
7067		62.500000
7068		60.546875
7069		62.500000
7070		60.546875
7071		66.406250
7072		62.500000
7073		66.406250
7074		64.453125
7075		66.406250
7076		64.453125
7077		68.359375
7078		66.406250
7079		68.359375
7080		68.359375
7081		70.312500
7082		68.359375
7083		72.265625
7084		68.359375
7085		72.265625
7086		68.359375
7087		72.265625
7088		68.359375
7089		72.265625
7090		70.312500
7091		72.265625
7092		68.359375
7093		72.265625
7094		68.359375
7095		72.265625
7096		68.359375
7097		70.312500
7098		68.359375
7099		72.265625
7100		66.406250
7101		70.312500
7102		66.406250
7103		70.312500
7104		66.406250
7105		68.359375
7106		64.453125
7107		68.359375
7108		62.500000
7109		66.406250
7110		60.546875
7111		64.453125
7112		60.546875
7113		62.500000
7114		58.593750
7115		62.500000
7116		56.640625
7117		60.546875
7118		54.687500
7119		58.593750
7120		52.734375
7121		56.640625
7122		50.781250
7123		54.687500
7124		48.828125
7125		52.734375
7126		44.921875
7127		50.781250
7128		42.968750
7129		48.828125
7130		41.015625
7131		44.921875
7132		37.109375
7133		42.968750
7134		35.156250
7135		39.062500
7136		31.250000
7137		37.109375
7138		29.296875
7139		33.203125
7140		25.390625
7141		31.250000
7142		23.437500
7143		27.343750
7144		19.531250
7145		25.390625
7146		15.625000
7147		21.484375
7148		11.718750
7149		17.578125
7150		9.765625
7151		15.625000
7152		5.859375
7153		11.718750
7154		3.906250
7155		7.812500
7156		0.000000
7157		5.859375
7158		-3.906250
7159		1.953125
7160		-7.812500
7161		-1.953125
7162		-9.765625
7163		-3.906250
7164		-13.671875
7165		-7.812500
7166		-15.625000
7167		-11.718750
7168		-19.531250
7169		-13.671875
7170		-23.437500
7171		-17.578125
7172		-25.390625
7173		-21.484375
7174		-29.296875
7175		-23.437500
7176		-31.250000
7177		-27.343750
7178		-33.203125
7179		-29.296875
7180		-37.109375
7181		-33.203125
7182		-39.062500
7183		-35.156250
7184		-42.968750
7185		-37.109375
7186		-44.921875
7187		-41.015625
7188		-46.875000
7189		-42.968750
7190		-48.828125
7191		-44.921875
7192		-50.781250
7193		-46.875000
7194		-52.734375
7195		-48.828125
7196		-54.687500
7197		-50.781250
7198		-56.640625
7199		-52.734375
7200		-58.593750
7201		-52.734375
7202		-58.593750
7203		-54.687500
7204		-60.546875
7205		-56.640625
7206		-60.546875
7207		-56.640625
7208		-62.500000
7209		-58.593750
7210		-62.500000
7211		-58.593750
7212		-62.500000
7213		-60.546875
7214		-62.500000
7215		-60.546875
7216		-64.453125
7217		-58.593750
7218		-64.453125
7219		-60.546875
7220		-64.453125
7221		-60.546875
7222		-62.500000
7223		-58.593750
7224		-62.500000
7225		-58.593750
7226		-62.500000
7227		-58.593750
7228		-60.546875
7229		-56.640625
7230		-58.593750
7231		-56.640625
7232		-58.593750
7233		-54.687500
7234		-56.640625
7235		-54.687500
7236		-54.687500
7237		-52.734375
7238		-54.687500
7239		-50.781250
7240		-52.734375
7241		-48.828125
7242		-50.781250
7243		-46.875000
7244		-48.828125
7245		-44.921875
7246		-46.875000
7247		-42.968750
7248		-44.921875
7249		-39.062500
7250		-42.968750
7251		-37.109375
7252		-39.062500
7253		-35.156250
7254		-37.109375
7255		-31.250000
7256		-33.203125
7257		-29.296875
7258		-31.250000
7259		-25.390625
7260		-27.343750
7261		-23.437500
7262		-25.390625
7263		-19.531250
7264		-21.484375
7265		-17.578125
7266		-17.578125
7267		-13.671875
7268		-15.625000
7269		-9.765625
7270		-11.718750
7271		-5.859375
7272		-9.765625
7273		-3.906250
7274		-5.859375
7275		0.000000
7276		-1.953125
7277		1.953125
7278		0.000000
7279		5.859375
7280		3.906250
7281		7.812500
7282		7.812500
7283		11.718750
7284		9.765625
7285		15.625000
7286		13.671875
7287		19.531250
7288		17.578125
7289		21.484375
7290		19.531250
7291		25.390625
7292		23.437500
7293		27.343750
7294		27.343750
7295		31.250000
7296		29.296875
7297		33.203125
7298		33.203125
7299		37.109375
7300		35.156250
7301		41.015625
7302		39.062500
7303		42.968750
7304		41.015625
7305		44.921875
7306		42.968750
7307		48.828125
7308		44.921875
7309		48.828125
7310		48.828125
7311		52.734375
7312		50.781250
7313		54.687500
7314		52.734375
7315		56.640625
7316		54.687500
7317		58.593750
7318		56.640625
7319		60.546875
7320		58.593750
7321		62.500000
7322		60.546875
7323		64.453125
7324		62.500000
7325		66.406250
7326		62.500000
7327		66.406250
7328		64.453125
7329		68.359375
7330		66.406250
7331		68.359375
7332		66.406250
7333		68.359375
7334		66.406250
7335		70.312500
7336		68.359375
7337		70.312500
7338		68.359375
7339		72.265625
7340		68.359375
7341		72.265625
7342		68.359375
7343		72.265625
7344		68.359375
7345		72.265625
7346		68.359375
7347		72.265625
7348		68.359375
7349		70.312500
7350		66.406250
7351		72.265625
7352		68.359375
7353		70.312500
7354		66.406250
7355		70.312500
7356		66.406250
7357		68.359375
7358		64.453125
7359		68.359375
7360		64.453125
7361		66.406250
7362		60.546875
7363		66.406250
7364		60.546875
7365		64.453125
7366		58.593750
7367		62.500000
7368		56.640625
7369		62.500000
7370		54.687500
7371		60.546875
7372		54.687500
7373		56.640625
7374		50.781250
7375		56.640625
7376		48.828125
7377		52.734375
7378		46.875000
7379		50.781250
7380		44.921875
7381		48.828125
7382		42.968750
7383		46.875000
7384		39.062500
7385		42.968750
7386		37.109375
7387		41.015625
7388		33.203125
7389		39.062500
7390		29.296875
7391		35.156250
7392		27.343750
7393		33.203125
7394		25.390625
7395		29.296875
7396		21.484375
7397		27.343750
7398		19.531250
7399		23.437500
7400		13.671875
7401		19.531250
7402		11.718750
7403		17.578125
7404		9.765625
7405		13.671875
7406		3.906250
7407		9.765625
7408		1.953125
7409		7.812500
7410		-1.953125
7411		3.906250
7412		-5.859375
7413		0.000000
7414		-7.812500
7415		-1.953125
7416		-9.765625
7417		-5.859375
7418		-13.671875
7419		-7.812500
7420		-17.578125
7421		-11.718750
7422		-21.484375
7423		-15.625000
7424		-23.437500
7425		-19.531250
7426		-27.343750
7427		-21.484375
7428		-29.296875
7429		-25.390625
7430		-33.203125
7431		-27.343750
7432		-35.156250
7433		-31.250000
7434		-39.062500
7435		-33.203125
7436		-41.015625
7437		-35.156250
7438		-42.968750
7439		-39.062500
7440		-44.921875
7441		-41.015625
7442		-46.875000
7443		-42.968750
7444		-48.828125
7445		-46.875000
7446		-52.734375
7447		-46.875000
7448		-52.734375
7449		-50.781250
7450		-54.687500
7451		-52.734375
7452		-56.640625
7453		-52.734375
7454		-58.593750
7455		-54.687500
7456		-60.546875
7457		-56.640625
7458		-60.546875
7459		-56.640625
7460		-60.546875
7461		-58.593750
7462		-62.500000
7463		-58.593750
7464		-62.500000
7465		-58.593750
7466		-62.500000
7467		-60.546875
7468		-64.453125
7469		-60.546875
7470		-64.453125
7471		-60.546875
7472		-64.453125
7473		-60.546875
7474		-64.453125
7475		-60.546875
7476		-62.500000
7477		-58.593750
7478		-62.500000
7479		-58.593750
7480		-60.546875
7481		-58.593750
7482		-60.546875
7483		-56.640625
7484		-58.593750
7485		-56.640625
7486		-60.546875
7487		-54.687500
7488		-56.640625
7489		-52.734375
7490		-54.687500
7491		-50.781250
7492		-52.734375
7493		-50.781250
7494		-52.734375
7495		-46.875000
7496		-50.781250
7497		-44.921875
7498		-46.875000
7499		-42.968750
7500		-44.921875
7501		-41.015625
7502		-42.968750
7503		-39.062500
7504		-41.015625
7505		-35.156250
7506		-39.062500
7507		-33.203125
7508		-35.156250
7509		-31.250000
7510		-33.203125
7511		-27.343750
7512		-29.296875
7513		-25.390625
7514		-27.343750
7515		-21.484375
7516		-23.437500
7517		-19.531250
7518		-21.484375
7519		-15.625000
7520		-17.578125
7521		-11.718750
7522		-15.625000
7523		-9.765625
7524		-11.718750
7525		-5.859375
7526		-7.812500
7527		-1.953125
7528		-3.906250
7529		0.000000
7530		-1.953125
7531		3.906250
7532		1.953125
7533		5.859375
7534		5.859375
7535		9.765625
7536		7.812500
7537		13.671875
7538		11.718750
7539		17.578125
7540		13.671875
7541		19.531250
7542		17.578125
7543		23.437500
7544		21.484375
7545		27.343750
7546		23.437500
7547		29.296875
7548		27.343750
7549		31.250000
7550		31.250000
7551		35.156250
7552		33.203125
7553		39.062500
7554		37.109375
7555		41.015625
7556		39.062500
7557		42.968750
7558		41.015625
7559		44.921875
7560		42.968750
7561		48.828125
7562		46.875000
7563		52.734375
7564		48.828125
7565		52.734375
7566		50.781250
7567		54.687500
7568		52.734375
7569		56.640625
7570		54.687500
7571		58.593750
7572		56.640625
7573		62.500000
7574		58.593750
7575		62.500000
7576		60.546875
7577		64.453125
7578		62.500000
7579		66.406250
7580		64.453125
7581		66.406250
7582		64.453125
7583		68.359375
7584		66.406250
7585		68.359375
7586		66.406250
7587		70.312500
7588		66.406250
7589		70.312500
7590		68.359375
7591		72.265625
7592		68.359375
7593		72.265625
7594		68.359375
7595		72.265625
7596		68.359375
7597		72.265625
7598		68.359375
7599		72.265625
7600		68.359375
7601		72.265625
7602		68.359375
7603		72.265625
7604		68.359375
7605		72.265625
7606		68.359375
7607		70.312500
7608		66.406250
7609		70.312500
7610		66.406250
7611		68.359375
7612		64.453125
7613		68.359375
7614		64.453125
7615		68.359375
7616		62.500000
7617		64.453125
7618		60.546875
7619		64.453125
7620		58.593750
7621		64.453125
7622		56.640625
7623		60.546875
7624		54.687500
7625		60.546875
7626		52.734375
7627		56.640625
7628		50.781250
7629		54.687500
7630		48.828125
7631		52.734375
7632		46.875000
7633		50.781250
7634		44.921875
7635		48.828125
7636		41.015625
7637		44.921875
7638		39.062500
7639		42.968750
7640		35.156250
7641		41.015625
7642		33.203125
7643		37.109375
7644		31.250000
7645		35.156250
7646		27.343750
7647		31.250000
7648		23.437500
7649		29.296875
7650		21.484375
7651		25.390625
7652		17.578125
7653		23.437500
7654		13.671875
7655		19.531250
7656		11.718750
7657		15.625000
7658		7.812500
7659		11.718750
7660		3.906250
7661		9.765625
7662		1.953125
7663		5.859375
7664		-1.953125
7665		3.906250
7666		-5.859375
7667		0.000000
7668		-7.812500
7669		-3.906250
7670		-11.718750
7671		-7.812500
7672		-15.625000
7673		-9.765625
7674		-17.578125
7675		-13.671875
7676		-21.484375
7677		-15.625000
7678		-23.437500
7679		-19.531250
7680		-27.343750
7681		-23.437500
7682		-31.250000
7683		-25.390625
7684		-33.203125
7685		-29.296875
7686		-37.109375
7687		-31.250000
7688		-39.062500
7689		-33.203125
7690		-41.015625
7691		-37.109375
7692		-42.968750
7693		-39.062500
7694		-44.921875
7695		-41.015625
7696		-48.828125
7697		-42.968750
7698		-50.781250
7699		-44.921875
7700		-52.734375
7701		-48.828125
7702		-54.687500
7703		-50.781250
7704		-56.640625
7705		-50.781250
7706		-56.640625
7707		-52.734375
7708		-58.593750
7709		-54.687500
7710		-60.546875
7711		-56.640625
7712		-60.546875
7713		-56.640625
7714		-60.546875
7715		-58.593750
7716		-62.500000
7717		-58.593750
7718		-62.500000
7719		-58.593750
7720		-62.500000
7721		-60.546875
7722		-64.453125
7723		-60.546875
7724		-62.500000
7725		-60.546875
7726		-62.500000
7727		-60.546875
7728		-62.500000
7729		-60.546875
7730		-62.500000
7731		-58.593750
7732		-62.500000
7733		-58.593750
7734		-60.546875
7735		-58.593750
7736		-60.546875
7737		-56.640625
7738		-58.593750
7739		-56.640625
7740		-58.593750
7741		-54.687500
7742		-56.640625
7743		-52.734375
7744		-54.687500
7745		-50.781250
7746		-52.734375
7747		-48.828125
7748		-50.781250
7749		-46.875000
7750		-50.781250
7751		-44.921875
7752		-46.875000
7753		-42.968750
7754		-44.921875
7755		-41.015625
7756		-42.968750
7757		-37.109375
7758		-39.062500
7759		-35.156250
7760		-37.109375
7761		-33.203125
7762		-35.156250
7763		-29.296875
7764		-31.250000
7765		-27.343750
7766		-29.296875
7767		-23.437500
7768		-25.390625
7769		-21.484375
7770		-23.437500
7771		-17.578125
7772		-19.531250
7773		-15.625000
7774		-15.625000
7775		-11.718750
7776		-13.671875
7777		-7.812500
7778		-9.765625
7779		-5.859375
7780		-7.812500
7781		-1.953125
7782		-3.906250
7783		1.953125
7784		0.000000
7785		3.906250
7786		3.906250
7787		7.812500
7788		5.859375
7789		11.718750
7790		9.765625
7791		13.671875
7792		13.671875
7793		19.531250
7794		15.625000
7795		21.484375
7796		17.578125
7797		25.390625
7798		23.437500
7799		27.343750
7800		25.390625
7801		29.296875
7802		29.296875
7803		33.203125
7804		31.250000
7805		37.109375
7806		35.156250
7807		39.062500
7808		37.109375
7809		42.968750
7810		39.062500
7811		44.921875
7812		42.968750
7813		46.875000
7814		44.921875
7815		48.828125
7816		46.875000
7817		52.734375
7818		50.781250
7819		54.687500
7820		52.734375
7821		56.640625
7822		52.734375
7823		58.593750
7824		56.640625
7825		60.546875
7826		58.593750
7827		62.500000
7828		60.546875
7829		64.453125
7830		60.546875
7831		64.453125
7832		62.500000
7833		66.406250
7834		62.500000
7835		68.359375
7836		66.406250
7837		68.359375
7838		66.406250
7839		70.312500
7840		66.406250
7841		70.312500
7842		68.359375
7843		70.312500
7844		68.359375
7845		72.265625
7846		68.359375
7847		72.265625
7848		68.359375
7849		72.265625
7850		68.359375
7851		72.265625
7852		70.312500
7853		72.265625
7854		68.359375
7855		72.265625
7856		68.359375
7857		72.265625
7858		68.359375
7859		70.312500
7860		68.359375
7861		70.312500
7862		66.406250
7863		70.312500
7864		64.453125
7865		68.359375
7866		64.453125
7867		68.359375
7868		64.453125
7869		66.406250
7870		62.500000
7871		64.453125
7872		60.546875
7873		64.453125
7874		58.593750
7875		62.500000
7876		56.640625
7877		60.546875
7878		54.687500
7879		58.593750
7880		52.734375
7881		56.640625
7882		50.781250
7883		54.687500
7884		48.828125
7885		52.734375
7886		46.875000
7887		50.781250
7888		42.968750
7889		46.875000
7890		41.015625
7891		44.921875
7892		37.109375
7893		42.968750
7894		35.156250
7895		39.062500
7896		31.250000
7897		37.109375
7898		29.296875
7899		33.203125
7900		25.390625
7901		31.250000
7902		23.437500
7903		27.343750
7904		19.531250
7905		25.390625
7906		17.578125
7907		21.484375
7908		13.671875
7909		17.578125
7910		11.718750
7911		15.625000
7912		7.812500
7913		11.718750
7914		3.906250
7915		7.812500
7916		0.000000
7917		5.859375
7918		-1.953125
7919		1.953125
7920		-5.859375
7921		-1.953125
7922		-9.765625
7923		-3.906250
7924		-11.718750
7925		-7.812500
7926		-15.625000
7927		-11.718750
7928		-19.531250
7929		-13.671875
7930		-21.484375
7931		-17.578125
7932		-25.390625
7933		-21.484375
7934		-27.343750
7935		-23.437500
7936		-31.250000
7937		-27.343750
7938		-35.156250
7939		-29.296875
7940		-37.109375
7941		-31.250000
7942		-39.062500
7943		-35.156250
7944		-41.015625
7945		-37.109375
7946		-44.921875
7947		-39.062500
7948		-46.875000
7949		-42.968750
7950		-48.828125
7951		-42.968750
7952		-50.781250
7953		-46.875000
7954		-52.734375
7955		-46.875000
7956		-54.687500
7957		-50.781250
7958		-56.640625
7959		-52.734375
7960		-56.640625
7961		-52.734375
7962		-58.593750
7963		-54.687500
7964		-60.546875
7965		-56.640625
7966		-60.546875
7967		-56.640625
7968		-60.546875
7969		-58.593750
7970		-62.500000
7971		-60.546875
7972		-62.500000
7973		-58.593750
7974		-62.500000
7975		-58.593750
7976		-64.453125
7977		-60.546875
7978		-62.500000
7979		-60.546875
7980		-62.500000
7981		-60.546875
7982		-62.500000
7983		-58.593750
7984		-62.500000
7985		-58.593750
7986		-60.546875
7987		-58.593750
7988		-60.546875
7989		-56.640625
7990		-58.593750
7991		-54.687500
7992		-58.593750
7993		-54.687500
7994		-56.640625
7995		-52.734375
7996		-54.687500
7997		-50.781250
7998		-54.687500
7999		-50.781250
8000		-52.734375
8001		-48.828125
8002		-50.781250
8003		-46.875000
8004		-48.828125
8005		-44.921875
8006		-46.875000
8007		-41.015625
8008		-42.968750
8009		-39.062500
8010		-42.968750
8011		-37.109375
8012		-39.062500
8013		-33.203125
8014		-35.156250
8015		-31.250000
8016		-33.203125
8017		-27.343750
8018		-31.250000
8019		-25.390625
8020		-27.343750
8021		-23.437500
8022		-25.390625
8023		-19.531250
8024		-23.437500
8025		-17.578125
8026		-19.531250
8027		-13.671875
8028		-15.625000
8029		-9.765625
8030		-11.718750
8031		-7.812500
8032		-9.765625
8033		-3.906250
8034		-5.859375
8035		0.000000
8036		-1.953125
8037		1.953125
8038		1.953125
8039		5.859375
8040		3.906250
8041		9.765625
8042		7.812500
8043		13.671875
8044		11.718750
8045		15.625000
8046		13.671875
8047		19.531250
8048		17.578125
8049		23.437500
8050		21.484375
8051		25.390625
8052		23.437500
8053		27.343750
8054		27.343750
8055		31.250000
8056		29.296875
8057		35.156250
8058		33.203125
8059		37.109375
8060		35.156250
8061		41.015625
8062		37.109375
8063		42.968750
8064		41.015625
8065		44.921875
8066		42.968750
8067		48.828125
8068		46.875000
8069		50.781250
8070		48.828125
8071		52.734375
8072		50.781250
8073		54.687500
8074		52.734375
8075		56.640625
8076		54.687500
8077		58.593750
8078		56.640625
8079		60.546875
8080		58.593750
8081		62.500000
8082		60.546875
8083		64.453125
8084		62.500000
8085		64.453125
8086		62.500000
8087		66.406250
8088		64.453125
8089		68.359375
8090		64.453125
8091		68.359375
8092		66.406250
8093		70.312500
8094		66.406250
8095		70.312500
8096		68.359375
8097		72.265625
8098		68.359375
8099		72.265625
8100		68.359375
8101		72.265625
8102		68.359375
8103		72.265625
8104		70.312500
8105		72.265625
8106		68.359375
8107		72.265625
8108		68.359375
8109		72.265625
8110		68.359375
8111		72.265625
8112		66.406250
8113		70.312500
8114		68.359375
8115		70.312500
8116		66.406250
8117		70.312500
8118		64.453125
8119		68.359375
8120		64.453125
8121		68.359375
8122		62.500000
8123		66.406250
8124		62.500000
8125		64.453125
8126		60.546875
8127		64.453125
8128		58.593750
8129		62.500000
8130		56.640625
8131		60.546875
8132		52.734375
8133		58.593750
8134		52.734375
8135		56.640625
8136		50.781250
8137		54.687500
8138		46.875000
8139		50.781250
8140		44.921875
8141		48.828125
8142		42.968750
8143		46.875000
8144		39.062500
8145		44.921875
8146		37.109375
8147		42.968750
8148		35.156250
8149		39.062500
8150		31.250000
8151		37.109375
8152		27.343750
8153		33.203125
8154		25.390625
8155		29.296875
8156		23.437500
8157		27.343750
8158		19.531250
8159		23.437500
8160		15.625000
8161		21.484375
8162		11.718750
8163		17.578125
8164		9.765625
8165		15.625000
8166		5.859375
8167		11.718750
8168		1.953125
8169		7.812500
8170		0.000000
8171		3.906250
8172		-3.906250
8173		0.000000
8174		-7.812500
8175		-1.953125
8176		-9.765625
8177		-5.859375
8178		-13.671875
8179		-7.812500
8180		-15.625000
8181		-11.718750
8182		-19.531250
8183		-15.625000
8184		-23.437500
8185		-17.578125
8186		-27.343750
8187		-21.484375
8188		-29.296875
8189		-23.437500
8190		-31.250000
8191		-27.343750
8192		-35.156250
8193		-29.296875
8194		-37.109375
8195		-33.203125
8196		-39.062500
8197		-35.156250
8198		-42.968750
8199		-39.062500
8200		-44.921875
8201		-41.015625
8202		-46.875000
8203		-42.968750
8204		-48.828125
8205		-42.968750
8206		-50.781250
8207		-46.875000
8208		-52.734375
8209		-48.828125
8210		-54.687500
8211		-50.781250
8212		-56.640625
8213		-52.734375
8214		-58.593750
8215		-54.687500
8216		-58.593750
8217		-54.687500
8218		-60.546875
8219		-56.640625
8220		-60.546875
8221		-56.640625
8222		-60.546875
8223		-58.593750
8224		-62.500000
8225		-58.593750
8226		-62.500000
8227		-60.546875
8228		-62.500000
8229		-58.593750
8230		-62.500000
8231		-60.546875
8232		-62.500000
8233		-58.593750
8234		-62.500000
8235		-60.546875
8236		-62.500000
8237		-58.593750
8238		-60.546875
8239		-58.593750
8240		-60.546875
8241		-58.593750
8242		-60.546875
8243		-56.640625
8244		-58.593750
8245		-56.640625
8246		-58.593750
8247		-54.687500
8248		-56.640625
8249		-52.734375
8250		-54.687500
8251		-50.781250
8252		-52.734375
8253		-48.828125
8254		-52.734375
8255		-46.875000
8256		-50.781250
8257		-44.921875
8258		-46.875000
8259		-42.968750
8260		-44.921875
8261		-41.015625
8262		-42.968750
8263		-39.062500
8264		-41.015625
8265		-37.109375
8266		-39.062500
8267		-33.203125
8268		-35.156250
8269		-31.250000
8270		-33.203125
8271		-27.343750
8272		-29.296875
8273		-25.390625
8274		-27.343750
8275		-21.484375
8276		-25.390625
8277		-19.531250
8278		-21.484375
8279		-15.625000
8280		-17.578125
8281		-11.718750
8282		-13.671875
8283		-7.812500
8284		-11.718750
8285		-5.859375
8286		-7.812500
8287		-1.953125
8288		-3.906250
8289		0.000000
8290		-1.953125
8291		3.906250
8292		1.953125
8293		7.812500
8294		5.859375
8295		11.718750
8296		9.765625
8297		13.671875
8298		11.718750
8299		17.578125
8300		15.625000
8301		19.531250
8302		17.578125
8303		23.437500
8304		21.484375
8305		27.343750
8306		25.390625
8307		29.296875
8308		27.343750
8309		33.203125
8310		31.250000
8311		35.156250
8312		33.203125
8313		39.062500
8314		37.109375
8315		41.015625
8316		39.062500
8317		44.921875
8318		41.015625
8319		46.875000
8320		44.921875
8321		48.828125
8322		46.875000
8323		50.781250
8324		48.828125
8325		52.734375
8326		50.781250
8327		56.640625
8328		52.734375
8329		56.640625
8330		54.687500
8331		60.546875
8332		58.593750
8333		60.546875
8334		58.593750
8335		62.500000
8336		60.546875
8337		64.453125
8338		62.500000
8339		66.406250
8340		64.453125
8341		66.406250
8342		64.453125
8343		68.359375
8344		66.406250
8345		70.312500
8346		66.406250
8347		70.312500
8348		68.359375
8349		70.312500
8350		68.359375
8351		72.265625
8352		68.359375
8353		72.265625
8354		68.359375
8355		72.265625
8356		70.312500
8357		72.265625
8358		70.312500
8359		72.265625
8360		68.359375
8361		72.265625
8362		68.359375
8363		72.265625
8364		68.359375
8365		72.265625
8366		68.359375
8367		70.312500
8368		66.406250
8369		70.312500
8370		66.406250
8371		70.312500
8372		64.453125
8373		68.359375
8374		64.453125
8375		66.406250
8376		62.500000
8377		66.406250
8378		60.546875
8379		64.453125
8380		60.546875
8381		62.500000
8382		58.593750
8383		62.500000
8384		54.687500
8385		58.593750
8386		52.734375
8387		58.593750
8388		50.781250
8389		56.640625
8390		48.828125
8391		52.734375
8392		44.921875
8393		50.781250
8394		44.921875
8395		48.828125
8396		41.015625
8397		46.875000
8398		39.062500
8399		42.968750
8400		37.109375
8401		41.015625
8402		33.203125
8403		39.062500
8404		29.296875
8405		35.156250
8406		27.343750
8407		33.203125
8408		25.390625
8409		29.296875
8410		21.484375
8411		27.343750
8412		17.578125
8413		23.437500
8414		15.625000
8415		19.531250
8416		11.718750
8417		17.578125
8418		7.812500
8419		13.671875
8420		5.859375
8421		9.765625
8422		1.953125
8423		7.812500
8424		-1.953125
8425		3.906250
8426		-5.859375
8427		0.000000
8428		-9.765625
8429		-1.953125
8430		-11.718750
8431		-5.859375
8432		-13.671875
8433		-9.765625
8434		-17.578125
8435		-11.718750
8436		-21.484375
8437		-15.625000
8438		-23.437500
8439		-17.578125
8440		-27.343750
8441		-21.484375
8442		-29.296875
8443		-25.390625
8444		-33.203125
8445		-27.343750
8446		-35.156250
8447		-29.296875
8448		-37.109375
8449		-33.203125
8450		-41.015625
8451		-37.109375
8452		-42.968750
8453		-39.062500
8454		-44.921875
8455		-41.015625
8456		-46.875000
8457		-42.968750
8458		-48.828125
8459		-44.921875
8460		-52.734375
8461		-46.875000
8462		-54.687500
8463		-46.875000
8464		-56.640625
8465		-48.828125
8466		-56.640625
8467		-52.734375
8468		-58.593750
8469		-54.687500
8470		-60.546875
8471		-54.687500
8472		-60.546875
8473		-56.640625
8474		-60.546875
8475		-58.593750
8476		-62.500000
8477		-56.640625
8478		-64.453125
8479		-56.640625
8480		-64.453125
8481		-56.640625
8482		-62.500000
8483		-58.593750
8484		-62.500000
8485		-60.546875
8486		-62.500000
8487		-58.593750
8488		-64.453125
8489		-56.640625
8490		-60.546875
8491		-58.593750
8492		-60.546875
8493		-58.593750
8494		-62.500000
8495		-54.687500
8496		-62.500000
8497		-54.687500
8498		-60.546875
8499		-54.687500
8500		-58.593750
8501		-52.734375
8502		-56.640625
8503		-50.781250
8504		-54.687500
8505		-48.828125
8506		-52.734375
8507		-48.828125
8508		-50.781250
8509		-46.875000
8510		-48.828125
8511		-42.968750
8512		-48.828125
8513		-41.015625
8514		-46.875000
8515		-39.062500
8516		-44.921875
8517		-37.109375
8518		-39.062500
8519		-33.203125
8520		-39.062500
8521		-29.296875
8522		-37.109375
8523		-29.296875
8524		-31.250000
8525		-27.343750
8526		-27.343750
8527		-23.437500
8528		-27.343750
8529		-19.531250
8530		-23.437500
8531		-15.625000
8532		-21.484375
8533		-11.718750
8534		-17.578125
8535		-9.765625
8536		-13.671875
8537		-5.859375
8538		-9.765625
8539		-1.953125
8540		-7.812500
8541		-1.953125
8542		-1.953125
8543		1.953125
8544		0.000000
8545		7.812500
8546		1.953125
8547		9.765625
8548		3.906250
8549		13.671875
8550		7.812500
8551		17.578125
8552		11.718750
8553		21.484375
8554		15.625000
8555		23.437500
8556		19.531250
8557		25.390625
8558		23.437500
8559		27.343750
8560		25.390625
8561		31.250000
8562		27.343750
8563		35.156250
8564		29.296875
8565		37.109375
8566		31.250000
8567		41.015625
8568		35.156250
8569		42.968750
8570		39.062500
8571		46.875000
8572		41.015625
8573		48.828125
8574		44.921875
8575		48.828125
8576		48.828125
8577		50.781250
8578		48.828125
8579		56.640625
8580		50.781250
8581		58.593750
8582		52.734375
8583		60.546875
8584		54.687500
8585		62.500000
8586		56.640625
8587		64.453125
8588		58.593750
8589		66.406250
8590		60.546875
8591		66.406250
8592		62.500000
8593		66.406250
8594		64.453125
8595		70.312500
8596		64.453125
8597		72.265625
8598		64.453125
8599		72.265625
8600		64.453125
8601		72.265625
8602		66.406250
8603		74.218750
8604		66.406250
8605		74.218750
8606		66.406250
8607		74.218750
8608		70.312500
8609		72.265625
8610		70.312500
8611		72.265625
8612		68.359375
8613		74.218750
8614		68.359375
8615		74.218750
8616		66.406250
8617		74.218750
8618		66.406250
8619		74.218750
8620		66.406250
8621		72.265625
8622		64.453125
8623		72.265625
8624		66.406250
8625		70.312500
8626		64.453125
8627		68.359375
8628		60.546875
8629		68.359375
8630		60.546875
8631		68.359375
8632		58.593750
8633		66.406250
8634		56.640625
8635		64.453125
8636		54.687500
8637		62.500000
8638		52.734375
8639		60.546875
8640		50.781250
8641		58.593750
8642		50.781250
8643		54.687500
8644		48.828125
8645		52.734375
8646		42.968750
8647		52.734375
8648		41.015625
8649		50.781250
8650		39.062500
8651		46.875000
8652		37.109375
8653		44.921875
8654		33.203125
8655		42.968750
8656		31.250000
8657		39.062500
8658		29.296875
8659		33.203125
8660		27.343750
8661		31.250000
8662		21.484375
8663		29.296875
8664		19.531250
8665		27.343750
8666		15.625000
8667		25.390625
8668		11.718750
8669		21.484375
8670		7.812500
8671		17.578125
8672		5.859375
8673		15.625000
8674		3.906250
8675		9.765625
8676		1.953125
8677		5.859375
8678		-3.906250
8679		1.953125
8680		-7.812500
8681		1.953125
8682		-11.718750
8683		-1.953125
8684		-15.625000
8685		-5.859375
8686		-17.578125
8687		-7.812500
8688		-21.484375
8689		-11.718750
8690		-23.437500
8691		-13.671875
8692		-25.390625
8693		-19.531250
8694		-27.343750
8695		-23.437500
8696		-31.250000
8697		-23.437500
8698		-35.156250
8699		-25.390625
8700		-39.062500
8701		-29.296875
8702		-41.015625
8703		-31.250000
8704		-42.968750
8705		-35.156250
8706		-46.875000
8707		-37.109375
8708		-46.875000
8709		-41.015625
8710		-48.828125
8711		-44.921875
8712		-52.734375
8713		-44.921875
8714		-54.687500
8715		-44.921875
8716		-54.687500
8717		-48.828125
8718		-58.593750
8719		-48.828125
8720		-58.593750
8721		-50.781250
8722		-60.546875
8723		-52.734375
8724		-60.546875
8725		-54.687500
8726		-60.546875
8727		-56.640625
8728		-60.546875
8729		-58.593750
8730		-64.453125
8731		-56.640625
8732		-64.453125
8733		-56.640625
8734		-64.453125
8735		-56.640625
8736		-64.453125
8737		-58.593750
8738		-64.453125
8739		-58.593750
8740		-64.453125
8741		-56.640625
8742		-62.500000
8743		-60.546875
8744		-62.500000
8745		-58.593750
8746		-62.500000
8747		-56.640625
8748		-62.500000
8749		-54.687500
8750		-62.500000
8751		-54.687500
8752		-60.546875
8753		-52.734375
8754		-58.593750
8755		-50.781250
8756		-58.593750
8757		-50.781250
8758		-56.640625
8759		-48.828125
8760		-52.734375
8761		-48.828125
8762		-50.781250
8763		-44.921875
8764		-50.781250
8765		-41.015625
8766		-48.828125
8767		-41.015625
8768		-44.921875
8769		-37.109375
8770		-42.968750
8771		-35.156250
8772		-41.015625
8773		-33.203125
8774		-39.062500
8775		-31.250000
8776		-33.203125
8777		-29.296875
8778		-31.250000
8779		-25.390625
8780		-29.296875
8781		-21.484375
8782		-27.343750
8783		-17.578125
8784		-23.437500
8785		-15.625000
8786		-21.484375
8787		-11.718750
8788		-17.578125
8789		-9.765625
8790		-13.671875
8791		-5.859375
8792		-11.718750
8793		-3.906250
8794		-5.859375
8795		0.000000
8796		-1.953125
8797		3.906250
8798		-1.953125
8799		7.812500
8800		1.953125
8801		11.718750
8802		5.859375
8803		13.671875
8804		7.812500
8805		17.578125
8806		11.718750
8807		21.484375
8808		15.625000
8809		23.437500
8810		21.484375
8811		25.390625
8812		23.437500
8813		27.343750
8814		25.390625
8815		35.156250
8816		27.343750
8817		37.109375
8818		29.296875
8819		39.062500
8820		33.203125
8821		42.968750
8822		37.109375
8823		44.921875
8824		39.062500
8825		46.875000
8826		42.968750
8827		48.828125
8828		46.875000
8829		50.781250
8830		46.875000
8831		54.687500
8832		48.828125
8833		56.640625
8834		50.781250
8835		58.593750
8836		52.734375
8837		60.546875
8838		54.687500
8839		62.500000
8840		56.640625
8841		64.453125
8842		58.593750
8843		64.453125
8844		62.500000
8845		64.453125
8846		62.500000
8847		68.359375
8848		62.500000
8849		70.312500
8850		64.453125
8851		70.312500
8852		64.453125
8853		72.265625
8854		64.453125
8855		72.265625
8856		66.406250
8857		74.218750
8858		66.406250
8859		74.218750
8860		68.359375
8861		72.265625
8862		70.312500
8863		72.265625
8864		68.359375
8865		74.218750
8866		66.406250
8867		74.218750
8868		66.406250
8869		74.218750
8870		66.406250
8871		74.218750
8872		64.453125
8873		72.265625
8874		64.453125
8875		72.265625
8876		64.453125
8877		72.265625
8878		64.453125
8879		68.359375
8880		62.500000
8881		68.359375
8882		60.546875
8883		68.359375
8884		58.593750
8885		66.406250
8886		58.593750
8887		66.406250
8888		56.640625
8889		64.453125
8890		54.687500
8891		62.500000
8892		52.734375
8893		60.546875
8894		52.734375
8895		56.640625
8896		50.781250
8897		54.687500
8898		44.921875
8899		52.734375
8900		42.968750
8901		50.781250
8902		41.015625
8903		48.828125
8904		37.109375
8905		46.875000
8906		35.156250
8907		42.968750
8908		33.203125
8909		41.015625
8910		31.250000
8911		37.109375
8912		29.296875
8913		33.203125
8914		23.437500
8915		29.296875
8916		21.484375
8917		27.343750
8918		17.578125
8919		25.390625
8920		13.671875
8921		21.484375
8922		11.718750
8923		19.531250
8924		7.812500
8925		15.625000
8926		5.859375
8927		11.718750
8928		3.906250
8929		7.812500
8930		-1.953125
8931		3.906250
8932		-5.859375
8933		1.953125
8934		-9.765625
8935		0.000000
8936		-11.718750
8937		-3.906250
8938		-15.625000
8939		-7.812500
8940		-19.531250
8941		-9.765625
8942		-21.484375
8943		-13.671875
8944		-23.437500
8945		-17.578125
8946		-25.390625
8947		-21.484375
8948		-31.250000
8949		-23.437500
8950		-33.203125
8951		-25.390625
8952		-37.109375
8953		-27.343750
8954		-39.062500
8955		-31.250000
8956		-42.968750
8957		-33.203125
8958		-44.921875
8959		-37.109375
8960		-44.921875
8961		-39.062500
8962		-46.875000
8963		-42.968750
8964		-50.781250
8965		-44.921875
8966		-52.734375
8967		-44.921875
8968		-54.687500
8969		-46.875000
8970		-56.640625
8971		-48.828125
8972		-58.593750
8973		-50.781250
8974		-60.546875
8975		-52.734375
8976		-60.546875
8977		-52.734375
8978		-60.546875
8979		-56.640625
8980		-60.546875
8981		-58.593750
8982		-64.453125
8983		-56.640625
8984		-64.453125
8985		-56.640625
8986		-64.453125
8987		-58.593750
8988		-64.453125
8989		-58.593750
8990		-64.453125
8991		-58.593750
8992		-64.453125
8993		-58.593750
8994		-62.500000
8995		-58.593750
8996		-62.500000
8997		-58.593750
8998		-64.453125
8999		-56.640625
9000		-62.500000
9001		-56.640625
9002		-62.500000
9003		-54.687500
9004		-60.546875
9005		-52.734375
9006		-60.546875
9007		-52.734375
9008		-58.593750
9009		-50.781250
9010		-56.640625
9011		-50.781250
9012		-52.734375
9013		-50.781250
9014		-50.781250
9015		-44.921875
9016		-50.781250
9017		-42.968750
9018		-50.781250
9019		-41.015625
9020		-46.875000
9021		-39.062500
9022		-44.921875
9023		-37.109375
9024		-42.968750
9025		-35.156250
9026		-39.062500
9027		-31.250000
9028		-35.156250
9029		-31.250000
9030		-33.203125
9031		-27.343750
9032		-31.250000
9033		-23.437500
9034		-29.296875
9035		-19.531250
9036		-25.390625
9037		-17.578125
9038		-23.437500
9039		-13.671875
9040		-19.531250
9041		-9.765625
9042		-17.578125
9043		-7.812500
9044		-13.671875
9045		-5.859375
9046		-7.812500
9047		-3.906250
9048		-3.906250
9049		1.953125
9050		-3.906250
9051		5.859375
9052		0.000000
9053		9.765625
9054		3.906250
9055		11.718750
9056		7.812500
9057		15.625000
9058		9.765625
9059		19.531250
9060		13.671875
9061		21.484375
9062		19.531250
9063		23.437500
9064		21.484375
9065		27.343750
9066		21.484375
9067		31.250000
9068		25.390625
9069		33.203125
9070		29.296875
9071		37.109375
9072		31.250000
9073		41.015625
9074		35.156250
9075		42.968750
9076		37.109375
9077		44.921875
9078		41.015625
9079		46.875000
9080		44.921875
9081		48.828125
9082		46.875000
9083		52.734375
9084		46.875000
9085		54.687500
9086		48.828125
9087		56.640625
9088		50.781250
9089		58.593750
9090		52.734375
9091		60.546875
9092		54.687500
9093		62.500000
9094		56.640625
9095		64.453125
9096		60.546875
9097		64.453125
9098		60.546875
9099		68.359375
9100		60.546875
9101		68.359375
9102		62.500000
9103		70.312500
9104		64.453125
9105		70.312500
9106		64.453125
9107		72.265625
9108		64.453125
9109		72.265625
9110		66.406250
9111		74.218750
9112		68.359375
9113		72.265625
9114		70.312500
9115		72.265625
9116		66.406250
9117		74.218750
9118		66.406250
9119		74.218750
9120		66.406250
9121		74.218750
9122		66.406250
9123		74.218750
9124		66.406250
9125		72.265625
9126		66.406250
9127		72.265625
9128		64.453125
9129		72.265625
9130		66.406250
9131		68.359375
9132		62.500000
9133		68.359375
9134		62.500000
9135		68.359375
9136		60.546875
9137		68.359375
9138		58.593750
9139		66.406250
9140		56.640625
9141		64.453125
9142		54.687500
9143		62.500000
9144		52.734375
9145		60.546875
9146		54.687500
9147		56.640625
9148		52.734375
9149		54.687500
9150		46.875000
9151		54.687500
9152		44.921875
9153		52.734375
9154		42.968750
9155		50.781250
9156		39.062500
9157		48.828125
9158		37.109375
9159		44.921875
9160		35.156250
9161		42.968750
9162		33.203125
9163		41.015625
9164		31.250000
9165		35.156250
9166		25.390625
9167		33.203125
9168		23.437500
9169		31.250000
9170		19.531250
9171		27.343750
9172		15.625000
9173		25.390625
9174		11.718750
9175		21.484375
9176		9.765625
9177		19.531250
9178		7.812500
9179		15.625000
9180		5.859375
9181		9.765625
9182		1.953125
9183		5.859375
9184		-3.906250
9185		5.859375
9186		-5.859375
9187		1.953125
9188		-9.765625
9189		-1.953125
9190		-13.671875
9191		-3.906250
9192		-15.625000
9193		-7.812500
9194		-19.531250
9195		-11.718750
9196		-21.484375
9197		-15.625000
9198		-23.437500
9199		-19.531250
9200		-29.296875
9201		-21.484375
9202		-33.203125
9203		-23.437500
9204		-35.156250
9205		-25.390625
9206		-37.109375
9207		-29.296875
9208		-41.015625
9209		-31.250000
9210		-42.968750
9211		-33.203125
9212		-42.968750
9213		-37.109375
9214		-44.921875
9215		-41.015625
9216		-50.781250
9217		-42.968750
9218		-52.734375
9219		-42.968750
9220		-54.687500
9221		-46.875000
9222		-54.687500
9223		-48.828125
9224		-56.640625
9225		-48.828125
9226		-58.593750
9227		-50.781250
9228		-60.546875
9229		-52.734375
9230		-58.593750
9231		-56.640625
9232		-60.546875
9233		-56.640625
9234		-62.500000
9235		-56.640625
9236		-64.453125
9237		-56.640625
9238		-64.453125
9239		-56.640625
9240		-64.453125
9241		-58.593750
9242		-64.453125
9243		-58.593750
9244		-64.453125
9245		-58.593750
9246		-64.453125
9247		-58.593750
9248		-62.500000
9249		-60.546875
9250		-64.453125
9251		-56.640625
9252		-64.453125
9253		-56.640625
9254		-62.500000
9255		-56.640625
9256		-62.500000
9257		-54.687500
9258		-60.546875
9259		-52.734375
9260		-60.546875
9261		-52.734375
9262		-58.593750
9263		-50.781250
9264		-54.687500
9265		-50.781250
9266		-52.734375
9267		-46.875000
9268		-52.734375
9269		-44.921875
9270		-52.734375
9271		-42.968750
9272		-48.828125
9273		-41.015625
9274		-46.875000
9275		-39.062500
9276		-44.921875
9277		-35.156250
9278		-41.015625
9279		-33.203125
9280		-37.109375
9281		-33.203125
9282		-35.156250
9283		-29.296875
9284		-33.203125
9285		-25.390625
9286		-31.250000
9287		-21.484375
9288		-27.343750
9289		-19.531250
9290		-25.390625
9291		-15.625000
9292		-21.484375
9293		-11.718750
9294		-17.578125
9295		-9.765625
9296		-15.625000
9297		-7.812500
9298		-9.765625
9299		-5.859375
9300		-5.859375
9301		0.000000
9302		-5.859375
9303		3.906250
9304		-1.953125
9305		7.812500
9306		0.000000
9307		9.765625
9308		3.906250
9309		13.671875
9310		7.812500
9311		15.625000
9312		11.718750
9313		19.531250
9314		15.625000
9315		21.484375
9316		19.531250
9317		23.437500
9318		21.484375
9319		29.296875
9320		23.437500
9321		33.203125
9322		27.343750
9323		35.156250
9324		29.296875
9325		39.062500
9326		33.203125
9327		41.015625
9328		35.156250
9329		42.968750
9330		37.109375
9331		44.921875
9332		42.968750
9333		46.875000
9334		44.921875
9335		50.781250
9336		44.921875
9337		54.687500
9338		48.828125
9339		56.640625
9340		50.781250
9341		58.593750
9342		52.734375
9343		60.546875
9344		54.687500
9345		62.500000
9346		54.687500
9347		64.453125
9348		60.546875
9349		62.500000
9350		62.500000
9351		64.453125
9352		60.546875
9353		68.359375
9354		62.500000
9355		68.359375
9356		62.500000
9357		70.312500
9358		64.453125
9359		72.265625
9360		64.453125
9361		72.265625
9362		66.406250
9363		72.265625
9364		68.359375
9365		72.265625
9366		70.312500
9367		72.265625
9368		66.406250
9369		74.218750
9370		68.359375
9371		74.218750
9372		66.406250
9373		74.218750
9374		66.406250
9375		74.218750
9376		66.406250
9377		74.218750
9378		66.406250
9379		72.265625
9380		66.406250
9381		72.265625
9382		66.406250
9383		70.312500
9384		64.453125
9385		70.312500
9386		62.500000
9387		70.312500
9388		60.546875
9389		68.359375
9390		60.546875
9391		68.359375
9392		58.593750
9393		66.406250
9394		56.640625
9395		64.453125
9396		54.687500
9397		62.500000
9398		54.687500
9399		58.593750
9400		52.734375
9401		56.640625
9402		48.828125
9403		56.640625
9404		46.875000
9405		54.687500
9406		44.921875
9407		52.734375
9408		41.015625
9409		50.781250
9410		39.062500
9411		46.875000
9412		37.109375
9413		44.921875
9414		35.156250
9415		42.968750
9416		33.203125
9417		37.109375
9418		27.343750
9419		35.156250
9420		25.390625
9421		33.203125
9422		21.484375
9423		31.250000
9424		19.531250
9425		27.343750
9426		15.625000
9427		23.437500
9428		11.718750
9429		21.484375
9430		9.765625
9431		17.578125
9432		7.812500
9433		11.718750
9434		1.953125
9435		9.765625
9436		-1.953125
9437		7.812500
9438		-3.906250
9439		5.859375
9440		-7.812500
9441		1.953125
9442		-11.718750
9443		-1.953125
9444		-13.671875
9445		-5.859375
9446		-17.578125
9447		-7.812500
9448		-17.578125
9449		-11.718750
9450		-21.484375
9451		-17.578125
9452		-25.390625
9453		-19.531250
9454		-29.296875
9455		-21.484375
9456		-33.203125
9457		-23.437500
9458		-35.156250
9459		-27.343750
9460		-39.062500
9461		-29.296875
9462		-41.015625
9463		-31.250000
9464		-42.968750
9465		-35.156250
9466		-42.968750
9467		-39.062500
9468		-48.828125
9469		-41.015625
9470		-50.781250
9471		-42.968750
9472		-52.734375
9473		-44.921875
9474		-54.687500
9475		-46.875000
9476		-56.640625
9477		-48.828125
9478		-56.640625
9479		-48.828125
9480		-58.593750
9481		-50.781250
9482		-58.593750
9483		-54.687500
9484		-58.593750
9485		-56.640625
9486		-62.500000
9487		-54.687500
9488		-62.500000
9489		-56.640625
9490		-64.453125
9491		-56.640625
9492		-64.453125
9493		-56.640625
9494		-64.453125
9495		-58.593750
9496		-64.453125
9497		-58.593750
9498		-64.453125
9499		-58.593750
9500		-62.500000
9501		-60.546875
9502		-62.500000
9503		-58.593750
9504		-64.453125
9505		-56.640625
9506		-62.500000
9507		-56.640625
9508		-62.500000
9509		-54.687500
9510		-62.500000
9511		-54.687500
9512		-60.546875
9513		-52.734375
9514		-58.593750
9515		-50.781250
9516		-54.687500
9517		-52.734375
9518		-52.734375
9519		-50.781250
9520		-54.687500
9521		-46.875000
9522		-52.734375
9523		-44.921875
9524		-48.828125
9525		-42.968750
9526		-48.828125
9527		-41.015625
9528		-44.921875
9529		-37.109375
9530		-42.968750
9531		-35.156250
9532		-41.015625
9533		-35.156250
9534		-35.156250
9535		-31.250000
9536		-33.203125
9537		-27.343750
9538		-33.203125
9539		-23.437500
9540		-31.250000
9541		-21.484375
9542		-27.343750
9543		-17.578125
9544		-23.437500
9545		-15.625000
9546		-19.531250
9547		-11.718750
9548		-17.578125
9549		-9.765625
9550		-11.718750
9551		-7.812500
9552		-7.812500
9553		-1.953125
9554		-7.812500
9555		1.953125
9556		-3.906250
9557		5.859375
9558		0.000000
9559		7.812500
9560		1.953125
9561		11.718750
9562		5.859375
9563		13.671875
9564		7.812500
9565		17.578125
9566		13.671875
9567		19.531250
9568		17.578125
9569		21.484375
9570		19.531250
9571		27.343750
9572		21.484375
9573		31.250000
9574		25.390625
9575		33.203125
9576		29.296875
9577		37.109375
9578		31.250000
9579		39.062500
9580		33.203125
9581		41.015625
9582		37.109375
9583		42.968750
9584		41.015625
9585		44.921875
9586		42.968750
9587		48.828125
9588		44.921875
9589		52.734375
9590		46.875000
9591		54.687500
9592		48.828125
9593		56.640625
9594		50.781250
9595		58.593750
9596		52.734375
9597		60.546875
9598		54.687500
9599		62.500000
9600		58.593750
9601		62.500000
9602		60.546875
9603		64.453125
9604		60.546875
9605		68.359375
9606		60.546875
9607		68.359375
9608		62.500000
9609		70.312500
9610		64.453125
9611		72.265625
9612		64.453125
9613		72.265625
9614		66.406250
9615		72.265625
9616		66.406250
9617		72.265625
9618		70.312500
9619		72.265625
9620		68.359375
9621		74.218750
9622		66.406250
9623		74.218750
9624		68.359375
9625		74.218750
9626		66.406250
9627		74.218750
9628		66.406250
9629		74.218750
9630		66.406250
9631		74.218750
9632		66.406250
9633		74.218750
9634		68.359375
9635		70.312500
9636		66.406250
9637		70.312500
9638		64.453125
9639		70.312500
9640		62.500000
9641		70.312500
9642		60.546875
9643		68.359375
9644		58.593750
9645		68.359375
9646		58.593750
9647		66.406250
9648		56.640625
9649		64.453125
9650		56.640625
9651		60.546875
9652		54.687500
9653		58.593750
9654		50.781250
9655		58.593750
9656		48.828125
9657		56.640625
9658		46.875000
9659		54.687500
9660		42.968750
9661		50.781250
9662		41.015625
9663		48.828125
9664		39.062500
9665		46.875000
9666		37.109375
9667		44.921875
9668		35.156250
9669		39.062500
9670		29.296875
9671		37.109375
9672		27.343750
9673		35.156250
9674		23.437500
9675		33.203125
9676		21.484375
9677		29.296875
9678		17.578125
9679		27.343750
9680		13.671875
9681		23.437500
9682		11.718750
9683		21.484375
9684		9.765625
9685		15.625000
9686		5.859375
9687		11.718750
9688		1.953125
9689		9.765625
9690		-1.953125
9691		5.859375
9692		-3.906250
9693		3.906250
9694		-7.812500
9695		0.000000
9696		-11.718750
9697		-3.906250
9698		-15.625000
9699		-5.859375
9700		-15.625000
9701		-9.765625
9702		-19.531250
9703		-13.671875
9704		-25.390625
9705		-17.578125
9706		-27.343750
9707		-17.578125
9708		-29.296875
9709		-21.484375
9710		-33.203125
9711		-23.437500
9712		-35.156250
9713		-27.343750
9714		-39.062500
9715		-31.250000
9716		-41.015625
9717		-33.203125
9718		-41.015625
9719		-37.109375
9720		-44.921875
9721		-39.062500
9722		-48.828125
9723		-41.015625
9724		-50.781250
9725		-41.015625
9726		-52.734375
9727		-44.921875
9728		-54.687500
9729		-46.875000
9730		-56.640625
9731		-48.828125
9732		-58.593750
9733		-50.781250
9734		-56.640625
9735		-54.687500
9736		-58.593750
9737		-54.687500
9738		-60.546875
9739		-54.687500
9740		-62.500000
9741		-54.687500
9742		-62.500000
9743		-56.640625
9744		-64.453125
9745		-56.640625
9746		-64.453125
9747		-56.640625
9748		-64.453125
9749		-56.640625
9750		-64.453125
9751		-58.593750
9752		-62.500000
9753		-60.546875
9754		-64.453125
9755		-56.640625
9756		-64.453125
9757		-56.640625
9758		-62.500000
9759		-56.640625
9760		-62.500000
9761		-54.687500
9762		-62.500000
9763		-54.687500
9764		-60.546875
9765		-52.734375
9766		-60.546875
9767		-52.734375
9768		-56.640625
9769		-52.734375
9770		-54.687500
9771		-50.781250
9772		-54.687500
9773		-46.875000
9774		-52.734375
9775		-44.921875
9776		-50.781250
9777		-42.968750
9778		-48.828125
9779		-41.015625
9780		-46.875000
9781		-39.062500
9782		-44.921875
9783		-37.109375
9784		-41.015625
9785		-37.109375
9786		-37.109375
9787		-33.203125
9788		-35.156250
9789		-29.296875
9790		-33.203125
9791		-25.390625
9792		-31.250000
9793		-23.437500
9794		-29.296875
9795		-19.531250
9796		-25.390625
9797		-15.625000
9798		-23.437500
9799		-13.671875
9800		-19.531250
9801		-11.718750
9802		-13.671875
9803		-9.765625
9804		-9.765625
9805		-3.906250
9806		-9.765625
9807		0.000000
9808		-5.859375
9809		3.906250
9810		-3.906250
9811		5.859375
9812		0.000000
9813		9.765625
9814		3.906250
9815		13.671875
9816		7.812500
9817		15.625000
9818		11.718750
9819		17.578125
9820		15.625000
9821		21.484375
9822		17.578125
9823		25.390625
9824		21.484375
9825		29.296875
9826		23.437500
9827		31.250000
9828		25.390625
9829		35.156250
9830		29.296875
9831		37.109375
9832		33.203125
9833		41.015625
9834		35.156250
9835		41.015625
9836		39.062500
9837		42.968750
9838		42.968750
9839		48.828125
9840		42.968750
9841		50.781250
9842		44.921875
9843		54.687500
9844		46.875000
9845		56.640625
9846		50.781250
9847		58.593750
9848		52.734375
9849		60.546875
9850		54.687500
9851		62.500000
9852		58.593750
9853		62.500000
9854		60.546875
9855		62.500000
9856		58.593750
9857		66.406250
9858		60.546875
9859		68.359375
9860		62.500000
9861		70.312500
9862		62.500000
9863		70.312500
9864		64.453125
9865		72.265625
9866		66.406250
9867		72.265625
9868		66.406250
9869		72.265625
9870		70.312500
9871		72.265625
9872		68.359375
9873		74.218750
9874		66.406250
9875		74.218750
9876		68.359375
9877		74.218750
9878		68.359375
9879		74.218750
9880		68.359375
9881		74.218750
9882		66.406250
9883		74.218750
9884		66.406250
9885		74.218750
9886		68.359375
9887		70.312500
9888		66.406250
9889		70.312500
9890		64.453125
9891		72.265625
9892		64.453125
9893		72.265625
9894		62.500000
9895		70.312500
9896		60.546875
9897		68.359375
9898		60.546875
9899		66.406250
9900		58.593750
9901		64.453125
9902		58.593750
9903		62.500000
9904		56.640625
9905		60.546875
9906		52.734375
9907		60.546875
9908		50.781250
9909		58.593750
9910		48.828125
9911		56.640625
9912		44.921875
9913		52.734375
9914		42.968750
9915		50.781250
9916		41.015625
9917		48.828125
9918		41.015625
9919		46.875000
9920		37.109375
9921		41.015625
9922		31.250000
9923		39.062500
9924		29.296875
9925		37.109375
9926		25.390625
9927		35.156250
9928		23.437500
9929		33.203125
9930		21.484375
9931		29.296875
9932		17.578125
9933		25.390625
9934		13.671875
9935		23.437500
9936		13.671875
9937		17.578125
9938		9.765625
9939		13.671875
9940		3.906250
9941		11.718750
9942		1.953125
9943		9.765625
9944		-1.953125
9945		7.812500
9946		-5.859375
9947		3.906250
9948		-9.765625
9949		0.000000
9950		-11.718750
9951		-3.906250
9952		-13.671875
9953		-5.859375
9954		-15.625000
9955		-11.718750
9956		-21.484375
9957		-15.625000
9958		-25.390625
9959		-15.625000
9960		-27.343750
9961		-17.578125
9962		-31.250000
9963		-21.484375
9964		-35.156250
9965		-25.390625
9966		-37.109375
9967		-27.343750
9968		-39.062500
9969		-31.250000
9970		-39.062500
9971		-35.156250
9972		-41.015625
9973		-37.109375
9974		-46.875000
9975		-39.062500
9976		-48.828125
9977		-41.015625
9978		-50.781250
9979		-42.968750
9980		-52.734375
9981		-44.921875
9982		-54.687500
9983		-46.875000
9984		-56.640625
9985		-48.828125
9986		-54.687500
9987		-50.781250
9988		-56.640625
9989		-52.734375
9990		-60.546875
9991		-52.734375
9992		-60.546875
9993		-54.687500
9994		-62.500000
9995		-54.687500
9996		-62.500000
9997		-56.640625
9998		-62.500000
9999		-54.687500
10000		-64.453125
