Channel              :		CH1
Frequency            :		1.973kHz
Period               :		0.507ms
PK-PK                :		128.9mV
Probe attenuation    :		1X
Voltage per ADC value:		0.122070mV
Time interval        :		2.00000us

index		CH1_Voltage(mV)
1		66.406250
2		66.406250
3		68.359375
4		66.406250
5		68.359375
6		64.453125
7		68.359375
8		64.453125
9		66.406250
10		62.500000
11		66.406250
12		62.500000
13		66.406250
14		60.546875
15		64.453125
16		60.546875
17		64.453125
18		58.593750
19		62.500000
20		56.640625
21		60.546875
22		54.687500
23		58.593750
24		54.687500
25		58.593750
26		52.734375
27		54.687500
28		50.781250
29		54.687500
30		48.828125
31		52.734375
32		46.875000
33		50.781250
34		44.921875
35		48.828125
36		41.015625
37		44.921875
38		37.109375
39		42.968750
40		37.109375
41		41.015625
42		35.156250
43		39.062500
44		31.250000
45		37.109375
46		29.296875
47		33.203125
48		25.390625
49		31.250000
50		23.437500
51		29.296875
52		19.531250
53		25.390625
54		17.578125
55		21.484375
56		13.671875
57		19.531250
58		11.718750
59		15.625000
60		7.812500
61		13.671875
62		5.859375
63		11.718750
64		3.906250
65		7.812500
66		0.000000
67		3.906250
68		-1.953125
69		1.953125
70		-5.859375
71		0.000000
72		-7.812500
73		-3.906250
74		-11.718750
75		-5.859375
76		-13.671875
77		-9.765625
78		-15.625000
79		-11.718750
80		-19.531250
81		-15.625000
82		-21.484375
83		-17.578125
84		-25.390625
85		-19.531250
86		-27.343750
87		-23.437500
88		-29.296875
89		-25.390625
90		-31.250000
91		-25.390625
92		-33.203125
93		-29.296875
94		-35.156250
95		-31.250000
96		-37.109375
97		-33.203125
98		-39.062500
99		-35.156250
100		-41.015625
101		-37.109375
102		-42.968750
103		-39.062500
104		-44.921875
105		-39.062500
106		-44.921875
107		-41.015625
108		-44.921875
109		-42.968750
110		-46.875000
111		-44.921875
112		-46.875000
113		-42.968750
114		-48.828125
115		-44.921875
116		-48.828125
117		-44.921875
118		-48.828125
119		-44.921875
120		-48.828125
121		-46.875000
122		-50.781250
123		-44.921875
124		-48.828125
125		-46.875000
126		-48.828125
127		-46.875000
128		-48.828125
129		-44.921875
130		-48.828125
131		-44.921875
132		-46.875000
133		-44.921875
134		-46.875000
135		-42.968750
136		-44.921875
137		-42.968750
138		-44.921875
139		-41.015625
140		-42.968750
141		-39.062500
142		-41.015625
143		-39.062500
144		-41.015625
145		-35.156250
146		-39.062500
147		-35.156250
148		-37.109375
149		-33.203125
150		-35.156250
151		-31.250000
152		-33.203125
153		-29.296875
154		-31.250000
155		-25.390625
156		-29.296875
157		-25.390625
158		-25.390625
159		-21.484375
160		-23.437500
161		-19.531250
162		-21.484375
163		-17.578125
164		-19.531250
165		-13.671875
166		-17.578125
167		-11.718750
168		-13.671875
169		-9.765625
170		-11.718750
171		-5.859375
172		-7.812500
173		-1.953125
174		-5.859375
175		0.000000
176		-1.953125
177		1.953125
178		0.000000
179		5.859375
180		3.906250
181		7.812500
182		5.859375
183		11.718750
184		9.765625
185		13.671875
186		11.718750
187		17.578125
188		15.625000
189		19.531250
190		17.578125
191		23.437500
192		21.484375
193		25.390625
194		23.437500
195		27.343750
196		25.390625
197		29.296875
198		27.343750
199		33.203125
200		31.250000
201		35.156250
202		33.203125
203		39.062500
204		37.109375
205		41.015625
206		39.062500
207		42.968750
208		41.015625
209		44.921875
210		42.968750
211		46.875000
212		44.921875
213		48.828125
214		46.875000
215		52.734375
216		50.781250
217		52.734375
218		50.781250
219		54.687500
220		52.734375
221		56.640625
222		54.687500
223		58.593750
224		56.640625
225		60.546875
226		58.593750
227		62.500000
228		60.546875
229		64.453125
230		60.546875
231		64.453125
232		60.546875
233		64.453125
234		62.500000
235		66.406250
236		64.453125
237		66.406250
238		64.453125
239		68.359375
240		64.453125
241		68.359375
242		66.406250
243		68.359375
244		66.406250
245		68.359375
246		66.406250
247		70.312500
248		66.406250
249		70.312500
250		66.406250
251		70.312500
252		66.406250
253		70.312500
254		66.406250
255		70.312500
256		66.406250
257		68.359375
258		64.453125
259		68.359375
260		64.453125
261		68.359375
262		64.453125
263		66.406250
264		62.500000
265		66.406250
266		60.546875
267		66.406250
268		60.546875
269		64.453125
270		58.593750
271		62.500000
272		58.593750
273		62.500000
274		56.640625
275		60.546875
276		54.687500
277		58.593750
278		52.734375
279		56.640625
280		50.781250
281		56.640625
282		48.828125
283		54.687500
284		46.875000
285		50.781250
286		44.921875
287		48.828125
288		42.968750
289		46.875000
290		41.015625
291		44.921875
292		39.062500
293		42.968750
294		35.156250
295		41.015625
296		33.203125
297		37.109375
298		29.296875
299		35.156250
300		27.343750
301		31.250000
302		25.390625
303		31.250000
304		23.437500
305		27.343750
306		19.531250
307		25.390625
308		17.578125
309		21.484375
310		13.671875
311		19.531250
312		9.765625
313		15.625000
314		5.859375
315		11.718750
316		5.859375
317		9.765625
318		1.953125
319		7.812500
320		0.000000
321		3.906250
322		-3.906250
323		1.953125
324		-7.812500
325		-1.953125
326		-9.765625
327		-5.859375
328		-11.718750
329		-7.812500
330		-15.625000
331		-11.718750
332		-17.578125
333		-13.671875
334		-21.484375
335		-15.625000
336		-23.437500
337		-19.531250
338		-25.390625
339		-21.484375
340		-27.343750
341		-23.437500
342		-29.296875
343		-25.390625
344		-31.250000
345		-27.343750
346		-35.156250
347		-31.250000
348		-37.109375
349		-33.203125
350		-39.062500
351		-35.156250
352		-41.015625
353		-35.156250
354		-41.015625
355		-37.109375
356		-42.968750
357		-39.062500
358		-44.921875
359		-41.015625
360		-44.921875
361		-42.968750
362		-46.875000
363		-42.968750
364		-48.828125
365		-42.968750
366		-48.828125
367		-44.921875
368		-50.781250
369		-44.921875
370		-48.828125
371		-46.875000
372		-50.781250
373		-46.875000
374		-50.781250
375		-46.875000
376		-50.781250
377		-46.875000
378		-50.781250
379		-46.875000
380		-50.781250
381		-46.875000
382		-50.781250
383		-46.875000
384		-48.828125
385		-44.921875
386		-48.828125
387		-44.921875
388		-46.875000
389		-42.968750
390		-46.875000
391		-42.968750
392		-44.921875
393		-41.015625
394		-42.968750
395		-41.015625
396		-42.968750
397		-39.062500
398		-41.015625
399		-37.109375
400		-39.062500
401		-35.156250
402		-37.109375
403		-33.203125
404		-35.156250
405		-31.250000
406		-33.203125
407		-29.296875
408		-31.250000
409		-27.343750
410		-29.296875
411		-25.390625
412		-27.343750
413		-23.437500
414		-23.437500
415		-19.531250
416		-21.484375
417		-17.578125
418		-19.531250
419		-13.671875
420		-15.625000
421		-11.718750
422		-13.671875
423		-9.765625
424		-11.718750
425		-5.859375
426		-7.812500
427		-3.906250
428		-5.859375
429		0.000000
430		-1.953125
431		3.906250
432		0.000000
433		5.859375
434		3.906250
435		7.812500
436		5.859375
437		11.718750
438		9.765625
439		13.671875
440		11.718750
441		15.625000
442		13.671875
443		19.531250
444		17.578125
445		21.484375
446		21.484375
447		25.390625
448		23.437500
449		27.343750
450		25.390625
451		31.250000
452		29.296875
453		33.203125
454		31.250000
455		35.156250
456		33.203125
457		37.109375
458		37.109375
459		41.015625
460		37.109375
461		42.968750
462		41.015625
463		44.921875
464		42.968750
465		46.875000
466		44.921875
467		50.781250
468		46.875000
469		50.781250
470		48.828125
471		54.687500
472		50.781250
473		54.687500
474		52.734375
475		56.640625
476		54.687500
477		58.593750
478		56.640625
479		60.546875
480		58.593750
481		62.500000
482		60.546875
483		62.500000
484		60.546875
485		64.453125
486		60.546875
487		64.453125
488		62.500000
489		66.406250
490		62.500000
491		66.406250
492		64.453125
493		68.359375
494		64.453125
495		68.359375
496		66.406250
497		68.359375
498		64.453125
499		70.312500
500		66.406250
501		70.312500
502		66.406250
503		70.312500
504		66.406250
505		68.359375
506		66.406250
507		70.312500
508		66.406250
509		68.359375
510		64.453125
511		68.359375
512		64.453125
513		68.359375
514		64.453125
515		66.406250
516		62.500000
517		66.406250
518		62.500000
519		64.453125
520		62.500000
521		64.453125
522		60.546875
523		64.453125
524		58.593750
525		62.500000
526		56.640625
527		60.546875
528		56.640625
529		58.593750
530		54.687500
531		58.593750
532		52.734375
533		56.640625
534		48.828125
535		54.687500
536		48.828125
537		52.734375
538		46.875000
539		50.781250
540		44.921875
541		48.828125
542		41.015625
543		46.875000
544		41.015625
545		44.921875
546		37.109375
547		41.015625
548		35.156250
549		39.062500
550		31.250000
551		37.109375
552		29.296875
553		33.203125
554		27.343750
555		31.250000
556		23.437500
557		29.296875
558		21.484375
559		25.390625
560		19.531250
561		23.437500
562		15.625000
563		19.531250
564		11.718750
565		17.578125
566		9.765625
567		15.625000
568		5.859375
569		11.718750
570		1.953125
571		7.812500
572		1.953125
573		5.859375
574		-1.953125
575		3.906250
576		-5.859375
577		0.000000
578		-7.812500
579		-3.906250
580		-9.765625
581		-5.859375
582		-13.671875
583		-7.812500
584		-15.625000
585		-11.718750
586		-19.531250
587		-13.671875
588		-21.484375
589		-17.578125
590		-23.437500
591		-19.531250
592		-25.390625
593		-21.484375
594		-27.343750
595		-23.437500
596		-31.250000
597		-27.343750
598		-33.203125
599		-29.296875
600		-35.156250
601		-31.250000
602		-37.109375
603		-33.203125
604		-39.062500
605		-35.156250
606		-41.015625
607		-37.109375
608		-42.968750
609		-39.062500
610		-44.921875
611		-39.062500
612		-44.921875
613		-41.015625
614		-44.921875
615		-42.968750
616		-46.875000
617		-42.968750
618		-48.828125
619		-44.921875
620		-48.828125
621		-44.921875
622		-50.781250
623		-46.875000
624		-50.781250
625		-46.875000
626		-50.781250
627		-46.875000
628		-50.781250
629		-46.875000
630		-48.828125
631		-46.875000
632		-50.781250
633		-46.875000
634		-50.781250
635		-46.875000
636		-48.828125
637		-46.875000
638		-48.828125
639		-44.921875
640		-48.828125
641		-44.921875
642		-46.875000
643		-42.968750
644		-46.875000
645		-42.968750
646		-44.921875
647		-41.015625
648		-42.968750
649		-39.062500
650		-42.968750
651		-39.062500
652		-41.015625
653		-37.109375
654		-39.062500
655		-35.156250
656		-37.109375
657		-33.203125
658		-35.156250
659		-31.250000
660		-33.203125
661		-27.343750
662		-29.296875
663		-27.343750
664		-27.343750
665		-23.437500
666		-25.390625
667		-21.484375
668		-23.437500
669		-19.531250
670		-21.484375
671		-15.625000
672		-17.578125
673		-13.671875
674		-15.625000
675		-9.765625
676		-13.671875
677		-7.812500
678		-9.765625
679		-5.859375
680		-7.812500
681		-1.953125
682		-3.906250
683		0.000000
684		-1.953125
685		3.906250
686		1.953125
687		5.859375
688		3.906250
689		9.765625
690		5.859375
691		11.718750
692		9.765625
693		15.625000
694		11.718750
695		17.578125
696		15.625000
697		19.531250
698		17.578125
699		23.437500
700		21.484375
701		25.390625
702		23.437500
703		27.343750
704		27.343750
705		31.250000
706		29.296875
707		35.156250
708		31.250000
709		37.109375
710		35.156250
711		39.062500
712		37.109375
713		41.015625
714		39.062500
715		42.968750
716		41.015625
717		46.875000
718		42.968750
719		46.875000
720		44.921875
721		48.828125
722		48.828125
723		50.781250
724		50.781250
725		54.687500
726		50.781250
727		56.640625
728		52.734375
729		56.640625
730		54.687500
731		58.593750
732		56.640625
733		60.546875
734		56.640625
735		62.500000
736		58.593750
737		62.500000
738		60.546875
739		64.453125
740		60.546875
741		64.453125
742		62.500000
743		66.406250
744		62.500000
745		66.406250
746		64.453125
747		66.406250
748		64.453125
749		68.359375
750		64.453125
751		68.359375
752		66.406250
753		68.359375
754		66.406250
755		68.359375
756		66.406250
757		68.359375
758		64.453125
759		68.359375
760		64.453125
761		68.359375
762		64.453125
763		68.359375
764		64.453125
765		68.359375
766		62.500000
767		68.359375
768		64.453125
769		66.406250
770		62.500000
771		66.406250
772		60.546875
773		64.453125
774		60.546875
775		64.453125
776		58.593750
777		62.500000
778		58.593750
779		62.500000
780		56.640625
781		60.546875
782		54.687500
783		58.593750
784		52.734375
785		56.640625
786		50.781250
787		54.687500
788		48.828125
789		52.734375
790		46.875000
791		50.781250
792		44.921875
793		48.828125
794		41.015625
795		46.875000
796		41.015625
797		44.921875
798		39.062500
799		42.968750
800		35.156250
801		39.062500
802		33.203125
803		39.062500
804		31.250000
805		37.109375
806		29.296875
807		33.203125
808		25.390625
809		31.250000
810		23.437500
811		27.343750
812		19.531250
813		23.437500
814		17.578125
815		21.484375
816		13.671875
817		19.531250
818		11.718750
819		15.625000
820		7.812500
821		13.671875
822		5.859375
823		9.765625
824		1.953125
825		7.812500
826		0.000000
827		3.906250
828		-3.906250
829		1.953125
830		-5.859375
831		0.000000
832		-9.765625
833		-3.906250
834		-11.718750
835		-7.812500
836		-15.625000
837		-9.765625
838		-17.578125
839		-13.671875
840		-19.531250
841		-15.625000
842		-23.437500
843		-17.578125
844		-25.390625
845		-21.484375
846		-27.343750
847		-23.437500
848		-29.296875
849		-25.390625
850		-33.203125
851		-29.296875
852		-35.156250
853		-29.296875
854		-37.109375
855		-33.203125
856		-39.062500
857		-35.156250
858		-39.062500
859		-37.109375
860		-41.015625
861		-37.109375
862		-44.921875
863		-39.062500
864		-44.921875
865		-41.015625
866		-46.875000
867		-42.968750
868		-48.828125
869		-42.968750
870		-48.828125
871		-44.921875
872		-48.828125
873		-44.921875
874		-48.828125
875		-46.875000
876		-50.781250
877		-46.875000
878		-50.781250
879		-46.875000
880		-50.781250
881		-46.875000
882		-50.781250
883		-48.828125
884		-52.734375
885		-48.828125
886		-50.781250
887		-46.875000
888		-50.781250
889		-46.875000
890		-50.781250
891		-46.875000
892		-48.828125
893		-44.921875
894		-48.828125
895		-44.921875
896		-48.828125
897		-42.968750
898		-46.875000
899		-42.968750
900		-44.921875
901		-42.968750
902		-44.921875
903		-41.015625
904		-42.968750
905		-39.062500
906		-41.015625
907		-37.109375
908		-39.062500
909		-35.156250
910		-37.109375
911		-33.203125
912		-35.156250
913		-31.250000
914		-33.203125
915		-29.296875
916		-31.250000
917		-27.343750
918		-29.296875
919		-23.437500
920		-25.390625
921		-21.484375
922		-23.437500
923		-19.531250
924		-21.484375
925		-15.625000
926		-17.578125
927		-13.671875
928		-15.625000
929		-11.718750
930		-13.671875
931		-7.812500
932		-9.765625
933		-5.859375
934		-7.812500
935		-1.953125
936		-3.906250
937		0.000000
938		-1.953125
939		3.906250
940		1.953125
941		5.859375
942		3.906250
943		9.765625
944		7.812500
945		11.718750
946		9.765625
947		15.625000
948		13.671875
949		17.578125
950		15.625000
951		19.531250
952		19.531250
953		23.437500
954		21.484375
955		25.390625
956		23.437500
957		29.296875
958		27.343750
959		31.250000
960		29.296875
961		33.203125
962		31.250000
963		37.109375
964		33.203125
965		39.062500
966		37.109375
967		41.015625
968		39.062500
969		44.921875
970		42.968750
971		44.921875
972		42.968750
973		48.828125
974		44.921875
975		50.781250
976		48.828125
977		52.734375
978		50.781250
979		54.687500
980		50.781250
981		56.640625
982		54.687500
983		56.640625
984		54.687500
985		58.593750
986		56.640625
987		60.546875
988		58.593750
989		62.500000
990		60.546875
991		62.500000
992		60.546875
993		64.453125
994		62.500000
995		64.453125
996		62.500000
997		66.406250
998		62.500000
999		66.406250
1000		64.453125
1001		66.406250
1002		64.453125
1003		68.359375
1004		64.453125
1005		68.359375
1006		64.453125
1007		68.359375
1008		66.406250
1009		68.359375
1010		66.406250
1011		68.359375
1012		66.406250
1013		68.359375
1014		64.453125
1015		68.359375
1016		64.453125
1017		68.359375
1018		64.453125
1019		68.359375
1020		64.453125
1021		66.406250
1022		64.453125
1023		66.406250
1024		62.500000
1025		66.406250
1026		60.546875
1027		64.453125
1028		58.593750
1029		64.453125
1030		58.593750
1031		62.500000
1032		58.593750
1033		60.546875
1034		56.640625
1035		60.546875
1036		54.687500
1037		58.593750
1038		52.734375
1039		56.640625
1040		50.781250
1041		54.687500
1042		48.828125
1043		52.734375
1044		46.875000
1045		50.781250
1046		44.921875
1047		48.828125
1048		42.968750
1049		46.875000
1050		41.015625
1051		44.921875
1052		37.109375
1053		42.968750
1054		35.156250
1055		39.062500
1056		33.203125
1057		37.109375
1058		31.250000
1059		35.156250
1060		27.343750
1061		31.250000
1062		25.390625
1063		29.296875
1064		21.484375
1065		27.343750
1066		19.531250
1067		23.437500
1068		17.578125
1069		21.484375
1070		13.671875
1071		19.531250
1072		9.765625
1073		15.625000
1074		7.812500
1075		11.718750
1076		3.906250
1077		9.765625
1078		1.953125
1079		5.859375
1080		-1.953125
1081		3.906250
1082		-3.906250
1083		1.953125
1084		-5.859375
1085		-1.953125
1086		-9.765625
1087		-5.859375
1088		-11.718750
1089		-7.812500
1090		-15.625000
1091		-9.765625
1092		-17.578125
1093		-13.671875
1094		-21.484375
1095		-15.625000
1096		-23.437500
1097		-17.578125
1098		-25.390625
1099		-21.484375
1100		-27.343750
1101		-23.437500
1102		-31.250000
1103		-25.390625
1104		-33.203125
1105		-29.296875
1106		-35.156250
1107		-31.250000
1108		-37.109375
1109		-33.203125
1110		-39.062500
1111		-35.156250
1112		-41.015625
1113		-37.109375
1114		-42.968750
1115		-39.062500
1116		-42.968750
1117		-41.015625
1118		-44.921875
1119		-41.015625
1120		-46.875000
1121		-42.968750
1122		-46.875000
1123		-42.968750
1124		-48.828125
1125		-44.921875
1126		-48.828125
1127		-46.875000
1128		-48.828125
1129		-44.921875
1130		-50.781250
1131		-46.875000
1132		-50.781250
1133		-46.875000
1134		-50.781250
1135		-48.828125
1136		-50.781250
1137		-46.875000
1138		-50.781250
1139		-46.875000
1140		-50.781250
1141		-46.875000
1142		-48.828125
1143		-46.875000
1144		-50.781250
1145		-46.875000
1146		-48.828125
1147		-44.921875
1148		-48.828125
1149		-44.921875
1150		-46.875000
1151		-42.968750
1152		-44.921875
1153		-42.968750
1154		-44.921875
1155		-41.015625
1156		-42.968750
1157		-39.062500
1158		-41.015625
1159		-37.109375
1160		-39.062500
1161		-35.156250
1162		-37.109375
1163		-33.203125
1164		-35.156250
1165		-31.250000
1166		-35.156250
1167		-31.250000
1168		-31.250000
1169		-27.343750
1170		-29.296875
1171		-25.390625
1172		-27.343750
1173		-21.484375
1174		-25.390625
1175		-19.531250
1176		-23.437500
1177		-17.578125
1178		-19.531250
1179		-15.625000
1180		-17.578125
1181		-11.718750
1182		-13.671875
1183		-9.765625
1184		-11.718750
1185		-7.812500
1186		-7.812500
1187		-3.906250
1188		-5.859375
1189		-1.953125
1190		-3.906250
1191		1.953125
1192		0.000000
1193		3.906250
1194		1.953125
1195		7.812500
1196		5.859375
1197		9.765625
1198		7.812500
1199		13.671875
1200		11.718750
1201		15.625000
1202		13.671875
1203		17.578125
1204		15.625000
1205		21.484375
1206		19.531250
1207		25.390625
1208		21.484375
1209		27.343750
1210		25.390625
1211		29.296875
1212		27.343750
1213		33.203125
1214		31.250000
1215		35.156250
1216		33.203125
1217		37.109375
1218		35.156250
1219		39.062500
1220		37.109375
1221		42.968750
1222		39.062500
1223		44.921875
1224		42.968750
1225		46.875000
1226		44.921875
1227		48.828125
1228		46.875000
1229		50.781250
1230		48.828125
1231		52.734375
1232		50.781250
1233		54.687500
1234		52.734375
1235		56.640625
1236		54.687500
1237		58.593750
1238		54.687500
1239		58.593750
1240		56.640625
1241		60.546875
1242		58.593750
1243		62.500000
1244		60.546875
1245		64.453125
1246		60.546875
1247		64.453125
1248		62.500000
1249		64.453125
1250		62.500000
1251		66.406250
1252		64.453125
1253		66.406250
1254		62.500000
1255		68.359375
1256		66.406250
1257		68.359375
1258		64.453125
1259		68.359375
1260		66.406250
1261		68.359375
1262		66.406250
1263		68.359375
1264		66.406250
1265		68.359375
1266		66.406250
1267		68.359375
1268		66.406250
1269		68.359375
1270		64.453125
1271		68.359375
1272		64.453125
1273		68.359375
1274		62.500000
1275		66.406250
1276		62.500000
1277		66.406250
1278		62.500000
1279		64.453125
1280		60.546875
1281		64.453125
1282		58.593750
1283		62.500000
1284		58.593750
1285		62.500000
1286		56.640625
1287		60.546875
1288		56.640625
1289		58.593750
1290		54.687500
1291		58.593750
1292		52.734375
1293		56.640625
1294		50.781250
1295		54.687500
1296		48.828125
1297		52.734375
1298		46.875000
1299		50.781250
1300		44.921875
1301		48.828125
1302		41.015625
1303		46.875000
1304		39.062500
1305		44.921875
1306		37.109375
1307		42.968750
1308		35.156250
1309		39.062500
1310		33.203125
1311		37.109375
1312		29.296875
1313		33.203125
1314		27.343750
1315		31.250000
1316		23.437500
1317		29.296875
1318		21.484375
1319		25.390625
1320		19.531250
1321		23.437500
1322		15.625000
1323		21.484375
1324		11.718750
1325		17.578125
1326		9.765625
1327		15.625000
1328		5.859375
1329		11.718750
1330		3.906250
1331		9.765625
1332		0.000000
1333		5.859375
1334		-1.953125
1335		3.906250
1336		-5.859375
1337		0.000000
1338		-7.812500
1339		-3.906250
1340		-9.765625
1341		-5.859375
1342		-13.671875
1343		-7.812500
1344		-15.625000
1345		-11.718750
1346		-19.531250
1347		-13.671875
1348		-21.484375
1349		-17.578125
1350		-23.437500
1351		-19.531250
1352		-25.390625
1353		-21.484375
1354		-29.296875
1355		-25.390625
1356		-31.250000
1357		-27.343750
1358		-33.203125
1359		-29.296875
1360		-35.156250
1361		-31.250000
1362		-39.062500
1363		-33.203125
1364		-39.062500
1365		-35.156250
1366		-42.968750
1367		-35.156250
1368		-42.968750
1369		-39.062500
1370		-42.968750
1371		-41.015625
1372		-44.921875
1373		-41.015625
1374		-46.875000
1375		-42.968750
1376		-46.875000
1377		-44.921875
1378		-48.828125
1379		-44.921875
1380		-48.828125
1381		-44.921875
1382		-50.781250
1383		-44.921875
1384		-50.781250
1385		-46.875000
1386		-50.781250
1387		-48.828125
1388		-52.734375
1389		-46.875000
1390		-52.734375
1391		-46.875000
1392		-52.734375
1393		-44.921875
1394		-52.734375
1395		-46.875000
1396		-52.734375
1397		-44.921875
1398		-50.781250
1399		-44.921875
1400		-48.828125
1401		-42.968750
1402		-46.875000
1403		-44.921875
1404		-46.875000
1405		-42.968750
1406		-46.875000
1407		-39.062500
1408		-46.875000
1409		-39.062500
1410		-42.968750
1411		-37.109375
1412		-42.968750
1413		-35.156250
1414		-41.015625
1415		-33.203125
1416		-39.062500
1417		-33.203125
1418		-37.109375
1419		-31.250000
1420		-33.203125
1421		-29.296875
1422		-31.250000
1423		-25.390625
1424		-31.250000
1425		-23.437500
1426		-27.343750
1427		-19.531250
1428		-25.390625
1429		-17.578125
1430		-23.437500
1431		-15.625000
1432		-21.484375
1433		-13.671875
1434		-17.578125
1435		-11.718750
1436		-13.671875
1437		-9.765625
1438		-11.718750
1439		-5.859375
1440		-9.765625
1441		-1.953125
1442		-7.812500
1443		1.953125
1444		-3.906250
1445		3.906250
1446		-1.953125
1447		7.812500
1448		0.000000
1449		9.765625
1450		3.906250
1451		11.718750
1452		7.812500
1453		13.671875
1454		11.718750
1455		15.625000
1456		13.671875
1457		21.484375
1458		15.625000
1459		23.437500
1460		19.531250
1461		27.343750
1462		21.484375
1463		29.296875
1464		23.437500
1465		33.203125
1466		25.390625
1467		35.156250
1468		29.296875
1469		35.156250
1470		33.203125
1471		37.109375
1472		37.109375
1473		42.968750
1474		37.109375
1475		44.921875
1476		39.062500
1477		46.875000
1478		41.015625
1479		48.828125
1480		42.968750
1481		50.781250
1482		44.921875
1483		52.734375
1484		46.875000
1485		54.687500
1486		50.781250
1487		54.687500
1488		52.734375
1489		56.640625
1490		52.734375
1491		60.546875
1492		54.687500
1493		62.500000
1494		54.687500
1495		62.500000
1496		56.640625
1497		64.453125
1498		58.593750
1499		66.406250
1500		58.593750
1501		66.406250
1502		60.546875
1503		66.406250
1504		64.453125
1505		66.406250
1506		62.500000
1507		68.359375
1508		62.500000
1509		70.312500
1510		62.500000
1511		70.312500
1512		62.500000
1513		70.312500
1514		64.453125
1515		70.312500
1516		64.453125
1517		70.312500
1518		64.453125
1519		70.312500
1520		66.406250
1521		68.359375
1522		66.406250
1523		68.359375
1524		62.500000
1525		70.312500
1526		62.500000
1527		70.312500
1528		60.546875
1529		68.359375
1530		60.546875
1531		68.359375
1532		58.593750
1533		66.406250
1534		58.593750
1535		66.406250
1536		60.546875
1537		64.453125
1538		58.593750
1539		60.546875
1540		54.687500
1541		62.500000
1542		52.734375
1543		60.546875
1544		50.781250
1545		58.593750
1546		48.828125
1547		58.593750
1548		46.875000
1549		54.687500
1550		44.921875
1551		52.734375
1552		42.968750
1553		52.734375
1554		42.968750
1555		46.875000
1556		39.062500
1557		44.921875
1558		35.156250
1559		44.921875
1560		33.203125
1561		42.968750
1562		31.250000
1563		41.015625
1564		29.296875
1565		37.109375
1566		27.343750
1567		35.156250
1568		25.390625
1569		33.203125
1570		23.437500
1571		27.343750
1572		21.484375
1573		25.390625
1574		15.625000
1575		23.437500
1576		11.718750
1577		21.484375
1578		9.765625
1579		17.578125
1580		5.859375
1581		15.625000
1582		3.906250
1583		13.671875
1584		0.000000
1585		9.765625
1586		0.000000
1587		5.859375
1588		-1.953125
1589		1.953125
1590		-7.812500
1591		-1.953125
1592		-11.718750
1593		-1.953125
1594		-13.671875
1595		-3.906250
1596		-15.625000
1597		-7.812500
1598		-19.531250
1599		-11.718750
1600		-21.484375
1601		-13.671875
1602		-23.437500
1603		-15.625000
1604		-25.390625
1605		-21.484375
1606		-27.343750
1607		-23.437500
1608		-31.250000
1609		-23.437500
1610		-33.203125
1611		-25.390625
1612		-37.109375
1613		-27.343750
1614		-39.062500
1615		-31.250000
1616		-41.015625
1617		-31.250000
1618		-41.015625
1619		-35.156250
1620		-41.015625
1621		-37.109375
1622		-42.968750
1623		-39.062500
1624		-46.875000
1625		-39.062500
1626		-48.828125
1627		-41.015625
1628		-48.828125
1629		-41.015625
1630		-50.781250
1631		-42.968750
1632		-52.734375
1633		-44.921875
1634		-52.734375
1635		-44.921875
1636		-52.734375
1637		-44.921875
1638		-50.781250
1639		-48.828125
1640		-52.734375
1641		-46.875000
1642		-52.734375
1643		-46.875000
1644		-52.734375
1645		-46.875000
1646		-52.734375
1647		-44.921875
1648		-52.734375
1649		-44.921875
1650		-52.734375
1651		-44.921875
1652		-50.781250
1653		-44.921875
1654		-48.828125
1655		-44.921875
1656		-46.875000
1657		-44.921875
1658		-48.828125
1659		-41.015625
1660		-46.875000
1661		-39.062500
1662		-46.875000
1663		-39.062500
1664		-44.921875
1665		-37.109375
1666		-42.968750
1667		-35.156250
1668		-41.015625
1669		-33.203125
1670		-39.062500
1671		-33.203125
1672		-35.156250
1673		-31.250000
1674		-33.203125
1675		-27.343750
1676		-33.203125
1677		-25.390625
1678		-31.250000
1679		-21.484375
1680		-29.296875
1681		-19.531250
1682		-25.390625
1683		-17.578125
1684		-23.437500
1685		-13.671875
1686		-19.531250
1687		-13.671875
1688		-15.625000
1689		-11.718750
1690		-13.671875
1691		-9.765625
1692		-11.718750
1693		-3.906250
1694		-9.765625
1695		-1.953125
1696		-7.812500
1697		1.953125
1698		-3.906250
1699		5.859375
1700		-1.953125
1701		7.812500
1702		1.953125
1703		11.718750
1704		5.859375
1705		11.718750
1706		9.765625
1707		13.671875
1708		11.718750
1709		19.531250
1710		13.671875
1711		21.484375
1712		15.625000
1713		25.390625
1714		17.578125
1715		27.343750
1716		21.484375
1717		31.250000
1718		25.390625
1719		33.203125
1720		27.343750
1721		35.156250
1722		31.250000
1723		35.156250
1724		35.156250
1725		39.062500
1726		35.156250
1727		42.968750
1728		37.109375
1729		44.921875
1730		39.062500
1731		46.875000
1732		41.015625
1733		50.781250
1734		42.968750
1735		52.734375
1736		44.921875
1737		52.734375
1738		50.781250
1739		52.734375
1740		52.734375
1741		54.687500
1742		52.734375
1743		58.593750
1744		54.687500
1745		60.546875
1746		54.687500
1747		60.546875
1748		56.640625
1749		62.500000
1750		58.593750
1751		62.500000
1752		58.593750
1753		64.453125
1754		60.546875
1755		66.406250
1756		62.500000
1757		64.453125
1758		62.500000
1759		68.359375
1760		62.500000
1761		68.359375
1762		62.500000
1763		70.312500
1764		62.500000
1765		70.312500
1766		62.500000
1767		70.312500
1768		62.500000
1769		70.312500
1770		64.453125
1771		70.312500
1772		66.406250
1773		68.359375
1774		66.406250
1775		68.359375
1776		62.500000
1777		70.312500
1778		62.500000
1779		70.312500
1780		62.500000
1781		68.359375
1782		60.546875
1783		68.359375
1784		60.546875
1785		66.406250
1786		58.593750
1787		66.406250
1788		60.546875
1789		64.453125
1790		58.593750
1791		62.500000
1792		54.687500
1793		62.500000
1794		54.687500
1795		62.500000
1796		52.734375
1797		60.546875
1798		50.781250
1799		58.593750
1800		48.828125
1801		56.640625
1802		46.875000
1803		54.687500
1804		46.875000
1805		52.734375
1806		44.921875
1807		48.828125
1808		41.015625
1809		46.875000
1810		39.062500
1811		46.875000
1812		35.156250
1813		44.921875
1814		33.203125
1815		41.015625
1816		31.250000
1817		39.062500
1818		27.343750
1819		37.109375
1820		25.390625
1821		33.203125
1822		25.390625
1823		29.296875
1824		23.437500
1825		27.343750
1826		17.578125
1827		25.390625
1828		13.671875
1829		23.437500
1830		11.718750
1831		21.484375
1832		7.812500
1833		17.578125
1834		5.859375
1835		13.671875
1836		1.953125
1837		11.718750
1838		1.953125
1839		7.812500
1840		0.000000
1841		3.906250
1842		-5.859375
1843		0.000000
1844		-7.812500
1845		0.000000
1846		-11.718750
1847		-3.906250
1848		-13.671875
1849		-5.859375
1850		-17.578125
1851		-7.812500
1852		-19.531250
1853		-11.718750
1854		-21.484375
1855		-13.671875
1856		-23.437500
1857		-19.531250
1858		-25.390625
1859		-21.484375
1860		-29.296875
1861		-21.484375
1862		-33.203125
1863		-23.437500
1864		-35.156250
1865		-27.343750
1866		-37.109375
1867		-29.296875
1868		-39.062500
1869		-31.250000
1870		-41.015625
1871		-33.203125
1872		-41.015625
1873		-35.156250
1874		-41.015625
1875		-39.062500
1876		-46.875000
1877		-39.062500
1878		-46.875000
1879		-39.062500
1880		-48.828125
1881		-41.015625
1882		-48.828125
1883		-42.968750
1884		-50.781250
1885		-42.968750
1886		-50.781250
1887		-44.921875
1888		-52.734375
1889		-44.921875
1890		-48.828125
1891		-46.875000
1892		-50.781250
1893		-48.828125
1894		-52.734375
1895		-44.921875
1896		-52.734375
1897		-44.921875
1898		-52.734375
1899		-44.921875
1900		-52.734375
1901		-46.875000
1902		-52.734375
1903		-44.921875
1904		-50.781250
1905		-44.921875
1906		-48.828125
1907		-46.875000
1908		-48.828125
1909		-44.921875
1910		-48.828125
1911		-42.968750
1912		-48.828125
1913		-41.015625
1914		-46.875000
1915		-39.062500
1916		-44.921875
1917		-37.109375
1918		-42.968750
1919		-37.109375
1920		-42.968750
1921		-35.156250
1922		-41.015625
1923		-33.203125
1924		-37.109375
1925		-33.203125
1926		-35.156250
1927		-29.296875
1928		-35.156250
1929		-27.343750
1930		-33.203125
1931		-23.437500
1932		-29.296875
1933		-21.484375
1934		-27.343750
1935		-19.531250
1936		-25.390625
1937		-15.625000
1938		-23.437500
1939		-15.625000
1940		-17.578125
1941		-13.671875
1942		-15.625000
1943		-9.765625
1944		-13.671875
1945		-5.859375
1946		-11.718750
1947		-1.953125
1948		-7.812500
1949		0.000000
1950		-5.859375
1951		1.953125
1952		-3.906250
1953		5.859375
1954		0.000000
1955		9.765625
1956		1.953125
1957		9.765625
1958		7.812500
1959		11.718750
1960		9.765625
1961		17.578125
1962		11.718750
1963		19.531250
1964		15.625000
1965		23.437500
1966		17.578125
1967		25.390625
1968		19.531250
1969		27.343750
1970		23.437500
1971		31.250000
1972		25.390625
1973		33.203125
1974		31.250000
1975		35.156250
1976		33.203125
1977		37.109375
1978		33.203125
1979		41.015625
1980		35.156250
1981		42.968750
1982		37.109375
1983		44.921875
1984		39.062500
1985		48.828125
1986		42.968750
1987		50.781250
1988		42.968750
1989		52.734375
1990		46.875000
1991		52.734375
1992		50.781250
1993		54.687500
1994		50.781250
1995		58.593750
1996		50.781250
1997		60.546875
1998		52.734375
1999		60.546875
2000		54.687500
2001		62.500000
2002		56.640625
2003		62.500000
2004		56.640625
2005		64.453125
2006		58.593750
2007		64.453125
2008		62.500000
2009		64.453125
2010		60.546875
2011		68.359375
2012		62.500000
2013		68.359375
2014		62.500000
2015		68.359375
2016		62.500000
2017		70.312500
2018		62.500000
2019		70.312500
2020		64.453125
2021		70.312500
2022		62.500000
2023		70.312500
2024		66.406250
2025		68.359375
2026		64.453125
2027		68.359375
2028		62.500000
2029		70.312500
2030		62.500000
2031		70.312500
2032		62.500000
2033		68.359375
2034		60.546875
2035		68.359375
2036		60.546875
2037		68.359375
2038		58.593750
2039		66.406250
2040		60.546875
2041		66.406250
2042		60.546875
2043		62.500000
2044		56.640625
2045		62.500000
2046		54.687500
2047		62.500000
2048		54.687500
2049		60.546875
2050		52.734375
2051		60.546875
2052		50.781250
2053		58.593750
2054		48.828125
2055		56.640625
2056		46.875000
2057		54.687500
2058		46.875000
2059		50.781250
2060		44.921875
2061		46.875000
2062		39.062500
2063		46.875000
2064		37.109375
2065		44.921875
2066		35.156250
2067		42.968750
2068		31.250000
2069		41.015625
2070		29.296875
2071		39.062500
2072		27.343750
2073		35.156250
2074		27.343750
2075		33.203125
2076		23.437500
2077		29.296875
2078		19.531250
2079		27.343750
2080		15.625000
2081		25.390625
2082		13.671875
2083		21.484375
2084		11.718750
2085		19.531250
2086		7.812500
2087		15.625000
2088		5.859375
2089		13.671875
2090		3.906250
2091		9.765625
2092		1.953125
2093		5.859375
2094		-3.906250
2095		1.953125
2096		-7.812500
2097		1.953125
2098		-9.765625
2099		-1.953125
2100		-13.671875
2101		-3.906250
2102		-15.625000
2103		-7.812500
2104		-17.578125
2105		-9.765625
2106		-19.531250
2107		-11.718750
2108		-21.484375
2109		-17.578125
2110		-23.437500
2111		-19.531250
2112		-29.296875
2113		-21.484375
2114		-31.250000
2115		-23.437500
2116		-33.203125
2117		-25.390625
2118		-37.109375
2119		-27.343750
2120		-37.109375
2121		-29.296875
2122		-41.015625
2123		-33.203125
2124		-39.062500
2125		-33.203125
2126		-41.015625
2127		-37.109375
2128		-44.921875
2129		-39.062500
2130		-46.875000
2131		-39.062500
2132		-46.875000
2133		-39.062500
2134		-48.828125
2135		-41.015625
2136		-50.781250
2137		-42.968750
2138		-50.781250
2139		-42.968750
2140		-50.781250
2141		-44.921875
2142		-50.781250
2143		-46.875000
2144		-50.781250
2145		-48.828125
2146		-52.734375
2147		-46.875000
2148		-52.734375
2149		-46.875000
2150		-52.734375
2151		-46.875000
2152		-52.734375
2153		-46.875000
2154		-52.734375
2155		-44.921875
2156		-52.734375
2157		-44.921875
2158		-50.781250
2159		-46.875000
2160		-48.828125
2161		-46.875000
2162		-50.781250
2163		-42.968750
2164		-50.781250
2165		-42.968750
2166		-48.828125
2167		-41.015625
2168		-46.875000
2169		-39.062500
2170		-44.921875
2171		-37.109375
2172		-42.968750
2173		-35.156250
2174		-42.968750
2175		-35.156250
2176		-37.109375
2177		-35.156250
2178		-37.109375
2179		-31.250000
2180		-35.156250
2181		-27.343750
2182		-35.156250
2183		-25.390625
2184		-31.250000
2185		-23.437500
2186		-29.296875
2187		-21.484375
2188		-27.343750
2189		-19.531250
2190		-25.390625
2191		-15.625000
2192		-19.531250
2193		-15.625000
2194		-17.578125
2195		-11.718750
2196		-15.625000
2197		-7.812500
2198		-13.671875
2199		-3.906250
2200		-9.765625
2201		-1.953125
2202		-7.812500
2203		0.000000
2204		-5.859375
2205		3.906250
2206		-1.953125
2207		5.859375
2208		0.000000
2209		7.812500
2210		5.859375
2211		9.765625
2212		7.812500
2213		15.625000
2214		7.812500
2215		17.578125
2216		11.718750
2217		19.531250
2218		15.625000
2219		23.437500
2220		17.578125
2221		25.390625
2222		19.531250
2223		29.296875
2224		23.437500
2225		31.250000
2226		27.343750
2227		31.250000
2228		31.250000
2229		35.156250
2230		31.250000
2231		39.062500
2232		33.203125
2233		41.015625
2234		35.156250
2235		44.921875
2236		37.109375
2237		46.875000
2238		41.015625
2239		48.828125
2240		42.968750
2241		50.781250
2242		46.875000
2243		50.781250
2244		48.828125
2245		52.734375
2246		50.781250
2247		56.640625
2248		50.781250
2249		58.593750
2250		50.781250
2251		58.593750
2252		52.734375
2253		60.546875
2254		54.687500
2255		62.500000
2256		56.640625
2257		64.453125
2258		58.593750
2259		64.453125
2260		60.546875
2261		64.453125
2262		60.546875
2263		68.359375
2264		60.546875
2265		68.359375
2266		60.546875
2267		68.359375
2268		62.500000
2269		70.312500
2270		62.500000
2271		70.312500
2272		62.500000
2273		70.312500
2274		62.500000
2275		70.312500
2276		66.406250
2277		68.359375
2278		66.406250
2279		68.359375
2280		62.500000
2281		70.312500
2282		62.500000
2283		70.312500
2284		62.500000
2285		68.359375
2286		60.546875
2287		70.312500
2288		60.546875
2289		68.359375
2290		60.546875
2291		68.359375
2292		60.546875
2293		66.406250
2294		60.546875
2295		62.500000
2296		56.640625
2297		64.453125
2298		56.640625
2299		62.500000
2300		54.687500
2301		62.500000
2302		52.734375
2303		60.546875
2304		50.781250
2305		58.593750
2306		48.828125
2307		58.593750
2308		48.828125
2309		54.687500
2310		48.828125
2311		50.781250
2312		44.921875
2313		48.828125
2314		41.015625
2315		48.828125
2316		39.062500
2317		46.875000
2318		37.109375
2319		44.921875
2320		35.156250
2321		42.968750
2322		31.250000
2323		41.015625
2324		29.296875
2325		37.109375
2326		29.296875
2327		35.156250
2328		25.390625
2329		31.250000
2330		21.484375
2331		27.343750
2332		17.578125
2333		27.343750
2334		15.625000
2335		23.437500
2336		11.718750
2337		21.484375
2338		9.765625
2339		17.578125
2340		7.812500
2341		15.625000
2342		5.859375
2343		11.718750
2344		1.953125
2345		7.812500
2346		0.000000
2347		3.906250
2348		-3.906250
2349		3.906250
2350		-7.812500
2351		0.000000
2352		-11.718750
2353		-1.953125
2354		-13.671875
2355		-5.859375
2356		-15.625000
2357		-7.812500
2358		-19.531250
2359		-11.718750
2360		-19.531250
2361		-15.625000
2362		-21.484375
2363		-17.578125
2364		-27.343750
2365		-19.531250
2366		-31.250000
2367		-21.484375
2368		-33.203125
2369		-23.437500
2370		-35.156250
2371		-25.390625
2372		-37.109375
2373		-27.343750
2374		-39.062500
2375		-29.296875
2376		-39.062500
2377		-33.203125
2378		-39.062500
2379		-37.109375
2380		-42.968750
2381		-37.109375
2382		-44.921875
2383		-37.109375
2384		-46.875000
2385		-39.062500
2386		-48.828125
2387		-41.015625
2388		-48.828125
2389		-42.968750
2390		-50.781250
2391		-42.968750
2392		-50.781250
2393		-44.921875
2394		-48.828125
2395		-46.875000
2396		-50.781250
2397		-48.828125
2398		-52.734375
2399		-46.875000
2400		-52.734375
2401		-46.875000
2402		-52.734375
2403		-46.875000
2404		-52.734375
2405		-46.875000
2406		-52.734375
2407		-46.875000
2408		-52.734375
2409		-44.921875
2410		-52.734375
2411		-44.921875
2412		-48.828125
2413		-46.875000
2414		-50.781250
2415		-44.921875
2416		-50.781250
2417		-42.968750
2418		-48.828125
2419		-41.015625
2420		-46.875000
2421		-41.015625
2422		-44.921875
2423		-39.062500
2424		-44.921875
2425		-37.109375
2426		-42.968750
2427		-37.109375
2428		-39.062500
2429		-35.156250
2430		-37.109375
2431		-33.203125
2432		-37.109375
2433		-29.296875
2434		-35.156250
2435		-27.343750
2436		-33.203125
2437		-25.390625
2438		-31.250000
2439		-23.437500
2440		-29.296875
2441		-19.531250
2442		-25.390625
2443		-17.578125
2444		-21.484375
2445		-17.578125
2446		-19.531250
2447		-15.625000
2448		-17.578125
2449		-9.765625
2450		-15.625000
2451		-7.812500
2452		-11.718750
2453		-3.906250
2454		-9.765625
2455		-1.953125
2456		-7.812500
2457		1.953125
2458		-3.906250
2459		3.906250
2460		-1.953125
2461		5.859375
2462		3.906250
2463		7.812500
2464		5.859375
2465		11.718750
2466		7.812500
2467		15.625000
2468		9.765625
2469		19.531250
2470		11.718750
2471		21.484375
2472		15.625000
2473		23.437500
2474		19.531250
2475		27.343750
2476		21.484375
2477		29.296875
2478		27.343750
2479		31.250000
2480		29.296875
2481		33.203125
2482		29.296875
2483		37.109375
2484		31.250000
2485		41.015625
2486		33.203125
2487		42.968750
2488		37.109375
2489		44.921875
2490		39.062500
2491		46.875000
2492		41.015625
2493		48.828125
2494		42.968750
2495		50.781250
2496		46.875000
2497		50.781250
2498		48.828125
2499		54.687500
2500		48.828125
2501		56.640625
2502		50.781250
2503		58.593750
2504		52.734375
2505		60.546875
2506		54.687500
2507		62.500000
2508		54.687500
2509		62.500000
2510		56.640625
2511		64.453125
2512		60.546875
2513		62.500000
2514		60.546875
2515		64.453125
2516		60.546875
2517		66.406250
2518		60.546875
2519		68.359375
2520		60.546875
2521		68.359375
2522		62.500000
2523		68.359375
2524		62.500000
2525		70.312500
2526		62.500000
2527		70.312500
2528		64.453125
2529		68.359375
2530		66.406250
2531		68.359375
2532		62.500000
2533		70.312500
2534		62.500000
2535		70.312500
2536		62.500000
2537		70.312500
2538		62.500000
2539		68.359375
2540		62.500000
2541		68.359375
2542		60.546875
2543		68.359375
2544		60.546875
2545		68.359375
2546		62.500000
2547		64.453125
2548		58.593750
2549		64.453125
2550		56.640625
2551		64.453125
2552		54.687500
2553		62.500000
2554		54.687500
2555		62.500000
2556		52.734375
2557		60.546875
2558		50.781250
2559		58.593750
2560		48.828125
2561		56.640625
2562		48.828125
2563		52.734375
2564		46.875000
2565		50.781250
2566		42.968750
2567		50.781250
2568		41.015625
2569		48.828125
2570		39.062500
2571		46.875000
2572		37.109375
2573		44.921875
2574		33.203125
2575		42.968750
2576		31.250000
2577		39.062500
2578		29.296875
2579		37.109375
2580		27.343750
2581		33.203125
2582		23.437500
2583		29.296875
2584		19.531250
2585		29.296875
2586		17.578125
2587		25.390625
2588		15.625000
2589		23.437500
2590		11.718750
2591		19.531250
2592		7.812500
2593		17.578125
2594		7.812500
2595		15.625000
2596		5.859375
2597		9.765625
2598		1.953125
2599		5.859375
2600		-3.906250
2601		5.859375
2602		-5.859375
2603		3.906250
2604		-7.812500
2605		0.000000
2606		-11.718750
2607		-1.953125
2608		-13.671875
2609		-5.859375
2610		-17.578125
2611		-7.812500
2612		-17.578125
2613		-11.718750
2614		-19.531250
2615		-15.625000
2616		-25.390625
2617		-17.578125
2618		-27.343750
2619		-19.531250
2620		-29.296875
2621		-21.484375
2622		-33.203125
2623		-25.390625
2624		-35.156250
2625		-27.343750
2626		-37.109375
2627		-29.296875
2628		-37.109375
2629		-31.250000
2630		-39.062500
2631		-35.156250
2632		-42.968750
2633		-37.109375
2634		-44.921875
2635		-37.109375
2636		-46.875000
2637		-37.109375
2638		-46.875000
2639		-39.062500
2640		-48.828125
2641		-41.015625
2642		-50.781250
2643		-42.968750
2644		-50.781250
2645		-42.968750
2646		-48.828125
2647		-46.875000
2648		-50.781250
2649		-46.875000
2650		-52.734375
2651		-44.921875
2652		-52.734375
2653		-46.875000
2654		-52.734375
2655		-46.875000
2656		-52.734375
2657		-46.875000
2658		-52.734375
2659		-46.875000
2660		-52.734375
2661		-44.921875
2662		-52.734375
2663		-46.875000
2664		-48.828125
2665		-46.875000
2666		-50.781250
2667		-44.921875
2668		-50.781250
2669		-42.968750
2670		-48.828125
2671		-42.968750
2672		-48.828125
2673		-41.015625
2674		-46.875000
2675		-39.062500
2676		-44.921875
2677		-39.062500
2678		-44.921875
2679		-37.109375
2680		-41.015625
2681		-37.109375
2682		-39.062500
2683		-35.156250
2684		-39.062500
2685		-31.250000
2686		-37.109375
2687		-29.296875
2688		-35.156250
2689		-25.390625
2690		-33.203125
2691		-23.437500
2692		-31.250000
2693		-23.437500
2694		-27.343750
2695		-19.531250
2696		-25.390625
2697		-19.531250
2698		-21.484375
2699		-15.625000
2700		-19.531250
2701		-11.718750
2702		-17.578125
2703		-7.812500
2704		-13.671875
2705		-5.859375
2706		-11.718750
2707		-3.906250
2708		-9.765625
2709		-1.953125
2710		-5.859375
2711		1.953125
2712		-3.906250
2713		3.906250
2714		1.953125
2715		5.859375
2716		3.906250
2717		11.718750
2718		5.859375
2719		13.671875
2720		7.812500
2721		15.625000
2722		9.765625
2723		19.531250
2724		13.671875
2725		21.484375
2726		15.625000
2727		25.390625
2728		17.578125
2729		27.343750
2730		25.390625
2731		29.296875
2732		27.343750
2733		31.250000
2734		27.343750
2735		35.156250
2736		29.296875
2737		39.062500
2738		33.203125
2739		41.015625
2740		35.156250
2741		42.968750
2742		37.109375
2743		46.875000
2744		39.062500
2745		46.875000
2746		41.015625
2747		48.828125
2748		44.921875
2749		50.781250
2750		46.875000
2751		52.734375
2752		46.875000
2753		56.640625
2754		48.828125
2755		58.593750
2756		50.781250
2757		58.593750
2758		52.734375
2759		60.546875
2760		54.687500
2761		62.500000
2762		54.687500
2763		62.500000
2764		58.593750
2765		62.500000
2766		60.546875
2767		62.500000
2768		58.593750
2769		66.406250
2770		60.546875
2771		68.359375
2772		60.546875
2773		68.359375
2774		60.546875
2775		68.359375
2776		62.500000
2777		68.359375
2778		62.500000
2779		70.312500
2780		64.453125
2781		68.359375
2782		64.453125
2783		68.359375
2784		62.500000
2785		70.312500
2786		62.500000
2787		70.312500
2788		62.500000
2789		70.312500
2790		62.500000
2791		70.312500
2792		62.500000
2793		68.359375
2794		60.546875
2795		68.359375
2796		60.546875
2797		68.359375
2798		62.500000
2799		64.453125
2800		58.593750
2801		64.453125
2802		56.640625
2803		64.453125
2804		56.640625
2805		64.453125
2806		54.687500
2807		62.500000
2808		52.734375
2809		60.546875
2810		50.781250
2811		60.546875
2812		48.828125
2813		56.640625
2814		50.781250
2815		52.734375
2816		48.828125
2817		52.734375
2818		44.921875
2819		50.781250
2820		41.015625
2821		48.828125
2822		39.062500
2823		46.875000
2824		37.109375
2825		44.921875
2826		35.156250
2827		42.968750
2828		31.250000
2829		41.015625
2830		31.250000
2831		39.062500
2832		29.296875
2833		33.203125
2834		25.390625
2835		31.250000
2836		21.484375
2837		31.250000
2838		17.578125
2839		27.343750
2840		15.625000
2841		25.390625
2842		13.671875
2843		21.484375
2844		9.765625
2845		19.531250
2846		7.812500
2847		15.625000
2848		5.859375
2849		11.718750
2850		3.906250
2851		7.812500
2852		-1.953125
2853		5.859375
2854		-3.906250
2855		3.906250
2856		-7.812500
2857		1.953125
2858		-9.765625
2859		-1.953125
2860		-13.671875
2861		-3.906250
2862		-15.625000
2863		-7.812500
2864		-15.625000
2865		-9.765625
2866		-19.531250
2867		-15.625000
2868		-23.437500
2869		-17.578125
2870		-25.390625
2871		-17.578125
2872		-29.296875
2873		-21.484375
2874		-31.250000
2875		-23.437500
2876		-33.203125
2877		-25.390625
2878		-35.156250
2879		-27.343750
2880		-37.109375
2881		-29.296875
2882		-37.109375
2883		-33.203125
2884		-41.015625
2885		-37.109375
2886		-42.968750
2887		-35.156250
2888		-46.875000
2889		-37.109375
2890		-46.875000
2891		-39.062500
2892		-48.828125
2893		-41.015625
2894		-48.828125
2895		-41.015625
2896		-50.781250
2897		-42.968750
2898		-48.828125
2899		-46.875000
2900		-50.781250
2901		-46.875000
2902		-52.734375
2903		-46.875000
2904		-52.734375
2905		-46.875000
2906		-52.734375
2907		-46.875000
2908		-54.687500
2909		-46.875000
2910		-54.687500
2911		-46.875000
2912		-54.687500
2913		-44.921875
2914		-52.734375
2915		-46.875000
2916		-50.781250
2917		-48.828125
2918		-52.734375
2919		-44.921875
2920		-52.734375
2921		-44.921875
2922		-50.781250
2923		-42.968750
2924		-48.828125
2925		-42.968750
2926		-48.828125
2927		-41.015625
2928		-46.875000
2929		-39.062500
2930		-46.875000
2931		-39.062500
2932		-42.968750
2933		-39.062500
2934		-41.015625
2935		-37.109375
2936		-41.015625
2937		-33.203125
2938		-39.062500
2939		-31.250000
2940		-37.109375
2941		-29.296875
2942		-35.156250
2943		-27.343750
2944		-33.203125
2945		-23.437500
2946		-29.296875
2947		-21.484375
2948		-27.343750
2949		-21.484375
2950		-23.437500
2951		-19.531250
2952		-21.484375
2953		-13.671875
2954		-19.531250
2955		-11.718750
2956		-17.578125
2957		-7.812500
2958		-13.671875
2959		-5.859375
2960		-11.718750
2961		-1.953125
2962		-7.812500
2963		0.000000
2964		-5.859375
2965		1.953125
2966		-1.953125
2967		3.906250
2968		1.953125
2969		7.812500
2970		1.953125
2971		11.718750
2972		5.859375
2973		13.671875
2974		7.812500
2975		17.578125
2976		11.718750
2977		19.531250
2978		13.671875
2979		21.484375
2980		17.578125
2981		25.390625
2982		21.484375
2983		25.390625
2984		25.390625
2985		29.296875
2986		25.390625
2987		33.203125
2988		27.343750
2989		37.109375
2990		31.250000
2991		39.062500
2992		33.203125
2993		41.015625
2994		35.156250
2995		42.968750
2996		37.109375
2997		46.875000
2998		39.062500
2999		46.875000
3000		44.921875
3001		48.828125
3002		46.875000
3003		52.734375
3004		46.875000
3005		54.687500
3006		48.828125
3007		56.640625
3008		50.781250
3009		56.640625
3010		52.734375
3011		60.546875
3012		52.734375
3013		60.546875
3014		54.687500
3015		62.500000
3016		58.593750
3017		60.546875
3018		60.546875
3019		62.500000
3020		58.593750
3021		66.406250
3022		58.593750
3023		66.406250
3024		60.546875
3025		68.359375
3026		60.546875
3027		68.359375
3028		62.500000
3029		68.359375
3030		62.500000
3031		68.359375
3032		62.500000
3033		68.359375
3034		66.406250
3035		68.359375
3036		62.500000
3037		70.312500
3038		62.500000
3039		70.312500
3040		62.500000
3041		70.312500
3042		62.500000
3043		70.312500
3044		62.500000
3045		70.312500
3046		62.500000
3047		68.359375
3048		60.546875
3049		68.359375
3050		62.500000
3051		64.453125
3052		60.546875
3053		64.453125
3054		58.593750
3055		66.406250
3056		56.640625
3057		64.453125
3058		56.640625
3059		64.453125
3060		54.687500
3061		62.500000
3062		52.734375
3063		60.546875
3064		50.781250
3065		58.593750
3066		52.734375
3067		54.687500
3068		50.781250
3069		52.734375
3070		44.921875
3071		52.734375
3072		42.968750
3073		50.781250
3074		41.015625
3075		48.828125
3076		39.062500
3077		46.875000
3078		37.109375
3079		44.921875
3080		33.203125
3081		42.968750
3082		33.203125
3083		39.062500
3084		31.250000
3085		35.156250
3086		27.343750
3087		33.203125
3088		23.437500
3089		31.250000
3090		21.484375
3091		29.296875
3092		17.578125
3093		27.343750
3094		15.625000
3095		23.437500
3096		11.718750
3097		21.484375
3098		9.765625
3099		17.578125
3100		7.812500
3101		13.671875
3102		5.859375
3103		9.765625
3104		0.000000
3105		7.812500
3106		-1.953125
3107		7.812500
3108		-5.859375
3109		3.906250
3110		-7.812500
3111		0.000000
3112		-9.765625
3113		-1.953125
3114		-13.671875
3115		-3.906250
3116		-15.625000
3117		-7.812500
3118		-17.578125
3119		-13.671875
3120		-21.484375
3121		-15.625000
3122		-25.390625
3123		-15.625000
3124		-27.343750
3125		-19.531250
3126		-29.296875
3127		-21.484375
3128		-33.203125
3129		-23.437500
3130		-35.156250
3131		-25.390625
3132		-35.156250
3133		-27.343750
3134		-37.109375
3135		-33.203125
3136		-39.062500
3137		-35.156250
3138		-42.968750
3139		-35.156250
3140		-42.968750
3141		-35.156250
3142		-44.921875
3143		-37.109375
3144		-46.875000
3145		-39.062500
3146		-48.828125
3147		-41.015625
3148		-48.828125
3149		-42.968750
3150		-48.828125
3151		-44.921875
3152		-48.828125
3153		-46.875000
3154		-52.734375
3155		-44.921875
3156		-52.734375
3157		-44.921875
3158		-52.734375
3159		-46.875000
3160		-54.687500
3161		-46.875000
3162		-54.687500
3163		-46.875000
3164		-54.687500
3165		-46.875000
3166		-52.734375
3167		-46.875000
3168		-50.781250
3169		-48.828125
3170		-52.734375
3171		-46.875000
3172		-52.734375
3173		-44.921875
3174		-50.781250
3175		-42.968750
3176		-50.781250
3177		-42.968750
3178		-50.781250
3179		-41.015625
3180		-48.828125
3181		-41.015625
3182		-46.875000
3183		-39.062500
3184		-42.968750
3185		-39.062500
3186		-41.015625
3187		-39.062500
3188		-41.015625
3189		-35.156250
3190		-41.015625
3191		-33.203125
3192		-39.062500
3193		-29.296875
3194		-37.109375
3195		-27.343750
3196		-35.156250
3197		-25.390625
3198		-31.250000
3199		-23.437500
3200		-29.296875
3201		-23.437500
3202		-25.390625
3203		-21.484375
3204		-23.437500
3205		-15.625000
3206		-21.484375
3207		-13.671875
3208		-19.531250
3209		-9.765625
3210		-15.625000
3211		-7.812500
3212		-13.671875
3213		-3.906250
3214		-9.765625
3215		-1.953125
3216		-7.812500
3217		0.000000
3218		-1.953125
3219		1.953125
3220		0.000000
3221		5.859375
3222		1.953125
3223		9.765625
3224		3.906250
3225		11.718750
3226		5.859375
3227		15.625000
3228		9.765625
3229		17.578125
3230		11.718750
3231		21.484375
3232		15.625000
3233		23.437500
3234		19.531250
3235		25.390625
3236		23.437500
3237		27.343750
3238		25.390625
3239		33.203125
3240		25.390625
3241		35.156250
3242		27.343750
3243		37.109375
3244		29.296875
3245		39.062500
3246		33.203125
3247		41.015625
3248		35.156250
3249		44.921875
3250		39.062500
3251		44.921875
3252		42.968750
3253		46.875000
3254		44.921875
3255		50.781250
3256		44.921875
3257		52.734375
3258		46.875000
3259		54.687500
3260		48.828125
3261		56.640625
3262		50.781250
3263		58.593750
3264		52.734375
3265		60.546875
3266		52.734375
3267		60.546875
3268		56.640625
3269		60.546875
3270		58.593750
3271		60.546875
3272		58.593750
3273		64.453125
3274		58.593750
3275		66.406250
3276		58.593750
3277		66.406250
3278		60.546875
3279		68.359375
3280		60.546875
3281		68.359375
3282		62.500000
3283		68.359375
3284		62.500000
3285		68.359375
3286		64.453125
3287		68.359375
3288		62.500000
3289		70.312500
3290		62.500000
3291		70.312500
3292		62.500000
3293		70.312500
3294		62.500000
3295		70.312500
3296		62.500000
3297		70.312500
3298		60.546875
3299		68.359375
3300		60.546875
3301		68.359375
3302		62.500000
3303		64.453125
3304		62.500000
3305		64.453125
3306		58.593750
3307		66.406250
3308		58.593750
3309		64.453125
3310		56.640625
3311		64.453125
3312		54.687500
3313		62.500000
3314		52.734375
3315		60.546875
3316		52.734375
3317		58.593750
3318		52.734375
3319		56.640625
3320		48.828125
3321		54.687500
3322		46.875000
3323		52.734375
3324		44.921875
3325		52.734375
3326		42.968750
3327		50.781250
3328		41.015625
3329		48.828125
3330		37.109375
3331		44.921875
3332		35.156250
3333		42.968750
3334		35.156250
3335		41.015625
3336		33.203125
3337		37.109375
3338		29.296875
3339		35.156250
3340		25.390625
3341		33.203125
3342		23.437500
3343		31.250000
3344		19.531250
3345		27.343750
3346		17.578125
3347		25.390625
3348		13.671875
3349		23.437500
3350		11.718750
3351		19.531250
3352		9.765625
3353		15.625000
3354		7.812500
3355		11.718750
3356		1.953125
3357		9.765625
3358		0.000000
3359		7.812500
3360		-3.906250
3361		5.859375
3362		-7.812500
3363		1.953125
3364		-9.765625
3365		0.000000
3366		-11.718750
3367		-1.953125
3368		-13.671875
3369		-5.859375
3370		-15.625000
3371		-11.718750
3372		-19.531250
3373		-13.671875
3374		-23.437500
3375		-15.625000
3376		-25.390625
3377		-15.625000
3378		-27.343750
3379		-19.531250
3380		-31.250000
3381		-23.437500
3382		-33.203125
3383		-25.390625
3384		-33.203125
3385		-27.343750
3386		-35.156250
3387		-31.250000
3388		-37.109375
3389		-33.203125
3390		-41.015625
3391		-33.203125
3392		-42.968750
3393		-35.156250
3394		-44.921875
3395		-37.109375
3396		-44.921875
3397		-39.062500
3398		-46.875000
3399		-41.015625
3400		-48.828125
3401		-41.015625
3402		-48.828125
3403		-42.968750
3404		-48.828125
3405		-46.875000
3406		-52.734375
3407		-44.921875
3408		-52.734375
3409		-44.921875
3410		-52.734375
3411		-46.875000
3412		-52.734375
3413		-46.875000
3414		-52.734375
3415		-46.875000
3416		-54.687500
3417		-46.875000
3418		-52.734375
3419		-46.875000
3420		-50.781250
3421		-48.828125
3422		-50.781250
3423		-46.875000
3424		-50.781250
3425		-46.875000
3426		-50.781250
3427		-46.875000
3428		-50.781250
3429		-44.921875
3430		-48.828125
3431		-44.921875
3432		-48.828125
3433		-42.968750
3434		-46.875000
3435		-41.015625
3436		-44.921875
3437		-41.015625
3438		-42.968750
3439		-39.062500
3440		-42.968750
3441		-35.156250
3442		-41.015625
3443		-33.203125
3444		-41.015625
3445		-31.250000
3446		-35.156250
3447		-31.250000
3448		-35.156250
3449		-29.296875
3450		-33.203125
3451		-25.390625
3452		-29.296875
3453		-25.390625
3454		-25.390625
3455		-21.484375
3456		-23.437500
3457		-17.578125
3458		-23.437500
3459		-15.625000
3460		-21.484375
3461		-13.671875
3462		-17.578125
3463		-11.718750
3464		-13.671875
3465		-7.812500
3466		-9.765625
3467		-3.906250
3468		-9.765625
3469		-1.953125
3470		-5.859375
3471		0.000000
3472		-1.953125
3473		1.953125
3474		0.000000
3475		5.859375
3476		1.953125
3477		9.765625
3478		7.812500
3479		11.718750
3480		9.765625
3481		13.671875
3482		11.718750
3483		17.578125
3484		13.671875
3485		19.531250
3486		17.578125
3487		23.437500
3488		21.484375
3489		25.390625
3490		23.437500
3491		29.296875
3492		25.390625
3493		33.203125
3494		27.343750
3495		33.203125
3496		31.250000
3497		35.156250
3498		33.203125
3499		39.062500
3500		35.156250
3501		41.015625
3502		39.062500
3503		42.968750
3504		41.015625
3505		44.921875
3506		42.968750
3507		48.828125
3508		44.921875
3509		48.828125
3510		46.875000
3511		50.781250
3512		48.828125
3513		52.734375
3514		50.781250
3515		54.687500
3516		52.734375
3517		56.640625
3518		54.687500
3519		58.593750
3520		56.640625
3521		60.546875
3522		58.593750
3523		60.546875
3524		58.593750
3525		62.500000
3526		60.546875
3527		64.453125
3528		60.546875
3529		64.453125
3530		62.500000
3531		64.453125
3532		62.500000
3533		66.406250
3534		62.500000
3535		66.406250
3536		64.453125
3537		68.359375
3538		64.453125
3539		66.406250
3540		64.453125
3541		68.359375
3542		64.453125
3543		68.359375
3544		64.453125
3545		68.359375
3546		64.453125
3547		68.359375
3548		64.453125
3549		68.359375
3550		64.453125
3551		68.359375
3552		64.453125
3553		68.359375
3554		62.500000
3555		66.406250
3556		62.500000
3557		66.406250
3558		60.546875
3559		66.406250
3560		60.546875
3561		64.453125
3562		60.546875
3563		62.500000
3564		58.593750
3565		60.546875
3566		56.640625
3567		60.546875
3568		54.687500
3569		58.593750
3570		54.687500
3571		58.593750
3572		52.734375
3573		56.640625
3574		50.781250
3575		54.687500
3576		48.828125
3577		52.734375
3578		46.875000
3579		50.781250
3580		44.921875
3581		48.828125
3582		41.015625
3583		44.921875
3584		39.062500
3585		44.921875
3586		37.109375
3587		41.015625
3588		35.156250
3589		39.062500
3590		33.203125
3591		37.109375
3592		29.296875
3593		35.156250
3594		27.343750
3595		31.250000
3596		23.437500
3597		29.296875
3598		21.484375
3599		25.390625
3600		17.578125
3601		23.437500
3602		13.671875
3603		21.484375
3604		13.671875
3605		17.578125
3606		9.765625
3607		13.671875
3608		5.859375
3609		11.718750
3610		3.906250
3611		9.765625
3612		0.000000
3613		5.859375
3614		-1.953125
3615		1.953125
3616		-5.859375
3617		0.000000
3618		-7.812500
3619		-3.906250
3620		-9.765625
3621		-5.859375
3622		-13.671875
3623		-7.812500
3624		-15.625000
3625		-11.718750
3626		-19.531250
3627		-13.671875
3628		-21.484375
3629		-17.578125
3630		-23.437500
3631		-19.531250
3632		-27.343750
3633		-21.484375
3634		-29.296875
3635		-25.390625
3636		-31.250000
3637		-27.343750
3638		-33.203125
3639		-29.296875
3640		-35.156250
3641		-31.250000
3642		-37.109375
3643		-33.203125
3644		-41.015625
3645		-35.156250
3646		-41.015625
3647		-37.109375
3648		-42.968750
3649		-39.062500
3650		-44.921875
3651		-41.015625
3652		-46.875000
3653		-42.968750
3654		-46.875000
3655		-42.968750
3656		-46.875000
3657		-44.921875
3658		-48.828125
3659		-46.875000
3660		-50.781250
3661		-46.875000
3662		-50.781250
3663		-46.875000
3664		-50.781250
3665		-48.828125
3666		-50.781250
3667		-48.828125
3668		-50.781250
3669		-48.828125
3670		-52.734375
3671		-48.828125
3672		-50.781250
3673		-48.828125
3674		-50.781250
3675		-48.828125
3676		-50.781250
3677		-46.875000
3678		-50.781250
3679		-46.875000
3680		-48.828125
3681		-46.875000
3682		-48.828125
3683		-44.921875
3684		-46.875000
3685		-42.968750
3686		-46.875000
3687		-42.968750
3688		-44.921875
3689		-42.968750
3690		-42.968750
3691		-41.015625
3692		-42.968750
3693		-39.062500
3694		-41.015625
3695		-37.109375
3696		-39.062500
3697		-35.156250
3698		-37.109375
3699		-33.203125
3700		-35.156250
3701		-31.250000
3702		-33.203125
3703		-29.296875
3704		-31.250000
3705		-25.390625
3706		-27.343750
3707		-23.437500
3708		-25.390625
3709		-21.484375
3710		-23.437500
3711		-19.531250
3712		-21.484375
3713		-15.625000
3714		-17.578125
3715		-13.671875
3716		-15.625000
3717		-9.765625
3718		-11.718750
3719		-7.812500
3720		-9.765625
3721		-3.906250
3722		-7.812500
3723		-1.953125
3724		-3.906250
3725		0.000000
3726		-1.953125
3727		3.906250
3728		1.953125
3729		5.859375
3730		3.906250
3731		9.765625
3732		7.812500
3733		13.671875
3734		9.765625
3735		15.625000
3736		13.671875
3737		19.531250
3738		15.625000
3739		21.484375
3740		19.531250
3741		23.437500
3742		21.484375
3743		27.343750
3744		23.437500
3745		29.296875
3746		27.343750
3747		31.250000
3748		29.296875
3749		35.156250
3750		31.250000
3751		37.109375
3752		35.156250
3753		39.062500
3754		37.109375
3755		41.015625
3756		39.062500
3757		42.968750
3758		42.968750
3759		44.921875
3760		42.968750
3761		48.828125
3762		44.921875
3763		50.781250
3764		48.828125
3765		52.734375
3766		48.828125
3767		54.687500
3768		52.734375
3769		56.640625
3770		52.734375
3771		58.593750
3772		54.687500
3773		58.593750
3774		56.640625
3775		60.546875
3776		58.593750
3777		62.500000
3778		58.593750
3779		62.500000
3780		60.546875
3781		64.453125
3782		62.500000
3783		64.453125
3784		62.500000
3785		66.406250
3786		62.500000
3787		66.406250
3788		62.500000
3789		66.406250
3790		64.453125
3791		66.406250
3792		64.453125
3793		68.359375
3794		64.453125
3795		68.359375
3796		64.453125
3797		68.359375
3798		64.453125
3799		68.359375
3800		64.453125
3801		68.359375
3802		64.453125
3803		68.359375
3804		62.500000
3805		68.359375
3806		64.453125
3807		66.406250
3808		64.453125
3809		66.406250
3810		62.500000
3811		66.406250
3812		62.500000
3813		64.453125
3814		60.546875
3815		64.453125
3816		60.546875
3817		62.500000
3818		58.593750
3819		62.500000
3820		56.640625
3821		60.546875
3822		56.640625
3823		60.546875
3824		54.687500
3825		56.640625
3826		50.781250
3827		56.640625
3828		50.781250
3829		54.687500
3830		48.828125
3831		52.734375
3832		46.875000
3833		50.781250
3834		42.968750
3835		48.828125
3836		41.015625
3837		46.875000
3838		39.062500
3839		44.921875
3840		37.109375
3841		41.015625
3842		35.156250
3843		39.062500
3844		31.250000
3845		37.109375
3846		29.296875
3847		33.203125
3848		27.343750
3849		31.250000
3850		23.437500
3851		29.296875
3852		21.484375
3853		25.390625
3854		17.578125
3855		23.437500
3856		15.625000
3857		21.484375
3858		11.718750
3859		17.578125
3860		9.765625
3861		15.625000
3862		7.812500
3863		11.718750
3864		3.906250
3865		7.812500
3866		0.000000
3867		5.859375
3868		-1.953125
3869		3.906250
3870		-3.906250
3871		0.000000
3872		-7.812500
3873		-1.953125
3874		-11.718750
3875		-5.859375
3876		-13.671875
3877		-9.765625
3878		-17.578125
3879		-11.718750
3880		-19.531250
3881		-13.671875
3882		-21.484375
3883		-15.625000
3884		-23.437500
3885		-19.531250
3886		-27.343750
3887		-21.484375
3888		-29.296875
3889		-25.390625
3890		-31.250000
3891		-27.343750
3892		-33.203125
3893		-29.296875
3894		-35.156250
3895		-31.250000
3896		-37.109375
3897		-33.203125
3898		-39.062500
3899		-35.156250
3900		-41.015625
3901		-37.109375
3902		-42.968750
3903		-39.062500
3904		-44.921875
3905		-39.062500
3906		-44.921875
3907		-41.015625
3908		-46.875000
3909		-42.968750
3910		-48.828125
3911		-44.921875
3912		-48.828125
3913		-44.921875
3914		-48.828125
3915		-46.875000
3916		-48.828125
3917		-46.875000
3918		-50.781250
3919		-46.875000
3920		-50.781250
3921		-46.875000
3922		-52.734375
3923		-46.875000
3924		-50.781250
3925		-48.828125
3926		-50.781250
3927		-46.875000
3928		-50.781250
3929		-46.875000
3930		-50.781250
3931		-46.875000
3932		-50.781250
3933		-44.921875
3934		-50.781250
3935		-44.921875
3936		-48.828125
3937		-44.921875
3938		-46.875000
3939		-42.968750
3940		-46.875000
3941		-42.968750
3942		-44.921875
3943		-41.015625
3944		-42.968750
3945		-39.062500
3946		-41.015625
3947		-37.109375
3948		-39.062500
3949		-35.156250
3950		-37.109375
3951		-33.203125
3952		-35.156250
3953		-31.250000
3954		-33.203125
3955		-29.296875
3956		-31.250000
3957		-27.343750
3958		-29.296875
3959		-25.390625
3960		-27.343750
3961		-21.484375
3962		-25.390625
3963		-19.531250
3964		-21.484375
3965		-17.578125
3966		-19.531250
3967		-15.625000
3968		-15.625000
3969		-11.718750
3970		-13.671875
3971		-9.765625
3972		-11.718750
3973		-5.859375
3974		-7.812500
3975		-3.906250
3976		-5.859375
3977		-1.953125
3978		-1.953125
3979		1.953125
3980		0.000000
3981		5.859375
3982		1.953125
3983		7.812500
3984		5.859375
3985		9.765625
3986		7.812500
3987		13.671875
3988		11.718750
3989		15.625000
3990		13.671875
3991		19.531250
3992		17.578125
3993		21.484375
3994		19.531250
3995		25.390625
3996		23.437500
3997		27.343750
3998		25.390625
3999		31.250000
4000		29.296875
4001		33.203125
4002		31.250000
4003		37.109375
4004		33.203125
4005		37.109375
4006		35.156250
4007		41.015625
4008		39.062500
4009		42.968750
4010		41.015625
4011		44.921875
4012		42.968750
4013		46.875000
4014		44.921875
4015		50.781250
4016		46.875000
4017		50.781250
4018		48.828125
4019		54.687500
4020		50.781250
4021		54.687500
4022		52.734375
4023		56.640625
4024		54.687500
4025		58.593750
4026		54.687500
4027		60.546875
4028		56.640625
4029		62.500000
4030		58.593750
4031		62.500000
4032		60.546875
4033		64.453125
4034		60.546875
4035		64.453125
4036		62.500000
4037		66.406250
4038		62.500000
4039		66.406250
4040		64.453125
4041		68.359375
4042		64.453125
4043		66.406250
4044		64.453125
4045		68.359375
4046		64.453125
4047		68.359375
4048		64.453125
4049		68.359375
4050		66.406250
4051		68.359375
4052		66.406250
4053		68.359375
4054		66.406250
4055		68.359375
4056		64.453125
4057		68.359375
4058		64.453125
4059		68.359375
4060		64.453125
4061		66.406250
4062		62.500000
4063		66.406250
4064		62.500000
4065		66.406250
4066		62.500000
4067		66.406250
4068		60.546875
4069		64.453125
4070		58.593750
4071		62.500000
4072		58.593750
4073		62.500000
4074		56.640625
4075		60.546875
4076		54.687500
4077		58.593750
4078		52.734375
4079		56.640625
4080		52.734375
4081		54.687500
4082		48.828125
4083		54.687500
4084		48.828125
4085		50.781250
4086		46.875000
4087		50.781250
4088		42.968750
4089		46.875000
4090		41.015625
4091		44.921875
4092		39.062500
4093		42.968750
4094		37.109375
4095		41.015625
4096		33.203125
4097		39.062500
4098		31.250000
4099		35.156250
4100		29.296875
4101		33.203125
4102		25.390625
4103		31.250000
4104		23.437500
4105		27.343750
4106		21.484375
4107		25.390625
4108		17.578125
4109		23.437500
4110		15.625000
4111		19.531250
4112		11.718750
4113		15.625000
4114		7.812500
4115		13.671875
4116		5.859375
4117		9.765625
4118		3.906250
4119		7.812500
4120		0.000000
4121		3.906250
4122		-1.953125
4123		1.953125
4124		-5.859375
4125		-1.953125
4126		-7.812500
4127		-3.906250
4128		-13.671875
4129		-7.812500
4130		-13.671875
4131		-9.765625
4132		-17.578125
4133		-11.718750
4134		-19.531250
4135		-13.671875
4136		-21.484375
4137		-17.578125
4138		-25.390625
4139		-19.531250
4140		-27.343750
4141		-23.437500
4142		-29.296875
4143		-25.390625
4144		-31.250000
4145		-27.343750
4146		-35.156250
4147		-29.296875
4148		-35.156250
4149		-31.250000
4150		-39.062500
4151		-33.203125
4152		-39.062500
4153		-35.156250
4154		-41.015625
4155		-37.109375
4156		-42.968750
4157		-39.062500
4158		-44.921875
4159		-41.015625
4160		-44.921875
4161		-42.968750
4162		-48.828125
4163		-44.921875
4164		-48.828125
4165		-44.921875
4166		-48.828125
4167		-44.921875
4168		-48.828125
4169		-44.921875
4170		-50.781250
4171		-46.875000
4172		-50.781250
4173		-46.875000
4174		-50.781250
4175		-46.875000
4176		-50.781250
4177		-48.828125
4178		-50.781250
4179		-48.828125
4180		-50.781250
4181		-46.875000
4182		-50.781250
4183		-46.875000
4184		-48.828125
4185		-46.875000
4186		-48.828125
4187		-44.921875
4188		-48.828125
4189		-44.921875
4190		-46.875000
4191		-44.921875
4192		-46.875000
4193		-42.968750
4194		-44.921875
4195		-42.968750
4196		-44.921875
4197		-39.062500
4198		-42.968750
4199		-39.062500
4200		-41.015625
4201		-37.109375
4202		-39.062500
4203		-35.156250
4204		-37.109375
4205		-33.203125
4206		-35.156250
4207		-31.250000
4208		-33.203125
4209		-29.296875
4210		-31.250000
4211		-27.343750
4212		-29.296875
4213		-23.437500
4214		-25.390625
4215		-21.484375
4216		-23.437500
4217		-19.531250
4218		-21.484375
4219		-17.578125
4220		-19.531250
4221		-13.671875
4222		-15.625000
4223		-11.718750
4224		-13.671875
4225		-7.812500
4226		-9.765625
4227		-5.859375
4228		-7.812500
4229		-3.906250
4230		-3.906250
4231		0.000000
4232		-1.953125
4233		1.953125
4234		1.953125
4235		5.859375
4236		3.906250
4237		7.812500
4238		5.859375
4239		11.718750
4240		9.765625
4241		13.671875
4242		11.718750
4243		17.578125
4244		15.625000
4245		19.531250
4246		17.578125
4247		23.437500
4248		21.484375
4249		25.390625
4250		23.437500
4251		29.296875
4252		27.343750
4253		31.250000
4254		29.296875
4255		33.203125
4256		31.250000
4257		35.156250
4258		33.203125
4259		39.062500
4260		37.109375
4261		41.015625
4262		39.062500
4263		42.968750
4264		41.015625
4265		44.921875
4266		44.921875
4267		48.828125
4268		46.875000
4269		48.828125
4270		48.828125
4271		50.781250
4272		48.828125
4273		54.687500
4274		52.734375
4275		54.687500
4276		52.734375
4277		56.640625
4278		54.687500
4279		58.593750
4280		56.640625
4281		60.546875
4282		58.593750
4283		60.546875
4284		58.593750
4285		62.500000
4286		60.546875
4287		64.453125
4288		62.500000
4289		64.453125
4290		62.500000
4291		66.406250
4292		62.500000
4293		66.406250
4294		64.453125
4295		68.359375
4296		64.453125
4297		66.406250
4298		64.453125
4299		68.359375
4300		66.406250
4301		68.359375
4302		66.406250
4303		68.359375
4304		66.406250
4305		68.359375
4306		64.453125
4307		68.359375
4308		64.453125
4309		68.359375
4310		66.406250
4311		68.359375
4312		64.453125
4313		66.406250
4314		62.500000
4315		68.359375
4316		62.500000
4317		66.406250
4318		62.500000
4319		66.406250
4320		62.500000
4321		66.406250
4322		60.546875
4323		64.453125
4324		58.593750
4325		62.500000
4326		58.593750
4327		62.500000
4328		56.640625
4329		60.546875
4330		54.687500
4331		58.593750
4332		52.734375
4333		58.593750
4334		50.781250
4335		54.687500
4336		48.828125
4337		52.734375
4338		46.875000
4339		50.781250
4340		44.921875
4341		48.828125
4342		42.968750
4343		46.875000
4344		41.015625
4345		44.921875
4346		39.062500
4347		42.968750
4348		35.156250
4349		41.015625
4350		33.203125
4351		37.109375
4352		31.250000
4353		35.156250
4354		27.343750
4355		33.203125
4356		25.390625
4357		29.296875
4358		21.484375
4359		27.343750
4360		19.531250
4361		25.390625
4362		17.578125
4363		21.484375
4364		13.671875
4365		17.578125
4366		11.718750
4367		15.625000
4368		7.812500
4369		13.671875
4370		3.906250
4371		9.765625
4372		1.953125
4373		7.812500
4374		0.000000
4375		3.906250
4376		-3.906250
4377		1.953125
4378		-5.859375
4379		-1.953125
4380		-9.765625
4381		-5.859375
4382		-11.718750
4383		-7.812500
4384		-13.671875
4385		-9.765625
4386		-17.578125
4387		-13.671875
4388		-19.531250
4389		-15.625000
4390		-23.437500
4391		-17.578125
4392		-25.390625
4393		-21.484375
4394		-27.343750
4395		-23.437500
4396		-29.296875
4397		-25.390625
4398		-33.203125
4399		-27.343750
4400		-35.156250
4401		-31.250000
4402		-37.109375
4403		-33.203125
4404		-39.062500
4405		-33.203125
4406		-41.015625
4407		-35.156250
4408		-41.015625
4409		-39.062500
4410		-42.968750
4411		-39.062500
4412		-44.921875
4413		-41.015625
4414		-46.875000
4415		-42.968750
4416		-46.875000
4417		-42.968750
4418		-48.828125
4419		-44.921875
4420		-48.828125
4421		-44.921875
4422		-50.781250
4423		-46.875000
4424		-50.781250
4425		-46.875000
4426		-50.781250
4427		-46.875000
4428		-50.781250
4429		-48.828125
4430		-50.781250
4431		-48.828125
4432		-50.781250
4433		-46.875000
4434		-50.781250
4435		-46.875000
4436		-50.781250
4437		-46.875000
4438		-50.781250
4439		-46.875000
4440		-48.828125
4441		-44.921875
4442		-48.828125
4443		-44.921875
4444		-48.828125
4445		-42.968750
4446		-44.921875
4447		-42.968750
4448		-44.921875
4449		-41.015625
4450		-42.968750
4451		-39.062500
4452		-42.968750
4453		-37.109375
4454		-41.015625
4455		-37.109375
4456		-39.062500
4457		-35.156250
4458		-37.109375
4459		-31.250000
4460		-35.156250
4461		-31.250000
4462		-31.250000
4463		-27.343750
4464		-29.296875
4465		-25.390625
4466		-29.296875
4467		-23.437500
4468		-25.390625
4469		-21.484375
4470		-23.437500
4471		-17.578125
4472		-19.531250
4473		-15.625000
4474		-17.578125
4475		-13.671875
4476		-15.625000
4477		-9.765625
4478		-13.671875
4479		-7.812500
4480		-9.765625
4481		-5.859375
4482		-5.859375
4483		-1.953125
4484		-3.906250
4485		1.953125
4486		-1.953125
4487		3.906250
4488		1.953125
4489		5.859375
4490		3.906250
4491		9.765625
4492		7.812500
4493		11.718750
4494		9.765625
4495		15.625000
4496		13.671875
4497		17.578125
4498		15.625000
4499		21.484375
4500		19.531250
4501		25.390625
4502		21.484375
4503		25.390625
4504		23.437500
4505		29.296875
4506		27.343750
4507		31.250000
4508		29.296875
4509		35.156250
4510		33.203125
4511		37.109375
4512		35.156250
4513		39.062500
4514		37.109375
4515		41.015625
4516		39.062500
4517		44.921875
4518		41.015625
4519		46.875000
4520		44.921875
4521		48.828125
4522		46.875000
4523		50.781250
4524		46.875000
4525		52.734375
4526		50.781250
4527		54.687500
4528		52.734375
4529		56.640625
4530		54.687500
4531		56.640625
4532		54.687500
4533		58.593750
4534		56.640625
4535		60.546875
4536		58.593750
4537		62.500000
4538		60.546875
4539		62.500000
4540		60.546875
4541		64.453125
4542		62.500000
4543		64.453125
4544		62.500000
4545		66.406250
4546		64.453125
4547		66.406250
4548		64.453125
4549		66.406250
4550		64.453125
4551		68.359375
4552		64.453125
4553		68.359375
4554		66.406250
4555		68.359375
4556		64.453125
4557		68.359375
4558		66.406250
4559		70.312500
4560		66.406250
4561		68.359375
4562		64.453125
4563		68.359375
4564		64.453125
4565		68.359375
4566		64.453125
4567		68.359375
4568		64.453125
4569		66.406250
4570		62.500000
4571		66.406250
4572		62.500000
4573		64.453125
4574		60.546875
4575		64.453125
4576		60.546875
4577		64.453125
4578		58.593750
4579		62.500000
4580		58.593750
4581		60.546875
4582		54.687500
4583		58.593750
4584		54.687500
4585		58.593750
4586		52.734375
4587		56.640625
4588		50.781250
4589		54.687500
4590		48.828125
4591		52.734375
4592		46.875000
4593		50.781250
4594		44.921875
4595		48.828125
4596		42.968750
4597		46.875000
4598		41.015625
4599		42.968750
4600		37.109375
4601		42.968750
4602		35.156250
4603		39.062500
4604		31.250000
4605		37.109375
4606		29.296875
4607		35.156250
4608		27.343750
4609		33.203125
4610		25.390625
4611		29.296875
4612		21.484375
4613		27.343750
4614		19.531250
4615		23.437500
4616		15.625000
4617		19.531250
4618		13.671875
4619		17.578125
4620		9.765625
4621		15.625000
4622		7.812500
4623		11.718750
4624		3.906250
4625		9.765625
4626		1.953125
4627		5.859375
4628		-1.953125
4629		3.906250
4630		-3.906250
4631		0.000000
4632		-7.812500
4633		-1.953125
4634		-9.765625
4635		-5.859375
4636		-13.671875
4637		-7.812500
4638		-15.625000
4639		-11.718750
4640		-19.531250
4641		-13.671875
4642		-21.484375
4643		-17.578125
4644		-23.437500
4645		-17.578125
4646		-25.390625
4647		-21.484375
4648		-29.296875
4649		-25.390625
4650		-31.250000
4651		-27.343750
4652		-33.203125
4653		-29.296875
4654		-35.156250
4655		-31.250000
4656		-37.109375
4657		-33.203125
4658		-39.062500
4659		-35.156250
4660		-41.015625
4661		-37.109375
4662		-42.968750
4663		-39.062500
4664		-44.921875
4665		-41.015625
4666		-46.875000
4667		-42.968750
4668		-46.875000
4669		-42.968750
4670		-48.828125
4671		-44.921875
4672		-48.828125
4673		-44.921875
4674		-50.781250
4675		-46.875000
4676		-50.781250
4677		-46.875000
4678		-50.781250
4679		-46.875000
4680		-50.781250
4681		-48.828125
4682		-50.781250
4683		-48.828125
4684		-52.734375
4685		-46.875000
4686		-50.781250
4687		-48.828125
4688		-50.781250
4689		-46.875000
4690		-50.781250
4691		-46.875000
4692		-50.781250
4693		-46.875000
4694		-48.828125
4695		-46.875000
4696		-48.828125
4697		-44.921875
4698		-46.875000
4699		-44.921875
4700		-46.875000
4701		-42.968750
4702		-44.921875
4703		-41.015625
4704		-42.968750
4705		-39.062500
4706		-41.015625
4707		-39.062500
4708		-41.015625
4709		-37.109375
4710		-39.062500
4711		-35.156250
4712		-37.109375
4713		-31.250000
4714		-33.203125
4715		-31.250000
4716		-31.250000
4717		-27.343750
4718		-31.250000
4719		-25.390625
4720		-27.343750
4721		-23.437500
4722		-25.390625
4723		-21.484375
4724		-21.484375
4725		-17.578125
4726		-19.531250
4727		-15.625000
4728		-17.578125
4729		-13.671875
4730		-13.671875
4731		-9.765625
4732		-11.718750
4733		-7.812500
4734		-9.765625
4735		-3.906250
4736		-5.859375
4737		-1.953125
4738		-3.906250
4739		1.953125
4740		0.000000
4741		3.906250
4742		1.953125
4743		7.812500
4744		5.859375
4745		9.765625
4746		7.812500
4747		11.718750
4748		11.718750
4749		15.625000
4750		13.671875
4751		19.531250
4752		15.625000
4753		21.484375
4754		19.531250
4755		23.437500
4756		23.437500
4757		27.343750
4758		25.390625
4759		29.296875
4760		27.343750
4761		33.203125
4762		31.250000
4763		35.156250
4764		33.203125
4765		37.109375
4766		35.156250
4767		39.062500
4768		37.109375
4769		42.968750
4770		41.015625
4771		44.921875
4772		42.968750
4773		46.875000
4774		44.921875
4775		48.828125
4776		46.875000
4777		50.781250
4778		48.828125
4779		52.734375
4780		50.781250
4781		54.687500
4782		52.734375
4783		56.640625
4784		54.687500
4785		58.593750
4786		56.640625
4787		58.593750
4788		56.640625
4789		60.546875
4790		58.593750
4791		62.500000
4792		60.546875
4793		62.500000
4794		60.546875
4795		64.453125
4796		60.546875
4797		66.406250
4798		62.500000
4799		66.406250
4800		64.453125
4801		66.406250
4802		62.500000
4803		68.359375
4804		64.453125
4805		68.359375
4806		66.406250
4807		68.359375
4808		66.406250
4809		68.359375
4810		64.453125
4811		68.359375
4812		64.453125
4813		68.359375
4814		66.406250
4815		68.359375
4816		66.406250
4817		68.359375
4818		64.453125
4819		68.359375
4820		64.453125
4821		66.406250
4822		64.453125
4823		66.406250
4824		62.500000
4825		66.406250
4826		62.500000
4827		64.453125
4828		60.546875
4829		64.453125
4830		58.593750
4831		62.500000
4832		58.593750
4833		62.500000
4834		56.640625
4835		60.546875
4836		54.687500
4837		58.593750
4838		52.734375
4839		58.593750
4840		52.734375
4841		56.640625
4842		50.781250
4843		54.687500
4844		46.875000
4845		52.734375
4846		44.921875
4847		50.781250
4848		44.921875
4849		48.828125
4850		41.015625
4851		44.921875
4852		39.062500
4853		42.968750
4854		37.109375
4855		41.015625
4856		35.156250
4857		39.062500
4858		31.250000
4859		37.109375
4860		29.296875
4861		33.203125
4862		27.343750
4863		31.250000
4864		23.437500
4865		29.296875
4866		21.484375
4867		25.390625
4868		17.578125
4869		23.437500
4870		15.625000
4871		21.484375
4872		11.718750
4873		17.578125
4874		9.765625
4875		13.671875
4876		5.859375
4877		11.718750
4878		3.906250
4879		7.812500
4880		1.953125
4881		5.859375
4882		-1.953125
4883		1.953125
4884		-3.906250
4885		0.000000
4886		-7.812500
4887		-1.953125
4888		-9.765625
4889		-5.859375
4890		-13.671875
4891		-7.812500
4892		-15.625000
4893		-11.718750
4894		-19.531250
4895		-15.625000
4896		-21.484375
4897		-15.625000
4898		-23.437500
4899		-19.531250
4900		-25.390625
4901		-21.484375
4902		-29.296875
4903		-25.390625
4904		-31.250000
4905		-27.343750
4906		-33.203125
4907		-29.296875
4908		-35.156250
4909		-31.250000
4910		-37.109375
4911		-33.203125
4912		-39.062500
4913		-35.156250
4914		-41.015625
4915		-37.109375
4916		-42.968750
4917		-39.062500
4918		-42.968750
4919		-41.015625
4920		-44.921875
4921		-41.015625
4922		-46.875000
4923		-42.968750
4924		-46.875000
4925		-44.921875
4926		-48.828125
4927		-44.921875
4928		-50.781250
4929		-46.875000
4930		-50.781250
4931		-46.875000
4932		-50.781250
4933		-48.828125
4934		-50.781250
4935		-48.828125
4936		-50.781250
4937		-46.875000
4938		-50.781250
4939		-46.875000
4940		-50.781250
4941		-46.875000
4942		-50.781250
4943		-46.875000
4944		-50.781250
4945		-46.875000
4946		-48.828125
4947		-44.921875
4948		-48.828125
4949		-44.921875
4950		-46.875000
4951		-44.921875
4952		-46.875000
4953		-42.968750
4954		-44.921875
4955		-41.015625
4956		-44.921875
4957		-41.015625
4958		-42.968750
4959		-39.062500
4960		-41.015625
4961		-37.109375
4962		-39.062500
4963		-35.156250
4964		-37.109375
4965		-33.203125
4966		-35.156250
4967		-31.250000
4968		-33.203125
4969		-29.296875
4970		-31.250000
4971		-27.343750
4972		-29.296875
4973		-25.390625
4974		-27.343750
4975		-23.437500
4976		-23.437500
4977		-19.531250
4978		-21.484375
4979		-17.578125
4980		-19.531250
4981		-13.671875
4982		-17.578125
4983		-11.718750
4984		-13.671875
4985		-9.765625
4986		-11.718750
4987		-5.859375
4988		-7.812500
4989		-3.906250
4990		-5.859375
4991		0.000000
4992		-1.953125
4993		1.953125
4994		0.000000
4995		5.859375
4996		3.906250
4997		7.812500
4998		5.859375
4999		9.765625
5000		9.765625
5001		13.671875
5002		11.718750
5003		15.625000
5004		13.671875
5005		19.531250
5006		17.578125
5007		21.484375
5008		21.484375
5009		25.390625
5010		23.437500
5011		27.343750
5012		25.390625
5013		31.250000
5014		29.296875
5015		35.156250
5016		31.250000
5017		35.156250
5018		33.203125
5019		37.109375
5020		35.156250
5021		41.015625
5022		39.062500
5023		42.968750
5024		41.015625
5025		44.921875
5026		42.968750
5027		46.875000
5028		44.921875
5029		50.781250
5030		46.875000
5031		50.781250
5032		48.828125
5033		52.734375
5034		50.781250
5035		54.687500
5036		52.734375
5037		58.593750
5038		54.687500
5039		58.593750
5040		56.640625
5041		60.546875
5042		58.593750
5043		60.546875
5044		58.593750
5045		62.500000
5046		60.546875
5047		64.453125
5048		60.546875
5049		64.453125
5050		62.500000
5051		64.453125
5052		62.500000
5053		66.406250
5054		64.453125
5055		68.359375
5056		64.453125
5057		68.359375
5058		64.453125
5059		68.359375
5060		66.406250
5061		68.359375
5062		64.453125
5063		68.359375
5064		64.453125
5065		68.359375
5066		64.453125
5067		70.312500
5068		66.406250
5069		68.359375
5070		64.453125
5071		68.359375
5072		64.453125
5073		68.359375
5074		64.453125
5075		68.359375
5076		62.500000
5077		66.406250
5078		62.500000
5079		66.406250
5080		60.546875
5081		64.453125
5082		60.546875
5083		64.453125
5084		60.546875
5085		62.500000
5086		58.593750
5087		60.546875
5088		56.640625
5089		60.546875
5090		54.687500
5091		58.593750
5092		52.734375
5093		56.640625
5094		50.781250
5095		54.687500
5096		48.828125
5097		54.687500
5098		46.875000
5099		50.781250
5100		44.921875
5101		50.781250
5102		42.968750
5103		46.875000
5104		41.015625
5105		44.921875
5106		39.062500
5107		42.968750
5108		37.109375
5109		41.015625
5110		33.203125
5111		37.109375
5112		31.250000
5113		35.156250
5114		29.296875
5115		33.203125
5116		25.390625
5117		29.296875
5118		23.437500
5119		27.343750
5120		19.531250
5121		25.390625
5122		17.578125
5123		21.484375
5124		13.671875
5125		19.531250
5126		11.718750
5127		15.625000
5128		9.765625
5129		13.671875
5130		5.859375
5131		9.765625
5132		1.953125
5133		7.812500
5134		0.000000
5135		3.906250
5136		-3.906250
5137		1.953125
5138		-5.859375
5139		-1.953125
5140		-9.765625
5141		-3.906250
5142		-11.718750
5143		-5.859375
5144		-15.625000
5145		-9.765625
5146		-17.578125
5147		-11.718750
5148		-19.531250
5149		-15.625000
5150		-21.484375
5151		-17.578125
5152		-25.390625
5153		-21.484375
5154		-29.296875
5155		-23.437500
5156		-29.296875
5157		-25.390625
5158		-31.250000
5159		-27.343750
5160		-33.203125
5161		-31.250000
5162		-37.109375
5163		-31.250000
5164		-39.062500
5165		-33.203125
5166		-41.015625
5167		-35.156250
5168		-41.015625
5169		-39.062500
5170		-42.968750
5171		-39.062500
5172		-44.921875
5173		-41.015625
5174		-46.875000
5175		-42.968750
5176		-46.875000
5177		-42.968750
5178		-48.828125
5179		-44.921875
5180		-48.828125
5181		-44.921875
5182		-50.781250
5183		-46.875000
5184		-50.781250
5185		-46.875000
5186		-50.781250
5187		-48.828125
5188		-50.781250
5189		-46.875000
5190		-50.781250
5191		-46.875000
5192		-50.781250
5193		-48.828125
5194		-50.781250
5195		-46.875000
5196		-50.781250
5197		-46.875000
5198		-50.781250
5199		-46.875000
5200		-48.828125
5201		-44.921875
5202		-48.828125
5203		-44.921875
5204		-46.875000
5205		-44.921875
5206		-46.875000
5207		-42.968750
5208		-44.921875
5209		-41.015625
5210		-42.968750
5211		-41.015625
5212		-42.968750
5213		-39.062500
5214		-41.015625
5215		-37.109375
5216		-39.062500
5217		-33.203125
5218		-37.109375
5219		-33.203125
5220		-35.156250
5221		-31.250000
5222		-33.203125
5223		-29.296875
5224		-31.250000
5225		-25.390625
5226		-29.296875
5227		-23.437500
5228		-25.390625
5229		-21.484375
5230		-23.437500
5231		-19.531250
5232		-21.484375
5233		-17.578125
5234		-19.531250
5235		-13.671875
5236		-15.625000
5237		-11.718750
5238		-13.671875
5239		-7.812500
5240		-9.765625
5241		-5.859375
5242		-7.812500
5243		-1.953125
5244		-3.906250
5245		0.000000
5246		-1.953125
5247		3.906250
5248		1.953125
5249		5.859375
5250		3.906250
5251		9.765625
5252		7.812500
5253		11.718750
5254		9.765625
5255		13.671875
5256		13.671875
5257		17.578125
5258		15.625000
5259		21.484375
5260		19.531250
5261		23.437500
5262		21.484375
5263		25.390625
5264		23.437500
5265		29.296875
5266		25.390625
5267		31.250000
5268		29.296875
5269		33.203125
5270		31.250000
5271		37.109375
5272		35.156250
5273		39.062500
5274		37.109375
5275		41.015625
5276		39.062500
5277		42.968750
5278		41.015625
5279		46.875000
5280		42.968750
5281		48.828125
5282		44.921875
5283		50.781250
5284		48.828125
5285		52.734375
5286		50.781250
5287		54.687500
5288		52.734375
5289		56.640625
5290		52.734375
5291		56.640625
5292		54.687500
5293		60.546875
5294		56.640625
5295		60.546875
5296		58.593750
5297		62.500000
5298		58.593750
5299		62.500000
5300		60.546875
5301		64.453125
5302		62.500000
5303		64.453125
5304		62.500000
5305		66.406250
5306		62.500000
5307		66.406250
5308		64.453125
5309		68.359375
5310		64.453125
5311		68.359375
5312		66.406250
5313		68.359375
5314		64.453125
5315		68.359375
5316		66.406250
5317		68.359375
5318		64.453125
5319		68.359375
5320		66.406250
5321		68.359375
5322		64.453125
5323		68.359375
5324		64.453125
5325		68.359375
5326		64.453125
5327		68.359375
5328		64.453125
5329		66.406250
5330		62.500000
5331		66.406250
5332		62.500000
5333		64.453125
5334		60.546875
5335		64.453125
5336		60.546875
5337		62.500000
5338		58.593750
5339		62.500000
5340		56.640625
5341		60.546875
5342		56.640625
5343		60.546875
5344		54.687500
5345		58.593750
5346		52.734375
5347		56.640625
5348		50.781250
5349		54.687500
5350		48.828125
5351		52.734375
5352		46.875000
5353		52.734375
5354		44.921875
5355		48.828125
5356		42.968750
5357		46.875000
5358		41.015625
5359		44.921875
5360		39.062500
5361		42.968750
5362		35.156250
5363		41.015625
5364		33.203125
5365		37.109375
5366		29.296875
5367		35.156250
5368		27.343750
5369		31.250000
5370		25.390625
5371		29.296875
5372		21.484375
5373		27.343750
5374		19.531250
5375		23.437500
5376		15.625000
5377		21.484375
5378		13.671875
5379		17.578125
5380		11.718750
5381		15.625000
5382		7.812500
5383		11.718750
5384		3.906250
5385		9.765625
5386		1.953125
5387		5.859375
5388		0.000000
5389		3.906250
5390		-3.906250
5391		1.953125
5392		-5.859375
5393		0.000000
5394		-9.765625
5395		-3.906250
5396		-11.718750
5397		-7.812500
5398		-15.625000
5399		-9.765625
5400		-17.578125
5401		-13.671875
5402		-21.484375
5403		-15.625000
5404		-23.437500
5405		-17.578125
5406		-25.390625
5407		-21.484375
5408		-27.343750
5409		-23.437500
5410		-31.250000
5411		-25.390625
5412		-33.203125
5413		-29.296875
5414		-35.156250
5415		-31.250000
5416		-37.109375
5417		-33.203125
5418		-39.062500
5419		-35.156250
5420		-41.015625
5421		-37.109375
5422		-41.015625
5423		-39.062500
5424		-42.968750
5425		-39.062500
5426		-44.921875
5427		-41.015625
5428		-46.875000
5429		-42.968750
5430		-46.875000
5431		-44.921875
5432		-48.828125
5433		-44.921875
5434		-48.828125
5435		-44.921875
5436		-48.828125
5437		-46.875000
5438		-50.781250
5439		-46.875000
5440		-50.781250
5441		-46.875000
5442		-50.781250
5443		-46.875000
5444		-50.781250
5445		-48.828125
5446		-52.734375
5447		-46.875000
5448		-50.781250
5449		-46.875000
5450		-50.781250
5451		-46.875000
5452		-48.828125
5453		-46.875000
5454		-48.828125
5455		-46.875000
5456		-48.828125
5457		-42.968750
5458		-46.875000
5459		-42.968750
5460		-46.875000
5461		-42.968750
5462		-44.921875
5463		-41.015625
5464		-42.968750
5465		-39.062500
5466		-41.015625
5467		-37.109375
5468		-39.062500
5469		-35.156250
5470		-37.109375
5471		-35.156250
5472		-35.156250
5473		-33.203125
5474		-35.156250
5475		-29.296875
5476		-33.203125
5477		-27.343750
5478		-29.296875
5479		-25.390625
5480		-27.343750
5481		-23.437500
5482		-25.390625
5483		-19.531250
5484		-21.484375
5485		-17.578125
5486		-19.531250
5487		-15.625000
5488		-17.578125
5489		-13.671875
5490		-15.625000
5491		-9.765625
5492		-11.718750
5493		-7.812500
5494		-9.765625
5495		-3.906250
5496		-5.859375
5497		-1.953125
5498		-3.906250
5499		1.953125
5500		0.000000
5501		3.906250
5502		1.953125
5503		7.812500
5504		5.859375
5505		9.765625
5506		7.812500
5507		11.718750
5508		9.765625
5509		15.625000
5510		13.671875
5511		17.578125
5512		15.625000
5513		21.484375
5514		19.531250
5515		23.437500
5516		21.484375
5517		27.343750
5518		25.390625
5519		29.296875
5520		27.343750
5521		31.250000
5522		31.250000
5523		35.156250
5524		33.203125
5525		37.109375
5526		35.156250
5527		41.015625
5528		37.109375
5529		41.015625
5530		41.015625
5531		44.921875
5532		42.968750
5533		46.875000
5534		44.921875
5535		48.828125
5536		46.875000
5537		50.781250
5538		48.828125
5539		52.734375
5540		50.781250
5541		54.687500
5542		52.734375
5543		56.640625
5544		52.734375
5545		58.593750
5546		56.640625
5547		58.593750
5548		56.640625
5549		60.546875
5550		58.593750
5551		62.500000
5552		60.546875
5553		64.453125
5554		60.546875
5555		64.453125
5556		62.500000
5557		64.453125
5558		62.500000
5559		66.406250
5560		64.453125
5561		68.359375
5562		64.453125
5563		66.406250
5564		64.453125
5565		68.359375
5566		64.453125
5567		68.359375
5568		66.406250
5569		68.359375
5570		66.406250
5571		68.359375
5572		66.406250
5573		68.359375
5574		64.453125
5575		68.359375
5576		64.453125
5577		68.359375
5578		64.453125
5579		68.359375
5580		64.453125
5581		66.406250
5582		62.500000
5583		66.406250
5584		62.500000
5585		66.406250
5586		62.500000
5587		64.453125
5588		60.546875
5589		64.453125
5590		60.546875
5591		62.500000
5592		58.593750
5593		62.500000
5594		56.640625
5595		60.546875
5596		54.687500
5597		60.546875
5598		54.687500
5599		56.640625
5600		50.781250
5601		54.687500
5602		50.781250
5603		54.687500
5604		48.828125
5605		52.734375
5606		46.875000
5607		50.781250
5608		42.968750
5609		48.828125
5610		42.968750
5611		46.875000
5612		39.062500
5613		42.968750
5614		37.109375
5615		41.015625
5616		35.156250
5617		39.062500
5618		31.250000
5619		37.109375
5620		29.296875
5621		33.203125
5622		27.343750
5623		31.250000
5624		23.437500
5625		27.343750
5626		21.484375
5627		25.390625
5628		17.578125
5629		23.437500
5630		15.625000
5631		19.531250
5632		11.718750
5633		17.578125
5634		9.765625
5635		13.671875
5636		5.859375
5637		11.718750
5638		3.906250
5639		7.812500
5640		0.000000
5641		5.859375
5642		-1.953125
5643		1.953125
5644		-5.859375
5645		0.000000
5646		-7.812500
5647		-3.906250
5648		-9.765625
5649		-5.859375
5650		-13.671875
5651		-9.765625
5652		-15.625000
5653		-11.718750
5654		-19.531250
5655		-13.671875
5656		-21.484375
5657		-17.578125
5658		-25.390625
5659		-19.531250
5660		-27.343750
5661		-21.484375
5662		-29.296875
5663		-25.390625
5664		-31.250000
5665		-27.343750
5666		-33.203125
5667		-29.296875
5668		-35.156250
5669		-31.250000
5670		-39.062500
5671		-33.203125
5672		-39.062500
5673		-35.156250
5674		-41.015625
5675		-37.109375
5676		-42.968750
5677		-39.062500
5678		-44.921875
5679		-41.015625
5680		-44.921875
5681		-42.968750
5682		-46.875000
5683		-42.968750
5684		-48.828125
5685		-44.921875
5686		-48.828125
5687		-44.921875
5688		-50.781250
5689		-44.921875
5690		-50.781250
5691		-46.875000
5692		-50.781250
5693		-46.875000
5694		-50.781250
5695		-46.875000
5696		-50.781250
5697		-46.875000
5698		-50.781250
5699		-48.828125
5700		-50.781250
5701		-48.828125
5702		-50.781250
5703		-46.875000
5704		-50.781250
5705		-46.875000
5706		-48.828125
5707		-46.875000
5708		-48.828125
5709		-44.921875
5710		-48.828125
5711		-44.921875
5712		-46.875000
5713		-42.968750
5714		-44.921875
5715		-42.968750
5716		-44.921875
5717		-41.015625
5718		-42.968750
5719		-39.062500
5720		-41.015625
5721		-37.109375
5722		-41.015625
5723		-35.156250
5724		-37.109375
5725		-33.203125
5726		-35.156250
5727		-31.250000
5728		-33.203125
5729		-29.296875
5730		-31.250000
5731		-27.343750
5732		-29.296875
5733		-25.390625
5734		-27.343750
5735		-23.437500
5736		-25.390625
5737		-19.531250
5738		-23.437500
5739		-17.578125
5740		-19.531250
5741		-15.625000
5742		-17.578125
5743		-11.718750
5744		-13.671875
5745		-9.765625
5746		-11.718750
5747		-5.859375
5748		-7.812500
5749		-3.906250
5750		-5.859375
5751		-1.953125
5752		-1.953125
5753		1.953125
5754		0.000000
5755		5.859375
5756		3.906250
5757		7.812500
5758		5.859375
5759		9.765625
5760		9.765625
5761		13.671875
5762		11.718750
5763		15.625000
5764		15.625000
5765		19.531250
5766		17.578125
5767		23.437500
5768		19.531250
5769		25.390625
5770		23.437500
5771		27.343750
5772		25.390625
5773		29.296875
5774		29.296875
5775		33.203125
5776		31.250000
5777		35.156250
5778		33.203125
5779		39.062500
5780		35.156250
5781		41.015625
5782		39.062500
5783		42.968750
5784		41.015625
5785		44.921875
5786		42.968750
5787		46.875000
5788		44.921875
5789		48.828125
5790		46.875000
5791		50.781250
5792		48.828125
5793		52.734375
5794		50.781250
5795		54.687500
5796		52.734375
5797		56.640625
5798		54.687500
5799		58.593750
5800		56.640625
5801		60.546875
5802		56.640625
5803		60.546875
5804		58.593750
5805		62.500000
5806		58.593750
5807		62.500000
5808		62.500000
5809		64.453125
5810		62.500000
5811		66.406250
5812		62.500000
5813		66.406250
5814		64.453125
5815		68.359375
5816		64.453125
5817		68.359375
5818		66.406250
5819		68.359375
5820		66.406250
5821		68.359375
5822		66.406250
5823		70.312500
5824		66.406250
5825		68.359375
5826		66.406250
5827		68.359375
5828		64.453125
5829		70.312500
5830		64.453125
5831		70.312500
5832		64.453125
5833		68.359375
5834		64.453125
5835		68.359375
5836		62.500000
5837		68.359375
5838		62.500000
5839		66.406250
5840		62.500000
5841		64.453125
5842		60.546875
5843		64.453125
5844		60.546875
5845		64.453125
5846		58.593750
5847		62.500000
5848		56.640625
5849		60.546875
5850		54.687500
5851		60.546875
5852		52.734375
5853		58.593750
5854		52.734375
5855		56.640625
5856		50.781250
5857		54.687500
5858		48.828125
5859		52.734375
5860		44.921875
5861		50.781250
5862		42.968750
5863		48.828125
5864		41.015625
5865		46.875000
5866		39.062500
5867		44.921875
5868		35.156250
5869		41.015625
5870		33.203125
5871		39.062500
5872		31.250000
5873		37.109375
5874		29.296875
5875		33.203125
5876		27.343750
5877		31.250000
5878		23.437500
5879		29.296875
5880		19.531250
5881		25.390625
5882		17.578125
5883		23.437500
5884		13.671875
5885		21.484375
5886		11.718750
5887		17.578125
5888		7.812500
5889		15.625000
5890		5.859375
5891		11.718750
5892		3.906250
5893		7.812500
5894		0.000000
5895		3.906250
5896		-3.906250
5897		3.906250
5898		-5.859375
5899		0.000000
5900		-9.765625
5901		-1.953125
5902		-11.718750
5903		-5.859375
5904		-13.671875
5905		-7.812500
5906		-17.578125
5907		-9.765625
5908		-19.531250
5909		-15.625000
5910		-23.437500
5911		-17.578125
5912		-25.390625
5913		-19.531250
5914		-27.343750
5915		-21.484375
5916		-29.296875
5917		-23.437500
5918		-33.203125
5919		-25.390625
5920		-35.156250
5921		-27.343750
5922		-35.156250
5923		-29.296875
5924		-37.109375
5925		-33.203125
5926		-39.062500
5927		-35.156250
5928		-42.968750
5929		-37.109375
5930		-42.968750
5931		-39.062500
5932		-44.921875
5933		-39.062500
5934		-44.921875
5935		-41.015625
5936		-46.875000
5937		-42.968750
5938		-48.828125
5939		-42.968750
5940		-48.828125
5941		-42.968750
5942		-48.828125
5943		-46.875000
5944		-48.828125
5945		-46.875000
5946		-48.828125
5947		-46.875000
5948		-50.781250
5949		-46.875000
5950		-50.781250
5951		-48.828125
5952		-50.781250
5953		-46.875000
5954		-48.828125
5955		-46.875000
5956		-50.781250
5957		-46.875000
5958		-48.828125
5959		-46.875000
5960		-48.828125
5961		-44.921875
5962		-46.875000
5963		-44.921875
5964		-46.875000
5965		-42.968750
5966		-44.921875
5967		-42.968750
5968		-44.921875
5969		-41.015625
5970		-42.968750
5971		-39.062500
5972		-41.015625
5973		-39.062500
5974		-41.015625
5975		-37.109375
5976		-39.062500
5977		-35.156250
5978		-37.109375
5979		-33.203125
5980		-35.156250
5981		-31.250000
5982		-33.203125
5983		-29.296875
5984		-31.250000
5985		-27.343750
5986		-27.343750
5987		-23.437500
5988		-25.390625
5989		-21.484375
5990		-23.437500
5991		-19.531250
5992		-19.531250
5993		-15.625000
5994		-17.578125
5995		-13.671875
5996		-15.625000
5997		-11.718750
5998		-11.718750
5999		-7.812500
6000		-9.765625
6001		-5.859375
6002		-7.812500
6003		-1.953125
6004		-3.906250
6005		0.000000
6006		-1.953125
6007		1.953125
6008		1.953125
6009		5.859375
6010		3.906250
6011		9.765625
6012		7.812500
6013		11.718750
6014		9.765625
6015		15.625000
6016		13.671875
6017		17.578125
6018		15.625000
6019		19.531250
6020		17.578125
6021		23.437500
6022		21.484375
6023		25.390625
6024		23.437500
6025		29.296875
6026		27.343750
6027		31.250000
6028		29.296875
6029		33.203125
6030		33.203125
6031		37.109375
6032		35.156250
6033		39.062500
6034		37.109375
6035		41.015625
6036		39.062500
6037		42.968750
6038		41.015625
6039		44.921875
6040		44.921875
6041		46.875000
6042		44.921875
6043		50.781250
6044		48.828125
6045		52.734375
6046		48.828125
6047		54.687500
6048		48.828125
6049		58.593750
6050		50.781250
6051		60.546875
6052		56.640625
6053		58.593750
6054		56.640625
6055		60.546875
6056		58.593750
6057		62.500000
6058		58.593750
6059		62.500000
6060		60.546875
6061		64.453125
6062		58.593750
6063		68.359375
6064		60.546875
6065		68.359375
6066		60.546875
6067		70.312500
6068		64.453125
6069		66.406250
6070		64.453125
6071		68.359375
6072		66.406250
6073		68.359375
6074		66.406250
6075		68.359375
6076		66.406250
6077		68.359375
6078		64.453125
6079		72.265625
6080		62.500000
6081		72.265625
6082		62.500000
6083		72.265625
6084		62.500000
6085		72.265625
6086		64.453125
6087		68.359375
6088		64.453125
6089		66.406250
6090		64.453125
6091		66.406250
6092		62.500000
6093		66.406250
6094		62.500000
6095		64.453125
6096		56.640625
6097		66.406250
6098		56.640625
6099		66.406250
6100		54.687500
6101		64.453125
6102		56.640625
6103		60.546875
6104		54.687500
6105		58.593750
6106		52.734375
6107		56.640625
6108		50.781250
6109		54.687500
6110		48.828125
6111		52.734375
6112		44.921875
6113		52.734375
6114		41.015625
6115		52.734375
6116		39.062500
6117		50.781250
6118		39.062500
6119		48.828125
6120		39.062500
6121		42.968750
6122		35.156250
6123		41.015625
6124		33.203125
6125		37.109375
6126		31.250000
6127		35.156250
6128		29.296875
6129		33.203125
6130		23.437500
6131		33.203125
6132		21.484375
6133		31.250000
6134		17.578125
6135		27.343750
6136		17.578125
6137		21.484375
6138		13.671875
6139		19.531250
6140		11.718750
6141		15.625000
6142		7.812500
6143		13.671875
6144		5.859375
6145		9.765625
6146		-1.953125
6147		9.765625
6148		-3.906250
6149		7.812500
6150		-7.812500
6151		3.906250
6152		-5.859375
6153		0.000000
6154		-7.812500
6155		-3.906250
6156		-11.718750
6157		-7.812500
6158		-15.625000
6159		-9.765625
6160		-17.578125
6161		-13.671875
6162		-19.531250
6163		-15.625000
6164		-25.390625
6165		-11.718750
6166		-29.296875
6167		-17.578125
6168		-29.296875
6169		-19.531250
6170		-29.296875
6171		-25.390625
6172		-31.250000
6173		-27.343750
6174		-33.203125
6175		-29.296875
6176		-37.109375
6177		-33.203125
6178		-37.109375
6179		-35.156250
6180		-42.968750
6181		-33.203125
6182		-44.921875
6183		-35.156250
6184		-46.875000
6185		-37.109375
6186		-44.921875
6187		-41.015625
6188		-44.921875
6189		-42.968750
6190		-46.875000
6191		-44.921875
6192		-46.875000
6193		-44.921875
6194		-48.828125
6195		-44.921875
6196		-52.734375
6197		-42.968750
6198		-52.734375
6199		-42.968750
6200		-52.734375
6201		-42.968750
6202		-52.734375
6203		-44.921875
6204		-50.781250
6205		-46.875000
6206		-50.781250
6207		-46.875000
6208		-50.781250
6209		-46.875000
6210		-48.828125
6211		-46.875000
6212		-48.828125
6213		-46.875000
6214		-52.734375
6215		-42.968750
6216		-50.781250
6217		-41.015625
6218		-48.828125
6219		-41.015625
6220		-44.921875
6221		-42.968750
6222		-44.921875
6223		-41.015625
6224		-42.968750
6225		-39.062500
6226		-41.015625
6227		-37.109375
6228		-39.062500
6229		-37.109375
6230		-37.109375
6231		-33.203125
6232		-39.062500
6233		-31.250000
6234		-37.109375
6235		-27.343750
6236		-31.250000
6237		-27.343750
6238		-29.296875
6239		-25.390625
6240		-27.343750
6241		-23.437500
6242		-25.390625
6243		-21.484375
6244		-21.484375
6245		-17.578125
6246		-19.531250
6247		-15.625000
6248		-17.578125
6249		-9.765625
6250		-17.578125
6251		-7.812500
6252		-13.671875
6253		-7.812500
6254		-9.765625
6255		-3.906250
6256		-5.859375
6257		-1.953125
6258		-3.906250
6259		1.953125
6260		0.000000
6261		3.906250
6262		1.953125
6263		5.859375
6264		5.859375
6265		9.765625
6266		7.812500
6267		13.671875
6268		11.718750
6269		15.625000
6270		13.671875
6271		17.578125
6272		17.578125
6273		21.484375
6274		19.531250
6275		23.437500
6276		23.437500
6277		27.343750
6278		25.390625
6279		29.296875
6280		27.343750
6281		33.203125
6282		31.250000
6283		35.156250
6284		33.203125
6285		37.109375
6286		35.156250
6287		39.062500
6288		39.062500
6289		42.968750
6290		41.015625
6291		44.921875
6292		42.968750
6293		46.875000
6294		44.921875
6295		48.828125
6296		46.875000
6297		50.781250
6298		48.828125
6299		52.734375
6300		50.781250
6301		54.687500
6302		52.734375
6303		56.640625
6304		54.687500
6305		58.593750
6306		56.640625
6307		60.546875
6308		58.593750
6309		60.546875
6310		58.593750
6311		62.500000
6312		60.546875
6313		62.500000
6314		60.546875
6315		64.453125
6316		62.500000
6317		64.453125
6318		64.453125
6319		66.406250
6320		64.453125
6321		66.406250
6322		64.453125
6323		68.359375
6324		66.406250
6325		68.359375
6326		66.406250
6327		68.359375
6328		66.406250
6329		68.359375
6330		66.406250
6331		70.312500
6332		66.406250
6333		70.312500
6334		66.406250
6335		70.312500
6336		66.406250
6337		68.359375
6338		64.453125
6339		68.359375
6340		64.453125
6341		68.359375
6342		64.453125
6343		68.359375
6344		64.453125
6345		66.406250
6346		62.500000
6347		66.406250
6348		60.546875
6349		66.406250
6350		60.546875
6351		64.453125
6352		60.546875
6353		62.500000
6354		56.640625
6355		60.546875
6356		56.640625
6357		60.546875
6358		54.687500
6359		58.593750
6360		52.734375
6361		56.640625
6362		50.781250
6363		54.687500
6364		48.828125
6365		52.734375
6366		46.875000
6367		50.781250
6368		44.921875
6369		48.828125
6370		42.968750
6371		46.875000
6372		39.062500
6373		44.921875
6374		39.062500
6375		42.968750
6376		35.156250
6377		39.062500
6378		33.203125
6379		37.109375
6380		31.250000
6381		35.156250
6382		27.343750
6383		33.203125
6384		25.390625
6385		31.250000
6386		21.484375
6387		27.343750
6388		19.531250
6389		23.437500
6390		17.578125
6391		21.484375
6392		13.671875
6393		17.578125
6394		11.718750
6395		15.625000
6396		7.812500
6397		11.718750
6398		3.906250
6399		9.765625
6400		1.953125
6401		7.812500
6402		0.000000
6403		3.906250
6404		-3.906250
6405		0.000000
6406		-7.812500
6407		-1.953125
6408		-9.765625
6409		-5.859375
6410		-11.718750
6411		-7.812500
6412		-15.625000
6413		-9.765625
6414		-17.578125
6415		-13.671875
6416		-21.484375
6417		-13.671875
6418		-23.437500
6419		-17.578125
6420		-25.390625
6421		-21.484375
6422		-29.296875
6423		-23.437500
6424		-29.296875
6425		-25.390625
6426		-33.203125
6427		-29.296875
6428		-33.203125
6429		-31.250000
6430		-37.109375
6431		-33.203125
6432		-39.062500
6433		-33.203125
6434		-39.062500
6435		-37.109375
6436		-41.015625
6437		-37.109375
6438		-42.968750
6439		-39.062500
6440		-44.921875
6441		-41.015625
6442		-44.921875
6443		-42.968750
6444		-46.875000
6445		-42.968750
6446		-46.875000
6447		-44.921875
6448		-48.828125
6449		-44.921875
6450		-48.828125
6451		-44.921875
6452		-48.828125
6453		-44.921875
6454		-48.828125
6455		-46.875000
6456		-50.781250
6457		-46.875000
6458		-50.781250
6459		-46.875000
6460		-48.828125
6461		-46.875000
6462		-48.828125
6463		-46.875000
6464		-48.828125
6465		-46.875000
6466		-48.828125
6467		-44.921875
6468		-46.875000
6469		-44.921875
6470		-46.875000
6471		-42.968750
6472		-44.921875
6473		-42.968750
6474		-44.921875
6475		-41.015625
6476		-42.968750
6477		-39.062500
6478		-41.015625
6479		-39.062500
6480		-39.062500
6481		-37.109375
6482		-39.062500
6483		-33.203125
6484		-37.109375
6485		-33.203125
6486		-35.156250
6487		-31.250000
6488		-31.250000
6489		-27.343750
6490		-31.250000
6491		-25.390625
6492		-29.296875
6493		-23.437500
6494		-25.390625
6495		-21.484375
6496		-23.437500
6497		-19.531250
6498		-21.484375
6499		-17.578125
6500		-19.531250
6501		-13.671875
6502		-15.625000
6503		-9.765625
6504		-11.718750
6505		-9.765625
6506		-9.765625
6507		-5.859375
6508		-7.812500
6509		-3.906250
6510		-3.906250
6511		0.000000
6512		-1.953125
6513		3.906250
6514		1.953125
6515		5.859375
6516		3.906250
6517		7.812500
6518		7.812500
6519		11.718750
6520		9.765625
6521		13.671875
6522		11.718750
6523		17.578125
6524		15.625000
6525		19.531250
6526		17.578125
6527		23.437500
6528		21.484375
6529		25.390625
6530		23.437500
6531		27.343750
6532		27.343750
6533		31.250000
6534		29.296875
6535		33.203125
6536		31.250000
6537		35.156250
6538		35.156250
6539		39.062500
6540		37.109375
6541		41.015625
6542		39.062500
6543		42.968750
6544		41.015625
6545		44.921875
6546		44.921875
6547		46.875000
6548		46.875000
6549		48.828125
6550		48.828125
6551		50.781250
6552		50.781250
6553		52.734375
6554		52.734375
6555		54.687500
6556		54.687500
6557		56.640625
6558		56.640625
6559		58.593750
6560		56.640625
6561		60.546875
6562		58.593750
6563		60.546875
6564		60.546875
6565		62.500000
6566		60.546875
6567		64.453125
6568		62.500000
6569		64.453125
6570		62.500000
6571		66.406250
6572		64.453125
6573		66.406250
6574		64.453125
6575		66.406250
6576		66.406250
6577		68.359375
6578		66.406250
6579		68.359375
6580		66.406250
6581		68.359375
6582		66.406250
6583		68.359375
6584		66.406250
6585		68.359375
6586		66.406250
6587		68.359375
6588		66.406250
6589		68.359375
6590		66.406250
6591		68.359375
6592		66.406250
6593		68.359375
6594		64.453125
6595		68.359375
6596		64.453125
6597		66.406250
6598		62.500000
6599		66.406250
6600		62.500000
6601		64.453125
6602		60.546875
6603		64.453125
6604		60.546875
6605		62.500000
6606		58.593750
6607		62.500000
6608		58.593750
6609		60.546875
6610		56.640625
6611		58.593750
6612		54.687500
6613		56.640625
6614		52.734375
6615		56.640625
6616		50.781250
6617		54.687500
6618		48.828125
6619		52.734375
6620		46.875000
6621		50.781250
6622		44.921875
6623		48.828125
6624		42.968750
6625		46.875000
6626		41.015625
6627		42.968750
6628		37.109375
6629		41.015625
6630		35.156250
6631		39.062500
6632		33.203125
6633		37.109375
6634		29.296875
6635		35.156250
6636		27.343750
6637		31.250000
6638		23.437500
6639		29.296875
6640		21.484375
6641		25.390625
6642		19.531250
6643		23.437500
6644		15.625000
6645		19.531250
6646		13.671875
6647		17.578125
6648		9.765625
6649		13.671875
6650		5.859375
6651		11.718750
6652		3.906250
6653		7.812500
6654		1.953125
6655		5.859375
6656		-1.953125
6657		1.953125
6658		-3.906250
6659		0.000000
6660		-7.812500
6661		-3.906250
6662		-9.765625
6663		-5.859375
6664		-13.671875
6665		-9.765625
6666		-15.625000
6667		-11.718750
6668		-19.531250
6669		-13.671875
6670		-21.484375
6671		-15.625000
6672		-23.437500
6673		-19.531250
6674		-27.343750
6675		-21.484375
6676		-27.343750
6677		-25.390625
6678		-31.250000
6679		-27.343750
6680		-33.203125
6681		-29.296875
6682		-35.156250
6683		-31.250000
6684		-37.109375
6685		-31.250000
6686		-39.062500
6687		-33.203125
6688		-41.015625
6689		-37.109375
6690		-41.015625
6691		-39.062500
6692		-42.968750
6693		-41.015625
6694		-44.921875
6695		-41.015625
6696		-46.875000
6697		-42.968750
6698		-46.875000
6699		-42.968750
6700		-50.781250
6701		-42.968750
6702		-50.781250
6703		-44.921875
6704		-48.828125
6705		-44.921875
6706		-48.828125
6707		-46.875000
6708		-48.828125
6709		-46.875000
6710		-48.828125
6711		-46.875000
6712		-48.828125
6713		-46.875000
6714		-48.828125
6715		-46.875000
6716		-48.828125
6717		-46.875000
6718		-50.781250
6719		-44.921875
6720		-48.828125
6721		-42.968750
6722		-46.875000
6723		-44.921875
6724		-46.875000
6725		-42.968750
6726		-44.921875
6727		-42.968750
6728		-44.921875
6729		-41.015625
6730		-42.968750
6731		-39.062500
6732		-41.015625
6733		-37.109375
6734		-41.015625
6735		-35.156250
6736		-39.062500
6737		-33.203125
6738		-35.156250
6739		-33.203125
6740		-33.203125
6741		-31.250000
6742		-31.250000
6743		-29.296875
6744		-29.296875
6745		-25.390625
6746		-27.343750
6747		-23.437500
6748		-25.390625
6749		-21.484375
6750		-23.437500
6751		-19.531250
6752		-21.484375
6753		-15.625000
6754		-19.531250
6755		-13.671875
6756		-15.625000
6757		-11.718750
6758		-11.718750
6759		-7.812500
6760		-9.765625
6761		-5.859375
6762		-7.812500
6763		-1.953125
6764		-3.906250
6765		0.000000
6766		-1.953125
6767		3.906250
6768		1.953125
6769		7.812500
6770		3.906250
6771		9.765625
6772		7.812500
6773		11.718750
6774		9.765625
6775		15.625000
6776		13.671875
6777		17.578125
6778		15.625000
6779		19.531250
6780		19.531250
6781		23.437500
6782		21.484375
6783		25.390625
6784		25.390625
6785		29.296875
6786		25.390625
6787		33.203125
6788		29.296875
6789		35.156250
6790		33.203125
6791		37.109375
6792		35.156250
6793		39.062500
6794		37.109375
6795		41.015625
6796		41.015625
6797		44.921875
6798		42.968750
6799		46.875000
6800		44.921875
6801		48.828125
6802		44.921875
6803		52.734375
6804		48.828125
6805		52.734375
6806		50.781250
6807		54.687500
6808		52.734375
6809		56.640625
6810		54.687500
6811		58.593750
6812		56.640625
6813		58.593750
6814		58.593750
6815		60.546875
6816		58.593750
6817		62.500000
6818		60.546875
6819		66.406250
6820		60.546875
6821		66.406250
6822		62.500000
6823		66.406250
6824		64.453125
6825		66.406250
6826		64.453125
6827		66.406250
6828		66.406250
6829		68.359375
6830		64.453125
6831		68.359375
6832		66.406250
6833		68.359375
6834		66.406250
6835		68.359375
6836		66.406250
6837		70.312500
6838		66.406250
6839		72.265625
6840		66.406250
6841		70.312500
6842		66.406250
6843		68.359375
6844		66.406250
6845		68.359375
6846		66.406250
6847		68.359375
6848		66.406250
6849		68.359375
6850		64.453125
6851		66.406250
6852		62.500000
6853		66.406250
6854		62.500000
6855		66.406250
6856		62.500000
6857		64.453125
6858		60.546875
6859		64.453125
6860		60.546875
6861		62.500000
6862		56.640625
6863		60.546875
6864		56.640625
6865		58.593750
6866		54.687500
6867		58.593750
6868		52.734375
6869		56.640625
6870		50.781250
6871		54.687500
6872		48.828125
6873		52.734375
6874		46.875000
6875		50.781250
6876		44.921875
6877		48.828125
6878		42.968750
6879		46.875000
6880		39.062500
6881		42.968750
6882		37.109375
6883		41.015625
6884		35.156250
6885		39.062500
6886		31.250000
6887		37.109375
6888		29.296875
6889		33.203125
6890		27.343750
6891		31.250000
6892		23.437500
6893		29.296875
6894		21.484375
6895		25.390625
6896		17.578125
6897		23.437500
6898		15.625000
6899		19.531250
6900		13.671875
6901		17.578125
6902		9.765625
6903		13.671875
6904		7.812500
6905		11.718750
6906		3.906250
6907		7.812500
6908		1.953125
6909		5.859375
6910		-1.953125
6911		1.953125
6912		-3.906250
6913		0.000000
6914		-7.812500
6915		-3.906250
6916		-9.765625
6917		-5.859375
6918		-13.671875
6919		-9.765625
6920		-15.625000
6921		-11.718750
6922		-17.578125
6923		-13.671875
6924		-21.484375
6925		-17.578125
6926		-23.437500
6927		-19.531250
6928		-27.343750
6929		-21.484375
6930		-29.296875
6931		-25.390625
6932		-31.250000
6933		-27.343750
6934		-33.203125
6935		-29.296875
6936		-35.156250
6937		-31.250000
6938		-37.109375
6939		-33.203125
6940		-39.062500
6941		-35.156250
6942		-41.015625
6943		-37.109375
6944		-41.015625
6945		-39.062500
6946		-42.968750
6947		-41.015625
6948		-44.921875
6949		-41.015625
6950		-44.921875
6951		-42.968750
6952		-46.875000
6953		-42.968750
6954		-46.875000
6955		-44.921875
6956		-48.828125
6957		-44.921875
6958		-48.828125
6959		-46.875000
6960		-48.828125
6961		-46.875000
6962		-48.828125
6963		-46.875000
6964		-48.828125
6965		-46.875000
6966		-48.828125
6967		-46.875000
6968		-48.828125
6969		-46.875000
6970		-48.828125
6971		-46.875000
6972		-48.828125
6973		-44.921875
6974		-48.828125
6975		-44.921875
6976		-46.875000
6977		-44.921875
6978		-44.921875
6979		-42.968750
6980		-44.921875
6981		-41.015625
6982		-42.968750
6983		-41.015625
6984		-42.968750
6985		-39.062500
6986		-41.015625
6987		-37.109375
6988		-39.062500
6989		-35.156250
6990		-37.109375
6991		-33.203125
6992		-35.156250
6993		-31.250000
6994		-33.203125
6995		-29.296875
6996		-31.250000
6997		-27.343750
6998		-29.296875
6999		-25.390625
7000		-27.343750
7001		-23.437500
7002		-23.437500
7003		-19.531250
7004		-21.484375
7005		-17.578125
7006		-19.531250
7007		-13.671875
7008		-15.625000
7009		-11.718750
7010		-13.671875
7011		-9.765625
7012		-11.718750
7013		-7.812500
7014		-9.765625
7015		-3.906250
7016		-5.859375
7017		-1.953125
7018		-1.953125
7019		1.953125
7020		0.000000
7021		3.906250
7022		3.906250
7023		7.812500
7024		5.859375
7025		9.765625
7026		7.812500
7027		13.671875
7028		11.718750
7029		15.625000
7030		13.671875
7031		19.531250
7032		17.578125
7033		21.484375
7034		19.531250
7035		23.437500
7036		23.437500
7037		27.343750
7038		25.390625
7039		29.296875
7040		27.343750
7041		33.203125
7042		31.250000
7043		35.156250
7044		33.203125
7045		37.109375
7046		35.156250
7047		41.015625
7048		39.062500
7049		42.968750
7050		41.015625
7051		44.921875
7052		42.968750
7053		46.875000
7054		44.921875
7055		48.828125
7056		46.875000
7057		50.781250
7058		48.828125
7059		52.734375
7060		50.781250
7061		54.687500
7062		52.734375
7063		56.640625
7064		54.687500
7065		58.593750
7066		56.640625
7067		58.593750
7068		58.593750
7069		60.546875
7070		58.593750
7071		62.500000
7072		60.546875
7073		62.500000
7074		62.500000
7075		64.453125
7076		62.500000
7077		64.453125
7078		64.453125
7079		66.406250
7080		64.453125
7081		66.406250
7082		64.453125
7083		68.359375
7084		66.406250
7085		68.359375
7086		66.406250
7087		68.359375
7088		66.406250
7089		68.359375
7090		66.406250
7091		68.359375
7092		66.406250
7093		68.359375
7094		66.406250
7095		68.359375
7096		66.406250
7097		68.359375
7098		66.406250
7099		68.359375
7100		64.453125
7101		68.359375
7102		64.453125
7103		68.359375
7104		64.453125
7105		66.406250
7106		62.500000
7107		66.406250
7108		62.500000
7109		64.453125
7110		60.546875
7111		62.500000
7112		58.593750
7113		62.500000
7114		58.593750
7115		60.546875
7116		56.640625
7117		60.546875
7118		54.687500
7119		58.593750
7120		52.734375
7121		56.640625
7122		50.781250
7123		54.687500
7124		48.828125
7125		52.734375
7126		46.875000
7127		50.781250
7128		44.921875
7129		48.828125
7130		42.968750
7131		46.875000
7132		41.015625
7133		44.921875
7134		39.062500
7135		42.968750
7136		35.156250
7137		39.062500
7138		33.203125
7139		37.109375
7140		31.250000
7141		35.156250
7142		27.343750
7143		33.203125
7144		25.390625
7145		29.296875
7146		23.437500
7147		27.343750
7148		19.531250
7149		23.437500
7150		17.578125
7151		21.484375
7152		13.671875
7153		17.578125
7154		11.718750
7155		15.625000
7156		7.812500
7157		13.671875
7158		5.859375
7159		9.765625
7160		1.953125
7161		5.859375
7162		0.000000
7163		3.906250
7164		-3.906250
7165		0.000000
7166		-5.859375
7167		-1.953125
7168		-9.765625
7169		-5.859375
7170		-11.718750
7171		-7.812500
7172		-15.625000
7173		-9.765625
7174		-17.578125
7175		-13.671875
7176		-19.531250
7177		-15.625000
7178		-23.437500
7179		-19.531250
7180		-25.390625
7181		-21.484375
7182		-27.343750
7183		-23.437500
7184		-29.296875
7185		-25.390625
7186		-31.250000
7187		-29.296875
7188		-35.156250
7189		-29.296875
7190		-37.109375
7191		-33.203125
7192		-37.109375
7193		-35.156250
7194		-39.062500
7195		-37.109375
7196		-41.015625
7197		-39.062500
7198		-42.968750
7199		-39.062500
7200		-44.921875
7201		-41.015625
7202		-44.921875
7203		-42.968750
7204		-46.875000
7205		-42.968750
7206		-46.875000
7207		-44.921875
7208		-48.828125
7209		-44.921875
7210		-48.828125
7211		-44.921875
7212		-48.828125
7213		-46.875000
7214		-48.828125
7215		-46.875000
7216		-48.828125
7217		-46.875000
7218		-48.828125
7219		-46.875000
7220		-48.828125
7221		-46.875000
7222		-50.781250
7223		-46.875000
7224		-48.828125
7225		-46.875000
7226		-48.828125
7227		-44.921875
7228		-46.875000
7229		-44.921875
7230		-46.875000
7231		-44.921875
7232		-46.875000
7233		-42.968750
7234		-44.921875
7235		-41.015625
7236		-42.968750
7237		-41.015625
7238		-41.015625
7239		-39.062500
7240		-41.015625
7241		-37.109375
7242		-39.062500
7243		-35.156250
7244		-37.109375
7245		-33.203125
7246		-35.156250
7247		-31.250000
7248		-33.203125
7249		-29.296875
7250		-31.250000
7251		-27.343750
7252		-29.296875
7253		-25.390625
7254		-25.390625
7255		-21.484375
7256		-23.437500
7257		-19.531250
7258		-21.484375
7259		-15.625000
7260		-17.578125
7261		-13.671875
7262		-15.625000
7263		-11.718750
7264		-13.671875
7265		-9.765625
7266		-9.765625
7267		-5.859375
7268		-7.812500
7269		-3.906250
7270		-3.906250
7271		0.000000
7272		-1.953125
7273		1.953125
7274		0.000000
7275		5.859375
7276		3.906250
7277		7.812500
7278		5.859375
7279		11.718750
7280		9.765625
7281		13.671875
7282		11.718750
7283		17.578125
7284		15.625000
7285		19.531250
7286		17.578125
7287		23.437500
7288		21.484375
7289		25.390625
7290		23.437500
7291		27.343750
7292		27.343750
7293		31.250000
7294		29.296875
7295		33.203125
7296		31.250000
7297		35.156250
7298		35.156250
7299		39.062500
7300		37.109375
7301		41.015625
7302		39.062500
7303		42.968750
7304		41.015625
7305		44.921875
7306		42.968750
7307		46.875000
7308		46.875000
7309		50.781250
7310		48.828125
7311		50.781250
7312		50.781250
7313		54.687500
7314		52.734375
7315		56.640625
7316		52.734375
7317		56.640625
7318		54.687500
7319		58.593750
7320		56.640625
7321		60.546875
7322		58.593750
7323		60.546875
7324		60.546875
7325		64.453125
7326		60.546875
7327		64.453125
7328		62.500000
7329		64.453125
7330		62.500000
7331		66.406250
7332		64.453125
7333		66.406250
7334		64.453125
7335		68.359375
7336		66.406250
7337		68.359375
7338		66.406250
7339		68.359375
7340		66.406250
7341		68.359375
7342		66.406250
7343		68.359375
7344		66.406250
7345		68.359375
7346		66.406250
7347		68.359375
7348		66.406250
7349		70.312500
7350		66.406250
7351		68.359375
7352		66.406250
7353		68.359375
7354		66.406250
7355		68.359375
7356		64.453125
7357		66.406250
7358		64.453125
7359		66.406250
7360		62.500000
7361		66.406250
7362		62.500000
7363		64.453125
7364		60.546875
7365		64.453125
7366		60.546875
7367		62.500000
7368		58.593750
7369		60.546875
7370		56.640625
7371		60.546875
7372		54.687500
7373		58.593750
7374		52.734375
7375		56.640625
7376		50.781250
7377		54.687500
7378		48.828125
7379		52.734375
7380		46.875000
7381		50.781250
7382		44.921875
7383		48.828125
7384		42.968750
7385		46.875000
7386		41.015625
7387		44.921875
7388		37.109375
7389		41.015625
7390		35.156250
7391		39.062500
7392		33.203125
7393		37.109375
7394		31.250000
7395		35.156250
7396		27.343750
7397		31.250000
7398		25.390625
7399		29.296875
7400		21.484375
7401		27.343750
7402		19.531250
7403		23.437500
7404		15.625000
7405		21.484375
7406		13.671875
7407		17.578125
7408		11.718750
7409		15.625000
7410		7.812500
7411		11.718750
7412		3.906250
7413		9.765625
7414		1.953125
7415		5.859375
7416		-1.953125
7417		3.906250
7418		-3.906250
7419		1.953125
7420		-7.812500
7421		-1.953125
7422		-9.765625
7423		-5.859375
7424		-11.718750
7425		-7.812500
7426		-15.625000
7427		-11.718750
7428		-17.578125
7429		-13.671875
7430		-21.484375
7431		-15.625000
7432		-23.437500
7433		-19.531250
7434		-25.390625
7435		-21.484375
7436		-27.343750
7437		-23.437500
7438		-29.296875
7439		-27.343750
7440		-33.203125
7441		-29.296875
7442		-35.156250
7443		-31.250000
7444		-37.109375
7445		-33.203125
7446		-39.062500
7447		-35.156250
7448		-39.062500
7449		-37.109375
7450		-41.015625
7451		-39.062500
7452		-42.968750
7453		-41.015625
7454		-44.921875
7455		-41.015625
7456		-46.875000
7457		-42.968750
7458		-46.875000
7459		-44.921875
7460		-46.875000
7461		-44.921875
7462		-48.828125
7463		-44.921875
7464		-48.828125
7465		-44.921875
7466		-48.828125
7467		-46.875000
7468		-48.828125
7469		-46.875000
7470		-50.781250
7471		-46.875000
7472		-48.828125
7473		-46.875000
7474		-48.828125
7475		-46.875000
7476		-50.781250
7477		-46.875000
7478		-48.828125
7479		-46.875000
7480		-48.828125
7481		-46.875000
7482		-46.875000
7483		-44.921875
7484		-46.875000
7485		-42.968750
7486		-44.921875
7487		-42.968750
7488		-44.921875
7489		-41.015625
7490		-42.968750
7491		-41.015625
7492		-41.015625
7493		-39.062500
7494		-41.015625
7495		-37.109375
7496		-39.062500
7497		-35.156250
7498		-37.109375
7499		-33.203125
7500		-35.156250
7501		-31.250000
7502		-33.203125
7503		-29.296875
7504		-31.250000
7505		-27.343750
7506		-27.343750
7507		-25.390625
7508		-25.390625
7509		-21.484375
7510		-23.437500
7511		-19.531250
7512		-21.484375
7513		-15.625000
7514		-17.578125
7515		-13.671875
7516		-15.625000
7517		-11.718750
7518		-13.671875
7519		-9.765625
7520		-9.765625
7521		-5.859375
7522		-7.812500
7523		-1.953125
7524		-3.906250
7525		0.000000
7526		-1.953125
7527		1.953125
7528		1.953125
7529		5.859375
7530		3.906250
7531		7.812500
7532		7.812500
7533		11.718750
7534		9.765625
7535		13.671875
7536		13.671875
7537		17.578125
7538		15.625000
7539		19.531250
7540		17.578125
7541		23.437500
7542		21.484375
7543		25.390625
7544		23.437500
7545		27.343750
7546		27.343750
7547		31.250000
7548		29.296875
7549		33.203125
7550		31.250000
7551		35.156250
7552		35.156250
7553		39.062500
7554		37.109375
7555		41.015625
7556		39.062500
7557		42.968750
7558		41.015625
7559		44.921875
7560		44.921875
7561		46.875000
7562		46.875000
7563		48.828125
7564		48.828125
7565		50.781250
7566		50.781250
7567		52.734375
7568		52.734375
7569		54.687500
7570		52.734375
7571		56.640625
7572		54.687500
7573		58.593750
7574		56.640625
7575		60.546875
7576		58.593750
7577		60.546875
7578		60.546875
7579		62.500000
7580		60.546875
7581		62.500000
7582		60.546875
7583		64.453125
7584		62.500000
7585		66.406250
7586		64.453125
7587		66.406250
7588		64.453125
7589		66.406250
7590		64.453125
7591		66.406250
7592		66.406250
7593		68.359375
7594		66.406250
7595		68.359375
7596		66.406250
7597		68.359375
7598		66.406250
7599		68.359375
7600		66.406250
7601		68.359375
7602		66.406250
7603		68.359375
7604		66.406250
7605		68.359375
7606		64.453125
7607		68.359375
7608		64.453125
7609		66.406250
7610		64.453125
7611		66.406250
7612		62.500000
7613		66.406250
7614		62.500000
7615		64.453125
7616		60.546875
7617		64.453125
7618		60.546875
7619		62.500000
7620		58.593750
7621		60.546875
7622		56.640625
7623		60.546875
7624		54.687500
7625		58.593750
7626		54.687500
7627		56.640625
7628		50.781250
7629		54.687500
7630		50.781250
7631		52.734375
7632		48.828125
7633		50.781250
7634		46.875000
7635		48.828125
7636		42.968750
7637		46.875000
7638		41.015625
7639		44.921875
7640		39.062500
7641		42.968750
7642		37.109375
7643		41.015625
7644		33.203125
7645		39.062500
7646		27.343750
7647		37.109375
7648		29.296875
7649		33.203125
7650		25.390625
7651		29.296875
7652		23.437500
7653		27.343750
7654		21.484375
7655		25.390625
7656		17.578125
7657		21.484375
7658		15.625000
7659		19.531250
7660		11.718750
7661		15.625000
7662		9.765625
7663		13.671875
7664		5.859375
7665		9.765625
7666		3.906250
7667		7.812500
7668		0.000000
7669		3.906250
7670		-1.953125
7671		1.953125
7672		-5.859375
7673		-1.953125
7674		-7.812500
7675		-3.906250
7676		-11.718750
7677		-7.812500
7678		-13.671875
7679		-9.765625
7680		-15.625000
7681		-11.718750
7682		-19.531250
7683		-15.625000
7684		-21.484375
7685		-17.578125
7686		-25.390625
7687		-21.484375
7688		-27.343750
7689		-23.437500
7690		-29.296875
7691		-25.390625
7692		-31.250000
7693		-27.343750
7694		-33.203125
7695		-29.296875
7696		-37.109375
7697		-31.250000
7698		-37.109375
7699		-33.203125
7700		-39.062500
7701		-35.156250
7702		-41.015625
7703		-35.156250
7704		-42.968750
7705		-39.062500
7706		-44.921875
7707		-41.015625
7708		-44.921875
7709		-42.968750
7710		-46.875000
7711		-42.968750
7712		-46.875000
7713		-44.921875
7714		-50.781250
7715		-44.921875
7716		-48.828125
7717		-46.875000
7718		-50.781250
7719		-44.921875
7720		-48.828125
7721		-46.875000
7722		-50.781250
7723		-46.875000
7724		-50.781250
7725		-46.875000
7726		-50.781250
7727		-46.875000
7728		-50.781250
7729		-46.875000
7730		-50.781250
7731		-44.921875
7732		-48.828125
7733		-44.921875
7734		-50.781250
7735		-42.968750
7736		-48.828125
7737		-44.921875
7738		-48.828125
7739		-41.015625
7740		-44.921875
7741		-42.968750
7742		-44.921875
7743		-41.015625
7744		-44.921875
7745		-39.062500
7746		-42.968750
7747		-37.109375
7748		-41.015625
7749		-37.109375
7750		-39.062500
7751		-33.203125
7752		-39.062500
7753		-31.250000
7754		-35.156250
7755		-27.343750
7756		-31.250000
7757		-27.343750
7758		-29.296875
7759		-25.390625
7760		-27.343750
7761		-23.437500
7762		-27.343750
7763		-19.531250
7764		-23.437500
7765		-17.578125
7766		-19.531250
7767		-15.625000
7768		-17.578125
7769		-11.718750
7770		-15.625000
7771		-9.765625
7772		-13.671875
7773		-5.859375
7774		-9.765625
7775		-5.859375
7776		-5.859375
7777		-1.953125
7778		-3.906250
7779		3.906250
7780		-3.906250
7781		3.906250
7782		1.953125
7783		7.812500
7784		5.859375
7785		9.765625
7786		5.859375
7787		13.671875
7788		7.812500
7789		17.578125
7790		13.671875
7791		17.578125
7792		17.578125
7793		21.484375
7794		19.531250
7795		25.390625
7796		19.531250
7797		27.343750
7798		23.437500
7799		29.296875
7800		27.343750
7801		31.250000
7802		29.296875
7803		37.109375
7804		33.203125
7805		37.109375
7806		31.250000
7807		41.015625
7808		37.109375
7809		41.015625
7810		41.015625
7811		44.921875
7812		39.062500
7813		50.781250
7814		42.968750
7815		48.828125
7816		46.875000
7817		50.781250
7818		48.828125
7819		56.640625
7820		46.875000
7821		56.640625
7822		48.828125
7823		60.546875
7824		54.687500
7825		58.593750
7826		56.640625
7827		58.593750
7828		56.640625
7829		62.500000
7830		56.640625
7831		64.453125
7832		58.593750
7833		64.453125
7834		62.500000
7835		64.453125
7836		60.546875
7837		70.312500
7838		60.546875
7839		70.312500
7840		64.453125
7841		68.359375
7842		64.453125
7843		68.359375
7844		64.453125
7845		68.359375
7846		62.500000
7847		72.265625
7848		64.453125
7849		70.312500
7850		66.406250
7851		68.359375
7852		64.453125
7853		72.265625
7854		62.500000
7855		74.218750
7856		64.453125
7857		72.265625
7858		66.406250
7859		68.359375
7860		64.453125
7861		68.359375
7862		62.500000
7863		70.312500
7864		62.500000
7865		70.312500
7866		62.500000
7867		66.406250
7868		62.500000
7869		64.453125
7870		58.593750
7871		68.359375
7872		54.687500
7873		64.453125
7874		58.593750
7875		60.546875
7876		56.640625
7877		60.546875
7878		54.687500
7879		58.593750
7880		52.734375
7881		60.546875
7882		50.781250
7883		56.640625
7884		50.781250
7885		52.734375
7886		44.921875
7887		54.687500
7888		44.921875
7889		52.734375
7890		42.968750
7891		50.781250
7892		41.015625
7893		44.921875
7894		37.109375
7895		42.968750
7896		33.203125
7897		42.968750
7898		33.203125
7899		39.062500
7900		31.250000
7901		35.156250
7902		27.343750
7903		33.203125
7904		23.437500
7905		33.203125
7906		21.484375
7907		29.296875
7908		19.531250
7909		25.390625
7910		17.578125
7911		21.484375
7912		13.671875
7913		19.531250
7914		9.765625
7915		17.578125
7916		9.765625
7917		13.671875
7918		5.859375
7919		9.765625
7920		0.000000
7921		9.765625
7922		-1.953125
7923		3.906250
7924		-3.906250
7925		1.953125
7926		-5.859375
7927		-1.953125
7928		-9.765625
7929		-3.906250
7930		-13.671875
7931		-5.859375
7932		-15.625000
7933		-9.765625
7934		-17.578125
7935		-11.718750
7936		-21.484375
7937		-13.671875
7938		-23.437500
7939		-15.625000
7940		-25.390625
7941		-19.531250
7942		-27.343750
7943		-23.437500
7944		-31.250000
7945		-25.390625
7946		-31.250000
7947		-27.343750
7948		-35.156250
7949		-27.343750
7950		-35.156250
7951		-31.250000
7952		-37.109375
7953		-33.203125
7954		-42.968750
7955		-33.203125
7956		-42.968750
7957		-37.109375
7958		-42.968750
7959		-39.062500
7960		-44.921875
7961		-41.015625
7962		-46.875000
7963		-42.968750
7964		-48.828125
7965		-41.015625
7966		-48.828125
7967		-42.968750
7968		-48.828125
7969		-44.921875
7970		-50.781250
7971		-44.921875
7972		-48.828125
7973		-46.875000
7974		-52.734375
7975		-42.968750
7976		-50.781250
7977		-46.875000
7978		-50.781250
7979		-46.875000
7980		-50.781250
7981		-44.921875
7982		-50.781250
7983		-44.921875
7984		-48.828125
7985		-46.875000
7986		-50.781250
7987		-42.968750
7988		-48.828125
7989		-44.921875
7990		-46.875000
7991		-44.921875
7992		-46.875000
7993		-42.968750
7994		-44.921875
7995		-42.968750
7996		-44.921875
7997		-41.015625
7998		-42.968750
7999		-39.062500
8000		-42.968750
8001		-37.109375
8002		-39.062500
8003		-35.156250
8004		-39.062500
8005		-33.203125
8006		-35.156250
8007		-31.250000
8008		-33.203125
8009		-29.296875
8010		-31.250000
8011		-27.343750
8012		-29.296875
8013		-25.390625
8014		-27.343750
8015		-23.437500
8016		-23.437500
8017		-21.484375
8018		-21.484375
8019		-17.578125
8020		-19.531250
8021		-15.625000
8022		-17.578125
8023		-13.671875
8024		-15.625000
8025		-9.765625
8026		-11.718750
8027		-5.859375
8028		-9.765625
8029		-3.906250
8030		-5.859375
8031		-1.953125
8032		-3.906250
8033		1.953125
8034		0.000000
8035		3.906250
8036		1.953125
8037		7.812500
8038		5.859375
8039		9.765625
8040		7.812500
8041		13.671875
8042		11.718750
8043		15.625000
8044		13.671875
8045		17.578125
8046		17.578125
8047		23.437500
8048		19.531250
8049		25.390625
8050		21.484375
8051		27.343750
8052		23.437500
8053		31.250000
8054		27.343750
8055		33.203125
8056		29.296875
8057		35.156250
8058		31.250000
8059		37.109375
8060		35.156250
8061		39.062500
8062		39.062500
8063		42.968750
8064		39.062500
8065		44.921875
8066		41.015625
8067		46.875000
8068		42.968750
8069		50.781250
8070		46.875000
8071		52.734375
8072		48.828125
8073		54.687500
8074		48.828125
8075		54.687500
8076		52.734375
8077		56.640625
8078		54.687500
8079		58.593750
8080		54.687500
8081		60.546875
8082		56.640625
8083		62.500000
8084		58.593750
8085		62.500000
8086		58.593750
8087		64.453125
8088		60.546875
8089		66.406250
8090		62.500000
8091		66.406250
8092		62.500000
8093		66.406250
8094		62.500000
8095		66.406250
8096		64.453125
8097		68.359375
8098		64.453125
8099		68.359375
8100		64.453125
8101		70.312500
8102		64.453125
8103		70.312500
8104		64.453125
8105		70.312500
8106		64.453125
8107		70.312500
8108		64.453125
8109		70.312500
8110		66.406250
8111		68.359375
8112		64.453125
8113		68.359375
8114		64.453125
8115		68.359375
8116		62.500000
8117		68.359375
8118		60.546875
8119		68.359375
8120		60.546875
8121		68.359375
8122		60.546875
8123		64.453125
8124		60.546875
8125		64.453125
8126		58.593750
8127		62.500000
8128		58.593750
8129		60.546875
8130		54.687500
8131		60.546875
8132		52.734375
8133		58.593750
8134		52.734375
8135		56.640625
8136		48.828125
8137		56.640625
8138		48.828125
8139		52.734375
8140		46.875000
8141		52.734375
8142		44.921875
8143		48.828125
8144		42.968750
8145		46.875000
8146		39.062500
8147		42.968750
8148		37.109375
8149		42.968750
8150		35.156250
8151		39.062500
8152		31.250000
8153		37.109375
8154		29.296875
8155		35.156250
8156		27.343750
8157		33.203125
8158		23.437500
8159		29.296875
8160		21.484375
8161		25.390625
8162		19.531250
8163		23.437500
8164		15.625000
8165		21.484375
8166		13.671875
8167		17.578125
8168		9.765625
8169		15.625000
8170		5.859375
8171		13.671875
8172		3.906250
8173		9.765625
8174		0.000000
8175		5.859375
8176		-1.953125
8177		3.906250
8178		-3.906250
8179		0.000000
8180		-7.812500
8181		-1.953125
8182		-9.765625
8183		-5.859375
8184		-13.671875
8185		-7.812500
8186		-17.578125
8187		-9.765625
8188		-17.578125
8189		-13.671875
8190		-21.484375
8191		-15.625000
8192		-23.437500
8193		-19.531250
8194		-27.343750
8195		-21.484375
8196		-27.343750
8197		-23.437500
8198		-31.250000
8199		-25.390625
8200		-33.203125
8201		-29.296875
8202		-35.156250
8203		-31.250000
8204		-37.109375
8205		-31.250000
8206		-39.062500
8207		-35.156250
8208		-41.015625
8209		-35.156250
8210		-41.015625
8211		-37.109375
8212		-42.968750
8213		-41.015625
8214		-44.921875
8215		-41.015625
8216		-46.875000
8217		-42.968750
8218		-46.875000
8219		-42.968750
8220		-48.828125
8221		-42.968750
8222		-48.828125
8223		-44.921875
8224		-48.828125
8225		-44.921875
8226		-50.781250
8227		-46.875000
8228		-50.781250
8229		-46.875000
8230		-50.781250
8231		-46.875000
8232		-50.781250
8233		-46.875000
8234		-50.781250
8235		-46.875000
8236		-50.781250
8237		-46.875000
8238		-48.828125
8239		-46.875000
8240		-48.828125
8241		-44.921875
8242		-48.828125
8243		-44.921875
8244		-46.875000
8245		-44.921875
8246		-46.875000
8247		-42.968750
8248		-44.921875
8249		-41.015625
8250		-42.968750
8251		-41.015625
8252		-42.968750
8253		-39.062500
8254		-42.968750
8255		-37.109375
8256		-39.062500
8257		-35.156250
8258		-37.109375
8259		-33.203125
8260		-35.156250
8261		-31.250000
8262		-33.203125
8263		-29.296875
8264		-31.250000
8265		-25.390625
8266		-29.296875
8267		-25.390625
8268		-25.390625
8269		-21.484375
8270		-23.437500
8271		-19.531250
8272		-21.484375
8273		-15.625000
8274		-19.531250
8275		-13.671875
8276		-17.578125
8277		-11.718750
8278		-13.671875
8279		-9.765625
8280		-9.765625
8281		-5.859375
8282		-9.765625
8283		-3.906250
8284		-5.859375
8285		0.000000
8286		-1.953125
8287		1.953125
8288		0.000000
8289		5.859375
8290		3.906250
8291		7.812500
8292		5.859375
8293		11.718750
8294		9.765625
8295		13.671875
8296		11.718750
8297		17.578125
8298		15.625000
8299		19.531250
8300		17.578125
8301		23.437500
8302		21.484375
8303		25.390625
8304		23.437500
8305		29.296875
8306		25.390625
8307		31.250000
8308		27.343750
8309		33.203125
8310		31.250000
8311		35.156250
8312		35.156250
8313		39.062500
8314		37.109375
8315		41.015625
8316		39.062500
8317		42.968750
8318		41.015625
8319		44.921875
8320		42.968750
8321		46.875000
8322		44.921875
8323		48.828125
8324		48.828125
8325		52.734375
8326		48.828125
8327		54.687500
8328		52.734375
8329		54.687500
8330		52.734375
8331		56.640625
8332		54.687500
8333		58.593750
8334		56.640625
8335		60.546875
8336		58.593750
8337		62.500000
8338		60.546875
8339		62.500000
8340		60.546875
8341		64.453125
8342		62.500000
8343		64.453125
8344		62.500000
8345		66.406250
8346		64.453125
8347		66.406250
8348		64.453125
8349		68.359375
8350		64.453125
8351		68.359375
8352		64.453125
8353		68.359375
8354		66.406250
8355		68.359375
8356		66.406250
8357		70.312500
8358		66.406250
8359		70.312500
8360		66.406250
8361		70.312500
8362		66.406250
8363		68.359375
8364		66.406250
8365		68.359375
8366		64.453125
8367		68.359375
8368		64.453125
8369		68.359375
8370		64.453125
8371		66.406250
8372		64.453125
8373		66.406250
8374		62.500000
8375		66.406250
8376		60.546875
8377		64.453125
8378		60.546875
8379		64.453125
8380		58.593750
8381		62.500000
8382		56.640625
8383		60.546875
8384		56.640625
8385		60.546875
8386		54.687500
8387		58.593750
8388		52.734375
8389		56.640625
8390		50.781250
8391		54.687500
8392		48.828125
8393		52.734375
8394		46.875000
8395		50.781250
8396		44.921875
8397		48.828125
8398		41.015625
8399		46.875000
8400		39.062500
8401		44.921875
8402		37.109375
8403		41.015625
8404		35.156250
8405		39.062500
8406		33.203125
8407		37.109375
8408		29.296875
8409		35.156250
8410		27.343750
8411		31.250000
8412		25.390625
8413		29.296875
8414		21.484375
8415		25.390625
8416		19.531250
8417		23.437500
8418		15.625000
8419		19.531250
8420		11.718750
8421		17.578125
8422		9.765625
8423		13.671875
8424		7.812500
8425		11.718750
8426		3.906250
8427		7.812500
8428		1.953125
8429		5.859375
8430		-1.953125
8431		3.906250
8432		-5.859375
8433		0.000000
8434		-7.812500
8435		-1.953125
8436		-9.765625
8437		-5.859375
8438		-13.671875
8439		-7.812500
8440		-15.625000
8441		-11.718750
8442		-17.578125
8443		-13.671875
8444		-21.484375
8445		-15.625000
8446		-23.437500
8447		-19.531250
8448		-25.390625
8449		-21.484375
8450		-29.296875
8451		-23.437500
8452		-31.250000
8453		-25.390625
8454		-33.203125
8455		-29.296875
8456		-35.156250
8457		-31.250000
8458		-37.109375
8459		-33.203125
8460		-39.062500
8461		-33.203125
8462		-41.015625
8463		-35.156250
8464		-41.015625
8465		-39.062500
8466		-44.921875
8467		-41.015625
8468		-44.921875
8469		-41.015625
8470		-46.875000
8471		-42.968750
8472		-46.875000
8473		-42.968750
8474		-46.875000
8475		-44.921875
8476		-48.828125
8477		-44.921875
8478		-48.828125
8479		-44.921875
8480		-48.828125
8481		-46.875000
8482		-50.781250
8483		-46.875000
8484		-50.781250
8485		-46.875000
8486		-50.781250
8487		-46.875000
8488		-50.781250
8489		-46.875000
8490		-48.828125
8491		-46.875000
8492		-48.828125
8493		-44.921875
8494		-48.828125
8495		-44.921875
8496		-48.828125
8497		-44.921875
8498		-46.875000
8499		-44.921875
8500		-46.875000
8501		-42.968750
8502		-44.921875
8503		-41.015625
8504		-42.968750
8505		-39.062500
8506		-41.015625
8507		-39.062500
8508		-41.015625
8509		-35.156250
8510		-39.062500
8511		-35.156250
8512		-37.109375
8513		-33.203125
8514		-35.156250
8515		-31.250000
8516		-33.203125
8517		-27.343750
8518		-31.250000
8519		-25.390625
8520		-27.343750
8521		-23.437500
8522		-25.390625
8523		-21.484375
8524		-23.437500
8525		-19.531250
8526		-21.484375
8527		-15.625000
8528		-17.578125
8529		-13.671875
8530		-15.625000
8531		-11.718750
8532		-13.671875
8533		-7.812500
8534		-9.765625
8535		-5.859375
8536		-7.812500
8537		-1.953125
8538		-3.906250
8539		0.000000
8540		-1.953125
8541		3.906250
8542		1.953125
8543		5.859375
8544		3.906250
8545		9.765625
8546		5.859375
8547		11.718750
8548		9.765625
8549		13.671875
8550		13.671875
8551		17.578125
8552		15.625000
8553		19.531250
8554		17.578125
8555		23.437500
8556		21.484375
8557		25.390625
8558		23.437500
8559		29.296875
8560		25.390625
8561		31.250000
8562		29.296875
8563		33.203125
8564		31.250000
8565		37.109375
8566		35.156250
8567		41.015625
8568		35.156250
8569		41.015625
8570		39.062500
8571		42.968750
8572		41.015625
8573		44.921875
8574		44.921875
8575		48.828125
8576		46.875000
8577		50.781250
8578		48.828125
8579		52.734375
8580		50.781250
8581		54.687500
8582		52.734375
8583		54.687500
8584		52.734375
8585		58.593750
8586		54.687500
8587		58.593750
8588		56.640625
8589		60.546875
8590		58.593750
8591		62.500000
8592		58.593750
8593		64.453125
8594		60.546875
8595		64.453125
8596		60.546875
8597		64.453125
8598		62.500000
8599		66.406250
8600		64.453125
8601		68.359375
8602		64.453125
8603		68.359375
8604		64.453125
8605		68.359375
8606		64.453125
8607		68.359375
8608		66.406250
8609		68.359375
8610		66.406250
8611		70.312500
8612		66.406250
8613		70.312500
8614		66.406250
8615		68.359375
8616		66.406250
8617		68.359375
8618		64.453125
8619		68.359375
8620		64.453125
8621		68.359375
8622		64.453125
8623		68.359375
8624		62.500000
8625		66.406250
8626		62.500000
8627		66.406250
8628		62.500000
8629		66.406250
8630		60.546875
8631		64.453125
8632		60.546875
8633		62.500000
8634		58.593750
8635		62.500000
8636		56.640625
8637		60.546875
8638		54.687500
8639		58.593750
8640		52.734375
8641		58.593750
8642		50.781250
8643		56.640625
8644		50.781250
8645		54.687500
8646		46.875000
8647		52.734375
8648		46.875000
8649		48.828125
8650		44.921875
8651		48.828125
8652		41.015625
8653		46.875000
8654		39.062500
8655		42.968750
8656		37.109375
8657		41.015625
8658		35.156250
8659		39.062500
8660		31.250000
8661		37.109375
8662		27.343750
8663		33.203125
8664		27.343750
8665		31.250000
8666		23.437500
8667		27.343750
8668		21.484375
8669		25.390625
8670		17.578125
8671		21.484375
8672		15.625000
8673		19.531250
8674		11.718750
8675		17.578125
8676		7.812500
8677		13.671875
8678		5.859375
8679		11.718750
8680		3.906250
8681		7.812500
8682		0.000000
8683		5.859375
8684		-3.906250
8685		1.953125
8686		-5.859375
8687		0.000000
8688		-7.812500
8689		-3.906250
8690		-11.718750
8691		-5.859375
8692		-15.625000
8693		-9.765625
8694		-17.578125
8695		-11.718750
8696		-19.531250
8697		-13.671875
8698		-21.484375
8699		-17.578125
8700		-23.437500
8701		-19.531250
8702		-27.343750
8703		-21.484375
8704		-29.296875
8705		-25.390625
8706		-31.250000
8707		-27.343750
8708		-33.203125
8709		-29.296875
8710		-35.156250
8711		-31.250000
8712		-39.062500
8713		-33.203125
8714		-39.062500
8715		-35.156250
8716		-41.015625
8717		-37.109375
8718		-42.968750
8719		-39.062500
8720		-42.968750
8721		-41.015625
8722		-44.921875
8723		-41.015625
8724		-46.875000
8725		-42.968750
8726		-46.875000
8727		-42.968750
8728		-46.875000
8729		-44.921875
8730		-48.828125
8731		-44.921875
8732		-48.828125
8733		-46.875000
8734		-48.828125
8735		-46.875000
8736		-50.781250
8737		-46.875000
8738		-50.781250
8739		-46.875000
8740		-48.828125
8741		-46.875000
8742		-48.828125
8743		-46.875000
8744		-48.828125
8745		-44.921875
8746		-48.828125
8747		-44.921875
8748		-48.828125
8749		-44.921875
8750		-46.875000
8751		-42.968750
8752		-46.875000
8753		-42.968750
8754		-44.921875
8755		-41.015625
8756		-42.968750
8757		-41.015625
8758		-42.968750
8759		-39.062500
8760		-41.015625
8761		-37.109375
8762		-39.062500
8763		-35.156250
8764		-37.109375
8765		-33.203125
8766		-35.156250
8767		-31.250000
8768		-33.203125
8769		-29.296875
8770		-31.250000
8771		-27.343750
8772		-29.296875
8773		-25.390625
8774		-27.343750
8775		-23.437500
8776		-23.437500
8777		-19.531250
8778		-21.484375
8779		-17.578125
8780		-19.531250
8781		-13.671875
8782		-15.625000
8783		-11.718750
8784		-13.671875
8785		-9.765625
8786		-11.718750
8787		-5.859375
8788		-7.812500
8789		-3.906250
8790		-5.859375
8791		0.000000
8792		-1.953125
8793		1.953125
8794		0.000000
8795		3.906250
8796		1.953125
8797		7.812500
8798		5.859375
8799		9.765625
8800		7.812500
8801		13.671875
8802		11.718750
8803		17.578125
8804		13.671875
8805		19.531250
8806		17.578125
8807		21.484375
8808		19.531250
8809		25.390625
8810		23.437500
8811		27.343750
8812		25.390625
8813		29.296875
8814		29.296875
8815		33.203125
8816		31.250000
8817		35.156250
8818		33.203125
8819		37.109375
8820		35.156250
8821		41.015625
8822		39.062500
8823		42.968750
8824		41.015625
8825		44.921875
8826		42.968750
8827		48.828125
8828		44.921875
8829		48.828125
8830		46.875000
8831		50.781250
8832		48.828125
8833		52.734375
8834		52.734375
8835		54.687500
8836		52.734375
8837		56.640625
8838		54.687500
8839		58.593750
8840		56.640625
8841		60.546875
8842		58.593750
8843		62.500000
8844		60.546875
8845		62.500000
8846		60.546875
8847		64.453125
8848		62.500000
8849		64.453125
8850		62.500000
8851		66.406250
8852		64.453125
8853		68.359375
8854		64.453125
8855		68.359375
8856		64.453125
8857		68.359375
8858		66.406250
8859		68.359375
8860		66.406250
8861		70.312500
8862		66.406250
8863		70.312500
8864		66.406250
8865		70.312500
8866		68.359375
8867		70.312500
8868		66.406250
8869		70.312500
8870		66.406250
8871		70.312500
8872		66.406250
8873		68.359375
8874		64.453125
8875		70.312500
8876		64.453125
8877		68.359375
8878		64.453125
8879		68.359375
8880		64.453125
8881		66.406250
8882		62.500000
8883		66.406250
8884		60.546875
8885		64.453125
8886		60.546875
8887		62.500000
8888		58.593750
8889		62.500000
8890		56.640625
8891		60.546875
8892		56.640625
8893		58.593750
8894		54.687500
8895		56.640625
8896		50.781250
8897		54.687500
8898		50.781250
8899		54.687500
8900		48.828125
8901		52.734375
8902		44.921875
8903		48.828125
8904		42.968750
8905		48.828125
8906		41.015625
8907		44.921875
8908		39.062500
8909		42.968750
8910		37.109375
8911		41.015625
8912		33.203125
8913		37.109375
8914		31.250000
8915		35.156250
8916		29.296875
8917		33.203125
8918		25.390625
8919		29.296875
8920		23.437500
8921		27.343750
8922		19.531250
8923		25.390625
8924		17.578125
8925		21.484375
8926		13.671875
8927		19.531250
8928		11.718750
8929		15.625000
8930		7.812500
8931		13.671875
8932		5.859375
8933		9.765625
8934		1.953125
8935		7.812500
8936		0.000000
8937		3.906250
8938		-3.906250
8939		1.953125
8940		-5.859375
8941		-1.953125
8942		-9.765625
8943		-3.906250
8944		-11.718750
8945		-5.859375
8946		-13.671875
8947		-9.765625
8948		-17.578125
8949		-11.718750
8950		-19.531250
8951		-15.625000
8952		-21.484375
8953		-17.578125
8954		-25.390625
8955		-19.531250
8956		-27.343750
8957		-23.437500
8958		-31.250000
8959		-25.390625
8960		-31.250000
8961		-27.343750
8962		-33.203125
8963		-29.296875
8964		-37.109375
8965		-31.250000
8966		-37.109375
8967		-33.203125
8968		-39.062500
8969		-35.156250
8970		-42.968750
8971		-37.109375
8972		-42.968750
8973		-39.062500
8974		-44.921875
8975		-41.015625
8976		-44.921875
8977		-41.015625
8978		-46.875000
8979		-42.968750
8980		-46.875000
8981		-44.921875
8982		-48.828125
8983		-44.921875
8984		-48.828125
8985		-46.875000
8986		-48.828125
8987		-46.875000
8988		-50.781250
8989		-46.875000
8990		-50.781250
8991		-46.875000
8992		-50.781250
8993		-46.875000
8994		-50.781250
8995		-46.875000
8996		-50.781250
8997		-46.875000
8998		-48.828125
8999		-46.875000
9000		-50.781250
9001		-44.921875
9002		-46.875000
9003		-44.921875
9004		-46.875000
9005		-42.968750
9006		-46.875000
9007		-42.968750
9008		-44.921875
9009		-41.015625
9010		-42.968750
9011		-39.062500
9012		-42.968750
9013		-39.062500
9014		-41.015625
9015		-37.109375
9016		-39.062500
9017		-35.156250
9018		-37.109375
9019		-33.203125
9020		-35.156250
9021		-31.250000
9022		-33.203125
9023		-29.296875
9024		-31.250000
9025		-27.343750
9026		-29.296875
9027		-25.390625
9028		-27.343750
9029		-21.484375
9030		-23.437500
9031		-19.531250
9032		-21.484375
9033		-15.625000
9034		-19.531250
9035		-13.671875
9036		-15.625000
9037		-11.718750
9038		-13.671875
9039		-9.765625
9040		-11.718750
9041		-5.859375
9042		-7.812500
9043		-3.906250
9044		-5.859375
9045		0.000000
9046		-3.906250
9047		1.953125
9048		0.000000
9049		3.906250
9050		3.906250
9051		7.812500
9052		5.859375
9053		9.765625
9054		9.765625
9055		13.671875
9056		11.718750
9057		15.625000
9058		13.671875
9059		19.531250
9060		17.578125
9061		21.484375
9062		19.531250
9063		25.390625
9064		23.437500
9065		27.343750
9066		25.390625
9067		31.250000
9068		29.296875
9069		33.203125
9070		31.250000
9071		35.156250
9072		33.203125
9073		39.062500
9074		35.156250
9075		41.015625
9076		39.062500
9077		42.968750
9078		41.015625
9079		44.921875
9080		42.968750
9081		46.875000
9082		44.921875
9083		48.828125
9084		46.875000
9085		50.781250
9086		48.828125
9087		54.687500
9088		50.781250
9089		54.687500
9090		52.734375
9091		56.640625
9092		54.687500
9093		58.593750
9094		56.640625
9095		60.546875
9096		56.640625
9097		60.546875
9098		58.593750
9099		62.500000
9100		60.546875
9101		64.453125
9102		62.500000
9103		64.453125
9104		62.500000
9105		66.406250
9106		62.500000
9107		66.406250
9108		64.453125
9109		68.359375
9110		64.453125
9111		68.359375
9112		66.406250
9113		68.359375
9114		66.406250
9115		68.359375
9116		66.406250
9117		70.312500
9118		66.406250
9119		68.359375
9120		66.406250
9121		68.359375
9122		66.406250
9123		68.359375
9124		64.453125
9125		68.359375
9126		64.453125
9127		68.359375
9128		64.453125
9129		68.359375
9130		64.453125
9131		66.406250
9132		62.500000
9133		66.406250
9134		62.500000
9135		66.406250
9136		62.500000
9137		64.453125
9138		60.546875
9139		62.500000
9140		58.593750
9141		62.500000
9142		56.640625
9143		60.546875
9144		56.640625
9145		58.593750
9146		54.687500
9147		58.593750
9148		52.734375
9149		56.640625
9150		50.781250
9151		54.687500
9152		48.828125
9153		52.734375
9154		46.875000
9155		50.781250
9156		44.921875
9157		48.828125
9158		42.968750
9159		46.875000
9160		39.062500
9161		44.921875
9162		37.109375
9163		41.015625
9164		35.156250
9165		39.062500
9166		33.203125
9167		37.109375
9168		29.296875
9169		35.156250
9170		27.343750
9171		31.250000
9172		23.437500
9173		29.296875
9174		21.484375
9175		25.390625
9176		19.531250
9177		23.437500
9178		15.625000
9179		21.484375
9180		13.671875
9181		17.578125
9182		9.765625
9183		15.625000
9184		7.812500
9185		11.718750
9186		3.906250
9187		9.765625
9188		1.953125
9189		5.859375
9190		-1.953125
9191		3.906250
9192		-3.906250
9193		0.000000
9194		-7.812500
9195		-1.953125
9196		-9.765625
9197		-5.859375
9198		-13.671875
9199		-7.812500
9200		-17.578125
9201		-11.718750
9202		-17.578125
9203		-13.671875
9204		-21.484375
9205		-15.625000
9206		-23.437500
9207		-19.531250
9208		-25.390625
9209		-21.484375
9210		-27.343750
9211		-23.437500
9212		-31.250000
9213		-25.390625
9214		-33.203125
9215		-29.296875
9216		-35.156250
9217		-31.250000
9218		-37.109375
9219		-33.203125
9220		-39.062500
9221		-35.156250
9222		-41.015625
9223		-37.109375
9224		-42.968750
9225		-37.109375
9226		-42.968750
9227		-39.062500
9228		-44.921875
9229		-41.015625
9230		-44.921875
9231		-42.968750
9232		-46.875000
9233		-42.968750
9234		-48.828125
9235		-44.921875
9236		-48.828125
9237		-46.875000
9238		-48.828125
9239		-46.875000
9240		-50.781250
9241		-46.875000
9242		-50.781250
9243		-46.875000
9244		-50.781250
9245		-46.875000
9246		-50.781250
9247		-46.875000
9248		-50.781250
9249		-46.875000
9250		-48.828125
9251		-46.875000
9252		-48.828125
9253		-46.875000
9254		-48.828125
9255		-44.921875
9256		-48.828125
9257		-44.921875
9258		-46.875000
9259		-42.968750
9260		-46.875000
9261		-42.968750
9262		-44.921875
9263		-41.015625
9264		-42.968750
9265		-39.062500
9266		-42.968750
9267		-37.109375
9268		-41.015625
9269		-37.109375
9270		-39.062500
9271		-35.156250
9272		-37.109375
9273		-33.203125
9274		-35.156250
9275		-31.250000
9276		-33.203125
9277		-27.343750
9278		-29.296875
9279		-27.343750
9280		-27.343750
9281		-23.437500
9282		-25.390625
9283		-21.484375
9284		-23.437500
9285		-17.578125
9286		-21.484375
9287		-17.578125
9288		-17.578125
9289		-13.671875
9290		-15.625000
9291		-11.718750
9292		-13.671875
9293		-7.812500
9294		-9.765625
9295		-5.859375
9296		-7.812500
9297		-1.953125
9298		-3.906250
9299		0.000000
9300		-1.953125
9301		3.906250
9302		1.953125
9303		5.859375
9304		3.906250
9305		9.765625
9306		7.812500
9307		11.718750
9308		9.765625
9309		15.625000
9310		13.671875
9311		17.578125
9312		15.625000
9313		21.484375
9314		19.531250
9315		23.437500
9316		21.484375
9317		25.390625
9318		23.437500
9319		29.296875
9320		27.343750
9321		31.250000
9322		29.296875
9323		33.203125
9324		31.250000
9325		37.109375
9326		35.156250
9327		39.062500
9328		37.109375
9329		41.015625
9330		39.062500
9331		42.968750
9332		41.015625
9333		46.875000
9334		44.921875
9335		48.828125
9336		44.921875
9337		50.781250
9338		48.828125
9339		52.734375
9340		50.781250
9341		54.687500
9342		52.734375
9343		56.640625
9344		54.687500
9345		58.593750
9346		56.640625
9347		58.593750
9348		56.640625
9349		62.500000
9350		58.593750
9351		62.500000
9352		58.593750
9353		64.453125
9354		62.500000
9355		64.453125
9356		62.500000
9357		66.406250
9358		64.453125
9359		66.406250
9360		64.453125
9361		68.359375
9362		64.453125
9363		68.359375
9364		64.453125
9365		68.359375
9366		66.406250
9367		70.312500
9368		66.406250
9369		70.312500
9370		66.406250
9371		70.312500
9372		66.406250
9373		70.312500
9374		66.406250
9375		70.312500
9376		66.406250
9377		70.312500
9378		66.406250
9379		68.359375
9380		66.406250
9381		68.359375
9382		64.453125
9383		68.359375
9384		64.453125
9385		68.359375
9386		64.453125
9387		68.359375
9388		62.500000
9389		66.406250
9390		62.500000
9391		64.453125
9392		60.546875
9393		64.453125
9394		58.593750
9395		62.500000
9396		56.640625
9397		60.546875
9398		56.640625
9399		60.546875
9400		54.687500
9401		58.593750
9402		50.781250
9403		56.640625
9404		50.781250
9405		54.687500
9406		48.828125
9407		52.734375
9408		46.875000
9409		52.734375
9410		44.921875
9411		48.828125
9412		42.968750
9413		46.875000
9414		39.062500
9415		44.921875
9416		37.109375
9417		42.968750
9418		35.156250
9419		41.015625
9420		33.203125
9421		37.109375
9422		29.296875
9423		35.156250
9424		27.343750
9425		31.250000
9426		23.437500
9427		29.296875
9428		21.484375
9429		25.390625
9430		19.531250
9431		23.437500
9432		15.625000
9433		21.484375
9434		13.671875
9435		17.578125
9436		9.765625
9437		15.625000
9438		7.812500
9439		11.718750
9440		3.906250
9441		7.812500
9442		0.000000
9443		5.859375
9444		-1.953125
9445		3.906250
9446		-3.906250
9447		0.000000
9448		-7.812500
9449		-3.906250
9450		-9.765625
9451		-5.859375
9452		-13.671875
9453		-7.812500
9454		-15.625000
9455		-9.765625
9456		-17.578125
9457		-13.671875
9458		-21.484375
9459		-17.578125
9460		-23.437500
9461		-19.531250
9462		-25.390625
9463		-21.484375
9464		-29.296875
9465		-23.437500
9466		-31.250000
9467		-27.343750
9468		-33.203125
9469		-27.343750
9470		-35.156250
9471		-31.250000
9472		-37.109375
9473		-33.203125
9474		-39.062500
9475		-35.156250
9476		-41.015625
9477		-37.109375
9478		-42.968750
9479		-39.062500
9480		-42.968750
9481		-41.015625
9482		-44.921875
9483		-41.015625
9484		-46.875000
9485		-42.968750
9486		-46.875000
9487		-42.968750
9488		-46.875000
9489		-44.921875
9490		-48.828125
9491		-44.921875
9492		-48.828125
9493		-44.921875
9494		-48.828125
9495		-46.875000
9496		-50.781250
9497		-46.875000
9498		-50.781250
9499		-46.875000
9500		-50.781250
9501		-46.875000
9502		-50.781250
9503		-46.875000
9504		-50.781250
9505		-46.875000
9506		-48.828125
9507		-46.875000
9508		-48.828125
9509		-44.921875
9510		-46.875000
9511		-44.921875
9512		-46.875000
9513		-42.968750
9514		-44.921875
9515		-42.968750
9516		-44.921875
9517		-41.015625
9518		-42.968750
9519		-39.062500
9520		-42.968750
9521		-37.109375
9522		-39.062500
9523		-37.109375
9524		-37.109375
9525		-35.156250
9526		-37.109375
9527		-31.250000
9528		-35.156250
9529		-29.296875
9530		-31.250000
9531		-27.343750
9532		-29.296875
9533		-25.390625
9534		-27.343750
9535		-23.437500
9536		-25.390625
9537		-21.484375
9538		-23.437500
9539		-19.531250
9540		-19.531250
9541		-15.625000
9542		-17.578125
9543		-13.671875
9544		-15.625000
9545		-9.765625
9546		-11.718750
9547		-7.812500
9548		-9.765625
9549		-3.906250
9550		-5.859375
9551		-1.953125
9552		-3.906250
9553		1.953125
9554		-1.953125
9555		3.906250
9556		1.953125
9557		5.859375
9558		5.859375
9559		9.765625
9560		7.812500
9561		11.718750
9562		9.765625
9563		15.625000
9564		13.671875
9565		17.578125
9566		15.625000
9567		21.484375
9568		19.531250
9569		23.437500
9570		21.484375
9571		27.343750
9572		25.390625
9573		29.296875
9574		27.343750
9575		31.250000
9576		29.296875
9577		35.156250
9578		33.203125
9579		37.109375
9580		35.156250
9581		41.015625
9582		37.109375
9583		41.015625
9584		39.062500
9585		44.921875
9586		42.968750
9587		46.875000
9588		44.921875
9589		48.828125
9590		46.875000
9591		50.781250
9592		48.828125
9593		52.734375
9594		50.781250
9595		54.687500
9596		50.781250
9597		56.640625
9598		54.687500
9599		58.593750
9600		56.640625
9601		60.546875
9602		58.593750
9603		60.546875
9604		58.593750
9605		62.500000
9606		60.546875
9607		62.500000
9608		60.546875
9609		64.453125
9610		62.500000
9611		66.406250
9612		64.453125
9613		66.406250
9614		64.453125
9615		68.359375
9616		64.453125
9617		68.359375
9618		66.406250
9619		68.359375
9620		66.406250
9621		70.312500
9622		66.406250
9623		70.312500
9624		66.406250
9625		68.359375
9626		66.406250
9627		70.312500
9628		66.406250
9629		70.312500
9630		66.406250
9631		70.312500
9632		66.406250
9633		68.359375
9634		66.406250
9635		68.359375
9636		64.453125
9637		68.359375
9638		62.500000
9639		68.359375
9640		64.453125
9641		66.406250
9642		62.500000
9643		64.453125
9644		60.546875
9645		64.453125
9646		60.546875
9647		64.453125
9648		58.593750
9649		62.500000
9650		56.640625
9651		60.546875
9652		54.687500
9653		58.593750
9654		52.734375
9655		56.640625
9656		52.734375
9657		56.640625
9658		50.781250
9659		54.687500
9660		46.875000
9661		52.734375
9662		44.921875
9663		50.781250
9664		42.968750
9665		48.828125
9666		41.015625
9667		44.921875
9668		39.062500
9669		42.968750
9670		37.109375
9671		41.015625
9672		35.156250
9673		39.062500
9674		31.250000
9675		35.156250
9676		27.343750
9677		33.203125
9678		27.343750
9679		31.250000
9680		23.437500
9681		27.343750
9682		21.484375
9683		25.390625
9684		17.578125
9685		21.484375
9686		15.625000
9687		19.531250
9688		11.718750
9689		17.578125
9690		9.765625
9691		13.671875
9692		5.859375
9693		9.765625
9694		3.906250
9695		9.765625
9696		0.000000
9697		5.859375
9698		-1.953125
9699		1.953125
9700		-5.859375
9701		0.000000
9702		-7.812500
9703		-3.906250
9704		-11.718750
9705		-5.859375
9706		-13.671875
9707		-7.812500
9708		-15.625000
9709		-11.718750
9710		-19.531250
9711		-15.625000
9712		-21.484375
9713		-17.578125
9714		-25.390625
9715		-19.531250
9716		-27.343750
9717		-23.437500
9718		-29.296875
9719		-25.390625
9720		-31.250000
9721		-27.343750
9722		-33.203125
9723		-29.296875
9724		-35.156250
9725		-31.250000
9726		-39.062500
9727		-33.203125
9728		-39.062500
9729		-35.156250
9730		-41.015625
9731		-37.109375
9732		-42.968750
9733		-39.062500
9734		-42.968750
9735		-39.062500
9736		-44.921875
9737		-41.015625
9738		-46.875000
9739		-42.968750
9740		-46.875000
9741		-44.921875
9742		-46.875000
9743		-44.921875
9744		-48.828125
9745		-44.921875
9746		-48.828125
9747		-46.875000
9748		-48.828125
9749		-46.875000
9750		-48.828125
9751		-46.875000
9752		-50.781250
9753		-46.875000
9754		-48.828125
9755		-46.875000
9756		-50.781250
9757		-46.875000
9758		-48.828125
9759		-46.875000
9760		-48.828125
9761		-44.921875
9762		-48.828125
9763		-44.921875
9764		-46.875000
9765		-42.968750
9766		-46.875000
9767		-42.968750
9768		-44.921875
9769		-41.015625
9770		-42.968750
9771		-41.015625
9772		-42.968750
9773		-39.062500
9774		-41.015625
9775		-37.109375
9776		-39.062500
9777		-35.156250
9778		-37.109375
9779		-33.203125
9780		-35.156250
9781		-31.250000
9782		-33.203125
9783		-29.296875
9784		-31.250000
9785		-27.343750
9786		-29.296875
9787		-25.390625
9788		-27.343750
9789		-21.484375
9790		-25.390625
9791		-19.531250
9792		-21.484375
9793		-17.578125
9794		-19.531250
9795		-15.625000
9796		-15.625000
9797		-11.718750
9798		-15.625000
9799		-9.765625
9800		-11.718750
9801		-5.859375
9802		-7.812500
9803		-3.906250
9804		-5.859375
9805		0.000000
9806		-1.953125
9807		1.953125
9808		0.000000
9809		3.906250
9810		3.906250
9811		7.812500
9812		3.906250
9813		9.765625
9814		7.812500
9815		13.671875
9816		11.718750
9817		15.625000
9818		15.625000
9819		19.531250
9820		17.578125
9821		21.484375
9822		19.531250
9823		25.390625
9824		23.437500
9825		27.343750
9826		25.390625
9827		29.296875
9828		29.296875
9829		33.203125
9830		31.250000
9831		35.156250
9832		33.203125
9833		39.062500
9834		37.109375
9835		41.015625
9836		39.062500
9837		42.968750
9838		41.015625
9839		44.921875
9840		42.968750
9841		46.875000
9842		44.921875
9843		48.828125
9844		46.875000
9845		50.781250
9846		48.828125
9847		52.734375
9848		50.781250
9849		54.687500
9850		52.734375
9851		56.640625
9852		54.687500
9853		58.593750
9854		56.640625
9855		60.546875
9856		58.593750
9857		62.500000
9858		60.546875
9859		62.500000
9860		60.546875
9861		64.453125
9862		60.546875
9863		64.453125
9864		62.500000
9865		66.406250
9866		64.453125
9867		66.406250
9868		64.453125
9869		68.359375
9870		64.453125
9871		68.359375
9872		66.406250
9873		68.359375
9874		66.406250
9875		68.359375
9876		66.406250
9877		68.359375
9878		66.406250
9879		70.312500
9880		66.406250
9881		70.312500
9882		66.406250
9883		70.312500
9884		66.406250
9885		70.312500
9886		66.406250
9887		68.359375
9888		64.453125
9889		68.359375
9890		64.453125
9891		68.359375
9892		64.453125
9893		66.406250
9894		64.453125
9895		66.406250
9896		62.500000
9897		66.406250
9898		60.546875
9899		64.453125
9900		60.546875
9901		64.453125
9902		58.593750
9903		62.500000
9904		56.640625
9905		60.546875
9906		52.734375
9907		58.593750
9908		52.734375
9909		58.593750
9910		52.734375
9911		54.687500
9912		48.828125
9913		54.687500
9914		46.875000
9915		50.781250
9916		44.921875
9917		48.828125
9918		42.968750
9919		46.875000
9920		41.015625
9921		44.921875
9922		39.062500
9923		42.968750
9924		35.156250
9925		41.015625
9926		33.203125
9927		37.109375
9928		29.296875
9929		35.156250
9930		27.343750
9931		33.203125
9932		25.390625
9933		29.296875
9934		23.437500
9935		27.343750
9936		19.531250
9937		23.437500
9938		15.625000
9939		23.437500
9940		13.671875
9941		17.578125
9942		11.718750
9943		15.625000
9944		7.812500
9945		11.718750
9946		3.906250
9947		9.765625
9948		1.953125
9949		7.812500
9950		0.000000
9951		3.906250
9952		-3.906250
9953		0.000000
9954		-5.859375
9955		-1.953125
9956		-9.765625
9957		-5.859375
9958		-11.718750
9959		-7.812500
9960		-15.625000
9961		-9.765625
9962		-17.578125
9963		-13.671875
9964		-19.531250
9965		-15.625000
9966		-23.437500
9967		-19.531250
9968		-25.390625
9969		-21.484375
9970		-29.296875
9971		-23.437500
9972		-29.296875
9973		-25.390625
9974		-33.203125
9975		-29.296875
9976		-35.156250
9977		-31.250000
9978		-37.109375
9979		-33.203125
9980		-39.062500
9981		-33.203125
9982		-39.062500
9983		-35.156250
9984		-41.015625
9985		-37.109375
9986		-42.968750
9987		-39.062500
9988		-44.921875
9989		-41.015625
9990		-46.875000
9991		-41.015625
9992		-46.875000
9993		-42.968750
9994		-46.875000
9995		-42.968750
9996		-48.828125
9997		-44.921875
9998		-48.828125
9999		-46.875000
10000		-48.828125
