Channel              :		CH1
Frequency            :		1.973kHz
Period               :		0.507ms
PK-PK                :		82.03mV
Probe attenuation    :		1X
Voltage per ADC value:		0.122070mV
Time interval        :		2.00000us

index		CH1_Voltage(mV)
1		44.921875
2		44.921875
3		41.015625
4		44.921875
5		41.015625
6		44.921875
7		41.015625
8		42.968750
9		39.062500
10		42.968750
11		39.062500
12		42.968750
13		37.109375
14		41.015625
15		37.109375
16		41.015625
17		35.156250
18		39.062500
19		35.156250
20		39.062500
21		33.203125
22		37.109375
23		33.203125
24		35.156250
25		31.250000
26		35.156250
27		29.296875
28		35.156250
29		27.343750
30		33.203125
31		27.343750
32		29.296875
33		25.390625
34		29.296875
35		23.437500
36		27.343750
37		23.437500
38		25.390625
39		21.484375
40		25.390625
41		19.531250
42		21.484375
43		15.625000
44		21.484375
45		15.625000
46		19.531250
47		13.671875
48		17.578125
49		11.718750
50		15.625000
51		9.765625
52		13.671875
53		7.812500
54		11.718750
55		5.859375
56		9.765625
57		5.859375
58		9.765625
59		3.906250
60		7.812500
61		1.953125
62		5.859375
63		-1.953125
64		3.906250
65		-1.953125
66		1.953125
67		-3.906250
68		0.000000
69		-5.859375
70		-1.953125
71		-7.812500
72		-3.906250
73		-7.812500
74		-5.859375
75		-9.765625
76		-5.859375
77		-11.718750
78		-7.812500
79		-13.671875
80		-9.765625
81		-15.625000
82		-9.765625
83		-15.625000
84		-13.671875
85		-19.531250
86		-13.671875
87		-19.531250
88		-15.625000
89		-19.531250
90		-17.578125
91		-21.484375
92		-17.578125
93		-23.437500
94		-19.531250
95		-23.437500
96		-19.531250
97		-25.390625
98		-21.484375
99		-25.390625
100		-21.484375
101		-27.343750
102		-23.437500
103		-27.343750
104		-23.437500
105		-27.343750
106		-23.437500
107		-27.343750
108		-25.390625
109		-27.343750
110		-25.390625
111		-29.296875
112		-25.390625
113		-29.296875
114		-25.390625
115		-29.296875
116		-25.390625
117		-27.343750
118		-25.390625
119		-29.296875
120		-25.390625
121		-29.296875
122		-25.390625
123		-27.343750
124		-25.390625
125		-27.343750
126		-25.390625
127		-27.343750
128		-23.437500
129		-27.343750
130		-23.437500
131		-27.343750
132		-23.437500
133		-25.390625
134		-23.437500
135		-25.390625
136		-21.484375
137		-23.437500
138		-21.484375
139		-23.437500
140		-19.531250
141		-21.484375
142		-19.531250
143		-21.484375
144		-17.578125
145		-19.531250
146		-15.625000
147		-19.531250
148		-15.625000
149		-17.578125
150		-13.671875
151		-15.625000
152		-13.671875
153		-15.625000
154		-11.718750
155		-13.671875
156		-7.812500
157		-11.718750
158		-7.812500
159		-9.765625
160		-5.859375
161		-7.812500
162		-3.906250
163		-5.859375
164		-3.906250
165		-5.859375
166		-1.953125
167		-3.906250
168		0.000000
169		-1.953125
170		1.953125
171		0.000000
172		3.906250
173		1.953125
174		5.859375
175		3.906250
176		7.812500
177		5.859375
178		9.765625
179		5.859375
180		11.718750
181		9.765625
182		13.671875
183		11.718750
184		13.671875
185		13.671875
186		17.578125
187		13.671875
188		19.531250
189		15.625000
190		19.531250
191		17.578125
192		21.484375
193		19.531250
194		23.437500
195		21.484375
196		25.390625
197		23.437500
198		27.343750
199		25.390625
200		27.343750
201		25.390625
202		29.296875
203		27.343750
204		31.250000
205		29.296875
206		33.203125
207		31.250000
208		35.156250
209		31.250000
210		35.156250
211		33.203125
212		37.109375
213		33.203125
214		37.109375
215		35.156250
216		39.062500
217		37.109375
218		39.062500
219		37.109375
220		41.015625
221		37.109375
222		41.015625
223		39.062500
224		42.968750
225		39.062500
226		42.968750
227		39.062500
228		44.921875
229		41.015625
230		44.921875
231		41.015625
232		44.921875
233		42.968750
234		44.921875
235		42.968750
236		44.921875
237		42.968750
238		46.875000
239		42.968750
240		46.875000
241		44.921875
242		46.875000
243		42.968750
244		46.875000
245		42.968750
246		46.875000
247		44.921875
248		44.921875
249		42.968750
250		46.875000
251		42.968750
252		44.921875
253		41.015625
254		46.875000
255		39.062500
256		46.875000
257		41.015625
258		44.921875
259		41.015625
260		44.921875
261		39.062500
262		44.921875
263		37.109375
264		42.968750
265		37.109375
266		42.968750
267		37.109375
268		41.015625
269		37.109375
270		39.062500
271		35.156250
272		41.015625
273		35.156250
274		39.062500
275		33.203125
276		37.109375
277		31.250000
278		37.109375
279		31.250000
280		35.156250
281		29.296875
282		35.156250
283		27.343750
284		31.250000
285		27.343750
286		29.296875
287		23.437500
288		31.250000
289		21.484375
290		29.296875
291		19.531250
292		27.343750
293		17.578125
294		25.390625
295		15.625000
296		23.437500
297		15.625000
298		21.484375
299		15.625000
300		21.484375
301		13.671875
302		17.578125
303		9.765625
304		15.625000
305		7.812500
306		15.625000
307		5.859375
308		13.671875
309		5.859375
310		11.718750
311		1.953125
312		9.765625
313		1.953125
314		7.812500
315		-1.953125
316		5.859375
317		-1.953125
318		1.953125
319		-1.953125
320		0.000000
321		-5.859375
322		1.953125
323		-7.812500
324		0.000000
325		-9.765625
326		-1.953125
327		-11.718750
328		-3.906250
329		-13.671875
330		-5.859375
331		-15.625000
332		-7.812500
333		-15.625000
334		-9.765625
335		-15.625000
336		-11.718750
337		-19.531250
338		-11.718750
339		-19.531250
340		-13.671875
341		-21.484375
342		-13.671875
343		-21.484375
344		-15.625000
345		-23.437500
346		-17.578125
347		-25.390625
348		-17.578125
349		-25.390625
350		-19.531250
351		-23.437500
352		-21.484375
353		-25.390625
354		-21.484375
355		-27.343750
356		-21.484375
357		-29.296875
358		-21.484375
359		-29.296875
360		-21.484375
361		-29.296875
362		-23.437500
363		-29.296875
364		-23.437500
365		-31.250000
366		-23.437500
367		-27.343750
368		-25.390625
369		-29.296875
370		-27.343750
371		-31.250000
372		-23.437500
373		-31.250000
374		-23.437500
375		-31.250000
376		-23.437500
377		-31.250000
378		-23.437500
379		-29.296875
380		-23.437500
381		-29.296875
382		-23.437500
383		-29.296875
384		-21.484375
385		-25.390625
386		-23.437500
387		-27.343750
388		-21.484375
389		-27.343750
390		-19.531250
391		-27.343750
392		-19.531250
393		-25.390625
394		-17.578125
395		-23.437500
396		-17.578125
397		-23.437500
398		-15.625000
399		-21.484375
400		-15.625000
401		-17.578125
402		-15.625000
403		-17.578125
404		-13.671875
405		-17.578125
406		-9.765625
407		-15.625000
408		-9.765625
409		-13.671875
410		-7.812500
411		-13.671875
412		-5.859375
413		-11.718750
414		-3.906250
415		-9.765625
416		-1.953125
417		-7.812500
418		-1.953125
419		-3.906250
420		-1.953125
421		-3.906250
422		1.953125
423		-3.906250
424		3.906250
425		-1.953125
426		5.859375
427		0.000000
428		7.812500
429		1.953125
430		9.765625
431		3.906250
432		11.718750
433		5.859375
434		11.718750
435		9.765625
436		13.671875
437		11.718750
438		15.625000
439		11.718750
440		19.531250
441		11.718750
442		19.531250
443		13.671875
444		21.484375
445		15.625000
446		23.437500
447		17.578125
448		25.390625
449		19.531250
450		27.343750
451		23.437500
452		25.390625
453		25.390625
454		27.343750
455		25.390625
456		31.250000
457		25.390625
458		33.203125
459		27.343750
460		35.156250
461		27.343750
462		35.156250
463		29.296875
464		37.109375
465		31.250000
466		39.062500
467		31.250000
468		39.062500
469		35.156250
470		39.062500
471		35.156250
472		41.015625
473		35.156250
474		42.968750
475		35.156250
476		42.968750
477		37.109375
478		44.921875
479		37.109375
480		44.921875
481		37.109375
482		44.921875
483		39.062500
484		44.921875
485		42.968750
486		44.921875
487		42.968750
488		44.921875
489		39.062500
490		46.875000
491		41.015625
492		48.828125
493		41.015625
494		48.828125
495		41.015625
496		48.828125
497		41.015625
498		48.828125
499		41.015625
500		48.828125
501		41.015625
502		46.875000
503		42.968750
504		44.921875
505		41.015625
506		46.875000
507		41.015625
508		46.875000
509		39.062500
510		46.875000
511		39.062500
512		46.875000
513		39.062500
514		46.875000
515		37.109375
516		44.921875
517		37.109375
518		44.921875
519		39.062500
520		41.015625
521		37.109375
522		41.015625
523		35.156250
524		41.015625
525		33.203125
526		41.015625
527		31.250000
528		39.062500
529		31.250000
530		39.062500
531		29.296875
532		37.109375
533		27.343750
534		35.156250
535		29.296875
536		33.203125
537		27.343750
538		31.250000
539		23.437500
540		31.250000
541		21.484375
542		29.296875
543		21.484375
544		29.296875
545		19.531250
546		27.343750
547		17.578125
548		25.390625
549		15.625000
550		23.437500
551		15.625000
552		21.484375
553		13.671875
554		17.578125
555		9.765625
556		17.578125
557		9.765625
558		17.578125
559		7.812500
560		15.625000
561		5.859375
562		13.671875
563		3.906250
564		11.718750
565		1.953125
566		9.765625
567		0.000000
568		7.812500
569		0.000000
570		3.906250
571		-1.953125
572		1.953125
573		-5.859375
574		1.953125
575		-7.812500
576		0.000000
577		-9.765625
578		-1.953125
579		-9.765625
580		-1.953125
581		-11.718750
582		-3.906250
583		-13.671875
584		-5.859375
585		-13.671875
586		-7.812500
587		-13.671875
588		-11.718750
589		-17.578125
590		-11.718750
591		-19.531250
592		-11.718750
593		-19.531250
594		-13.671875
595		-21.484375
596		-13.671875
597		-23.437500
598		-15.625000
599		-23.437500
600		-15.625000
601		-23.437500
602		-17.578125
603		-23.437500
604		-21.484375
605		-25.390625
606		-21.484375
607		-27.343750
608		-19.531250
609		-29.296875
610		-21.484375
611		-29.296875
612		-21.484375
613		-29.296875
614		-23.437500
615		-29.296875
616		-23.437500
617		-29.296875
618		-23.437500
619		-29.296875
620		-25.390625
621		-27.343750
622		-25.390625
623		-31.250000
624		-23.437500
625		-31.250000
626		-23.437500
627		-31.250000
628		-23.437500
629		-31.250000
630		-23.437500
631		-31.250000
632		-23.437500
633		-29.296875
634		-21.484375
635		-29.296875
636		-21.484375
637		-27.343750
638		-23.437500
639		-27.343750
640		-21.484375
641		-27.343750
642		-19.531250
643		-25.390625
644		-19.531250
645		-25.390625
646		-17.578125
647		-25.390625
648		-17.578125
649		-23.437500
650		-15.625000
651		-23.437500
652		-15.625000
653		-19.531250
654		-15.625000
655		-17.578125
656		-13.671875
657		-17.578125
658		-9.765625
659		-17.578125
660		-9.765625
661		-15.625000
662		-7.812500
663		-13.671875
664		-5.859375
665		-11.718750
666		-3.906250
667		-9.765625
668		-3.906250
669		-9.765625
670		-3.906250
671		-5.859375
672		-1.953125
673		-3.906250
674		1.953125
675		-3.906250
676		3.906250
677		-1.953125
678		5.859375
679		0.000000
680		7.812500
681		0.000000
682		7.812500
683		1.953125
684		9.765625
685		3.906250
686		11.718750
687		9.765625
688		11.718750
689		11.718750
690		13.671875
691		9.765625
692		17.578125
693		11.718750
694		19.531250
695		13.671875
696		21.484375
697		15.625000
698		23.437500
699		17.578125
700		25.390625
701		17.578125
702		27.343750
703		21.484375
704		25.390625
705		23.437500
706		27.343750
707		23.437500
708		31.250000
709		25.390625
710		33.203125
711		27.343750
712		33.203125
713		27.343750
714		35.156250
715		29.296875
716		37.109375
717		29.296875
718		39.062500
719		31.250000
720		39.062500
721		35.156250
722		39.062500
723		37.109375
724		41.015625
725		35.156250
726		42.968750
727		35.156250
728		42.968750
729		37.109375
730		44.921875
731		37.109375
732		44.921875
733		37.109375
734		44.921875
735		39.062500
736		46.875000
737		41.015625
738		44.921875
739		42.968750
740		44.921875
741		41.015625
742		46.875000
743		41.015625
744		48.828125
745		41.015625
746		48.828125
747		41.015625
748		48.828125
749		41.015625
750		48.828125
751		41.015625
752		48.828125
753		42.968750
754		48.828125
755		42.968750
756		46.875000
757		41.015625
758		46.875000
759		41.015625
760		48.828125
761		41.015625
762		46.875000
763		39.062500
764		46.875000
765		39.062500
766		46.875000
767		39.062500
768		44.921875
769		37.109375
770		44.921875
771		39.062500
772		42.968750
773		35.156250
774		41.015625
775		35.156250
776		42.968750
777		35.156250
778		41.015625
779		33.203125
780		41.015625
781		31.250000
782		39.062500
783		31.250000
784		37.109375
785		29.296875
786		37.109375
787		31.250000
788		35.156250
789		29.296875
790		31.250000
791		25.390625
792		31.250000
793		23.437500
794		31.250000
795		21.484375
796		29.296875
797		19.531250
798		29.296875
799		19.531250
800		27.343750
801		17.578125
802		25.390625
803		15.625000
804		23.437500
805		15.625000
806		19.531250
807		13.671875
808		17.578125
809		9.765625
810		17.578125
811		7.812500
812		15.625000
813		5.859375
814		13.671875
815		3.906250
816		11.718750
817		1.953125
818		11.718750
819		1.953125
820		9.765625
821		1.953125
822		5.859375
823		0.000000
824		3.906250
825		-3.906250
826		3.906250
827		-5.859375
828		1.953125
829		-7.812500
830		0.000000
831		-9.765625
832		-1.953125
833		-11.718750
834		-1.953125
835		-11.718750
836		-5.859375
837		-13.671875
838		-5.859375
839		-13.671875
840		-9.765625
841		-17.578125
842		-9.765625
843		-17.578125
844		-11.718750
845		-19.531250
846		-11.718750
847		-21.484375
848		-13.671875
849		-21.484375
850		-15.625000
851		-23.437500
852		-15.625000
853		-25.390625
854		-17.578125
855		-23.437500
856		-19.531250
857		-23.437500
858		-21.484375
859		-27.343750
860		-19.531250
861		-27.343750
862		-21.484375
863		-29.296875
864		-21.484375
865		-29.296875
866		-21.484375
867		-29.296875
868		-23.437500
869		-29.296875
870		-23.437500
871		-29.296875
872		-23.437500
873		-27.343750
874		-25.390625
875		-31.250000
876		-23.437500
877		-31.250000
878		-23.437500
879		-31.250000
880		-23.437500
881		-31.250000
882		-23.437500
883		-29.296875
884		-23.437500
885		-29.296875
886		-21.484375
887		-29.296875
888		-23.437500
889		-27.343750
890		-23.437500
891		-27.343750
892		-23.437500
893		-27.343750
894		-19.531250
895		-27.343750
896		-19.531250
897		-25.390625
898		-19.531250
899		-25.390625
900		-17.578125
901		-23.437500
902		-17.578125
903		-23.437500
904		-15.625000
905		-19.531250
906		-17.578125
907		-17.578125
908		-15.625000
909		-19.531250
910		-11.718750
911		-17.578125
912		-9.765625
913		-17.578125
914		-7.812500
915		-15.625000
916		-7.812500
917		-13.671875
918		-5.859375
919		-13.671875
920		-3.906250
921		-11.718750
922		-3.906250
923		-7.812500
924		-3.906250
925		-5.859375
926		0.000000
927		-5.859375
928		1.953125
929		-3.906250
930		3.906250
931		-1.953125
932		5.859375
933		0.000000
934		7.812500
935		1.953125
936		9.765625
937		3.906250
938		11.718750
939		7.812500
940		9.765625
941		9.765625
942		11.718750
943		9.765625
944		15.625000
945		9.765625
946		17.578125
947		11.718750
948		19.531250
949		13.671875
950		21.484375
951		15.625000
952		23.437500
953		15.625000
954		25.390625
955		19.531250
956		25.390625
957		23.437500
958		27.343750
959		23.437500
960		29.296875
961		23.437500
962		31.250000
963		25.390625
964		33.203125
965		27.343750
966		35.156250
967		29.296875
968		35.156250
969		29.296875
970		37.109375
971		31.250000
972		37.109375
973		35.156250
974		37.109375
975		35.156250
976		39.062500
977		35.156250
978		41.015625
979		35.156250
980		42.968750
981		35.156250
982		42.968750
983		37.109375
984		44.921875
985		37.109375
986		44.921875
987		39.062500
988		44.921875
989		41.015625
990		42.968750
991		42.968750
992		44.921875
993		41.015625
994		46.875000
995		41.015625
996		46.875000
997		41.015625
998		48.828125
999		41.015625
1000		48.828125
1001		41.015625
1002		48.828125
1003		41.015625
1004		48.828125
1005		41.015625
1006		48.828125
1007		42.968750
1008		46.875000
1009		41.015625
1010		46.875000
1011		41.015625
1012		48.828125
1013		41.015625
1014		46.875000
1015		41.015625
1016		46.875000
1017		39.062500
1018		46.875000
1019		39.062500
1020		46.875000
1021		39.062500
1022		44.921875
1023		39.062500
1024		42.968750
1025		39.062500
1026		41.015625
1027		35.156250
1028		42.968750
1029		35.156250
1030		41.015625
1031		33.203125
1032		41.015625
1033		31.250000
1034		41.015625
1035		31.250000
1036		39.062500
1037		29.296875
1038		37.109375
1039		29.296875
1040		35.156250
1041		29.296875
1042		33.203125
1043		27.343750
1044		33.203125
1045		25.390625
1046		31.250000
1047		23.437500
1048		31.250000
1049		21.484375
1050		29.296875
1051		19.531250
1052		27.343750
1053		17.578125
1054		25.390625
1055		17.578125
1056		23.437500
1057		17.578125
1058		19.531250
1059		15.625000
1060		19.531250
1061		11.718750
1062		19.531250
1063		9.765625
1064		17.578125
1065		7.812500
1066		15.625000
1067		5.859375
1068		13.671875
1069		3.906250
1070		11.718750
1071		1.953125
1072		9.765625
1073		1.953125
1074		7.812500
1075		1.953125
1076		3.906250
1077		-3.906250
1078		3.906250
1079		-3.906250
1080		3.906250
1081		-5.859375
1082		1.953125
1083		-7.812500
1084		0.000000
1085		-9.765625
1086		-1.953125
1087		-11.718750
1088		-3.906250
1089		-11.718750
1090		-5.859375
1091		-11.718750
1092		-9.765625
1093		-17.578125
1094		-9.765625
1095		-17.578125
1096		-9.765625
1097		-17.578125
1098		-11.718750
1099		-19.531250
1100		-11.718750
1101		-21.484375
1102		-13.671875
1103		-21.484375
1104		-15.625000
1105		-23.437500
1106		-17.578125
1107		-21.484375
1108		-19.531250
1109		-23.437500
1110		-21.484375
1111		-25.390625
1112		-19.531250
1113		-27.343750
1114		-19.531250
1115		-27.343750
1116		-21.484375
1117		-29.296875
1118		-21.484375
1119		-29.296875
1120		-21.484375
1121		-29.296875
1122		-21.484375
1123		-29.296875
1124		-23.437500
1125		-27.343750
1126		-25.390625
1127		-29.296875
1128		-23.437500
1129		-31.250000
1130		-23.437500
1131		-31.250000
1132		-23.437500
1133		-31.250000
1134		-23.437500
1135		-31.250000
1136		-23.437500
1137		-29.296875
1138		-21.484375
1139		-29.296875
1140		-23.437500
1141		-27.343750
1142		-23.437500
1143		-25.390625
1144		-23.437500
1145		-27.343750
1146		-21.484375
1147		-27.343750
1148		-19.531250
1149		-27.343750
1150		-19.531250
1151		-25.390625
1152		-17.578125
1153		-23.437500
1154		-17.578125
1155		-23.437500
1156		-15.625000
1157		-21.484375
1158		-15.625000
1159		-19.531250
1160		-15.625000
1161		-19.531250
1162		-11.718750
1163		-19.531250
1164		-11.718750
1165		-17.578125
1166		-9.765625
1167		-15.625000
1168		-7.812500
1169		-13.671875
1170		-5.859375
1171		-13.671875
1172		-3.906250
1173		-11.718750
1174		-3.906250
1175		-7.812500
1176		-3.906250
1177		-5.859375
1178		0.000000
1179		-5.859375
1180		1.953125
1181		-3.906250
1182		3.906250
1183		-1.953125
1184		5.859375
1185		0.000000
1186		7.812500
1187		0.000000
1188		7.812500
1189		1.953125
1190		9.765625
1191		5.859375
1192		9.765625
1193		7.812500
1194		11.718750
1195		7.812500
1196		15.625000
1197		9.765625
1198		17.578125
1199		11.718750
1200		19.531250
1201		13.671875
1202		21.484375
1203		15.625000
1204		23.437500
1205		15.625000
1206		25.390625
1207		17.578125
1208		25.390625
1209		21.484375
1210		25.390625
1211		23.437500
1212		29.296875
1213		23.437500
1214		31.250000
1215		23.437500
1216		33.203125
1217		27.343750
1218		33.203125
1219		27.343750
1220		35.156250
1221		29.296875
1222		35.156250
1223		31.250000
1224		37.109375
1225		33.203125
1226		37.109375
1227		35.156250
1228		39.062500
1229		33.203125
1230		41.015625
1231		35.156250
1232		41.015625
1233		35.156250
1234		42.968750
1235		35.156250
1236		42.968750
1237		37.109375
1238		44.921875
1239		39.062500
1240		44.921875
1241		39.062500
1242		44.921875
1243		42.968750
1244		44.921875
1245		41.015625
1246		46.875000
1247		39.062500
1248		48.828125
1249		41.015625
1250		48.828125
1251		41.015625
1252		48.828125
1253		42.968750
1254		48.828125
1255		41.015625
1256		48.828125
1257		41.015625
1258		48.828125
1259		44.921875
1260		46.875000
1261		42.968750
1262		46.875000
1263		41.015625
1264		48.828125
1265		41.015625
1266		48.828125
1267		41.015625
1268		48.828125
1269		41.015625
1270		46.875000
1271		39.062500
1272		46.875000
1273		39.062500
1274		46.875000
1275		41.015625
1276		42.968750
1277		39.062500
1278		42.968750
1279		37.109375
1280		44.921875
1281		37.109375
1282		42.968750
1283		35.156250
1284		41.015625
1285		33.203125
1286		41.015625
1287		33.203125
1288		41.015625
1289		31.250000
1290		39.062500
1291		31.250000
1292		37.109375
1293		31.250000
1294		35.156250
1295		27.343750
1296		33.203125
1297		25.390625
1298		33.203125
1299		23.437500
1300		33.203125
1301		23.437500
1302		31.250000
1303		21.484375
1304		29.296875
1305		19.531250
1306		27.343750
1307		19.531250
1308		25.390625
1309		19.531250
1310		21.484375
1311		17.578125
1312		19.531250
1313		13.671875
1314		19.531250
1315		11.718750
1316		19.531250
1317		9.765625
1318		17.578125
1319		7.812500
1320		15.625000
1321		5.859375
1322		13.671875
1323		3.906250
1324		11.718750
1325		3.906250
1326		9.765625
1327		1.953125
1328		5.859375
1329		-1.953125
1330		5.859375
1331		-1.953125
1332		3.906250
1333		-3.906250
1334		1.953125
1335		-5.859375
1336		1.953125
1337		-7.812500
1338		0.000000
1339		-9.765625
1340		-1.953125
1341		-11.718750
1342		-3.906250
1343		-9.765625
1344		-7.812500
1345		-13.671875
1346		-9.765625
1347		-15.625000
1348		-7.812500
1349		-17.578125
1350		-9.765625
1351		-19.531250
1352		-11.718750
1353		-21.484375
1354		-13.671875
1355		-21.484375
1356		-13.671875
1357		-23.437500
1358		-15.625000
1359		-21.484375
1360		-17.578125
1361		-21.484375
1362		-19.531250
1363		-25.390625
1364		-19.531250
1365		-27.343750
1366		-19.531250
1367		-27.343750
1368		-19.531250
1369		-27.343750
1370		-21.484375
1371		-29.296875
1372		-21.484375
1373		-29.296875
1374		-21.484375
1375		-29.296875
1376		-21.484375
1377		-27.343750
1378		-25.390625
1379		-31.250000
1380		-23.437500
1381		-31.250000
1382		-23.437500
1383		-31.250000
1384		-23.437500
1385		-31.250000
1386		-23.437500
1387		-29.296875
1388		-23.437500
1389		-29.296875
1390		-23.437500
1391		-29.296875
1392		-23.437500
1393		-27.343750
1394		-23.437500
1395		-25.390625
1396		-23.437500
1397		-27.343750
1398		-21.484375
1399		-27.343750
1400		-21.484375
1401		-27.343750
1402		-19.531250
1403		-25.390625
1404		-19.531250
1405		-25.390625
1406		-17.578125
1407		-23.437500
1408		-17.578125
1409		-23.437500
1410		-17.578125
1411		-19.531250
1412		-17.578125
1413		-19.531250
1414		-13.671875
1415		-19.531250
1416		-11.718750
1417		-17.578125
1418		-9.765625
1419		-17.578125
1420		-9.765625
1421		-15.625000
1422		-7.812500
1423		-13.671875
1424		-5.859375
1425		-11.718750
1426		-5.859375
1427		-7.812500
1428		-5.859375
1429		-5.859375
1430		-1.953125
1431		-7.812500
1432		0.000000
1433		-5.859375
1434		1.953125
1435		-3.906250
1436		3.906250
1437		-1.953125
1438		5.859375
1439		0.000000
1440		7.812500
1441		1.953125
1442		7.812500
1443		5.859375
1444		9.765625
1445		7.812500
1446		9.765625
1447		7.812500
1448		13.671875
1449		7.812500
1450		15.625000
1451		9.765625
1452		17.578125
1453		11.718750
1454		19.531250
1455		13.671875
1456		21.484375
1457		15.625000
1458		23.437500
1459		17.578125
1460		23.437500
1461		21.484375
1462		23.437500
1463		21.484375
1464		27.343750
1465		21.484375
1466		29.296875
1467		23.437500
1468		31.250000
1469		25.390625
1470		31.250000
1471		27.343750
1472		33.203125
1473		27.343750
1474		35.156250
1475		29.296875
1476		37.109375
1477		33.203125
1478		35.156250
1479		35.156250
1480		37.109375
1481		33.203125
1482		41.015625
1483		35.156250
1484		41.015625
1485		35.156250
1486		42.968750
1487		37.109375
1488		42.968750
1489		37.109375
1490		44.921875
1491		39.062500
1492		44.921875
1493		39.062500
1494		44.921875
1495		41.015625
1496		44.921875
1497		41.015625
1498		46.875000
1499		41.015625
1500		46.875000
1501		41.015625
1502		46.875000
1503		41.015625
1504		48.828125
1505		41.015625
1506		48.828125
1507		42.968750
1508		48.828125
1509		41.015625
1510		48.828125
1511		44.921875
1512		46.875000
1513		42.968750
1514		46.875000
1515		42.968750
1516		48.828125
1517		41.015625
1518		48.828125
1519		41.015625
1520		48.828125
1521		41.015625
1522		46.875000
1523		41.015625
1524		46.875000
1525		39.062500
1526		46.875000
1527		41.015625
1528		44.921875
1529		41.015625
1530		42.968750
1531		37.109375
1532		44.921875
1533		37.109375
1534		42.968750
1535		35.156250
1536		42.968750
1537		33.203125
1538		41.015625
1539		33.203125
1540		41.015625
1541		33.203125
1542		39.062500
1543		31.250000
1544		39.062500
1545		33.203125
1546		35.156250
1547		29.296875
1548		33.203125
1549		27.343750
1550		35.156250
1551		25.390625
1552		33.203125
1553		23.437500
1554		31.250000
1555		23.437500
1556		31.250000
1557		21.484375
1558		29.296875
1559		19.531250
1560		27.343750
1561		19.531250
1562		23.437500
1563		17.578125
1564		21.484375
1565		15.625000
1566		21.484375
1567		13.671875
1568		21.484375
1569		9.765625
1570		19.531250
1571		9.765625
1572		17.578125
1573		7.812500
1574		13.671875
1575		5.859375
1576		13.671875
1577		5.859375
1578		9.765625
1579		3.906250
1580		7.812500
1581		1.953125
1582		5.859375
1583		-1.953125
1584		5.859375
1585		-1.953125
1586		3.906250
1587		-3.906250
1588		1.953125
1589		-3.906250
1590		-1.953125
1591		-7.812500
1592		-1.953125
1593		-7.812500
1594		-3.906250
1595		-9.765625
1596		-5.859375
1597		-13.671875
1598		-7.812500
1599		-15.625000
1600		-7.812500
1601		-15.625000
1602		-9.765625
1603		-17.578125
1604		-9.765625
1605		-17.578125
1606		-13.671875
1607		-17.578125
1608		-13.671875
1609		-21.484375
1610		-13.671875
1611		-21.484375
1612		-17.578125
1613		-21.484375
1614		-19.531250
1615		-23.437500
1616		-19.531250
1617		-23.437500
1618		-19.531250
1619		-25.390625
1620		-21.484375
1621		-25.390625
1622		-21.484375
1623		-25.390625
1624		-23.437500
1625		-27.343750
1626		-21.484375
1627		-27.343750
1628		-23.437500
1629		-27.343750
1630		-23.437500
1631		-27.343750
1632		-23.437500
1633		-27.343750
1634		-25.390625
1635		-27.343750
1636		-25.390625
1637		-27.343750
1638		-25.390625
1639		-27.343750
1640		-25.390625
1641		-27.343750
1642		-25.390625
1643		-29.296875
1644		-23.437500
1645		-27.343750
1646		-25.390625
1647		-27.343750
1648		-23.437500
1649		-27.343750
1650		-23.437500
1651		-25.390625
1652		-23.437500
1653		-25.390625
1654		-21.484375
1655		-25.390625
1656		-21.484375
1657		-23.437500
1658		-19.531250
1659		-23.437500
1660		-19.531250
1661		-21.484375
1662		-17.578125
1663		-19.531250
1664		-17.578125
1665		-19.531250
1666		-15.625000
1667		-17.578125
1668		-15.625000
1669		-17.578125
1670		-13.671875
1671		-15.625000
1672		-11.718750
1673		-13.671875
1674		-9.765625
1675		-13.671875
1676		-7.812500
1677		-11.718750
1678		-7.812500
1679		-9.765625
1680		-5.859375
1681		-7.812500
1682		-1.953125
1683		-7.812500
1684		-1.953125
1685		-5.859375
1686		0.000000
1687		-3.906250
1688		1.953125
1689		-1.953125
1690		3.906250
1691		0.000000
1692		3.906250
1693		1.953125
1694		7.812500
1695		3.906250
1696		7.812500
1697		5.859375
1698		9.765625
1699		5.859375
1700		11.718750
1701		9.765625
1702		13.671875
1703		11.718750
1704		15.625000
1705		13.671875
1706		17.578125
1707		15.625000
1708		19.531250
1709		17.578125
1710		19.531250
1711		17.578125
1712		21.484375
1713		19.531250
1714		23.437500
1715		21.484375
1716		25.390625
1717		23.437500
1718		27.343750
1719		23.437500
1720		29.296875
1721		25.390625
1722		29.296875
1723		27.343750
1724		31.250000
1725		29.296875
1726		33.203125
1727		31.250000
1728		35.156250
1729		33.203125
1730		35.156250
1731		33.203125
1732		37.109375
1733		33.203125
1734		39.062500
1735		35.156250
1736		39.062500
1737		37.109375
1738		41.015625
1739		37.109375
1740		41.015625
1741		39.062500
1742		42.968750
1743		39.062500
1744		42.968750
1745		41.015625
1746		42.968750
1747		41.015625
1748		44.921875
1749		41.015625
1750		46.875000
1751		42.968750
1752		44.921875
1753		42.968750
1754		46.875000
1755		42.968750
1756		46.875000
1757		42.968750
1758		46.875000
1759		42.968750
1760		46.875000
1761		44.921875
1762		46.875000
1763		44.921875
1764		46.875000
1765		44.921875
1766		46.875000
1767		42.968750
1768		46.875000
1769		42.968750
1770		46.875000
1771		42.968750
1772		46.875000
1773		42.968750
1774		46.875000
1775		42.968750
1776		46.875000
1777		42.968750
1778		44.921875
1779		41.015625
1780		44.921875
1781		41.015625
1782		42.968750
1783		39.062500
1784		42.968750
1785		39.062500
1786		42.968750
1787		39.062500
1788		41.015625
1789		37.109375
1790		41.015625
1791		37.109375
1792		39.062500
1793		35.156250
1794		39.062500
1795		33.203125
1796		37.109375
1797		33.203125
1798		35.156250
1799		31.250000
1800		35.156250
1801		29.296875
1802		33.203125
1803		29.296875
1804		33.203125
1805		27.343750
1806		31.250000
1807		25.390625
1808		29.296875
1809		23.437500
1810		27.343750
1811		21.484375
1812		27.343750
1813		21.484375
1814		23.437500
1815		19.531250
1816		23.437500
1817		17.578125
1818		21.484375
1819		15.625000
1820		19.531250
1821		13.671875
1822		17.578125
1823		11.718750
1824		15.625000
1825		9.765625
1826		15.625000
1827		7.812500
1828		11.718750
1829		5.859375
1830		11.718750
1831		5.859375
1832		7.812500
1833		1.953125
1834		5.859375
1835		1.953125
1836		3.906250
1837		0.000000
1838		3.906250
1839		-1.953125
1840		1.953125
1841		-3.906250
1842		0.000000
1843		-5.859375
1844		-1.953125
1845		-7.812500
1846		-1.953125
1847		-9.765625
1848		-5.859375
1849		-9.765625
1850		-7.812500
1851		-11.718750
1852		-7.812500
1853		-13.671875
1854		-9.765625
1855		-15.625000
1856		-11.718750
1857		-15.625000
1858		-13.671875
1859		-17.578125
1860		-13.671875
1861		-17.578125
1862		-15.625000
1863		-19.531250
1864		-15.625000
1865		-21.484375
1866		-17.578125
1867		-23.437500
1868		-19.531250
1869		-23.437500
1870		-19.531250
1871		-23.437500
1872		-21.484375
1873		-25.390625
1874		-21.484375
1875		-25.390625
1876		-21.484375
1877		-25.390625
1878		-23.437500
1879		-27.343750
1880		-23.437500
1881		-27.343750
1882		-25.390625
1883		-29.296875
1884		-23.437500
1885		-27.343750
1886		-25.390625
1887		-29.296875
1888		-25.390625
1889		-29.296875
1890		-25.390625
1891		-27.343750
1892		-25.390625
1893		-29.296875
1894		-25.390625
1895		-29.296875
1896		-23.437500
1897		-27.343750
1898		-25.390625
1899		-27.343750
1900		-25.390625
1901		-27.343750
1902		-23.437500
1903		-25.390625
1904		-23.437500
1905		-27.343750
1906		-21.484375
1907		-23.437500
1908		-21.484375
1909		-23.437500
1910		-21.484375
1911		-23.437500
1912		-19.531250
1913		-23.437500
1914		-19.531250
1915		-21.484375
1916		-17.578125
1917		-19.531250
1918		-15.625000
1919		-17.578125
1920		-15.625000
1921		-17.578125
1922		-13.671875
1923		-15.625000
1924		-13.671875
1925		-15.625000
1926		-11.718750
1927		-13.671875
1928		-9.765625
1929		-11.718750
1930		-7.812500
1931		-9.765625
1932		-7.812500
1933		-9.765625
1934		-5.859375
1935		-7.812500
1936		-3.906250
1937		-5.859375
1938		-1.953125
1939		-3.906250
1940		0.000000
1941		-1.953125
1942		1.953125
1943		0.000000
1944		3.906250
1945		0.000000
1946		5.859375
1947		1.953125
1948		5.859375
1949		5.859375
1950		7.812500
1951		5.859375
1952		9.765625
1953		7.812500
1954		13.671875
1955		9.765625
1956		13.671875
1957		11.718750
1958		15.625000
1959		13.671875
1960		17.578125
1961		13.671875
1962		19.531250
1963		17.578125
1964		21.484375
1965		19.531250
1966		21.484375
1967		21.484375
1968		25.390625
1969		21.484375
1970		25.390625
1971		23.437500
1972		27.343750
1973		23.437500
1974		29.296875
1975		27.343750
1976		31.250000
1977		27.343750
1978		33.203125
1979		29.296875
1980		33.203125
1981		31.250000
1982		35.156250
1983		33.203125
1984		35.156250
1985		33.203125
1986		37.109375
1987		35.156250
1988		39.062500
1989		35.156250
1990		39.062500
1991		37.109375
1992		41.015625
1993		37.109375
1994		41.015625
1995		39.062500
1996		42.968750
1997		39.062500
1998		42.968750
1999		41.015625
2000		42.968750
2001		41.015625
2002		44.921875
2003		42.968750
2004		46.875000
2005		42.968750
2006		46.875000
2007		42.968750
2008		46.875000
2009		42.968750
2010		46.875000
2011		42.968750
2012		46.875000
2013		42.968750
2014		48.828125
2015		44.921875
2016		46.875000
2017		44.921875
2018		46.875000
2019		42.968750
2020		46.875000
2021		42.968750
2022		46.875000
2023		42.968750
2024		46.875000
2025		42.968750
2026		46.875000
2027		42.968750
2028		46.875000
2029		42.968750
2030		44.921875
2031		42.968750
2032		44.921875
2033		41.015625
2034		44.921875
2035		39.062500
2036		44.921875
2037		39.062500
2038		42.968750
2039		39.062500
2040		42.968750
2041		37.109375
2042		42.968750
2043		37.109375
2044		39.062500
2045		35.156250
2046		39.062500
2047		35.156250
2048		39.062500
2049		33.203125
2050		37.109375
2051		33.203125
2052		35.156250
2053		31.250000
2054		35.156250
2055		29.296875
2056		33.203125
2057		27.343750
2058		31.250000
2059		25.390625
2060		31.250000
2061		25.390625
2062		29.296875
2063		23.437500
2064		27.343750
2065		21.484375
2066		25.390625
2067		21.484375
2068		23.437500
2069		17.578125
2070		21.484375
2071		15.625000
2072		21.484375
2073		13.671875
2074		19.531250
2075		13.671875
2076		17.578125
2077		11.718750
2078		15.625000
2079		9.765625
2080		13.671875
2081		7.812500
2082		11.718750
2083		5.859375
2084		9.765625
2085		3.906250
2086		7.812500
2087		1.953125
2088		7.812500
2089		0.000000
2090		5.859375
2091		-1.953125
2092		1.953125
2093		-1.953125
2094		1.953125
2095		-3.906250
2096		0.000000
2097		-5.859375
2098		-1.953125
2099		-7.812500
2100		-3.906250
2101		-9.765625
2102		-5.859375
2103		-11.718750
2104		-5.859375
2105		-11.718750
2106		-7.812500
2107		-13.671875
2108		-9.765625
2109		-15.625000
2110		-11.718750
2111		-17.578125
2112		-13.671875
2113		-17.578125
2114		-13.671875
2115		-19.531250
2116		-15.625000
2117		-19.531250
2118		-17.578125
2119		-21.484375
2120		-17.578125
2121		-23.437500
2122		-19.531250
2123		-23.437500
2124		-19.531250
2125		-25.390625
2126		-21.484375
2127		-25.390625
2128		-21.484375
2129		-25.390625
2130		-23.437500
2131		-27.343750
2132		-23.437500
2133		-27.343750
2134		-23.437500
2135		-27.343750
2136		-23.437500
2137		-27.343750
2138		-23.437500
2139		-27.343750
2140		-25.390625
2141		-27.343750
2142		-25.390625
2143		-27.343750
2144		-25.390625
2145		-27.343750
2146		-25.390625
2147		-27.343750
2148		-25.390625
2149		-27.343750
2150		-25.390625
2151		-27.343750
2152		-25.390625
2153		-27.343750
2154		-23.437500
2155		-27.343750
2156		-23.437500
2157		-25.390625
2158		-23.437500
2159		-25.390625
2160		-21.484375
2161		-25.390625
2162		-21.484375
2163		-23.437500
2164		-21.484375
2165		-23.437500
2166		-19.531250
2167		-21.484375
2168		-19.531250
2169		-21.484375
2170		-15.625000
2171		-19.531250
2172		-15.625000
2173		-17.578125
2174		-13.671875
2175		-17.578125
2176		-13.671875
2177		-15.625000
2178		-11.718750
2179		-13.671875
2180		-11.718750
2181		-13.671875
2182		-9.765625
2183		-11.718750
2184		-7.812500
2185		-9.765625
2186		-5.859375
2187		-7.812500
2188		-3.906250
2189		-5.859375
2190		-3.906250
2191		-5.859375
2192		-1.953125
2193		-3.906250
2194		1.953125
2195		-1.953125
2196		1.953125
2197		0.000000
2198		3.906250
2199		0.000000
2200		5.859375
2201		3.906250
2202		7.812500
2203		5.859375
2204		9.765625
2205		5.859375
2206		11.718750
2207		9.765625
2208		13.671875
2209		9.765625
2210		15.625000
2211		11.718750
2212		17.578125
2213		13.671875
2214		17.578125
2215		15.625000
2216		19.531250
2217		17.578125
2218		21.484375
2219		19.531250
2220		23.437500
2221		19.531250
2222		25.390625
2223		21.484375
2224		25.390625
2225		23.437500
2226		27.343750
2227		25.390625
2228		29.296875
2229		27.343750
2230		31.250000
2231		29.296875
2232		33.203125
2233		31.250000
2234		33.203125
2235		31.250000
2236		35.156250
2237		33.203125
2238		37.109375
2239		35.156250
2240		37.109375
2241		35.156250
2242		39.062500
2243		37.109375
2244		39.062500
2245		37.109375
2246		41.015625
2247		39.062500
2248		41.015625
2249		39.062500
2250		42.968750
2251		41.015625
2252		42.968750
2253		41.015625
2254		44.921875
2255		41.015625
2256		44.921875
2257		42.968750
2258		44.921875
2259		42.968750
2260		46.875000
2261		42.968750
2262		46.875000
2263		42.968750
2264		46.875000
2265		42.968750
2266		46.875000
2267		44.921875
2268		46.875000
2269		44.921875
2270		46.875000
2271		44.921875
2272		46.875000
2273		42.968750
2274		46.875000
2275		42.968750
2276		46.875000
2277		42.968750
2278		46.875000
2279		42.968750
2280		46.875000
2281		42.968750
2282		46.875000
2283		42.968750
2284		46.875000
2285		42.968750
2286		44.921875
2287		41.015625
2288		44.921875
2289		41.015625
2290		42.968750
2291		39.062500
2292		42.968750
2293		39.062500
2294		41.015625
2295		37.109375
2296		41.015625
2297		37.109375
2298		39.062500
2299		35.156250
2300		39.062500
2301		35.156250
2302		37.109375
2303		33.203125
2304		37.109375
2305		31.250000
2306		37.109375
2307		31.250000
2308		35.156250
2309		29.296875
2310		33.203125
2311		27.343750
2312		31.250000
2313		27.343750
2314		29.296875
2315		23.437500
2316		29.296875
2317		23.437500
2318		27.343750
2319		21.484375
2320		25.390625
2321		19.531250
2322		23.437500
2323		17.578125
2324		21.484375
2325		15.625000
2326		19.531250
2327		13.671875
2328		19.531250
2329		13.671875
2330		15.625000
2331		11.718750
2332		15.625000
2333		9.765625
2334		13.671875
2335		7.812500
2336		11.718750
2337		5.859375
2338		9.765625
2339		3.906250
2340		7.812500
2341		1.953125
2342		5.859375
2343		0.000000
2344		3.906250
2345		-1.953125
2346		1.953125
2347		-3.906250
2348		1.953125
2349		-5.859375
2350		0.000000
2351		-5.859375
2352		-3.906250
2353		-7.812500
2354		-3.906250
2355		-9.765625
2356		-5.859375
2357		-11.718750
2358		-7.812500
2359		-13.671875
2360		-9.765625
2361		-13.671875
2362		-11.718750
2363		-15.625000
2364		-11.718750
2365		-17.578125
2366		-13.671875
2367		-17.578125
2368		-13.671875
2369		-19.531250
2370		-15.625000
2371		-21.484375
2372		-17.578125
2373		-21.484375
2374		-19.531250
2375		-23.437500
2376		-19.531250
2377		-23.437500
2378		-19.531250
2379		-25.390625
2380		-21.484375
2381		-25.390625
2382		-21.484375
2383		-25.390625
2384		-23.437500
2385		-25.390625
2386		-23.437500
2387		-27.343750
2388		-25.390625
2389		-27.343750
2390		-23.437500
2391		-27.343750
2392		-25.390625
2393		-27.343750
2394		-25.390625
2395		-27.343750
2396		-25.390625
2397		-29.296875
2398		-25.390625
2399		-27.343750
2400		-25.390625
2401		-29.296875
2402		-23.437500
2403		-27.343750
2404		-25.390625
2405		-27.343750
2406		-23.437500
2407		-27.343750
2408		-23.437500
2409		-25.390625
2410		-23.437500
2411		-25.390625
2412		-21.484375
2413		-25.390625
2414		-21.484375
2415		-25.390625
2416		-21.484375
2417		-23.437500
2418		-19.531250
2419		-21.484375
2420		-19.531250
2421		-21.484375
2422		-17.578125
2423		-21.484375
2424		-17.578125
2425		-19.531250
2426		-15.625000
2427		-17.578125
2428		-13.671875
2429		-15.625000
2430		-13.671875
2431		-15.625000
2432		-11.718750
2433		-13.671875
2434		-9.765625
2435		-11.718750
2436		-9.765625
2437		-9.765625
2438		-7.812500
2439		-9.765625
2440		-5.859375
2441		-7.812500
2442		-3.906250
2443		-5.859375
2444		-1.953125
2445		-3.906250
2446		0.000000
2447		-3.906250
2448		0.000000
2449		0.000000
2450		1.953125
2451		0.000000
2452		3.906250
2453		1.953125
2454		5.859375
2455		3.906250
2456		7.812500
2457		5.859375
2458		9.765625
2459		7.812500
2460		11.718750
2461		9.765625
2462		13.671875
2463		11.718750
2464		15.625000
2465		13.671875
2466		15.625000
2467		13.671875
2468		19.531250
2469		17.578125
2470		19.531250
2471		19.531250
2472		21.484375
2473		19.531250
2474		23.437500
2475		21.484375
2476		25.390625
2477		23.437500
2478		27.343750
2479		25.390625
2480		29.296875
2481		27.343750
2482		29.296875
2483		27.343750
2484		31.250000
2485		29.296875
2486		33.203125
2487		31.250000
2488		33.203125
2489		33.203125
2490		35.156250
2491		33.203125
2492		37.109375
2493		35.156250
2494		39.062500
2495		35.156250
2496		39.062500
2497		37.109375
2498		41.015625
2499		39.062500
2500		41.015625
2501		39.062500
2502		42.968750
2503		39.062500
2504		42.968750
2505		41.015625
2506		44.921875
2507		41.015625
2508		44.921875
2509		41.015625
2510		44.921875
2511		42.968750
2512		46.875000
2513		42.968750
2514		46.875000
2515		42.968750
2516		46.875000
2517		42.968750
2518		46.875000
2519		44.921875
2520		46.875000
2521		44.921875
2522		46.875000
2523		42.968750
2524		46.875000
2525		44.921875
2526		46.875000
2527		44.921875
2528		46.875000
2529		42.968750
2530		46.875000
2531		42.968750
2532		46.875000
2533		42.968750
2534		46.875000
2535		42.968750
2536		46.875000
2537		42.968750
2538		44.921875
2539		41.015625
2540		44.921875
2541		41.015625
2542		44.921875
2543		41.015625
2544		42.968750
2545		39.062500
2546		42.968750
2547		39.062500
2548		42.968750
2549		37.109375
2550		41.015625
2551		35.156250
2552		41.015625
2553		35.156250
2554		39.062500
2555		35.156250
2556		37.109375
2557		33.203125
2558		37.109375
2559		31.250000
2560		35.156250
2561		31.250000
2562		33.203125
2563		29.296875
2564		31.250000
2565		27.343750
2566		31.250000
2567		25.390625
2568		29.296875
2569		23.437500
2570		29.296875
2571		23.437500
2572		25.390625
2573		21.484375
2574		25.390625
2575		19.531250
2576		23.437500
2577		17.578125
2578		21.484375
2579		15.625000
2580		19.531250
2581		13.671875
2582		17.578125
2583		11.718750
2584		15.625000
2585		9.765625
2586		13.671875
2587		9.765625
2588		11.718750
2589		5.859375
2590		9.765625
2591		5.859375
2592		9.765625
2593		3.906250
2594		7.812500
2595		1.953125
2596		5.859375
2597		0.000000
2598		3.906250
2599		-1.953125
2600		1.953125
2601		-5.859375
2602		0.000000
2603		-5.859375
2604		-1.953125
2605		-5.859375
2606		-3.906250
2607		-9.765625
2608		-3.906250
2609		-9.765625
2610		-5.859375
2611		-11.718750
2612		-7.812500
2613		-13.671875
2614		-9.765625
2615		-15.625000
2616		-11.718750
2617		-15.625000
2618		-13.671875
2619		-17.578125
2620		-13.671875
2621		-17.578125
2622		-15.625000
2623		-19.531250
2624		-15.625000
2625		-21.484375
2626		-17.578125
2627		-21.484375
2628		-17.578125
2629		-21.484375
2630		-19.531250
2631		-23.437500
2632		-19.531250
2633		-25.390625
2634		-21.484375
2635		-25.390625
2636		-21.484375
2637		-25.390625
2638		-23.437500
2639		-25.390625
2640		-23.437500
2641		-27.343750
2642		-23.437500
2643		-27.343750
2644		-23.437500
2645		-27.343750
2646		-25.390625
2647		-27.343750
2648		-23.437500
2649		-27.343750
2650		-25.390625
2651		-27.343750
2652		-25.390625
2653		-27.343750
2654		-25.390625
2655		-27.343750
2656		-25.390625
2657		-27.343750
2658		-23.437500
2659		-27.343750
2660		-23.437500
2661		-25.390625
2662		-23.437500
2663		-25.390625
2664		-23.437500
2665		-25.390625
2666		-21.484375
2667		-25.390625
2668		-21.484375
2669		-23.437500
2670		-19.531250
2671		-21.484375
2672		-19.531250
2673		-21.484375
2674		-17.578125
2675		-21.484375
2676		-17.578125
2677		-19.531250
2678		-15.625000
2679		-17.578125
2680		-15.625000
2681		-17.578125
2682		-13.671875
2683		-15.625000
2684		-11.718750
2685		-15.625000
2686		-9.765625
2687		-13.671875
2688		-9.765625
2689		-11.718750
2690		-7.812500
2691		-9.765625
2692		-5.859375
2693		-9.765625
2694		-5.859375
2695		-5.859375
2696		-1.953125
2697		-5.859375
2698		0.000000
2699		-3.906250
2700		0.000000
2701		-1.953125
2702		1.953125
2703		0.000000
2704		3.906250
2705		1.953125
2706		5.859375
2707		3.906250
2708		7.812500
2709		3.906250
2710		9.765625
2711		5.859375
2712		11.718750
2713		7.812500
2714		11.718750
2715		9.765625
2716		15.625000
2717		11.718750
2718		15.625000
2719		13.671875
2720		17.578125
2721		15.625000
2722		19.531250
2723		17.578125
2724		21.484375
2725		17.578125
2726		23.437500
2727		21.484375
2728		25.390625
2729		23.437500
2730		25.390625
2731		25.390625
2732		27.343750
2733		25.390625
2734		29.296875
2735		27.343750
2736		31.250000
2737		27.343750
2738		31.250000
2739		29.296875
2740		33.203125
2741		31.250000
2742		35.156250
2743		33.203125
2744		37.109375
2745		33.203125
2746		37.109375
2747		35.156250
2748		39.062500
2749		37.109375
2750		41.015625
2751		37.109375
2752		41.015625
2753		39.062500
2754		42.968750
2755		39.062500
2756		42.968750
2757		41.015625
2758		44.921875
2759		41.015625
2760		42.968750
2761		41.015625
2762		44.921875
2763		42.968750
2764		44.921875
2765		42.968750
2766		44.921875
2767		42.968750
2768		46.875000
2769		44.921875
2770		46.875000
2771		44.921875
2772		46.875000
2773		44.921875
2774		46.875000
2775		42.968750
2776		46.875000
2777		44.921875
2778		48.828125
2779		44.921875
2780		46.875000
2781		44.921875
2782		46.875000
2783		42.968750
2784		46.875000
2785		42.968750
2786		46.875000
2787		42.968750
2788		46.875000
2789		42.968750
2790		44.921875
2791		41.015625
2792		44.921875
2793		41.015625
2794		44.921875
2795		41.015625
2796		44.921875
2797		41.015625
2798		42.968750
2799		39.062500
2800		42.968750
2801		39.062500
2802		41.015625
2803		37.109375
2804		41.015625
2805		37.109375
2806		39.062500
2807		35.156250
2808		39.062500
2809		33.203125
2810		39.062500
2811		33.203125
2812		37.109375
2813		31.250000
2814		35.156250
2815		29.296875
2816		33.203125
2817		29.296875
2818		31.250000
2819		25.390625
2820		31.250000
2821		25.390625
2822		29.296875
2823		23.437500
2824		27.343750
2825		21.484375
2826		25.390625
2827		21.484375
2828		23.437500
2829		19.531250
2830		23.437500
2831		15.625000
2832		21.484375
2833		15.625000
2834		19.531250
2835		13.671875
2836		17.578125
2837		11.718750
2838		15.625000
2839		9.765625
2840		13.671875
2841		7.812500
2842		11.718750
2843		5.859375
2844		11.718750
2845		3.906250
2846		7.812500
2847		3.906250
2848		7.812500
2849		1.953125
2850		3.906250
2851		0.000000
2852		3.906250
2853		-1.953125
2854		1.953125
2855		-3.906250
2856		0.000000
2857		-5.859375
2858		-1.953125
2859		-7.812500
2860		-3.906250
2861		-9.765625
2862		-5.859375
2863		-9.765625
2864		-7.812500
2865		-11.718750
2866		-7.812500
2867		-13.671875
2868		-9.765625
2869		-13.671875
2870		-11.718750
2871		-15.625000
2872		-11.718750
2873		-17.578125
2874		-13.671875
2875		-19.531250
2876		-15.625000
2877		-19.531250
2878		-15.625000
2879		-21.484375
2880		-17.578125
2881		-21.484375
2882		-19.531250
2883		-23.437500
2884		-19.531250
2885		-23.437500
2886		-21.484375
2887		-25.390625
2888		-21.484375
2889		-25.390625
2890		-23.437500
2891		-25.390625
2892		-23.437500
2893		-25.390625
2894		-23.437500
2895		-27.343750
2896		-23.437500
2897		-27.343750
2898		-23.437500
2899		-27.343750
2900		-25.390625
2901		-27.343750
2902		-25.390625
2903		-27.343750
2904		-23.437500
2905		-27.343750
2906		-23.437500
2907		-27.343750
2908		-25.390625
2909		-29.296875
2910		-23.437500
2911		-27.343750
2912		-23.437500
2913		-27.343750
2914		-23.437500
2915		-25.390625
2916		-23.437500
2917		-25.390625
2918		-21.484375
2919		-25.390625
2920		-21.484375
2921		-23.437500
2922		-21.484375
2923		-23.437500
2924		-21.484375
2925		-21.484375
2926		-19.531250
2927		-21.484375
2928		-17.578125
2929		-21.484375
2930		-17.578125
2931		-19.531250
2932		-15.625000
2933		-19.531250
2934		-13.671875
2935		-17.578125
2936		-13.671875
2937		-15.625000
2938		-11.718750
2939		-15.625000
2940		-9.765625
2941		-11.718750
2942		-9.765625
2943		-11.718750
2944		-7.812500
2945		-9.765625
2946		-5.859375
2947		-7.812500
2948		-3.906250
2949		-5.859375
2950		-1.953125
2951		-3.906250
2952		0.000000
2953		-3.906250
2954		0.000000
2955		-1.953125
2956		1.953125
2957		0.000000
2958		3.906250
2959		1.953125
2960		5.859375
2961		3.906250
2962		7.812500
2963		5.859375
2964		9.765625
2965		7.812500
2966		11.718750
2967		9.765625
2968		13.671875
2969		11.718750
2970		15.625000
2971		13.671875
2972		17.578125
2973		15.625000
2974		17.578125
2975		17.578125
2976		19.531250
2977		17.578125
2978		21.484375
2979		19.531250
2980		23.437500
2981		21.484375
2982		25.390625
2983		23.437500
2984		27.343750
2985		23.437500
2986		27.343750
2987		25.390625
2988		31.250000
2989		27.343750
2990		31.250000
2991		29.296875
2992		33.203125
2993		29.296875
2994		35.156250
2995		31.250000
2996		35.156250
2997		33.203125
2998		37.109375
2999		35.156250
3000		37.109375
3001		35.156250
3002		39.062500
3003		37.109375
3004		41.015625
3005		37.109375
3006		41.015625
3007		39.062500
3008		41.015625
3009		39.062500
3010		42.968750
3011		39.062500
3012		44.921875
3013		41.015625
3014		44.921875
3015		42.968750
3016		44.921875
3017		42.968750
3018		46.875000
3019		42.968750
3020		46.875000
3021		42.968750
3022		46.875000
3023		42.968750
3024		46.875000
3025		44.921875
3026		46.875000
3027		44.921875
3028		48.828125
3029		44.921875
3030		46.875000
3031		44.921875
3032		46.875000
3033		44.921875
3034		46.875000
3035		44.921875
3036		46.875000
3037		42.968750
3038		46.875000
3039		42.968750
3040		46.875000
3041		42.968750
3042		44.921875
3043		42.968750
3044		46.875000
3045		41.015625
3046		44.921875
3047		41.015625
3048		44.921875
3049		41.015625
3050		44.921875
3051		39.062500
3052		42.968750
3053		39.062500
3054		42.968750
3055		37.109375
3056		41.015625
3057		37.109375
3058		39.062500
3059		35.156250
3060		39.062500
3061		33.203125
3062		39.062500
3063		33.203125
3064		37.109375
3065		31.250000
3066		35.156250
3067		31.250000
3068		33.203125
3069		29.296875
3070		33.203125
3071		27.343750
3072		33.203125
3073		27.343750
3074		31.250000
3075		25.390625
3076		27.343750
3077		21.484375
3078		27.343750
3079		21.484375
3080		25.390625
3081		19.531250
3082		23.437500
3083		19.531250
3084		21.484375
3085		17.578125
3086		19.531250
3087		15.625000
3088		19.531250
3089		11.718750
3090		17.578125
3091		11.718750
3092		15.625000
3093		9.765625
3094		13.671875
3095		7.812500
3096		11.718750
3097		5.859375
3098		9.765625
3099		3.906250
3100		7.812500
3101		1.953125
3102		5.859375
3103		0.000000
3104		3.906250
3105		-1.953125
3106		3.906250
3107		-1.953125
3108		1.953125
3109		-3.906250
3110		-1.953125
3111		-7.812500
3112		-1.953125
3113		-7.812500
3114		-3.906250
3115		-9.765625
3116		-5.859375
3117		-11.718750
3118		-7.812500
3119		-13.671875
3120		-9.765625
3121		-13.671875
3122		-9.765625
3123		-15.625000
3124		-11.718750
3125		-15.625000
3126		-13.671875
3127		-19.531250
3128		-15.625000
3129		-19.531250
3130		-15.625000
3131		-19.531250
3132		-17.578125
3133		-21.484375
3134		-17.578125
3135		-21.484375
3136		-19.531250
3137		-23.437500
3138		-19.531250
3139		-25.390625
3140		-21.484375
3141		-25.390625
3142		-21.484375
3143		-25.390625
3144		-23.437500
3145		-27.343750
3146		-23.437500
3147		-27.343750
3148		-23.437500
3149		-27.343750
3150		-23.437500
3151		-27.343750
3152		-25.390625
3153		-27.343750
3154		-25.390625
3155		-27.343750
3156		-25.390625
3157		-29.296875
3158		-23.437500
3159		-27.343750
3160		-25.390625
3161		-27.343750
3162		-23.437500
3163		-27.343750
3164		-23.437500
3165		-27.343750
3166		-23.437500
3167		-25.390625
3168		-23.437500
3169		-25.390625
3170		-23.437500
3171		-25.390625
3172		-21.484375
3173		-25.390625
3174		-21.484375
3175		-23.437500
3176		-21.484375
3177		-23.437500
3178		-19.531250
3179		-21.484375
3180		-19.531250
3181		-21.484375
3182		-17.578125
3183		-19.531250
3184		-17.578125
3185		-19.531250
3186		-15.625000
3187		-17.578125
3188		-13.671875
3189		-17.578125
3190		-13.671875
3191		-15.625000
3192		-11.718750
3193		-13.671875
3194		-9.765625
3195		-13.671875
3196		-7.812500
3197		-9.765625
3198		-7.812500
3199		-9.765625
3200		-5.859375
3201		-7.812500
3202		-3.906250
3203		-5.859375
3204		-1.953125
3205		-3.906250
3206		0.000000
3207		-1.953125
3208		1.953125
3209		0.000000
3210		3.906250
3211		0.000000
3212		5.859375
3213		1.953125
3214		5.859375
3215		3.906250
3216		7.812500
3217		5.859375
3218		9.765625
3219		7.812500
3220		11.718750
3221		9.765625
3222		13.671875
3223		11.718750
3224		15.625000
3225		13.671875
3226		17.578125
3227		15.625000
3228		19.531250
3229		17.578125
3230		21.484375
3231		17.578125
3232		21.484375
3233		19.531250
3234		25.390625
3235		21.484375
3236		25.390625
3237		23.437500
3238		27.343750
3239		25.390625
3240		29.296875
3241		25.390625
3242		31.250000
3243		27.343750
3244		31.250000
3245		29.296875
3246		33.203125
3247		31.250000
3248		35.156250
3249		33.203125
3250		37.109375
3251		33.203125
3252		37.109375
3253		35.156250
3254		39.062500
3255		37.109375
3256		39.062500
3257		37.109375
3258		41.015625
3259		39.062500
3260		41.015625
3261		39.062500
3262		41.015625
3263		39.062500
3264		42.968750
3265		41.015625
3266		44.921875
3267		41.015625
3268		44.921875
3269		41.015625
3270		44.921875
3271		42.968750
3272		44.921875
3273		42.968750
3274		46.875000
3275		42.968750
3276		46.875000
3277		44.921875
3278		46.875000
3279		42.968750
3280		48.828125
3281		42.968750
3282		46.875000
3283		44.921875
3284		46.875000
3285		44.921875
3286		46.875000
3287		44.921875
3288		46.875000
3289		42.968750
3290		46.875000
3291		42.968750
3292		46.875000
3293		42.968750
3294		46.875000
3295		42.968750
3296		44.921875
3297		41.015625
3298		44.921875
3299		42.968750
3300		44.921875
3301		41.015625
3302		44.921875
3303		41.015625
3304		42.968750
3305		39.062500
3306		42.968750
3307		37.109375
3308		42.968750
3309		37.109375
3310		41.015625
3311		37.109375
3312		39.062500
3313		35.156250
3314		39.062500
3315		35.156250
3316		39.062500
3317		33.203125
3318		37.109375
3319		31.250000
3320		35.156250
3321		31.250000
3322		35.156250
3323		29.296875
3324		33.203125
3325		27.343750
3326		31.250000
3327		25.390625
3328		29.296875
3329		23.437500
3330		27.343750
3331		21.484375
3332		27.343750
3333		21.484375
3334		25.390625
3335		19.531250
3336		23.437500
3337		17.578125
3338		21.484375
3339		15.625000
3340		19.531250
3341		13.671875
3342		17.578125
3343		13.671875
3344		15.625000
3345		11.718750
3346		13.671875
3347		9.765625
3348		11.718750
3349		7.812500
3350		11.718750
3351		3.906250
3352		9.765625
3353		3.906250
3354		7.812500
3355		1.953125
3356		5.859375
3357		0.000000
3358		3.906250
3359		-1.953125
3360		1.953125
3361		-3.906250
3362		0.000000
3363		-5.859375
3364		-1.953125
3365		-5.859375
3366		-1.953125
3367		-7.812500
3368		-3.906250
3369		-9.765625
3370		-5.859375
3371		-11.718750
3372		-7.812500
3373		-13.671875
3374		-9.765625
3375		-15.625000
3376		-9.765625
3377		-15.625000
3378		-11.718750
3379		-17.578125
3380		-13.671875
3381		-17.578125
3382		-13.671875
3383		-19.531250
3384		-15.625000
3385		-21.484375
3386		-17.578125
3387		-21.484375
3388		-19.531250
3389		-23.437500
3390		-19.531250
3391		-25.390625
3392		-19.531250
3393		-23.437500
3394		-21.484375
3395		-25.390625
3396		-21.484375
3397		-27.343750
3398		-23.437500
3399		-27.343750
3400		-23.437500
3401		-27.343750
3402		-23.437500
3403		-27.343750
3404		-23.437500
3405		-27.343750
3406		-23.437500
3407		-27.343750
3408		-25.390625
3409		-27.343750
3410		-25.390625
3411		-27.343750
3412		-25.390625
3413		-27.343750
3414		-23.437500
3415		-27.343750
3416		-23.437500
3417		-27.343750
3418		-23.437500
3419		-27.343750
3420		-23.437500
3421		-25.390625
3422		-23.437500
3423		-25.390625
3424		-23.437500
3425		-25.390625
3426		-21.484375
3427		-23.437500
3428		-21.484375
3429		-23.437500
3430		-21.484375
3431		-23.437500
3432		-19.531250
3433		-21.484375
3434		-19.531250
3435		-21.484375
3436		-17.578125
3437		-19.531250
3438		-15.625000
3439		-17.578125
3440		-15.625000
3441		-17.578125
3442		-13.671875
3443		-17.578125
3444		-11.718750
3445		-13.671875
3446		-11.718750
3447		-13.671875
3448		-9.765625
3449		-11.718750
3450		-7.812500
3451		-11.718750
3452		-5.859375
3453		-7.812500
3454		-3.906250
3455		-7.812500
3456		-3.906250
3457		-5.859375
3458		-1.953125
3459		-3.906250
3460		0.000000
3461		-1.953125
3462		1.953125
3463		0.000000
3464		3.906250
3465		0.000000
3466		5.859375
3467		3.906250
3468		7.812500
3469		5.859375
3470		9.765625
3471		7.812500
3472		11.718750
3473		7.812500
3474		13.671875
3475		9.765625
3476		15.625000
3477		11.718750
3478		15.625000
3479		13.671875
3480		17.578125
3481		15.625000
3482		19.531250
3483		17.578125
3484		21.484375
3485		19.531250
3486		23.437500
3487		19.531250
3488		23.437500
3489		21.484375
3490		27.343750
3491		23.437500
3492		27.343750
3493		25.390625
3494		29.296875
3495		27.343750
3496		31.250000
3497		27.343750
3498		33.203125
3499		29.296875
3500		33.203125
3501		31.250000
3502		35.156250
3503		33.203125
3504		37.109375
3505		33.203125
3506		37.109375
3507		35.156250
3508		39.062500
3509		35.156250
3510		41.015625
3511		37.109375
3512		41.015625
3513		39.062500
3514		41.015625
3515		39.062500
3516		42.968750
3517		41.015625
3518		42.968750
3519		41.015625
3520		44.921875
3521		41.015625
3522		44.921875
3523		42.968750
3524		44.921875
3525		42.968750
3526		46.875000
3527		42.968750
3528		46.875000
3529		44.921875
3530		46.875000
3531		42.968750
3532		46.875000
3533		44.921875
3534		46.875000
3535		44.921875
3536		46.875000
3537		44.921875
3538		46.875000
3539		44.921875
3540		46.875000
3541		44.921875
3542		46.875000
3543		44.921875
3544		46.875000
3545		44.921875
3546		46.875000
3547		42.968750
3548		46.875000
3549		42.968750
3550		46.875000
3551		42.968750
3552		44.921875
3553		41.015625
3554		44.921875
3555		41.015625
3556		42.968750
3557		41.015625
3558		42.968750
3559		39.062500
3560		42.968750
3561		39.062500
3562		42.968750
3563		37.109375
3564		41.015625
3565		37.109375
3566		41.015625
3567		35.156250
3568		39.062500
3569		33.203125
3570		37.109375
3571		33.203125
3572		37.109375
3573		31.250000
3574		35.156250
3575		29.296875
3576		33.203125
3577		27.343750
3578		33.203125
3579		27.343750
3580		31.250000
3581		25.390625
3582		29.296875
3583		23.437500
3584		27.343750
3585		21.484375
3586		25.390625
3587		21.484375
3588		23.437500
3589		19.531250
3590		23.437500
3591		17.578125
3592		21.484375
3593		13.671875
3594		19.531250
3595		13.671875
3596		17.578125
3597		11.718750
3598		15.625000
3599		9.765625
3600		13.671875
3601		7.812500
3602		11.718750
3603		7.812500
3604		9.765625
3605		5.859375
3606		7.812500
3607		3.906250
3608		5.859375
3609		1.953125
3610		3.906250
3611		0.000000
3612		3.906250
3613		-1.953125
3614		1.953125
3615		-5.859375
3616		0.000000
3617		-5.859375
3618		-1.953125
3619		-7.812500
3620		-3.906250
3621		-7.812500
3622		-5.859375
3623		-11.718750
3624		-7.812500
3625		-13.671875
3626		-7.812500
3627		-13.671875
3628		-9.765625
3629		-13.671875
3630		-11.718750
3631		-15.625000
3632		-13.671875
3633		-17.578125
3634		-13.671875
3635		-19.531250
3636		-15.625000
3637		-19.531250
3638		-17.578125
3639		-21.484375
3640		-17.578125
3641		-21.484375
3642		-19.531250
3643		-23.437500
3644		-19.531250
3645		-25.390625
3646		-19.531250
3647		-23.437500
3648		-21.484375
3649		-25.390625
3650		-21.484375
3651		-25.390625
3652		-23.437500
3653		-27.343750
3654		-23.437500
3655		-27.343750
3656		-23.437500
3657		-27.343750
3658		-23.437500
3659		-27.343750
3660		-23.437500
3661		-27.343750
3662		-23.437500
3663		-27.343750
3664		-25.390625
3665		-27.343750
3666		-23.437500
3667		-27.343750
3668		-25.390625
3669		-27.343750
3670		-23.437500
3671		-27.343750
3672		-23.437500
3673		-27.343750
3674		-23.437500
3675		-25.390625
3676		-23.437500
3677		-25.390625
3678		-21.484375
3679		-23.437500
3680		-21.484375
3681		-23.437500
3682		-21.484375
3683		-23.437500
3684		-19.531250
3685		-23.437500
3686		-19.531250
3687		-21.484375
3688		-17.578125
3689		-19.531250
3690		-17.578125
3691		-19.531250
3692		-15.625000
3693		-17.578125
3694		-15.625000
3695		-17.578125
3696		-13.671875
3697		-15.625000
3698		-11.718750
3699		-13.671875
3700		-9.765625
3701		-13.671875
3702		-9.765625
3703		-11.718750
3704		-7.812500
3705		-9.765625
3706		-5.859375
3707		-7.812500
3708		-3.906250
3709		-5.859375
3710		-1.953125
3711		-5.859375
3712		0.000000
3713		-1.953125
3714		0.000000
3715		-1.953125
3716		1.953125
3717		0.000000
3718		3.906250
3719		1.953125
3720		5.859375
3721		3.906250
3722		7.812500
3723		5.859375
3724		9.765625
3725		7.812500
3726		11.718750
3727		9.765625
3728		13.671875
3729		9.765625
3730		13.671875
3731		13.671875
3732		15.625000
3733		13.671875
3734		17.578125
3735		15.625000
3736		19.531250
3737		17.578125
3738		23.437500
3739		19.531250
3740		23.437500
3741		21.484375
3742		25.390625
3743		23.437500
3744		27.343750
3745		23.437500
3746		27.343750
3747		27.343750
3748		29.296875
3749		27.343750
3750		31.250000
3751		29.296875
3752		33.203125
3753		31.250000
3754		35.156250
3755		31.250000
3756		35.156250
3757		33.203125
3758		37.109375
3759		33.203125
3760		37.109375
3761		35.156250
3762		39.062500
3763		37.109375
3764		39.062500
3765		37.109375
3766		41.015625
3767		39.062500
3768		42.968750
3769		41.015625
3770		42.968750
3771		41.015625
3772		42.968750
3773		41.015625
3774		44.921875
3775		42.968750
3776		44.921875
3777		42.968750
3778		44.921875
3779		42.968750
3780		46.875000
3781		42.968750
3782		46.875000
3783		44.921875
3784		46.875000
3785		42.968750
3786		46.875000
3787		44.921875
3788		46.875000
3789		44.921875
3790		46.875000
3791		44.921875
3792		46.875000
3793		44.921875
3794		46.875000
3795		42.968750
3796		46.875000
3797		44.921875
3798		46.875000
3799		44.921875
3800		46.875000
3801		42.968750
3802		46.875000
3803		42.968750
3804		44.921875
3805		42.968750
3806		44.921875
3807		41.015625
3808		44.921875
3809		41.015625
3810		42.968750
3811		41.015625
3812		42.968750
3813		39.062500
3814		42.968750
3815		39.062500
3816		41.015625
3817		35.156250
3818		41.015625
3819		35.156250
3820		39.062500
3821		35.156250
3822		37.109375
3823		33.203125
3824		37.109375
3825		31.250000
3826		35.156250
3827		31.250000
3828		35.156250
3829		29.296875
3830		33.203125
3831		27.343750
3832		31.250000
3833		25.390625
3834		29.296875
3835		25.390625
3836		29.296875
3837		23.437500
3838		27.343750
3839		21.484375
3840		25.390625
3841		19.531250
3842		23.437500
3843		19.531250
3844		21.484375
3845		15.625000
3846		19.531250
3847		15.625000
3848		17.578125
3849		13.671875
3850		17.578125
3851		11.718750
3852		15.625000
3853		9.765625
3854		13.671875
3855		7.812500
3856		11.718750
3857		5.859375
3858		9.765625
3859		3.906250
3860		7.812500
3861		1.953125
3862		5.859375
3863		0.000000
3864		5.859375
3865		0.000000
3866		1.953125
3867		-3.906250
3868		0.000000
3869		-5.859375
3870		0.000000
3871		-5.859375
3872		-1.953125
3873		-7.812500
3874		-3.906250
3875		-9.765625
3876		-5.859375
3877		-11.718750
3878		-7.812500
3879		-13.671875
3880		-7.812500
3881		-13.671875
3882		-11.718750
3883		-15.625000
3884		-11.718750
3885		-17.578125
3886		-13.671875
3887		-17.578125
3888		-13.671875
3889		-19.531250
3890		-15.625000
3891		-21.484375
3892		-17.578125
3893		-21.484375
3894		-17.578125
3895		-23.437500
3896		-19.531250
3897		-23.437500
3898		-19.531250
3899		-23.437500
3900		-21.484375
3901		-25.390625
3902		-21.484375
3903		-25.390625
3904		-23.437500
3905		-27.343750
3906		-23.437500
3907		-27.343750
3908		-23.437500
3909		-27.343750
3910		-23.437500
3911		-27.343750
3912		-23.437500
3913		-29.296875
3914		-23.437500
3915		-27.343750
3916		-25.390625
3917		-27.343750
3918		-23.437500
3919		-27.343750
3920		-23.437500
3921		-27.343750
3922		-25.390625
3923		-27.343750
3924		-23.437500
3925		-27.343750
3926		-23.437500
3927		-27.343750
3928		-23.437500
3929		-27.343750
3930		-21.484375
3931		-25.390625
3932		-21.484375
3933		-25.390625
3934		-21.484375
3935		-25.390625
3936		-19.531250
3937		-23.437500
3938		-19.531250
3939		-21.484375
3940		-17.578125
3941		-21.484375
3942		-17.578125
3943		-19.531250
3944		-15.625000
3945		-19.531250
3946		-15.625000
3947		-17.578125
3948		-13.671875
3949		-15.625000
3950		-13.671875
3951		-15.625000
3952		-9.765625
3953		-13.671875
3954		-9.765625
3955		-11.718750
3956		-7.812500
3957		-9.765625
3958		-7.812500
3959		-9.765625
3960		-5.859375
3961		-7.812500
3962		-3.906250
3963		-5.859375
3964		-1.953125
3965		-3.906250
3966		0.000000
3967		-1.953125
3968		1.953125
3969		-1.953125
3970		3.906250
3971		1.953125
3972		3.906250
3973		1.953125
3974		5.859375
3975		3.906250
3976		9.765625
3977		5.859375
3978		9.765625
3979		7.812500
3980		13.671875
3981		7.812500
3982		13.671875
3983		11.718750
3984		15.625000
3985		13.671875
3986		17.578125
3987		15.625000
3988		19.531250
3989		17.578125
3990		21.484375
3991		19.531250
3992		23.437500
3993		21.484375
3994		23.437500
3995		21.484375
3996		25.390625
3997		23.437500
3998		27.343750
3999		25.390625
4000		29.296875
4001		27.343750
4002		31.250000
4003		27.343750
4004		31.250000
4005		29.296875
4006		33.203125
4007		31.250000
4008		35.156250
4009		31.250000
4010		35.156250
4011		33.203125
4012		37.109375
4013		35.156250
4014		39.062500
4015		37.109375
4016		39.062500
4017		37.109375
4018		39.062500
4019		37.109375
4020		41.015625
4021		39.062500
4022		42.968750
4023		41.015625
4024		42.968750
4025		41.015625
4026		44.921875
4027		41.015625
4028		44.921875
4029		42.968750
4030		44.921875
4031		42.968750
4032		44.921875
4033		42.968750
4034		44.921875
4035		42.968750
4036		46.875000
4037		42.968750
4038		46.875000
4039		42.968750
4040		46.875000
4041		44.921875
4042		46.875000
4043		44.921875
4044		46.875000
4045		44.921875
4046		46.875000
4047		42.968750
4048		46.875000
4049		44.921875
4050		46.875000
4051		44.921875
4052		46.875000
4053		42.968750
4054		46.875000
4055		42.968750
4056		46.875000
4057		42.968750
4058		44.921875
4059		41.015625
4060		44.921875
4061		41.015625
4062		44.921875
4063		39.062500
4064		42.968750
4065		39.062500
4066		42.968750
4067		39.062500
4068		41.015625
4069		37.109375
4070		41.015625
4071		37.109375
4072		39.062500
4073		35.156250
4074		39.062500
4075		33.203125
4076		37.109375
4077		33.203125
4078		37.109375
4079		31.250000
4080		35.156250
4081		29.296875
4082		33.203125
4083		29.296875
4084		31.250000
4085		27.343750
4086		31.250000
4087		25.390625
4088		29.296875
4089		25.390625
4090		29.296875
4091		23.437500
4092		27.343750
4093		21.484375
4094		25.390625
4095		19.531250
4096		23.437500
4097		17.578125
4098		21.484375
4099		15.625000
4100		19.531250
4101		13.671875
4102		17.578125
4103		11.718750
4104		15.625000
4105		9.765625
4106		15.625000
4107		9.765625
4108		11.718750
4109		5.859375
4110		11.718750
4111		3.906250
4112		9.765625
4113		3.906250
4114		5.859375
4115		1.953125
4116		5.859375
4117		0.000000
4118		3.906250
4119		-3.906250
4120		1.953125
4121		-3.906250
4122		0.000000
4123		-5.859375
4124		-1.953125
4125		-5.859375
4126		-1.953125
4127		-9.765625
4128		-3.906250
4129		-9.765625
4130		-5.859375
4131		-13.671875
4132		-7.812500
4133		-13.671875
4134		-9.765625
4135		-13.671875
4136		-11.718750
4137		-15.625000
4138		-11.718750
4139		-17.578125
4140		-13.671875
4141		-17.578125
4142		-15.625000
4143		-19.531250
4144		-15.625000
4145		-21.484375
4146		-17.578125
4147		-21.484375
4148		-19.531250
4149		-23.437500
4150		-19.531250
4151		-23.437500
4152		-21.484375
4153		-25.390625
4154		-21.484375
4155		-25.390625
4156		-21.484375
4157		-25.390625
4158		-21.484375
4159		-27.343750
4160		-23.437500
4161		-27.343750
4162		-23.437500
4163		-27.343750
4164		-23.437500
4165		-27.343750
4166		-23.437500
4167		-27.343750
4168		-25.390625
4169		-27.343750
4170		-25.390625
4171		-29.296875
4172		-25.390625
4173		-27.343750
4174		-25.390625
4175		-27.343750
4176		-25.390625
4177		-27.343750
4178		-23.437500
4179		-27.343750
4180		-23.437500
4181		-27.343750
4182		-23.437500
4183		-25.390625
4184		-23.437500
4185		-25.390625
4186		-21.484375
4187		-25.390625
4188		-21.484375
4189		-23.437500
4190		-21.484375
4191		-23.437500
4192		-19.531250
4193		-23.437500
4194		-19.531250
4195		-21.484375
4196		-17.578125
4197		-19.531250
4198		-15.625000
4199		-19.531250
4200		-15.625000
4201		-17.578125
4202		-13.671875
4203		-15.625000
4204		-11.718750
4205		-15.625000
4206		-9.765625
4207		-13.671875
4208		-9.765625
4209		-11.718750
4210		-7.812500
4211		-11.718750
4212		-7.812500
4213		-7.812500
4214		-3.906250
4215		-7.812500
4216		-1.953125
4217		-5.859375
4218		-1.953125
4219		-3.906250
4220		0.000000
4221		-1.953125
4222		1.953125
4223		0.000000
4224		3.906250
4225		0.000000
4226		5.859375
4227		3.906250
4228		7.812500
4229		3.906250
4230		9.765625
4231		5.859375
4232		11.718750
4233		7.812500
4234		11.718750
4235		9.765625
4236		13.671875
4237		11.718750
4238		15.625000
4239		13.671875
4240		17.578125
4241		15.625000
4242		19.531250
4243		17.578125
4244		21.484375
4245		19.531250
4246		23.437500
4247		21.484375
4248		23.437500
4249		21.484375
4250		25.390625
4251		23.437500
4252		27.343750
4253		25.390625
4254		29.296875
4255		25.390625
4256		31.250000
4257		29.296875
4258		33.203125
4259		29.296875
4260		33.203125
4261		31.250000
4262		35.156250
4263		33.203125
4264		35.156250
4265		33.203125
4266		37.109375
4267		35.156250
4268		39.062500
4269		37.109375
4270		39.062500
4271		37.109375
4272		41.015625
4273		37.109375
4274		41.015625
4275		39.062500
4276		42.968750
4277		41.015625
4278		42.968750
4279		41.015625
4280		44.921875
4281		41.015625
4282		44.921875
4283		41.015625
4284		44.921875
4285		42.968750
4286		44.921875
4287		42.968750
4288		46.875000
4289		42.968750
4290		46.875000
4291		44.921875
4292		46.875000
4293		42.968750
4294		46.875000
4295		42.968750
4296		46.875000
4297		42.968750
4298		46.875000
4299		44.921875
4300		46.875000
4301		44.921875
4302		46.875000
4303		44.921875
4304		46.875000
4305		42.968750
4306		46.875000
4307		42.968750
4308		46.875000
4309		42.968750
4310		44.921875
4311		42.968750
4312		44.921875
4313		41.015625
4314		44.921875
4315		41.015625
4316		44.921875
4317		41.015625
4318		42.968750
4319		39.062500
4320		41.015625
4321		37.109375
4322		41.015625
4323		37.109375
4324		41.015625
4325		35.156250
4326		41.015625
4327		33.203125
4328		39.062500
4329		33.203125
4330		37.109375
4331		33.203125
4332		35.156250
4333		31.250000
4334		35.156250
4335		29.296875
4336		33.203125
4337		29.296875
4338		31.250000
4339		25.390625
4340		31.250000
4341		25.390625
4342		29.296875
4343		23.437500
4344		27.343750
4345		21.484375
4346		27.343750
4347		19.531250
4348		23.437500
4349		17.578125
4350		23.437500
4351		17.578125
4352		21.484375
4353		15.625000
4354		19.531250
4355		13.671875
4356		17.578125
4357		11.718750
4358		15.625000
4359		9.765625
4360		13.671875
4361		7.812500
4362		11.718750
4363		5.859375
4364		11.718750
4365		3.906250
4366		9.765625
4367		1.953125
4368		7.812500
4369		1.953125
4370		3.906250
4371		-1.953125
4372		1.953125
4373		-3.906250
4374		1.953125
4375		-3.906250
4376		0.000000
4377		-7.812500
4378		-1.953125
4379		-7.812500
4380		-3.906250
4381		-9.765625
4382		-3.906250
4383		-11.718750
4384		-5.859375
4385		-11.718750
4386		-9.765625
4387		-13.671875
4388		-11.718750
4389		-15.625000
4390		-11.718750
4391		-17.578125
4392		-13.671875
4393		-19.531250
4394		-13.671875
4395		-19.531250
4396		-15.625000
4397		-21.484375
4398		-15.625000
4399		-23.437500
4400		-17.578125
4401		-23.437500
4402		-17.578125
4403		-23.437500
4404		-21.484375
4405		-25.390625
4406		-21.484375
4407		-25.390625
4408		-21.484375
4409		-27.343750
4410		-21.484375
4411		-27.343750
4412		-23.437500
4413		-27.343750
4414		-23.437500
4415		-27.343750
4416		-23.437500
4417		-29.296875
4418		-23.437500
4419		-27.343750
4420		-25.390625
4421		-27.343750
4422		-25.390625
4423		-29.296875
4424		-23.437500
4425		-29.296875
4426		-23.437500
4427		-29.296875
4428		-23.437500
4429		-29.296875
4430		-23.437500
4431		-29.296875
4432		-23.437500
4433		-27.343750
4434		-23.437500
4435		-27.343750
4436		-23.437500
4437		-25.390625
4438		-23.437500
4439		-25.390625
4440		-23.437500
4441		-23.437500
4442		-21.484375
4443		-23.437500
4444		-21.484375
4445		-23.437500
4446		-19.531250
4447		-21.484375
4448		-19.531250
4449		-21.484375
4450		-17.578125
4451		-19.531250
4452		-15.625000
4453		-17.578125
4454		-15.625000
4455		-17.578125
4456		-13.671875
4457		-15.625000
4458		-13.671875
4459		-13.671875
4460		-11.718750
4461		-11.718750
4462		-9.765625
4463		-11.718750
4464		-7.812500
4465		-9.765625
4466		-5.859375
4467		-7.812500
4468		-3.906250
4469		-5.859375
4470		-3.906250
4471		-5.859375
4472		-1.953125
4473		-3.906250
4474		0.000000
4475		-1.953125
4476		1.953125
4477		0.000000
4478		3.906250
4479		1.953125
4480		5.859375
4481		3.906250
4482		7.812500
4483		5.859375
4484		9.765625
4485		7.812500
4486		11.718750
4487		9.765625
4488		11.718750
4489		9.765625
4490		13.671875
4491		11.718750
4492		15.625000
4493		13.671875
4494		17.578125
4495		15.625000
4496		19.531250
4497		17.578125
4498		21.484375
4499		19.531250
4500		23.437500
4501		21.484375
4502		25.390625
4503		23.437500
4504		25.390625
4505		23.437500
4506		27.343750
4507		25.390625
4508		29.296875
4509		27.343750
4510		31.250000
4511		29.296875
4512		31.250000
4513		31.250000
4514		33.203125
4515		31.250000
4516		35.156250
4517		33.203125
4518		35.156250
4519		35.156250
4520		37.109375
4521		35.156250
4522		39.062500
4523		37.109375
4524		39.062500
4525		37.109375
4526		41.015625
4527		39.062500
4528		41.015625
4529		39.062500
4530		42.968750
4531		41.015625
4532		42.968750
4533		41.015625
4534		42.968750
4535		41.015625
4536		44.921875
4537		42.968750
4538		44.921875
4539		41.015625
4540		48.828125
4541		41.015625
4542		48.828125
4543		41.015625
4544		48.828125
4545		41.015625
4546		48.828125
4547		44.921875
4548		46.875000
4549		44.921875
4550		46.875000
4551		44.921875
4552		46.875000
4553		44.921875
4554		46.875000
4555		44.921875
4556		46.875000
4557		41.015625
4558		48.828125
4559		41.015625
4560		48.828125
4561		39.062500
4562		48.828125
4563		42.968750
4564		44.921875
4565		41.015625
4566		44.921875
4567		41.015625
4568		42.968750
4569		41.015625
4570		42.968750
4571		39.062500
4572		42.968750
4573		35.156250
4574		42.968750
4575		33.203125
4576		44.921875
4577		33.203125
4578		42.968750
4579		33.203125
4580		42.968750
4581		35.156250
4582		37.109375
4583		33.203125
4584		35.156250
4585		31.250000
4586		35.156250
4587		31.250000
4588		33.203125
4589		29.296875
4590		31.250000
4591		25.390625
4592		35.156250
4593		23.437500
4594		33.203125
4595		21.484375
4596		31.250000
4597		23.437500
4598		25.390625
4599		21.484375
4600		25.390625
4601		19.531250
4602		23.437500
4603		17.578125
4604		21.484375
4605		15.625000
4606		19.531250
4607		11.718750
4608		21.484375
4609		9.765625
4610		19.531250
4611		7.812500
4612		17.578125
4613		7.812500
4614		13.671875
4615		5.859375
4616		9.765625
4617		5.859375
4618		7.812500
4619		3.906250
4620		7.812500
4621		1.953125
4622		5.859375
4623		0.000000
4624		3.906250
4625		-3.906250
4626		5.859375
4627		-7.812500
4628		3.906250
4629		-7.812500
4630		1.953125
4631		-5.859375
4632		-3.906250
4633		-7.812500
4634		-5.859375
4635		-9.765625
4636		-5.859375
4637		-11.718750
4638		-7.812500
4639		-13.671875
4640		-9.765625
4641		-17.578125
4642		-7.812500
4643		-19.531250
4644		-9.765625
4645		-21.484375
4646		-11.718750
4647		-17.578125
4648		-15.625000
4649		-19.531250
4650		-17.578125
4651		-21.484375
4652		-17.578125
4653		-21.484375
4654		-19.531250
4655		-23.437500
4656		-19.531250
4657		-27.343750
4658		-17.578125
4659		-27.343750
4660		-19.531250
4661		-29.296875
4662		-19.531250
4663		-29.296875
4664		-19.531250
4665		-27.343750
4666		-23.437500
4667		-27.343750
4668		-25.390625
4669		-27.343750
4670		-25.390625
4671		-27.343750
4672		-25.390625
4673		-27.343750
4674		-25.390625
4675		-33.203125
4676		-21.484375
4677		-31.250000
4678		-21.484375
4679		-31.250000
4680		-21.484375
4681		-27.343750
4682		-25.390625
4683		-27.343750
4684		-25.390625
4685		-27.343750
4686		-25.390625
4687		-27.343750
4688		-25.390625
4689		-27.343750
4690		-23.437500
4691		-29.296875
4692		-19.531250
4693		-29.296875
4694		-19.531250
4695		-27.343750
4696		-17.578125
4697		-27.343750
4698		-17.578125
4699		-23.437500
4700		-19.531250
4701		-21.484375
4702		-19.531250
4703		-19.531250
4704		-17.578125
4705		-19.531250
4706		-15.625000
4707		-17.578125
4708		-15.625000
4709		-19.531250
4710		-9.765625
4711		-19.531250
4712		-9.765625
4713		-17.578125
4714		-7.812500
4715		-11.718750
4716		-9.765625
4717		-11.718750
4718		-7.812500
4719		-9.765625
4720		-5.859375
4721		-9.765625
4722		-3.906250
4723		-5.859375
4724		-1.953125
4725		-3.906250
4726		-1.953125
4727		-3.906250
4728		3.906250
4729		-1.953125
4730		3.906250
4731		0.000000
4732		3.906250
4733		1.953125
4734		5.859375
4735		3.906250
4736		7.812500
4737		5.859375
4738		9.765625
4739		7.812500
4740		11.718750
4741		9.765625
4742		11.718750
4743		11.718750
4744		15.625000
4745		9.765625
4746		19.531250
4747		13.671875
4748		17.578125
4749		15.625000
4750		19.531250
4751		17.578125
4752		21.484375
4753		19.531250
4754		23.437500
4755		21.484375
4756		25.390625
4757		23.437500
4758		27.343750
4759		25.390625
4760		27.343750
4761		23.437500
4762		31.250000
4763		25.390625
4764		33.203125
4765		29.296875
4766		33.203125
4767		31.250000
4768		33.203125
4769		31.250000
4770		35.156250
4771		33.203125
4772		37.109375
4773		35.156250
4774		37.109375
4775		35.156250
4776		39.062500
4777		37.109375
4778		39.062500
4779		37.109375
4780		41.015625
4781		39.062500
4782		41.015625
4783		39.062500
4784		42.968750
4785		41.015625
4786		42.968750
4787		41.015625
4788		42.968750
4789		41.015625
4790		44.921875
4791		41.015625
4792		44.921875
4793		42.968750
4794		44.921875
4795		42.968750
4796		44.921875
4797		42.968750
4798		44.921875
4799		42.968750
4800		46.875000
4801		44.921875
4802		46.875000
4803		42.968750
4804		46.875000
4805		44.921875
4806		46.875000
4807		44.921875
4808		46.875000
4809		42.968750
4810		46.875000
4811		42.968750
4812		44.921875
4813		42.968750
4814		44.921875
4815		42.968750
4816		44.921875
4817		41.015625
4818		44.921875
4819		41.015625
4820		42.968750
4821		41.015625
4822		42.968750
4823		39.062500
4824		42.968750
4825		39.062500
4826		42.968750
4827		37.109375
4828		41.015625
4829		37.109375
4830		39.062500
4831		37.109375
4832		39.062500
4833		35.156250
4834		39.062500
4835		33.203125
4836		37.109375
4837		33.203125
4838		35.156250
4839		31.250000
4840		35.156250
4841		29.296875
4842		33.203125
4843		29.296875
4844		31.250000
4845		27.343750
4846		31.250000
4847		25.390625
4848		29.296875
4849		23.437500
4850		27.343750
4851		21.484375
4852		25.390625
4853		19.531250
4854		23.437500
4855		19.531250
4856		21.484375
4857		17.578125
4858		19.531250
4859		15.625000
4860		19.531250
4861		13.671875
4862		17.578125
4863		11.718750
4864		15.625000
4865		9.765625
4866		13.671875
4867		7.812500
4868		13.671875
4869		5.859375
4870		9.765625
4871		3.906250
4872		7.812500
4873		1.953125
4874		5.859375
4875		0.000000
4876		5.859375
4877		-1.953125
4878		3.906250
4879		-1.953125
4880		1.953125
4881		-3.906250
4882		0.000000
4883		-5.859375
4884		-1.953125
4885		-7.812500
4886		-3.906250
4887		-9.765625
4888		-5.859375
4889		-9.765625
4890		-7.812500
4891		-11.718750
4892		-9.765625
4893		-15.625000
4894		-9.765625
4895		-15.625000
4896		-11.718750
4897		-17.578125
4898		-13.671875
4899		-19.531250
4900		-15.625000
4901		-19.531250
4902		-15.625000
4903		-19.531250
4904		-17.578125
4905		-21.484375
4906		-19.531250
4907		-21.484375
4908		-19.531250
4909		-25.390625
4910		-19.531250
4911		-25.390625
4912		-19.531250
4913		-25.390625
4914		-21.484375
4915		-25.390625
4916		-23.437500
4917		-27.343750
4918		-23.437500
4919		-27.343750
4920		-23.437500
4921		-27.343750
4922		-25.390625
4923		-27.343750
4924		-25.390625
4925		-27.343750
4926		-25.390625
4927		-29.296875
4928		-23.437500
4929		-29.296875
4930		-25.390625
4931		-27.343750
4932		-25.390625
4933		-29.296875
4934		-25.390625
4935		-29.296875
4936		-25.390625
4937		-27.343750
4938		-25.390625
4939		-27.343750
4940		-25.390625
4941		-27.343750
4942		-25.390625
4943		-27.343750
4944		-23.437500
4945		-27.343750
4946		-23.437500
4947		-25.390625
4948		-23.437500
4949		-23.437500
4950		-21.484375
4951		-23.437500
4952		-19.531250
4953		-21.484375
4954		-19.531250
4955		-21.484375
4956		-17.578125
4957		-19.531250
4958		-17.578125
4959		-19.531250
4960		-15.625000
4961		-21.484375
4962		-13.671875
4963		-17.578125
4964		-13.671875
4965		-15.625000
4966		-11.718750
4967		-13.671875
4968		-9.765625
4969		-13.671875
4970		-9.765625
4971		-11.718750
4972		-7.812500
4973		-9.765625
4974		-5.859375
4975		-7.812500
4976		-3.906250
4977		-7.812500
4978		-1.953125
4979		-3.906250
4980		0.000000
4981		-1.953125
4982		0.000000
4983		0.000000
4984		3.906250
4985		0.000000
4986		3.906250
4987		3.906250
4988		5.859375
4989		3.906250
4990		7.812500
4991		5.859375
4992		9.765625
4993		7.812500
4994		13.671875
4995		9.765625
4996		13.671875
4997		11.718750
4998		15.625000
4999		13.671875
5000		17.578125
5001		15.625000
5002		19.531250
5003		15.625000
5004		19.531250
5005		19.531250
5006		21.484375
5007		19.531250
5008		23.437500
5009		21.484375
5010		25.390625
5011		23.437500
5012		27.343750
5013		25.390625
5014		29.296875
5015		27.343750
5016		29.296875
5017		27.343750
5018		31.250000
5019		29.296875
5020		33.203125
5021		31.250000
5022		33.203125
5023		33.203125
5024		35.156250
5025		33.203125
5026		37.109375
5027		35.156250
5028		37.109375
5029		35.156250
5030		39.062500
5031		37.109375
5032		39.062500
5033		37.109375
5034		41.015625
5035		39.062500
5036		41.015625
5037		39.062500
5038		42.968750
5039		41.015625
5040		42.968750
5041		41.015625
5042		42.968750
5043		41.015625
5044		44.921875
5045		41.015625
5046		44.921875
5047		42.968750
5048		44.921875
5049		42.968750
5050		44.921875
5051		42.968750
5052		44.921875
5053		42.968750
5054		46.875000
5055		42.968750
5056		46.875000
5057		44.921875
5058		46.875000
5059		42.968750
5060		46.875000
5061		42.968750
5062		46.875000
5063		42.968750
5064		44.921875
5065		42.968750
5066		44.921875
5067		42.968750
5068		44.921875
5069		42.968750
5070		44.921875
5071		41.015625
5072		44.921875
5073		41.015625
5074		42.968750
5075		41.015625
5076		42.968750
5077		39.062500
5078		42.968750
5079		39.062500
5080		41.015625
5081		37.109375
5082		41.015625
5083		37.109375
5084		39.062500
5085		35.156250
5086		39.062500
5087		35.156250
5088		37.109375
5089		33.203125
5090		35.156250
5091		31.250000
5092		35.156250
5093		31.250000
5094		33.203125
5095		29.296875
5096		33.203125
5097		27.343750
5098		31.250000
5099		27.343750
5100		29.296875
5101		25.390625
5102		27.343750
5103		23.437500
5104		25.390625
5105		21.484375
5106		25.390625
5107		19.531250
5108		23.437500
5109		17.578125
5110		21.484375
5111		15.625000
5112		19.531250
5113		15.625000
5114		17.578125
5115		13.671875
5116		15.625000
5117		9.765625
5118		13.671875
5119		9.765625
5120		11.718750
5121		7.812500
5122		9.765625
5123		5.859375
5124		9.765625
5125		3.906250
5126		7.812500
5127		1.953125
5128		5.859375
5129		0.000000
5130		3.906250
5131		-1.953125
5132		1.953125
5133		-3.906250
5134		0.000000
5135		-3.906250
5136		-1.953125
5137		-5.859375
5138		-3.906250
5139		-7.812500
5140		-5.859375
5141		-9.765625
5142		-7.812500
5143		-11.718750
5144		-7.812500
5145		-13.671875
5146		-9.765625
5147		-13.671875
5148		-11.718750
5149		-15.625000
5150		-13.671875
5151		-17.578125
5152		-13.671875
5153		-17.578125
5154		-15.625000
5155		-19.531250
5156		-17.578125
5157		-21.484375
5158		-17.578125
5159		-21.484375
5160		-19.531250
5161		-25.390625
5162		-19.531250
5163		-25.390625
5164		-19.531250
5165		-25.390625
5166		-21.484375
5167		-25.390625
5168		-23.437500
5169		-25.390625
5170		-23.437500
5171		-27.343750
5172		-25.390625
5173		-27.343750
5174		-25.390625
5175		-27.343750
5176		-25.390625
5177		-27.343750
5178		-25.390625
5179		-31.250000
5180		-25.390625
5181		-31.250000
5182		-25.390625
5183		-27.343750
5184		-27.343750
5185		-29.296875
5186		-25.390625
5187		-29.296875
5188		-25.390625
5189		-27.343750
5190		-25.390625
5191		-27.343750
5192		-25.390625
5193		-27.343750
5194		-25.390625
5195		-29.296875
5196		-21.484375
5197		-27.343750
5198		-21.484375
5199		-25.390625
5200		-23.437500
5201		-25.390625
5202		-23.437500
5203		-23.437500
5204		-21.484375
5205		-23.437500
5206		-21.484375
5207		-21.484375
5208		-19.531250
5209		-21.484375
5210		-17.578125
5211		-19.531250
5212		-17.578125
5213		-21.484375
5214		-15.625000
5215		-19.531250
5216		-13.671875
5217		-15.625000
5218		-13.671875
5219		-15.625000
5220		-11.718750
5221		-13.671875
5222		-9.765625
5223		-11.718750
5224		-9.765625
5225		-9.765625
5226		-7.812500
5227		-9.765625
5228		-5.859375
5229		-7.812500
5230		-1.953125
5231		-5.859375
5232		-1.953125
5233		-3.906250
5234		0.000000
5235		-1.953125
5236		0.000000
5237		0.000000
5238		3.906250
5239		1.953125
5240		3.906250
5241		3.906250
5242		5.859375
5243		5.859375
5244		7.812500
5245		5.859375
5246		11.718750
5247		5.859375
5248		13.671875
5249		7.812500
5250		13.671875
5251		11.718750
5252		15.625000
5253		13.671875
5254		17.578125
5255		15.625000
5256		19.531250
5257		17.578125
5258		19.531250
5259		19.531250
5260		21.484375
5261		21.484375
5262		23.437500
5263		21.484375
5264		27.343750
5265		21.484375
5266		29.296875
5267		25.390625
5268		29.296875
5269		27.343750
5270		29.296875
5271		29.296875
5272		31.250000
5273		29.296875
5274		33.203125
5275		31.250000
5276		33.203125
5277		33.203125
5278		35.156250
5279		33.203125
5280		37.109375
5281		33.203125
5282		39.062500
5283		35.156250
5284		39.062500
5285		37.109375
5286		39.062500
5287		39.062500
5288		41.015625
5289		39.062500
5290		41.015625
5291		39.062500
5292		42.968750
5293		41.015625
5294		42.968750
5295		41.015625
5296		42.968750
5297		39.062500
5298		46.875000
5299		41.015625
5300		46.875000
5301		42.968750
5302		44.921875
5303		42.968750
5304		44.921875
5305		42.968750
5306		44.921875
5307		42.968750
5308		44.921875
5309		42.968750
5310		46.875000
5311		42.968750
5312		46.875000
5313		41.015625
5314		46.875000
5315		42.968750
5316		46.875000
5317		42.968750
5318		44.921875
5319		42.968750
5320		44.921875
5321		42.968750
5322		44.921875
5323		41.015625
5324		44.921875
5325		41.015625
5326		44.921875
5327		41.015625
5328		42.968750
5329		39.062500
5330		42.968750
5331		37.109375
5332		42.968750
5333		37.109375
5334		42.968750
5335		37.109375
5336		39.062500
5337		37.109375
5338		39.062500
5339		35.156250
5340		37.109375
5341		33.203125
5342		37.109375
5343		33.203125
5344		35.156250
5345		31.250000
5346		35.156250
5347		29.296875
5348		33.203125
5349		29.296875
5350		31.250000
5351		27.343750
5352		29.296875
5353		25.390625
5354		29.296875
5355		23.437500
5356		27.343750
5357		21.484375
5358		25.390625
5359		21.484375
5360		23.437500
5361		19.531250
5362		21.484375
5363		15.625000
5364		21.484375
5365		15.625000
5366		19.531250
5367		13.671875
5368		17.578125
5369		11.718750
5370		15.625000
5371		9.765625
5372		13.671875
5373		7.812500
5374		11.718750
5375		7.812500
5376		9.765625
5377		5.859375
5378		7.812500
5379		3.906250
5380		7.812500
5381		0.000000
5382		5.859375
5383		0.000000
5384		3.906250
5385		-1.953125
5386		1.953125
5387		-3.906250
5388		0.000000
5389		-5.859375
5390		-1.953125
5391		-7.812500
5392		-3.906250
5393		-9.765625
5394		-5.859375
5395		-9.765625
5396		-7.812500
5397		-11.718750
5398		-9.765625
5399		-13.671875
5400		-9.765625
5401		-15.625000
5402		-11.718750
5403		-15.625000
5404		-13.671875
5405		-17.578125
5406		-15.625000
5407		-19.531250
5408		-15.625000
5409		-19.531250
5410		-17.578125
5411		-21.484375
5412		-17.578125
5413		-21.484375
5414		-19.531250
5415		-23.437500
5416		-21.484375
5417		-23.437500
5418		-21.484375
5419		-25.390625
5420		-23.437500
5421		-25.390625
5422		-23.437500
5423		-27.343750
5424		-23.437500
5425		-27.343750
5426		-25.390625
5427		-27.343750
5428		-25.390625
5429		-27.343750
5430		-25.390625
5431		-27.343750
5432		-25.390625
5433		-29.296875
5434		-25.390625
5435		-29.296875
5436		-25.390625
5437		-29.296875
5438		-25.390625
5439		-27.343750
5440		-27.343750
5441		-29.296875
5442		-25.390625
5443		-27.343750
5444		-25.390625
5445		-27.343750
5446		-25.390625
5447		-27.343750
5448		-25.390625
5449		-27.343750
5450		-25.390625
5451		-25.390625
5452		-23.437500
5453		-25.390625
5454		-23.437500
5455		-25.390625
5456		-21.484375
5457		-23.437500
5458		-21.484375
5459		-23.437500
5460		-19.531250
5461		-21.484375
5462		-19.531250
5463		-21.484375
5464		-17.578125
5465		-19.531250
5466		-15.625000
5467		-19.531250
5468		-15.625000
5469		-17.578125
5470		-13.671875
5471		-15.625000
5472		-13.671875
5473		-15.625000
5474		-11.718750
5475		-13.671875
5476		-9.765625
5477		-11.718750
5478		-7.812500
5479		-9.765625
5480		-7.812500
5481		-7.812500
5482		-5.859375
5483		-7.812500
5484		-3.906250
5485		-5.859375
5486		-1.953125
5487		-3.906250
5488		0.000000
5489		-1.953125
5490		1.953125
5491		0.000000
5492		3.906250
5493		1.953125
5494		5.859375
5495		3.906250
5496		7.812500
5497		3.906250
5498		7.812500
5499		7.812500
5500		11.718750
5501		9.765625
5502		11.718750
5503		11.718750
5504		13.671875
5505		11.718750
5506		15.625000
5507		13.671875
5508		17.578125
5509		15.625000
5510		19.531250
5511		17.578125
5512		21.484375
5513		19.531250
5514		23.437500
5515		21.484375
5516		23.437500
5517		23.437500
5518		25.390625
5519		23.437500
5520		27.343750
5521		25.390625
5522		29.296875
5523		27.343750
5524		29.296875
5525		29.296875
5526		31.250000
5527		29.296875
5528		33.203125
5529		31.250000
5530		35.156250
5531		33.203125
5532		35.156250
5533		33.203125
5534		37.109375
5535		35.156250
5536		37.109375
5537		37.109375
5538		39.062500
5539		37.109375
5540		39.062500
5541		39.062500
5542		41.015625
5543		39.062500
5544		42.968750
5545		39.062500
5546		42.968750
5547		41.015625
5548		42.968750
5549		41.015625
5550		42.968750
5551		42.968750
5552		44.921875
5553		42.968750
5554		44.921875
5555		42.968750
5556		44.921875
5557		42.968750
5558		44.921875
5559		42.968750
5560		44.921875
5561		42.968750
5562		44.921875
5563		42.968750
5564		44.921875
5565		42.968750
5566		44.921875
5567		42.968750
5568		44.921875
5569		42.968750
5570		44.921875
5571		42.968750
5572		44.921875
5573		42.968750
5574		44.921875
5575		42.968750
5576		44.921875
5577		41.015625
5578		42.968750
5579		41.015625
5580		42.968750
5581		41.015625
5582		42.968750
5583		39.062500
5584		42.968750
5585		39.062500
5586		41.015625
5587		37.109375
5588		41.015625
5589		37.109375
5590		39.062500
5591		35.156250
5592		39.062500
5593		35.156250
5594		37.109375
5595		33.203125
5596		37.109375
5597		31.250000
5598		35.156250
5599		31.250000
5600		33.203125
5601		29.296875
5602		33.203125
5603		27.343750
5604		31.250000
5605		25.390625
5606		29.296875
5607		25.390625
5608		27.343750
5609		23.437500
5610		25.390625
5611		21.484375
5612		25.390625
5613		19.531250
5614		23.437500
5615		17.578125
5616		21.484375
5617		17.578125
5618		19.531250
5619		15.625000
5620		17.578125
5621		13.671875
5622		15.625000
5623		11.718750
5624		15.625000
5625		9.765625
5626		13.671875
5627		7.812500
5628		11.718750
5629		5.859375
5630		9.765625
5631		3.906250
5632		7.812500
5633		1.953125
5634		5.859375
5635		0.000000
5636		3.906250
5637		-1.953125
5638		1.953125
5639		-3.906250
5640		0.000000
5641		-3.906250
5642		-1.953125
5643		-7.812500
5644		-3.906250
5645		-7.812500
5646		-3.906250
5647		-9.765625
5648		-5.859375
5649		-11.718750
5650		-7.812500
5651		-13.671875
5652		-9.765625
5653		-13.671875
5654		-11.718750
5655		-15.625000
5656		-13.671875
5657		-17.578125
5658		-13.671875
5659		-17.578125
5660		-15.625000
5661		-19.531250
5662		-17.578125
5663		-21.484375
5664		-17.578125
5665		-21.484375
5666		-19.531250
5667		-23.437500
5668		-19.531250
5669		-23.437500
5670		-21.484375
5671		-25.390625
5672		-21.484375
5673		-25.390625
5674		-23.437500
5675		-25.390625
5676		-23.437500
5677		-27.343750
5678		-25.390625
5679		-27.343750
5680		-25.390625
5681		-27.343750
5682		-25.390625
5683		-27.343750
5684		-25.390625
5685		-29.296875
5686		-27.343750
5687		-29.296875
5688		-25.390625
5689		-29.296875
5690		-25.390625
5691		-29.296875
5692		-27.343750
5693		-29.296875
5694		-27.343750
5695		-29.296875
5696		-27.343750
5697		-27.343750
5698		-25.390625
5699		-27.343750
5700		-25.390625
5701		-27.343750
5702		-25.390625
5703		-27.343750
5704		-25.390625
5705		-25.390625
5706		-23.437500
5707		-25.390625
5708		-23.437500
5709		-25.390625
5710		-21.484375
5711		-23.437500
5712		-21.484375
5713		-23.437500
5714		-19.531250
5715		-21.484375
5716		-19.531250
5717		-21.484375
5718		-17.578125
5719		-19.531250
5720		-17.578125
5721		-17.578125
5722		-15.625000
5723		-17.578125
5724		-13.671875
5725		-15.625000
5726		-11.718750
5727		-13.671875
5728		-11.718750
5729		-13.671875
5730		-9.765625
5731		-11.718750
5732		-7.812500
5733		-9.765625
5734		-5.859375
5735		-7.812500
5736		-3.906250
5737		-5.859375
5738		-3.906250
5739		-5.859375
5740		-1.953125
5741		-1.953125
5742		0.000000
5743		-1.953125
5744		1.953125
5745		0.000000
5746		3.906250
5747		1.953125
5748		5.859375
5749		3.906250
5750		7.812500
5751		5.859375
5752		9.765625
5753		7.812500
5754		11.718750
5755		9.765625
5756		13.671875
5757		11.718750
5758		13.671875
5759		13.671875
5760		15.625000
5761		15.625000
5762		17.578125
5763		17.578125
5764		19.531250
5765		17.578125
5766		21.484375
5767		19.531250
5768		23.437500
5769		21.484375
5770		25.390625
5771		23.437500
5772		25.390625
5773		25.390625
5774		27.343750
5775		25.390625
5776		29.296875
5777		27.343750
5778		31.250000
5779		29.296875
5780		33.203125
5781		31.250000
5782		33.203125
5783		31.250000
5784		35.156250
5785		33.203125
5786		37.109375
5787		35.156250
5788		37.109375
5789		35.156250
5790		39.062500
5791		37.109375
5792		39.062500
5793		37.109375
5794		41.015625
5795		39.062500
5796		41.015625
5797		39.062500
5798		41.015625
5799		39.062500
5800		42.968750
5801		41.015625
5802		42.968750
5803		41.015625
5804		44.921875
5805		41.015625
5806		44.921875
5807		42.968750
5808		44.921875
5809		42.968750
5810		44.921875
5811		42.968750
5812		44.921875
5813		42.968750
5814		44.921875
5815		42.968750
5816		44.921875
5817		42.968750
5818		44.921875
5819		42.968750
5820		44.921875
5821		42.968750
5822		44.921875
5823		42.968750
5824		44.921875
5825		42.968750
5826		44.921875
5827		42.968750
5828		44.921875
5829		41.015625
5830		44.921875
5831		41.015625
5832		44.921875
5833		41.015625
5834		42.968750
5835		39.062500
5836		42.968750
5837		39.062500
5838		41.015625
5839		39.062500
5840		41.015625
5841		37.109375
5842		41.015625
5843		37.109375
5844		39.062500
5845		35.156250
5846		37.109375
5847		33.203125
5848		37.109375
5849		33.203125
5850		35.156250
5851		31.250000
5852		35.156250
5853		29.296875
5854		33.203125
5855		29.296875
5856		31.250000
5857		27.343750
5858		31.250000
5859		25.390625
5860		29.296875
5861		23.437500
5862		27.343750
5863		23.437500
5864		25.390625
5865		21.484375
5866		23.437500
5867		19.531250
5868		23.437500
5869		17.578125
5870		21.484375
5871		15.625000
5872		19.531250
5873		13.671875
5874		17.578125
5875		11.718750
5876		15.625000
5877		11.718750
5878		13.671875
5879		9.765625
5880		11.718750
5881		7.812500
5882		9.765625
5883		5.859375
5884		7.812500
5885		3.906250
5886		5.859375
5887		1.953125
5888		5.859375
5889		0.000000
5890		3.906250
5891		-1.953125
5892		1.953125
5893		-3.906250
5894		0.000000
5895		-5.859375
5896		-1.953125
5897		-7.812500
5898		-3.906250
5899		-7.812500
5900		-5.859375
5901		-9.765625
5902		-7.812500
5903		-11.718750
5904		-7.812500
5905		-13.671875
5906		-9.765625
5907		-15.625000
5908		-11.718750
5909		-15.625000
5910		-13.671875
5911		-17.578125
5912		-15.625000
5913		-19.531250
5914		-15.625000
5915		-19.531250
5916		-17.578125
5917		-21.484375
5918		-17.578125
5919		-21.484375
5920		-19.531250
5921		-23.437500
5922		-21.484375
5923		-23.437500
5924		-21.484375
5925		-25.390625
5926		-23.437500
5927		-25.390625
5928		-23.437500
5929		-27.343750
5930		-23.437500
5931		-27.343750
5932		-25.390625
5933		-27.343750
5934		-25.390625
5935		-27.343750
5936		-25.390625
5937		-29.296875
5938		-25.390625
5939		-29.296875
5940		-25.390625
5941		-29.296875
5942		-27.343750
5943		-29.296875
5944		-27.343750
5945		-29.296875
5946		-27.343750
5947		-29.296875
5948		-27.343750
5949		-29.296875
5950		-25.390625
5951		-27.343750
5952		-25.390625
5953		-27.343750
5954		-25.390625
5955		-27.343750
5956		-25.390625
5957		-27.343750
5958		-23.437500
5959		-25.390625
5960		-23.437500
5961		-25.390625
5962		-23.437500
5963		-25.390625
5964		-21.484375
5965		-23.437500
5966		-19.531250
5967		-21.484375
5968		-19.531250
5969		-21.484375
5970		-17.578125
5971		-19.531250
5972		-17.578125
5973		-19.531250
5974		-15.625000
5975		-17.578125
5976		-15.625000
5977		-15.625000
5978		-13.671875
5979		-15.625000
5980		-11.718750
5981		-13.671875
5982		-9.765625
5983		-11.718750
5984		-9.765625
5985		-9.765625
5986		-7.812500
5987		-9.765625
5988		-5.859375
5989		-7.812500
5990		-3.906250
5991		-5.859375
5992		-1.953125
5993		-3.906250
5994		0.000000
5995		-1.953125
5996		1.953125
5997		0.000000
5998		1.953125
5999		1.953125
6000		3.906250
6001		3.906250
6002		5.859375
6003		3.906250
6004		7.812500
6005		5.859375
6006		9.765625
6007		7.812500
6008		11.718750
6009		9.765625
6010		13.671875
6011		11.718750
6012		15.625000
6013		13.671875
6014		17.578125
6015		15.625000
6016		19.531250
6017		17.578125
6018		19.531250
6019		19.531250
6020		21.484375
6021		21.484375
6022		23.437500
6023		21.484375
6024		25.390625
6025		23.437500
6026		27.343750
6027		25.390625
6028		29.296875
6029		27.343750
6030		29.296875
6031		29.296875
6032		31.250000
6033		29.296875
6034		33.203125
6035		31.250000
6036		33.203125
6037		33.203125
6038		35.156250
6039		33.203125
6040		37.109375
6041		35.156250
6042		37.109375
6043		35.156250
6044		39.062500
6045		37.109375
6046		39.062500
6047		37.109375
6048		41.015625
6049		39.062500
6050		41.015625
6051		39.062500
6052		42.968750
6053		41.015625
6054		42.968750
6055		41.015625
6056		42.968750
6057		41.015625
6058		44.921875
6059		42.968750
6060		44.921875
6061		42.968750
6062		44.921875
6063		42.968750
6064		44.921875
6065		42.968750
6066		44.921875
6067		42.968750
6068		44.921875
6069		42.968750
6070		44.921875
6071		42.968750
6072		44.921875
6073		42.968750
6074		44.921875
6075		42.968750
6076		44.921875
6077		42.968750
6078		44.921875
6079		42.968750
6080		44.921875
6081		42.968750
6082		44.921875
6083		41.015625
6084		44.921875
6085		41.015625
6086		42.968750
6087		41.015625
6088		42.968750
6089		39.062500
6090		41.015625
6091		39.062500
6092		41.015625
6093		37.109375
6094		41.015625
6095		37.109375
6096		39.062500
6097		35.156250
6098		39.062500
6099		33.203125
6100		37.109375
6101		33.203125
6102		37.109375
6103		33.203125
6104		35.156250
6105		31.250000
6106		33.203125
6107		29.296875
6108		33.203125
6109		27.343750
6110		31.250000
6111		27.343750
6112		29.296875
6113		25.390625
6114		27.343750
6115		23.437500
6116		27.343750
6117		21.484375
6118		25.390625
6119		19.531250
6120		23.437500
6121		17.578125
6122		21.484375
6123		17.578125
6124		19.531250
6125		15.625000
6126		17.578125
6127		13.671875
6128		17.578125
6129		11.718750
6130		15.625000
6131		9.765625
6132		13.671875
6133		7.812500
6134		11.718750
6135		5.859375
6136		9.765625
6137		3.906250
6138		7.812500
6139		1.953125
6140		5.859375
6141		0.000000
6142		3.906250
6143		0.000000
6144		3.906250
6145		-1.953125
6146		0.000000
6147		-3.906250
6148		-1.953125
6149		-5.859375
6150		-1.953125
6151		-7.812500
6152		-3.906250
6153		-9.765625
6154		-5.859375
6155		-11.718750
6156		-7.812500
6157		-11.718750
6158		-9.765625
6159		-13.671875
6160		-11.718750
6161		-15.625000
6162		-11.718750
6163		-17.578125
6164		-13.671875
6165		-17.578125
6166		-15.625000
6167		-19.531250
6168		-17.578125
6169		-21.484375
6170		-17.578125
6171		-21.484375
6172		-19.531250
6173		-23.437500
6174		-19.531250
6175		-23.437500
6176		-21.484375
6177		-25.390625
6178		-21.484375
6179		-25.390625
6180		-23.437500
6181		-25.390625
6182		-23.437500
6183		-27.343750
6184		-25.390625
6185		-27.343750
6186		-25.390625
6187		-29.296875
6188		-25.390625
6189		-27.343750
6190		-25.390625
6191		-31.250000
6192		-25.390625
6193		-29.296875
6194		-27.343750
6195		-31.250000
6196		-25.390625
6197		-29.296875
6198		-27.343750
6199		-29.296875
6200		-27.343750
6201		-29.296875
6202		-27.343750
6203		-29.296875
6204		-25.390625
6205		-27.343750
6206		-25.390625
6207		-29.296875
6208		-23.437500
6209		-29.296875
6210		-25.390625
6211		-27.343750
6212		-23.437500
6213		-27.343750
6214		-21.484375
6215		-27.343750
6216		-19.531250
6217		-25.390625
6218		-21.484375
6219		-23.437500
6220		-21.484375
6221		-23.437500
6222		-19.531250
6223		-21.484375
6224		-17.578125
6225		-21.484375
6226		-15.625000
6227		-19.531250
6228		-15.625000
6229		-17.578125
6230		-11.718750
6231		-15.625000
6232		-13.671875
6233		-17.578125
6234		-7.812500
6235		-13.671875
6236		-9.765625
6237		-11.718750
6238		-7.812500
6239		-11.718750
6240		-5.859375
6241		-7.812500
6242		-3.906250
6243		-7.812500
6244		-1.953125
6245		-5.859375
6246		-1.953125
6247		-3.906250
6248		0.000000
6249		-1.953125
6250		1.953125
6251		0.000000
6252		3.906250
6253		1.953125
6254		5.859375
6255		3.906250
6256		7.812500
6257		3.906250
6258		11.718750
6259		3.906250
6260		11.718750
6261		7.812500
6262		11.718750
6263		9.765625
6264		15.625000
6265		11.718750
6266		15.625000
6267		11.718750
6268		19.531250
6269		15.625000
6270		19.531250
6271		17.578125
6272		21.484375
6273		17.578125
6274		25.390625
6275		19.531250
6276		25.390625
6277		21.484375
6278		25.390625
6279		23.437500
6280		29.296875
6281		23.437500
6282		31.250000
6283		23.437500
6284		33.203125
6285		29.296875
6286		31.250000
6287		29.296875
6288		33.203125
6289		29.296875
6290		35.156250
6291		31.250000
6292		37.109375
6293		33.203125
6294		37.109375
6295		33.203125
6296		39.062500
6297		33.203125
6298		42.968750
6299		35.156250
6300		42.968750
6301		37.109375
6302		41.015625
6303		39.062500
6304		41.015625
6305		39.062500
6306		42.968750
6307		37.109375
6308		46.875000
6309		41.015625
6310		44.921875
6311		41.015625
6312		44.921875
6313		39.062500
6314		46.875000
6315		39.062500
6316		46.875000
6317		41.015625
6318		48.828125
6319		42.968750
6320		44.921875
6321		41.015625
6322		46.875000
6323		41.015625
6324		48.828125
6325		39.062500
6326		48.828125
6327		42.968750
6328		46.875000
6329		41.015625
6330		44.921875
6331		39.062500
6332		48.828125
6333		37.109375
6334		48.828125
6335		41.015625
6336		44.921875
6337		41.015625
6338		42.968750
6339		39.062500
6340		44.921875
6341		37.109375
6342		44.921875
6343		37.109375
6344		42.968750
6345		39.062500
6346		41.015625
6347		33.203125
6348		42.968750
6349		33.203125
6350		42.968750
6351		33.203125
6352		41.015625
6353		35.156250
6354		37.109375
6355		31.250000
6356		37.109375
6357		27.343750
6358		37.109375
6359		29.296875
6360		35.156250
6361		29.296875
6362		31.250000
6363		25.390625
6364		31.250000
6365		23.437500
6366		33.203125
6367		21.484375
6368		31.250000
6369		23.437500
6370		25.390625
6371		21.484375
6372		23.437500
6373		17.578125
6374		23.437500
6375		15.625000
6376		25.390625
6377		15.625000
6378		21.484375
6379		13.671875
6380		17.578125
6381		9.765625
6382		19.531250
6383		7.812500
6384		15.625000
6385		9.765625
6386		13.671875
6387		7.812500
6388		11.718750
6389		3.906250
6390		9.765625
6391		0.000000
6392		9.765625
6393		0.000000
6394		5.859375
6395		0.000000
6396		3.906250
6397		-3.906250
6398		3.906250
6399		-5.859375
6400		3.906250
6401		-5.859375
6402		0.000000
6403		-7.812500
6404		-3.906250
6405		-7.812500
6406		-3.906250
6407		-11.718750
6408		-5.859375
6409		-13.671875
6410		-5.859375
6411		-13.671875
6412		-9.765625
6413		-15.625000
6414		-11.718750
6415		-19.531250
6416		-9.765625
6417		-19.531250
6418		-11.718750
6419		-19.531250
6420		-15.625000
6421		-19.531250
6422		-17.578125
6423		-21.484375
6424		-17.578125
6425		-25.390625
6426		-15.625000
6427		-25.390625
6428		-17.578125
6429		-25.390625
6430		-21.484375
6431		-27.343750
6432		-19.531250
6433		-29.296875
6434		-19.531250
6435		-29.296875
6436		-21.484375
6437		-27.343750
6438		-23.437500
6439		-27.343750
6440		-25.390625
6441		-31.250000
6442		-23.437500
6443		-29.296875
6444		-23.437500
6445		-29.296875
6446		-27.343750
6447		-29.296875
6448		-23.437500
6449		-31.250000
6450		-23.437500
6451		-31.250000
6452		-23.437500
6453		-29.296875
6454		-27.343750
6455		-29.296875
6456		-27.343750
6457		-29.296875
6458		-23.437500
6459		-31.250000
6460		-23.437500
6461		-29.296875
6462		-23.437500
6463		-27.343750
6464		-25.390625
6465		-29.296875
6466		-23.437500
6467		-25.390625
6468		-21.484375
6469		-27.343750
6470		-21.484375
6471		-23.437500
6472		-21.484375
6473		-23.437500
6474		-19.531250
6475		-25.390625
6476		-17.578125
6477		-23.437500
6478		-17.578125
6479		-19.531250
6480		-17.578125
6481		-19.531250
6482		-15.625000
6483		-17.578125
6484		-13.671875
6485		-15.625000
6486		-13.671875
6487		-13.671875
6488		-11.718750
6489		-13.671875
6490		-9.765625
6491		-11.718750
6492		-7.812500
6493		-9.765625
6494		-3.906250
6495		-9.765625
6496		-5.859375
6497		-7.812500
6498		-1.953125
6499		-7.812500
6500		0.000000
6501		-3.906250
6502		0.000000
6503		-1.953125
6504		1.953125
6505		0.000000
6506		3.906250
6507		1.953125
6508		5.859375
6509		3.906250
6510		7.812500
6511		5.859375
6512		9.765625
6513		7.812500
6514		11.718750
6515		9.765625
6516		13.671875
6517		11.718750
6518		13.671875
6519		11.718750
6520		15.625000
6521		13.671875
6522		17.578125
6523		15.625000
6524		19.531250
6525		17.578125
6526		21.484375
6527		19.531250
6528		23.437500
6529		21.484375
6530		25.390625
6531		23.437500
6532		25.390625
6533		25.390625
6534		27.343750
6535		25.390625
6536		29.296875
6537		27.343750
6538		31.250000
6539		29.296875
6540		31.250000
6541		29.296875
6542		35.156250
6543		31.250000
6544		35.156250
6545		31.250000
6546		37.109375
6547		31.250000
6548		37.109375
6549		35.156250
6550		39.062500
6551		35.156250
6552		41.015625
6553		35.156250
6554		41.015625
6555		37.109375
6556		41.015625
6557		39.062500
6558		42.968750
6559		39.062500
6560		42.968750
6561		39.062500
6562		44.921875
6563		39.062500
6564		44.921875
6565		41.015625
6566		44.921875
6567		41.015625
6568		44.921875
6569		41.015625
6570		46.875000
6571		42.968750
6572		44.921875
6573		42.968750
6574		44.921875
6575		42.968750
6576		46.875000
6577		41.015625
6578		46.875000
6579		41.015625
6580		46.875000
6581		41.015625
6582		46.875000
6583		41.015625
6584		46.875000
6585		41.015625
6586		44.921875
6587		41.015625
6588		44.921875
6589		41.015625
6590		42.968750
6591		39.062500
6592		44.921875
6593		39.062500
6594		44.921875
6595		37.109375
6596		42.968750
6597		37.109375
6598		42.968750
6599		37.109375
6600		41.015625
6601		35.156250
6602		41.015625
6603		35.156250
6604		41.015625
6605		35.156250
6606		37.109375
6607		31.250000
6608		37.109375
6609		31.250000
6610		35.156250
6611		31.250000
6612		35.156250
6613		27.343750
6614		33.203125
6615		27.343750
6616		31.250000
6617		27.343750
6618		31.250000
6619		23.437500
6620		29.296875
6621		23.437500
6622		27.343750
6623		21.484375
6624		25.390625
6625		19.531250
6626		23.437500
6627		17.578125
6628		23.437500
6629		17.578125
6630		21.484375
6631		13.671875
6632		21.484375
6633		13.671875
6634		17.578125
6635		11.718750
6636		15.625000
6637		9.765625
6638		13.671875
6639		7.812500
6640		11.718750
6641		5.859375
6642		9.765625
6643		3.906250
6644		9.765625
6645		1.953125
6646		7.812500
6647		0.000000
6648		5.859375
6649		-1.953125
6650		3.906250
6651		-3.906250
6652		1.953125
6653		-3.906250
6654		0.000000
6655		-5.859375
6656		-1.953125
6657		-7.812500
6658		-3.906250
6659		-9.765625
6660		-5.859375
6661		-9.765625
6662		-7.812500
6663		-11.718750
6664		-9.765625
6665		-15.625000
6666		-7.812500
6667		-15.625000
6668		-11.718750
6669		-15.625000
6670		-13.671875
6671		-17.578125
6672		-13.671875
6673		-19.531250
6674		-15.625000
6675		-21.484375
6676		-17.578125
6677		-21.484375
6678		-17.578125
6679		-23.437500
6680		-19.531250
6681		-25.390625
6682		-19.531250
6683		-25.390625
6684		-21.484375
6685		-27.343750
6686		-23.437500
6687		-27.343750
6688		-23.437500
6689		-27.343750
6690		-25.390625
6691		-29.296875
6692		-25.390625
6693		-29.296875
6694		-25.390625
6695		-29.296875
6696		-25.390625
6697		-31.250000
6698		-25.390625
6699		-29.296875
6700		-27.343750
6701		-29.296875
6702		-27.343750
6703		-31.250000
6704		-27.343750
6705		-29.296875
6706		-27.343750
6707		-29.296875
6708		-25.390625
6709		-29.296875
6710		-25.390625
6711		-29.296875
6712		-25.390625
6713		-29.296875
6714		-25.390625
6715		-31.250000
6716		-23.437500
6717		-27.343750
6718		-23.437500
6719		-27.343750
6720		-23.437500
6721		-27.343750
6722		-23.437500
6723		-25.390625
6724		-23.437500
6725		-25.390625
6726		-21.484375
6727		-23.437500
6728		-19.531250
6729		-23.437500
6730		-19.531250
6731		-21.484375
6732		-17.578125
6733		-19.531250
6734		-15.625000
6735		-17.578125
6736		-15.625000
6737		-17.578125
6738		-13.671875
6739		-15.625000
6740		-13.671875
6741		-13.671875
6742		-11.718750
6743		-13.671875
6744		-9.765625
6745		-11.718750
6746		-7.812500
6747		-9.765625
6748		-5.859375
6749		-9.765625
6750		-3.906250
6751		-5.859375
6752		-3.906250
6753		-5.859375
6754		-1.953125
6755		-3.906250
6756		0.000000
6757		0.000000
6758		1.953125
6759		0.000000
6760		3.906250
6761		1.953125
6762		5.859375
6763		3.906250
6764		7.812500
6765		5.859375
6766		9.765625
6767		7.812500
6768		11.718750
6769		9.765625
6770		13.671875
6771		11.718750
6772		15.625000
6773		13.671875
6774		15.625000
6775		15.625000
6776		19.531250
6777		15.625000
6778		19.531250
6779		17.578125
6780		21.484375
6781		19.531250
6782		23.437500
6783		21.484375
6784		25.390625
6785		23.437500
6786		27.343750
6787		23.437500
6788		29.296875
6789		25.390625
6790		29.296875
6791		27.343750
6792		31.250000
6793		29.296875
6794		33.203125
6795		31.250000
6796		33.203125
6797		31.250000
6798		35.156250
6799		33.203125
6800		37.109375
6801		33.203125
6802		37.109375
6803		35.156250
6804		39.062500
6805		37.109375
6806		41.015625
6807		37.109375
6808		41.015625
6809		37.109375
6810		42.968750
6811		39.062500
6812		42.968750
6813		39.062500
6814		42.968750
6815		41.015625
6816		42.968750
6817		41.015625
6818		44.921875
6819		41.015625
6820		44.921875
6821		41.015625
6822		44.921875
6823		42.968750
6824		44.921875
6825		42.968750
6826		44.921875
6827		41.015625
6828		46.875000
6829		42.968750
6830		44.921875
6831		42.968750
6832		44.921875
6833		42.968750
6834		44.921875
6835		42.968750
6836		44.921875
6837		41.015625
6838		44.921875
6839		41.015625
6840		44.921875
6841		41.015625
6842		44.921875
6843		41.015625
6844		44.921875
6845		39.062500
6846		42.968750
6847		39.062500
6848		42.968750
6849		39.062500
6850		41.015625
6851		39.062500
6852		41.015625
6853		37.109375
6854		41.015625
6855		35.156250
6856		39.062500
6857		35.156250
6858		39.062500
6859		33.203125
6860		37.109375
6861		33.203125
6862		37.109375
6863		31.250000
6864		35.156250
6865		31.250000
6866		33.203125
6867		29.296875
6868		33.203125
6869		27.343750
6870		31.250000
6871		25.390625
6872		29.296875
6873		25.390625
6874		27.343750
6875		23.437500
6876		27.343750
6877		21.484375
6878		25.390625
6879		19.531250
6880		23.437500
6881		17.578125
6882		21.484375
6883		15.625000
6884		21.484375
6885		15.625000
6886		19.531250
6887		13.671875
6888		17.578125
6889		11.718750
6890		15.625000
6891		9.765625
6892		13.671875
6893		5.859375
6894		11.718750
6895		5.859375
6896		9.765625
6897		3.906250
6898		7.812500
6899		1.953125
6900		5.859375
6901		0.000000
6902		3.906250
6903		-1.953125
6904		1.953125
6905		-3.906250
6906		1.953125
6907		-3.906250
6908		-1.953125
6909		-5.859375
6910		-3.906250
6911		-7.812500
6912		-3.906250
6913		-9.765625
6914		-5.859375
6915		-11.718750
6916		-7.812500
6917		-13.671875
6918		-9.765625
6919		-15.625000
6920		-11.718750
6921		-15.625000
6922		-11.718750
6923		-17.578125
6924		-13.671875
6925		-17.578125
6926		-15.625000
6927		-19.531250
6928		-17.578125
6929		-21.484375
6930		-17.578125
6931		-23.437500
6932		-19.531250
6933		-23.437500
6934		-19.531250
6935		-25.390625
6936		-21.484375
6937		-25.390625
6938		-21.484375
6939		-25.390625
6940		-23.437500
6941		-27.343750
6942		-23.437500
6943		-29.296875
6944		-25.390625
6945		-27.343750
6946		-25.390625
6947		-29.296875
6948		-25.390625
6949		-29.296875
6950		-25.390625
6951		-29.296875
6952		-25.390625
6953		-29.296875
6954		-27.343750
6955		-29.296875
6956		-27.343750
6957		-29.296875
6958		-27.343750
6959		-29.296875
6960		-27.343750
6961		-29.296875
6962		-25.390625
6963		-29.296875
6964		-25.390625
6965		-29.296875
6966		-23.437500
6967		-27.343750
6968		-25.390625
6969		-27.343750
6970		-25.390625
6971		-27.343750
6972		-23.437500
6973		-27.343750
6974		-23.437500
6975		-25.390625
6976		-23.437500
6977		-25.390625
6978		-21.484375
6979		-23.437500
6980		-21.484375
6981		-23.437500
6982		-19.531250
6983		-21.484375
6984		-19.531250
6985		-21.484375
6986		-17.578125
6987		-19.531250
6988		-15.625000
6989		-19.531250
6990		-15.625000
6991		-17.578125
6992		-13.671875
6993		-15.625000
6994		-11.718750
6995		-15.625000
6996		-9.765625
6997		-13.671875
6998		-7.812500
6999		-11.718750
7000		-7.812500
7001		-9.765625
7002		-5.859375
7003		-7.812500
7004		-3.906250
7005		-5.859375
7006		-1.953125
7007		-3.906250
7008		0.000000
7009		-1.953125
7010		1.953125
7011		-1.953125
7012		3.906250
7013		1.953125
7014		3.906250
7015		1.953125
7016		5.859375
7017		3.906250
7018		7.812500
7019		5.859375
7020		9.765625
7021		7.812500
7022		11.718750
7023		9.765625
7024		13.671875
7025		11.718750
7026		15.625000
7027		13.671875
7028		17.578125
7029		13.671875
7030		19.531250
7031		17.578125
7032		21.484375
7033		17.578125
7034		21.484375
7035		21.484375
7036		23.437500
7037		21.484375
7038		25.390625
7039		23.437500
7040		27.343750
7041		25.390625
7042		29.296875
7043		27.343750
7044		31.250000
7045		27.343750
7046		31.250000
7047		29.296875
7048		33.203125
7049		31.250000
7050		35.156250
7051		31.250000
7052		35.156250
7053		33.203125
7054		37.109375
7055		33.203125
7056		37.109375
7057		35.156250
7058		39.062500
7059		37.109375
7060		39.062500
7061		37.109375
7062		41.015625
7063		37.109375
7064		41.015625
7065		39.062500
7066		42.968750
7067		39.062500
7068		42.968750
7069		41.015625
7070		42.968750
7071		41.015625
7072		44.921875
7073		41.015625
7074		44.921875
7075		42.968750
7076		44.921875
7077		42.968750
7078		44.921875
7079		41.015625
7080		44.921875
7081		42.968750
7082		44.921875
7083		42.968750
7084		44.921875
7085		42.968750
7086		44.921875
7087		42.968750
7088		44.921875
7089		41.015625
7090		44.921875
7091		41.015625
7092		44.921875
7093		41.015625
7094		44.921875
7095		41.015625
7096		44.921875
7097		41.015625
7098		44.921875
7099		39.062500
7100		42.968750
7101		39.062500
7102		42.968750
7103		39.062500
7104		41.015625
7105		37.109375
7106		41.015625
7107		37.109375
7108		39.062500
7109		35.156250
7110		39.062500
7111		35.156250
7112		39.062500
7113		33.203125
7114		37.109375
7115		31.250000
7116		35.156250
7117		31.250000
7118		35.156250
7119		29.296875
7120		33.203125
7121		27.343750
7122		33.203125
7123		25.390625
7124		31.250000
7125		25.390625
7126		29.296875
7127		23.437500
7128		27.343750
7129		23.437500
7130		25.390625
7131		21.484375
7132		25.390625
7133		17.578125
7134		23.437500
7135		17.578125
7136		21.484375
7137		15.625000
7138		19.531250
7139		13.671875
7140		17.578125
7141		11.718750
7142		17.578125
7143		9.765625
7144		13.671875
7145		7.812500
7146		11.718750
7147		5.859375
7148		11.718750
7149		5.859375
7150		9.765625
7151		3.906250
7152		7.812500
7153		1.953125
7154		5.859375
7155		-1.953125
7156		3.906250
7157		-1.953125
7158		1.953125
7159		-3.906250
7160		0.000000
7161		-5.859375
7162		-1.953125
7163		-7.812500
7164		-3.906250
7165		-9.765625
7166		-5.859375
7167		-11.718750
7168		-5.859375
7169		-11.718750
7170		-9.765625
7171		-13.671875
7172		-9.765625
7173		-15.625000
7174		-11.718750
7175		-17.578125
7176		-13.671875
7177		-17.578125
7178		-15.625000
7179		-19.531250
7180		-15.625000
7181		-21.484375
7182		-17.578125
7183		-21.484375
7184		-19.531250
7185		-23.437500
7186		-19.531250
7187		-23.437500
7188		-21.484375
7189		-25.390625
7190		-21.484375
7191		-27.343750
7192		-23.437500
7193		-27.343750
7194		-23.437500
7195		-27.343750
7196		-25.390625
7197		-29.296875
7198		-25.390625
7199		-29.296875
7200		-25.390625
7201		-29.296875
7202		-25.390625
7203		-29.296875
7204		-27.343750
7205		-29.296875
7206		-25.390625
7207		-31.250000
7208		-27.343750
7209		-29.296875
7210		-27.343750
7211		-29.296875
7212		-27.343750
7213		-31.250000
7214		-25.390625
7215		-29.296875
7216		-27.343750
7217		-29.296875
7218		-25.390625
7219		-29.296875
7220		-25.390625
7221		-29.296875
7222		-25.390625
7223		-27.343750
7224		-25.390625
7225		-27.343750
7226		-23.437500
7227		-25.390625
7228		-23.437500
7229		-25.390625
7230		-21.484375
7231		-25.390625
7232		-21.484375
7233		-23.437500
7234		-21.484375
7235		-23.437500
7236		-19.531250
7237		-21.484375
7238		-17.578125
7239		-21.484375
7240		-17.578125
7241		-19.531250
7242		-15.625000
7243		-17.578125
7244		-15.625000
7245		-17.578125
7246		-13.671875
7247		-15.625000
7248		-11.718750
7249		-13.671875
7250		-9.765625
7251		-13.671875
7252		-7.812500
7253		-9.765625
7254		-7.812500
7255		-9.765625
7256		-3.906250
7257		-7.812500
7258		-3.906250
7259		-7.812500
7260		-1.953125
7261		-3.906250
7262		0.000000
7263		-1.953125
7264		1.953125
7265		0.000000
7266		3.906250
7267		1.953125
7268		5.859375
7269		1.953125
7270		7.812500
7271		3.906250
7272		7.812500
7273		5.859375
7274		9.765625
7275		7.812500
7276		13.671875
7277		9.765625
7278		13.671875
7279		11.718750
7280		15.625000
7281		13.671875
7282		17.578125
7283		15.625000
7284		19.531250
7285		17.578125
7286		21.484375
7287		19.531250
7288		23.437500
7289		19.531250
7290		25.390625
7291		21.484375
7292		25.390625
7293		23.437500
7294		27.343750
7295		25.390625
7296		29.296875
7297		27.343750
7298		31.250000
7299		29.296875
7300		33.203125
7301		29.296875
7302		33.203125
7303		31.250000
7304		35.156250
7305		31.250000
7306		35.156250
7307		33.203125
7308		37.109375
7309		35.156250
7310		39.062500
7311		35.156250
7312		39.062500
7313		37.109375
7314		41.015625
7315		37.109375
7316		41.015625
7317		39.062500
7318		42.968750
7319		39.062500
7320		42.968750
7321		39.062500
7322		42.968750
7323		39.062500
7324		42.968750
7325		41.015625
7326		44.921875
7327		41.015625
7328		44.921875
7329		41.015625
7330		44.921875
7331		41.015625
7332		44.921875
7333		41.015625
7334		44.921875
7335		42.968750
7336		44.921875
7337		42.968750
7338		44.921875
7339		41.015625
7340		44.921875
7341		42.968750
7342		44.921875
7343		41.015625
7344		44.921875
7345		41.015625
7346		44.921875
7347		39.062500
7348		44.921875
7349		41.015625
7350		44.921875
7351		39.062500
7352		42.968750
7353		39.062500
7354		42.968750
7355		39.062500
7356		42.968750
7357		39.062500
7358		41.015625
7359		37.109375
7360		41.015625
7361		35.156250
7362		39.062500
7363		35.156250
7364		39.062500
7365		33.203125
7366		39.062500
7367		33.203125
7368		37.109375
7369		31.250000
7370		35.156250
7371		31.250000
7372		33.203125
7373		29.296875
7374		33.203125
7375		27.343750
7376		31.250000
7377		27.343750
7378		29.296875
7379		25.390625
7380		27.343750
7381		23.437500
7382		27.343750
7383		21.484375
7384		25.390625
7385		19.531250
7386		23.437500
7387		17.578125
7388		21.484375
7389		17.578125
7390		19.531250
7391		15.625000
7392		17.578125
7393		11.718750
7394		17.578125
7395		9.765625
7396		15.625000
7397		9.765625
7398		13.671875
7399		7.812500
7400		11.718750
7401		5.859375
7402		9.765625
7403		3.906250
7404		7.812500
7405		1.953125
7406		5.859375
7407		0.000000
7408		3.906250
7409		-1.953125
7410		1.953125
7411		-3.906250
7412		0.000000
7413		-3.906250
7414		-1.953125
7415		-5.859375
7416		-1.953125
7417		-7.812500
7418		-3.906250
7419		-9.765625
7420		-5.859375
7421		-11.718750
7422		-7.812500
7423		-13.671875
7424		-7.812500
7425		-13.671875
7426		-11.718750
7427		-15.625000
7428		-11.718750
7429		-17.578125
7430		-13.671875
7431		-19.531250
7432		-15.625000
7433		-19.531250
7434		-15.625000
7435		-21.484375
7436		-17.578125
7437		-21.484375
7438		-19.531250
7439		-23.437500
7440		-19.531250
7441		-25.390625
7442		-21.484375
7443		-25.390625
7444		-21.484375
7445		-25.390625
7446		-23.437500
7447		-27.343750
7448		-23.437500
7449		-27.343750
7450		-23.437500
7451		-29.296875
7452		-25.390625
7453		-29.296875
7454		-25.390625
7455		-29.296875
7456		-25.390625
7457		-29.296875
7458		-27.343750
7459		-29.296875
7460		-27.343750
7461		-31.250000
7462		-25.390625
7463		-29.296875
7464		-27.343750
7465		-31.250000
7466		-27.343750
7467		-29.296875
7468		-27.343750
7469		-29.296875
7470		-27.343750
7471		-29.296875
7472		-25.390625
7473		-29.296875
7474		-25.390625
7475		-29.296875
7476		-25.390625
7477		-29.296875
7478		-23.437500
7479		-27.343750
7480		-23.437500
7481		-25.390625
7482		-23.437500
7483		-25.390625
7484		-21.484375
7485		-25.390625
7486		-21.484375
7487		-23.437500
7488		-21.484375
7489		-23.437500
7490		-19.531250
7491		-21.484375
7492		-17.578125
7493		-21.484375
7494		-15.625000
7495		-19.531250
7496		-15.625000
7497		-17.578125
7498		-13.671875
7499		-17.578125
7500		-11.718750
7501		-15.625000
7502		-11.718750
7503		-13.671875
7504		-9.765625
7505		-11.718750
7506		-7.812500
7507		-9.765625
7508		-5.859375
7509		-7.812500
7510		-5.859375
7511		-7.812500
7512		-3.906250
7513		-5.859375
7514		-1.953125
7515		-3.906250
7516		0.000000
7517		-1.953125
7518		1.953125
7519		0.000000
7520		3.906250
7521		1.953125
7522		5.859375
7523		3.906250
7524		7.812500
7525		3.906250
7526		9.765625
7527		5.859375
7528		11.718750
7529		9.765625
7530		11.718750
7531		11.718750
7532		13.671875
7533		11.718750
7534		15.625000
7535		13.671875
7536		17.578125
7537		15.625000
7538		19.531250
7539		17.578125
7540		21.484375
7541		19.531250
7542		23.437500
7543		19.531250
7544		25.390625
7545		21.484375
7546		25.390625
7547		23.437500
7548		27.343750
7549		25.390625
7550		29.296875
7551		27.343750
7552		31.250000
7553		29.296875
7554		31.250000
7555		29.296875
7556		33.203125
7557		31.250000
7558		35.156250
7559		33.203125
7560		37.109375
7561		33.203125
7562		37.109375
7563		35.156250
7564		37.109375
7565		35.156250
7566		39.062500
7567		37.109375
7568		41.015625
7569		37.109375
7570		41.015625
7571		39.062500
7572		41.015625
7573		39.062500
7574		42.968750
7575		39.062500
7576		42.968750
7577		41.015625
7578		44.921875
7579		41.015625
7580		42.968750
7581		41.015625
7582		44.921875
7583		41.015625
7584		44.921875
7585		41.015625
7586		44.921875
7587		42.968750
7588		44.921875
7589		42.968750
7590		44.921875
7591		42.968750
7592		44.921875
7593		42.968750
7594		44.921875
7595		41.015625
7596		44.921875
7597		42.968750
7598		44.921875
7599		41.015625
7600		44.921875
7601		41.015625
7602		42.968750
7603		41.015625
7604		42.968750
7605		41.015625
7606		42.968750
7607		39.062500
7608		42.968750
7609		39.062500
7610		41.015625
7611		37.109375
7612		41.015625
7613		37.109375
7614		39.062500
7615		35.156250
7616		39.062500
7617		35.156250
7618		39.062500
7619		33.203125
7620		37.109375
7621		31.250000
7622		35.156250
7623		31.250000
7624		35.156250
7625		29.296875
7626		33.203125
7627		29.296875
7628		33.203125
7629		27.343750
7630		31.250000
7631		25.390625
7632		29.296875
7633		23.437500
7634		27.343750
7635		21.484375
7636		25.390625
7637		21.484375
7638		25.390625
7639		19.531250
7640		23.437500
7641		17.578125
7642		21.484375
7643		15.625000
7644		19.531250
7645		13.671875
7646		17.578125
7647		13.671875
7648		15.625000
7649		9.765625
7650		13.671875
7651		9.765625
7652		13.671875
7653		7.812500
7654		11.718750
7655		5.859375
7656		9.765625
7657		3.906250
7658		7.812500
7659		1.953125
7660		5.859375
7661		0.000000
7662		3.906250
7663		-1.953125
7664		1.953125
7665		-3.906250
7666		0.000000
7667		-5.859375
7668		-1.953125
7669		-7.812500
7670		-3.906250
7671		-7.812500
7672		-3.906250
7673		-9.765625
7674		-7.812500
7675		-13.671875
7676		-7.812500
7677		-13.671875
7678		-9.765625
7679		-15.625000
7680		-9.765625
7681		-15.625000
7682		-13.671875
7683		-17.578125
7684		-13.671875
7685		-19.531250
7686		-15.625000
7687		-19.531250
7688		-17.578125
7689		-21.484375
7690		-17.578125
7691		-23.437500
7692		-19.531250
7693		-23.437500
7694		-21.484375
7695		-25.390625
7696		-21.484375
7697		-25.390625
7698		-23.437500
7699		-25.390625
7700		-23.437500
7701		-27.343750
7702		-23.437500
7703		-27.343750
7704		-25.390625
7705		-29.296875
7706		-25.390625
7707		-29.296875
7708		-25.390625
7709		-29.296875
7710		-27.343750
7711		-29.296875
7712		-27.343750
7713		-29.296875
7714		-27.343750
7715		-29.296875
7716		-27.343750
7717		-31.250000
7718		-25.390625
7719		-29.296875
7720		-27.343750
7721		-29.296875
7722		-27.343750
7723		-29.296875
7724		-25.390625
7725		-29.296875
7726		-25.390625
7727		-29.296875
7728		-25.390625
7729		-29.296875
7730		-25.390625
7731		-27.343750
7732		-25.390625
7733		-27.343750
7734		-23.437500
7735		-27.343750
7736		-23.437500
7737		-25.390625
7738		-21.484375
7739		-25.390625
7740		-21.484375
7741		-23.437500
7742		-19.531250
7743		-21.484375
7744		-17.578125
7745		-21.484375
7746		-17.578125
7747		-19.531250
7748		-17.578125
7749		-19.531250
7750		-15.625000
7751		-17.578125
7752		-13.671875
7753		-15.625000
7754		-11.718750
7755		-13.671875
7756		-9.765625
7757		-13.671875
7758		-9.765625
7759		-11.718750
7760		-5.859375
7761		-9.765625
7762		-5.859375
7763		-9.765625
7764		-3.906250
7765		-5.859375
7766		-1.953125
7767		-3.906250
7768		0.000000
7769		-1.953125
7770		1.953125
7771		-1.953125
7772		1.953125
7773		0.000000
7774		3.906250
7775		1.953125
7776		5.859375
7777		3.906250
7778		7.812500
7779		5.859375
7780		11.718750
7781		7.812500
7782		11.718750
7783		9.765625
7784		13.671875
7785		9.765625
7786		15.625000
7787		13.671875
7788		17.578125
7789		15.625000
7790		19.531250
7791		17.578125
7792		19.531250
7793		17.578125
7794		21.484375
7795		19.531250
7796		23.437500
7797		19.531250
7798		25.390625
7799		23.437500
7800		27.343750
7801		25.390625
7802		29.296875
7803		25.390625
7804		29.296875
7805		27.343750
7806		31.250000
7807		29.296875
7808		33.203125
7809		29.296875
7810		33.203125
7811		31.250000
7812		35.156250
7813		33.203125
7814		37.109375
7815		35.156250
7816		37.109375
7817		35.156250
7818		39.062500
7819		37.109375
7820		39.062500
7821		37.109375
7822		41.015625
7823		37.109375
7824		41.015625
7825		39.062500
7826		42.968750
7827		39.062500
7828		42.968750
7829		41.015625
7830		42.968750
7831		39.062500
7832		44.921875
7833		41.015625
7834		44.921875
7835		41.015625
7836		44.921875
7837		41.015625
7838		44.921875
7839		42.968750
7840		44.921875
7841		42.968750
7842		46.875000
7843		42.968750
7844		44.921875
7845		42.968750
7846		44.921875
7847		42.968750
7848		46.875000
7849		42.968750
7850		44.921875
7851		41.015625
7852		44.921875
7853		41.015625
7854		44.921875
7855		41.015625
7856		44.921875
7857		41.015625
7858		42.968750
7859		41.015625
7860		42.968750
7861		39.062500
7862		42.968750
7863		39.062500
7864		41.015625
7865		37.109375
7866		41.015625
7867		37.109375
7868		39.062500
7869		35.156250
7870		39.062500
7871		35.156250
7872		37.109375
7873		33.203125
7874		37.109375
7875		31.250000
7876		35.156250
7877		31.250000
7878		35.156250
7879		29.296875
7880		33.203125
7881		27.343750
7882		31.250000
7883		27.343750
7884		29.296875
7885		23.437500
7886		29.296875
7887		23.437500
7888		27.343750
7889		21.484375
7890		25.390625
7891		19.531250
7892		23.437500
7893		19.531250
7894		23.437500
7895		17.578125
7896		21.484375
7897		13.671875
7898		19.531250
7899		13.671875
7900		17.578125
7901		11.718750
7902		15.625000
7903		9.765625
7904		13.671875
7905		7.812500
7906		11.718750
7907		5.859375
7908		9.765625
7909		3.906250
7910		7.812500
7911		1.953125
7912		5.859375
7913		0.000000
7914		5.859375
7915		0.000000
7916		3.906250
7917		-1.953125
7918		1.953125
7919		-3.906250
7920		-1.953125
7921		-5.859375
7922		-1.953125
7923		-7.812500
7924		-3.906250
7925		-9.765625
7926		-5.859375
7927		-11.718750
7928		-7.812500
7929		-13.671875
7930		-9.765625
7931		-13.671875
7932		-9.765625
7933		-15.625000
7934		-11.718750
7935		-17.578125
7936		-13.671875
7937		-17.578125
7938		-15.625000
7939		-19.531250
7940		-15.625000
7941		-21.484375
7942		-17.578125
7943		-21.484375
7944		-19.531250
7945		-23.437500
7946		-19.531250
7947		-25.390625
7948		-19.531250
7949		-25.390625
7950		-21.484375
7951		-25.390625
7952		-23.437500
7953		-27.343750
7954		-23.437500
7955		-27.343750
7956		-25.390625
7957		-27.343750
7958		-25.390625
7959		-29.296875
7960		-25.390625
7961		-29.296875
7962		-25.390625
7963		-29.296875
7964		-27.343750
7965		-31.250000
7966		-27.343750
7967		-29.296875
7968		-27.343750
7969		-31.250000
7970		-27.343750
7971		-29.296875
7972		-27.343750
7973		-29.296875
7974		-27.343750
7975		-29.296875
7976		-27.343750
7977		-29.296875
7978		-25.390625
7979		-29.296875
7980		-27.343750
7981		-29.296875
7982		-25.390625
7983		-27.343750
7984		-25.390625
7985		-27.343750
7986		-25.390625
7987		-27.343750
7988		-23.437500
7989		-25.390625
7990		-23.437500
7991		-25.390625
7992		-21.484375
7993		-23.437500
7994		-19.531250
7995		-23.437500
7996		-19.531250
7997		-21.484375
7998		-17.578125
7999		-21.484375
8000		-17.578125
8001		-19.531250
8002		-15.625000
8003		-19.531250
8004		-13.671875
8005		-17.578125
8006		-13.671875
8007		-15.625000
8008		-11.718750
8009		-13.671875
8010		-9.765625
8011		-11.718750
8012		-7.812500
8013		-11.718750
8014		-7.812500
8015		-9.765625
8016		-5.859375
8017		-7.812500
8018		-3.906250
8019		-5.859375
8020		-1.953125
8021		-3.906250
8022		0.000000
8023		-1.953125
8024		1.953125
8025		-1.953125
8026		1.953125
8027		1.953125
8028		5.859375
8029		3.906250
8030		7.812500
8031		3.906250
8032		9.765625
8033		5.859375
8034		9.765625
8035		7.812500
8036		11.718750
8037		9.765625
8038		15.625000
8039		11.718750
8040		15.625000
8041		13.671875
8042		17.578125
8043		15.625000
8044		19.531250
8045		15.625000
8046		21.484375
8047		17.578125
8048		21.484375
8049		19.531250
8050		23.437500
8051		21.484375
8052		25.390625
8053		23.437500
8054		27.343750
8055		25.390625
8056		29.296875
8057		25.390625
8058		29.296875
8059		27.343750
8060		31.250000
8061		29.296875
8062		33.203125
8063		31.250000
8064		33.203125
8065		31.250000
8066		35.156250
8067		33.203125
8068		35.156250
8069		35.156250
8070		37.109375
8071		35.156250
8072		39.062500
8073		37.109375
8074		39.062500
8075		37.109375
8076		41.015625
8077		39.062500
8078		41.015625
8079		39.062500
8080		42.968750
8081		39.062500
8082		42.968750
8083		39.062500
8084		42.968750
8085		41.015625
8086		42.968750
8087		41.015625
8088		44.921875
8089		41.015625
8090		44.921875
8091		41.015625
8092		44.921875
8093		41.015625
8094		44.921875
8095		42.968750
8096		44.921875
8097		41.015625
8098		44.921875
8099		41.015625
8100		44.921875
8101		42.968750
8102		44.921875
8103		41.015625
8104		44.921875
8105		41.015625
8106		44.921875
8107		41.015625
8108		44.921875
8109		41.015625
8110		44.921875
8111		39.062500
8112		42.968750
8113		39.062500
8114		42.968750
8115		37.109375
8116		42.968750
8117		39.062500
8118		41.015625
8119		37.109375
8120		39.062500
8121		35.156250
8122		39.062500
8123		35.156250
8124		39.062500
8125		33.203125
8126		37.109375
8127		33.203125
8128		35.156250
8129		31.250000
8130		35.156250
8131		29.296875
8132		33.203125
8133		29.296875
8134		33.203125
8135		27.343750
8136		31.250000
8137		25.390625
8138		29.296875
8139		25.390625
8140		29.296875
8141		21.484375
8142		27.343750
8143		21.484375
8144		25.390625
8145		19.531250
8146		23.437500
8147		17.578125
8148		21.484375
8149		15.625000
8150		21.484375
8151		15.625000
8152		17.578125
8153		13.671875
8154		15.625000
8155		11.718750
8156		15.625000
8157		9.765625
8158		13.671875
8159		7.812500
8160		11.718750
8161		5.859375
8162		9.765625
8163		3.906250
8164		7.812500
8165		1.953125
8166		5.859375
8167		0.000000
8168		3.906250
8169		-1.953125
8170		1.953125
8171		-3.906250
8172		0.000000
8173		-3.906250
8174		0.000000
8175		-5.859375
8176		-1.953125
8177		-7.812500
8178		-3.906250
8179		-9.765625
8180		-5.859375
8181		-11.718750
8182		-7.812500
8183		-13.671875
8184		-9.765625
8185		-13.671875
8186		-11.718750
8187		-17.578125
8188		-13.671875
8189		-17.578125
8190		-13.671875
8191		-19.531250
8192		-15.625000
8193		-21.484375
8194		-15.625000
8195		-21.484375
8196		-17.578125
8197		-23.437500
8198		-19.531250
8199		-23.437500
8200		-19.531250
8201		-23.437500
8202		-21.484375
8203		-25.390625
8204		-21.484375
8205		-27.343750
8206		-23.437500
8207		-27.343750
8208		-23.437500
8209		-27.343750
8210		-25.390625
8211		-27.343750
8212		-25.390625
8213		-29.296875
8214		-25.390625
8215		-29.296875
8216		-25.390625
8217		-31.250000
8218		-25.390625
8219		-29.296875
8220		-27.343750
8221		-29.296875
8222		-27.343750
8223		-29.296875
8224		-27.343750
8225		-29.296875
8226		-27.343750
8227		-29.296875
8228		-27.343750
8229		-29.296875
8230		-27.343750
8231		-29.296875
8232		-27.343750
8233		-29.296875
8234		-25.390625
8235		-27.343750
8236		-25.390625
8237		-27.343750
8238		-25.390625
8239		-27.343750
8240		-23.437500
8241		-27.343750
8242		-23.437500
8243		-25.390625
8244		-21.484375
8245		-25.390625
8246		-21.484375
8247		-23.437500
8248		-19.531250
8249		-23.437500
8250		-19.531250
8251		-23.437500
8252		-17.578125
8253		-19.531250
8254		-17.578125
8255		-19.531250
8256		-15.625000
8257		-17.578125
8258		-13.671875
8259		-15.625000
8260		-11.718750
8261		-15.625000
8262		-11.718750
8263		-13.671875
8264		-9.765625
8265		-11.718750
8266		-7.812500
8267		-9.765625
8268		-5.859375
8269		-7.812500
8270		-5.859375
8271		-5.859375
8272		-1.953125
8273		-5.859375
8274		-1.953125
8275		-3.906250
8276		0.000000
8277		-1.953125
8278		1.953125
8279		0.000000
8280		3.906250
8281		1.953125
8282		5.859375
8283		3.906250
8284		7.812500
8285		5.859375
8286		9.765625
8287		7.812500
8288		11.718750
8289		9.765625
8290		13.671875
8291		9.765625
8292		13.671875
8293		11.718750
8294		17.578125
8295		13.671875
8296		17.578125
8297		15.625000
8298		19.531250
8299		17.578125
8300		21.484375
8301		19.531250
8302		23.437500
8303		21.484375
8304		25.390625
8305		21.484375
8306		27.343750
8307		25.390625
8308		27.343750
8309		25.390625
8310		29.296875
8311		27.343750
8312		31.250000
8313		29.296875
8314		33.203125
8315		29.296875
8316		33.203125
8317		31.250000
8318		35.156250
8319		33.203125
8320		35.156250
8321		33.203125
8322		37.109375
8323		33.203125
8324		39.062500
8325		35.156250
8326		39.062500
8327		37.109375
8328		41.015625
8329		37.109375
8330		41.015625
8331		39.062500
8332		41.015625
8333		39.062500
8334		42.968750
8335		41.015625
8336		42.968750
8337		41.015625
8338		42.968750
8339		41.015625
8340		44.921875
8341		41.015625
8342		44.921875
8343		41.015625
8344		44.921875
8345		42.968750
8346		44.921875
8347		42.968750
8348		44.921875
8349		42.968750
8350		44.921875
8351		41.015625
8352		46.875000
8353		42.968750
8354		44.921875
8355		41.015625
8356		44.921875
8357		41.015625
8358		44.921875
8359		41.015625
8360		44.921875
8361		41.015625
8362		44.921875
8363		41.015625
8364		44.921875
8365		39.062500
8366		42.968750
8367		39.062500
8368		42.968750
8369		39.062500
8370		41.015625
8371		37.109375
8372		41.015625
8373		37.109375
8374		41.015625
8375		35.156250
8376		39.062500
8377		35.156250
8378		39.062500
8379		33.203125
8380		37.109375
8381		31.250000
8382		35.156250
8383		31.250000
8384		35.156250
8385		29.296875
8386		35.156250
8387		29.296875
8388		31.250000
8389		27.343750
8390		31.250000
8391		25.390625
8392		29.296875
8393		23.437500
8394		27.343750
8395		21.484375
8396		27.343750
8397		19.531250
8398		25.390625
8399		19.531250
8400		23.437500
8401		17.578125
8402		21.484375
8403		15.625000
8404		19.531250
8405		15.625000
8406		17.578125
8407		11.718750
8408		17.578125
8409		11.718750
8410		13.671875
8411		7.812500
8412		13.671875
8413		7.812500
8414		9.765625
8415		5.859375
8416		9.765625
8417		1.953125
8418		7.812500
8419		1.953125
8420		5.859375
8421		0.000000
8422		3.906250
8423		-3.906250
8424		1.953125
8425		-3.906250
8426		0.000000
8427		-5.859375
8428		0.000000
8429		-7.812500
8430		-3.906250
8431		-7.812500
8432		-3.906250
8433		-11.718750
8434		-5.859375
8435		-11.718750
8436		-7.812500
8437		-13.671875
8438		-9.765625
8439		-13.671875
8440		-11.718750
8441		-17.578125
8442		-11.718750
8443		-17.578125
8444		-13.671875
8445		-19.531250
8446		-15.625000
8447		-19.531250
8448		-17.578125
8449		-21.484375
8450		-17.578125
8451		-23.437500
8452		-19.531250
8453		-23.437500
8454		-19.531250
8455		-23.437500
8456		-21.484375
8457		-27.343750
8458		-21.484375
8459		-27.343750
8460		-23.437500
8461		-27.343750
8462		-23.437500
8463		-27.343750
8464		-23.437500
8465		-29.296875
8466		-25.390625
8467		-29.296875
8468		-25.390625
8469		-29.296875
8470		-25.390625
8471		-29.296875
8472		-27.343750
8473		-31.250000
8474		-25.390625
8475		-29.296875
8476		-27.343750
8477		-29.296875
8478		-27.343750
8479		-29.296875
8480		-27.343750
8481		-29.296875
8482		-27.343750
8483		-29.296875
8484		-27.343750
8485		-29.296875
8486		-25.390625
8487		-29.296875
8488		-25.390625
8489		-27.343750
8490		-25.390625
8491		-27.343750
8492		-23.437500
8493		-27.343750
8494		-23.437500
8495		-27.343750
8496		-23.437500
8497		-25.390625
8498		-21.484375
8499		-25.390625
8500		-21.484375
8501		-23.437500
8502		-19.531250
8503		-23.437500
8504		-19.531250
8505		-21.484375
8506		-17.578125
8507		-19.531250
8508		-15.625000
8509		-19.531250
8510		-15.625000
8511		-17.578125
8512		-13.671875
8513		-15.625000
8514		-11.718750
8515		-15.625000
8516		-9.765625
8517		-13.671875
8518		-9.765625
8519		-11.718750
8520		-5.859375
8521		-9.765625
8522		-5.859375
8523		-7.812500
8524		-3.906250
8525		-7.812500
8526		-1.953125
8527		-3.906250
8528		0.000000
8529		-1.953125
8530		1.953125
8531		0.000000
8532		1.953125
8533		1.953125
8534		3.906250
8535		1.953125
8536		5.859375
8537		3.906250
8538		7.812500
8539		5.859375
8540		9.765625
8541		7.812500
8542		11.718750
8543		9.765625
8544		13.671875
8545		11.718750
8546		15.625000
8547		13.671875
8548		17.578125
8549		15.625000
8550		19.531250
8551		17.578125
8552		19.531250
8553		17.578125
8554		21.484375
8555		19.531250
8556		23.437500
8557		21.484375
8558		27.343750
8559		23.437500
8560		27.343750
8561		25.390625
8562		29.296875
8563		25.390625
8564		31.250000
8565		27.343750
8566		31.250000
8567		27.343750
8568		33.203125
8569		31.250000
8570		35.156250
8571		31.250000
8572		35.156250
8573		33.203125
8574		35.156250
8575		35.156250
8576		37.109375
8577		35.156250
8578		39.062500
8579		35.156250
8580		41.015625
8581		37.109375
8582		41.015625
8583		37.109375
8584		41.015625
8585		39.062500
8586		41.015625
8587		39.062500
8588		42.968750
8589		41.015625
8590		42.968750
8591		41.015625
8592		44.921875
8593		41.015625
8594		44.921875
8595		41.015625
8596		44.921875
8597		41.015625
8598		44.921875
8599		41.015625
8600		44.921875
8601		42.968750
8602		44.921875
8603		42.968750
8604		44.921875
8605		42.968750
8606		44.921875
8607		42.968750
8608		44.921875
8609		41.015625
8610		44.921875
8611		41.015625
8612		44.921875
8613		41.015625
8614		44.921875
8615		41.015625
8616		42.968750
8617		41.015625
8618		42.968750
8619		39.062500
8620		42.968750
8621		39.062500
8622		42.968750
8623		39.062500
8624		41.015625
8625		37.109375
8626		41.015625
8627		37.109375
8628		39.062500
8629		35.156250
8630		39.062500
8631		35.156250
8632		39.062500
8633		33.203125
8634		37.109375
8635		31.250000
8636		35.156250
8637		29.296875
8638		35.156250
8639		29.296875
8640		33.203125
8641		27.343750
8642		31.250000
8643		25.390625
8644		31.250000
8645		25.390625
8646		29.296875
8647		23.437500
8648		27.343750
8649		21.484375
8650		25.390625
8651		19.531250
8652		23.437500
8653		17.578125
8654		23.437500
8655		17.578125
8656		21.484375
8657		15.625000
8658		19.531250
8659		13.671875
8660		17.578125
8661		11.718750
8662		15.625000
8663		9.765625
8664		13.671875
8665		7.812500
8666		11.718750
8667		5.859375
8668		9.765625
8669		3.906250
8670		9.765625
8671		3.906250
8672		7.812500
8673		1.953125
8674		3.906250
8675		-1.953125
8676		3.906250
8677		-1.953125
8678		1.953125
8679		-3.906250
8680		0.000000
8681		-5.859375
8682		-1.953125
8683		-9.765625
8684		-3.906250
8685		-9.765625
8686		-5.859375
8687		-11.718750
8688		-5.859375
8689		-11.718750
8690		-9.765625
8691		-13.671875
8692		-9.765625
8693		-15.625000
8694		-9.765625
8695		-17.578125
8696		-13.671875
8697		-17.578125
8698		-15.625000
8699		-19.531250
8700		-15.625000
8701		-19.531250
8702		-17.578125
8703		-21.484375
8704		-17.578125
8705		-23.437500
8706		-19.531250
8707		-23.437500
8708		-21.484375
8709		-25.390625
8710		-21.484375
8711		-25.390625
8712		-21.484375
8713		-27.343750
8714		-23.437500
8715		-27.343750
8716		-23.437500
8717		-27.343750
8718		-25.390625
8719		-29.296875
8720		-25.390625
8721		-29.296875
8722		-25.390625
8723		-29.296875
8724		-27.343750
8725		-31.250000
8726		-25.390625
8727		-29.296875
8728		-27.343750
8729		-29.296875
8730		-27.343750
8731		-29.296875
8732		-25.390625
8733		-29.296875
8734		-27.343750
8735		-29.296875
8736		-25.390625
8737		-29.296875
8738		-25.390625
8739		-27.343750
8740		-25.390625
8741		-27.343750
8742		-25.390625
8743		-29.296875
8744		-25.390625
8745		-27.343750
8746		-23.437500
8747		-27.343750
8748		-23.437500
8749		-25.390625
8750		-23.437500
8751		-25.390625
8752		-21.484375
8753		-23.437500
8754		-19.531250
8755		-23.437500
8756		-19.531250
8757		-21.484375
8758		-19.531250
8759		-21.484375
8760		-15.625000
8761		-19.531250
8762		-15.625000
8763		-17.578125
8764		-13.671875
8765		-15.625000
8766		-13.671875
8767		-15.625000
8768		-11.718750
8769		-13.671875
8770		-9.765625
8771		-11.718750
8772		-7.812500
8773		-9.765625
8774		-7.812500
8775		-7.812500
8776		-5.859375
8777		-7.812500
8778		-1.953125
8779		-5.859375
8780		-1.953125
8781		-3.906250
8782		0.000000
8783		-1.953125
8784		1.953125
8785		0.000000
8786		3.906250
8787		1.953125
8788		5.859375
8789		1.953125
8790		7.812500
8791		5.859375
8792		7.812500
8793		7.812500
8794		9.765625
8795		7.812500
8796		13.671875
8797		9.765625
8798		15.625000
8799		11.718750
8800		15.625000
8801		13.671875
8802		17.578125
8803		15.625000
8804		19.531250
8805		17.578125
8806		21.484375
8807		19.531250
8808		23.437500
8809		21.484375
8810		25.390625
8811		21.484375
8812		25.390625
8813		23.437500
8814		27.343750
8815		25.390625
8816		29.296875
8817		27.343750
8818		31.250000
8819		29.296875
8820		31.250000
8821		29.296875
8822		33.203125
8823		31.250000
8824		33.203125
8825		33.203125
8826		35.156250
8827		33.203125
8828		37.109375
8829		35.156250
8830		39.062500
8831		35.156250
8832		39.062500
8833		37.109375
8834		39.062500
8835		37.109375
8836		41.015625
8837		39.062500
8838		41.015625
8839		39.062500
8840		42.968750
8841		41.015625
8842		42.968750
8843		41.015625
8844		44.921875
8845		41.015625
8846		44.921875
8847		41.015625
8848		44.921875
8849		42.968750
8850		44.921875
8851		42.968750
8852		44.921875
8853		42.968750
8854		44.921875
8855		42.968750
8856		44.921875
8857		42.968750
8858		44.921875
8859		42.968750
8860		44.921875
8861		42.968750
8862		44.921875
8863		42.968750
8864		44.921875
8865		41.015625
8866		44.921875
8867		41.015625
8868		44.921875
8869		41.015625
8870		44.921875
8871		41.015625
8872		42.968750
8873		39.062500
8874		44.921875
8875		39.062500
8876		41.015625
8877		37.109375
8878		41.015625
8879		37.109375
8880		41.015625
8881		37.109375
8882		41.015625
8883		35.156250
8884		39.062500
8885		33.203125
8886		37.109375
8887		33.203125
8888		37.109375
8889		33.203125
8890		35.156250
8891		31.250000
8892		33.203125
8893		29.296875
8894		33.203125
8895		27.343750
8896		33.203125
8897		27.343750
8898		29.296875
8899		25.390625
8900		27.343750
8901		23.437500
8902		27.343750
8903		21.484375
8904		25.390625
8905		19.531250
8906		23.437500
8907		19.531250
8908		21.484375
8909		17.578125
8910		19.531250
8911		15.625000
8912		19.531250
8913		13.671875
8914		17.578125
8915		11.718750
8916		15.625000
8917		9.765625
8918		13.671875
8919		7.812500
8920		11.718750
8921		5.859375
8922		9.765625
8923		3.906250
8924		7.812500
8925		1.953125
8926		5.859375
8927		0.000000
8928		3.906250
8929		-1.953125
8930		3.906250
8931		-1.953125
8932		1.953125
8933		-3.906250
8934		0.000000
8935		-5.859375
8936		-1.953125
8937		-7.812500
8938		-3.906250
8939		-9.765625
8940		-5.859375
8941		-9.765625
8942		-7.812500
8943		-13.671875
8944		-9.765625
8945		-15.625000
8946		-9.765625
8947		-15.625000
8948		-11.718750
8949		-17.578125
8950		-13.671875
8951		-19.531250
8952		-15.625000
8953		-19.531250
8954		-15.625000
8955		-21.484375
8956		-17.578125
8957		-21.484375
8958		-17.578125
8959		-23.437500
8960		-19.531250
8961		-25.390625
8962		-21.484375
8963		-25.390625
8964		-21.484375
8965		-25.390625
8966		-21.484375
8967		-27.343750
8968		-23.437500
8969		-27.343750
8970		-23.437500
8971		-27.343750
8972		-25.390625
8973		-29.296875
8974		-25.390625
8975		-29.296875
8976		-25.390625
8977		-29.296875
8978		-27.343750
8979		-29.296875
8980		-25.390625
8981		-31.250000
8982		-27.343750
8983		-29.296875
8984		-27.343750
8985		-29.296875
8986		-27.343750
8987		-29.296875
8988		-25.390625
8989		-29.296875
8990		-25.390625
8991		-29.296875
8992		-27.343750
8993		-27.343750
8994		-25.390625
8995		-27.343750
8996		-25.390625
8997		-27.343750
8998		-25.390625
8999		-27.343750
9000		-23.437500
9001		-25.390625
9002		-23.437500
9003		-25.390625
9004		-21.484375
9005		-23.437500
9006		-21.484375
9007		-23.437500
9008		-19.531250
9009		-21.484375
9010		-19.531250
9011		-21.484375
9012		-17.578125
9013		-19.531250
9014		-15.625000
9015		-19.531250
9016		-15.625000
9017		-17.578125
9018		-13.671875
9019		-15.625000
9020		-11.718750
9021		-15.625000
9022		-11.718750
9023		-13.671875
9024		-7.812500
9025		-11.718750
9026		-7.812500
9027		-9.765625
9028		-5.859375
9029		-9.765625
9030		-3.906250
9031		-5.859375
9032		-1.953125
9033		-3.906250
9034		0.000000
9035		-1.953125
9036		0.000000
9037		-1.953125
9038		1.953125
9039		0.000000
9040		3.906250
9041		1.953125
9042		5.859375
9043		3.906250
9044		7.812500
9045		5.859375
9046		11.718750
9047		7.812500
9048		11.718750
9049		9.765625
9050		13.671875
9051		11.718750
9052		15.625000
9053		11.718750
9054		17.578125
9055		13.671875
9056		19.531250
9057		15.625000
9058		19.531250
9059		17.578125
9060		21.484375
9061		19.531250
9062		23.437500
9063		21.484375
9064		25.390625
9065		23.437500
9066		25.390625
9067		25.390625
9068		27.343750
9069		25.390625
9070		31.250000
9071		27.343750
9072		31.250000
9073		29.296875
9074		33.203125
9075		29.296875
9076		33.203125
9077		31.250000
9078		35.156250
9079		31.250000
9080		39.062500
9081		33.203125
9082		39.062500
9083		35.156250
9084		39.062500
9085		35.156250
9086		39.062500
9087		37.109375
9088		41.015625
9089		37.109375
9090		42.968750
9091		39.062500
9092		42.968750
9093		39.062500
9094		42.968750
9095		39.062500
9096		42.968750
9097		39.062500
9098		44.921875
9099		39.062500
9100		44.921875
9101		41.015625
9102		44.921875
9103		41.015625
9104		46.875000
9105		41.015625
9106		44.921875
9107		41.015625
9108		46.875000
9109		42.968750
9110		44.921875
9111		42.968750
9112		44.921875
9113		39.062500
9114		46.875000
9115		41.015625
9116		46.875000
9117		41.015625
9118		46.875000
9119		39.062500
9120		46.875000
9121		39.062500
9122		46.875000
9123		39.062500
9124		44.921875
9125		39.062500
9126		44.921875
9127		39.062500
9128		42.968750
9129		37.109375
9130		42.968750
9131		35.156250
9132		42.968750
9133		35.156250
9134		42.968750
9135		35.156250
9136		41.015625
9137		33.203125
9138		39.062500
9139		31.250000
9140		39.062500
9141		31.250000
9142		37.109375
9143		31.250000
9144		35.156250
9145		31.250000
9146		33.203125
9147		27.343750
9148		33.203125
9149		25.390625
9150		33.203125
9151		23.437500
9152		31.250000
9153		23.437500
9154		29.296875
9155		21.484375
9156		29.296875
9157		19.531250
9158		27.343750
9159		19.531250
9160		25.390625
9161		17.578125
9162		21.484375
9163		13.671875
9164		21.484375
9165		11.718750
9166		19.531250
9167		9.765625
9168		19.531250
9169		7.812500
9170		15.625000
9171		7.812500
9172		15.625000
9173		5.859375
9174		13.671875
9175		3.906250
9176		11.718750
9177		3.906250
9178		7.812500
9179		0.000000
9180		5.859375
9181		-1.953125
9182		5.859375
9183		-3.906250
9184		3.906250
9185		-5.859375
9186		1.953125
9187		-7.812500
9188		0.000000
9189		-9.765625
9190		-1.953125
9191		-9.765625
9192		-1.953125
9193		-9.765625
9194		-5.859375
9195		-11.718750
9196		-7.812500
9197		-15.625000
9198		-7.812500
9199		-17.578125
9200		-9.765625
9201		-17.578125
9202		-9.765625
9203		-19.531250
9204		-11.718750
9205		-21.484375
9206		-13.671875
9207		-21.484375
9208		-15.625000
9209		-23.437500
9210		-15.625000
9211		-21.484375
9212		-19.531250
9213		-25.390625
9214		-19.531250
9215		-27.343750
9216		-19.531250
9217		-27.343750
9218		-19.531250
9219		-29.296875
9220		-21.484375
9221		-29.296875
9222		-21.484375
9223		-29.296875
9224		-23.437500
9225		-29.296875
9226		-23.437500
9227		-29.296875
9228		-25.390625
9229		-29.296875
9230		-25.390625
9231		-31.250000
9232		-23.437500
9233		-33.203125
9234		-23.437500
9235		-31.250000
9236		-25.390625
9237		-31.250000
9238		-25.390625
9239		-31.250000
9240		-25.390625
9241		-31.250000
9242		-25.390625
9243		-29.296875
9244		-25.390625
9245		-27.343750
9246		-25.390625
9247		-31.250000
9248		-23.437500
9249		-31.250000
9250		-23.437500
9251		-29.296875
9252		-21.484375
9253		-29.296875
9254		-21.484375
9255		-27.343750
9256		-19.531250
9257		-27.343750
9258		-19.531250
9259		-25.390625
9260		-19.531250
9261		-21.484375
9262		-19.531250
9263		-21.484375
9264		-17.578125
9265		-21.484375
9266		-15.625000
9267		-21.484375
9268		-13.671875
9269		-19.531250
9270		-13.671875
9271		-19.531250
9272		-11.718750
9273		-17.578125
9274		-9.765625
9275		-15.625000
9276		-7.812500
9277		-11.718750
9278		-9.765625
9279		-9.765625
9280		-7.812500
9281		-11.718750
9282		-3.906250
9283		-9.765625
9284		-1.953125
9285		-7.812500
9286		0.000000
9287		-5.859375
9288		1.953125
9289		-3.906250
9290		3.906250
9291		-1.953125
9292		5.859375
9293		0.000000
9294		5.859375
9295		3.906250
9296		5.859375
9297		3.906250
9298		9.765625
9299		3.906250
9300		11.718750
9301		5.859375
9302		13.671875
9303		7.812500
9304		15.625000
9305		9.765625
9306		17.578125
9307		11.718750
9308		19.531250
9309		13.671875
9310		19.531250
9311		17.578125
9312		21.484375
9313		19.531250
9314		23.437500
9315		19.531250
9316		25.390625
9317		19.531250
9318		27.343750
9319		21.484375
9320		29.296875
9321		23.437500
9322		31.250000
9323		25.390625
9324		33.203125
9325		25.390625
9326		35.156250
9327		29.296875
9328		33.203125
9329		31.250000
9330		35.156250
9331		31.250000
9332		37.109375
9333		31.250000
9334		39.062500
9335		31.250000
9336		41.015625
9337		33.203125
9338		41.015625
9339		35.156250
9340		42.968750
9341		35.156250
9342		42.968750
9343		37.109375
9344		42.968750
9345		39.062500
9346		42.968750
9347		39.062500
9348		44.921875
9349		39.062500
9350		44.921875
9351		39.062500
9352		46.875000
9353		39.062500
9354		46.875000
9355		39.062500
9356		46.875000
9357		41.015625
9358		46.875000
9359		41.015625
9360		46.875000
9361		42.968750
9362		44.921875
9363		42.968750
9364		44.921875
9365		41.015625
9366		48.828125
9367		41.015625
9368		46.875000
9369		41.015625
9370		46.875000
9371		41.015625
9372		46.875000
9373		39.062500
9374		46.875000
9375		39.062500
9376		46.875000
9377		39.062500
9378		46.875000
9379		41.015625
9380		42.968750
9381		37.109375
9382		42.968750
9383		37.109375
9384		42.968750
9385		37.109375
9386		42.968750
9387		35.156250
9388		42.968750
9389		33.203125
9390		41.015625
9391		33.203125
9392		41.015625
9393		31.250000
9394		39.062500
9395		33.203125
9396		35.156250
9397		31.250000
9398		35.156250
9399		27.343750
9400		35.156250
9401		27.343750
9402		33.203125
9403		25.390625
9404		33.203125
9405		23.437500
9406		31.250000
9407		21.484375
9408		29.296875
9409		21.484375
9410		27.343750
9411		21.484375
9412		25.390625
9413		19.531250
9414		23.437500
9415		15.625000
9416		23.437500
9417		13.671875
9418		21.484375
9419		11.718750
9420		19.531250
9421		9.765625
9422		17.578125
9423		7.812500
9424		15.625000
9425		5.859375
9426		15.625000
9427		5.859375
9428		13.671875
9429		5.859375
9430		7.812500
9431		1.953125
9432		7.812500
9433		0.000000
9434		7.812500
9435		-1.953125
9436		5.859375
9437		-3.906250
9438		3.906250
9439		-5.859375
9440		1.953125
9441		-7.812500
9442		0.000000
9443		-9.765625
9444		-1.953125
9445		-7.812500
9446		-3.906250
9447		-9.765625
9448		-7.812500
9449		-13.671875
9450		-7.812500
9451		-15.625000
9452		-7.812500
9453		-17.578125
9454		-9.765625
9455		-19.531250
9456		-11.718750
9457		-19.531250
9458		-11.718750
9459		-21.484375
9460		-13.671875
9461		-21.484375
9462		-15.625000
9463		-21.484375
9464		-17.578125
9465		-23.437500
9466		-17.578125
9467		-25.390625
9468		-17.578125
9469		-27.343750
9470		-19.531250
9471		-27.343750
9472		-19.531250
9473		-29.296875
9474		-21.484375
9475		-29.296875
9476		-21.484375
9477		-29.296875
9478		-23.437500
9479		-27.343750
9480		-25.390625
9481		-27.343750
9482		-25.390625
9483		-31.250000
9484		-23.437500
9485		-31.250000
9486		-23.437500
9487		-31.250000
9488		-23.437500
9489		-31.250000
9490		-25.390625
9491		-31.250000
9492		-23.437500
9493		-31.250000
9494		-25.390625
9495		-29.296875
9496		-25.390625
9497		-29.296875
9498		-25.390625
9499		-31.250000
9500		-23.437500
9501		-31.250000
9502		-23.437500
9503		-29.296875
9504		-23.437500
9505		-29.296875
9506		-21.484375
9507		-27.343750
9508		-21.484375
9509		-27.343750
9510		-19.531250
9511		-27.343750
9512		-19.531250
9513		-23.437500
9514		-21.484375
9515		-21.484375
9516		-19.531250
9517		-23.437500
9518		-15.625000
9519		-21.484375
9520		-15.625000
9521		-21.484375
9522		-13.671875
9523		-19.531250
9524		-11.718750
9525		-17.578125
9526		-9.765625
9527		-15.625000
9528		-9.765625
9529		-13.671875
9530		-9.765625
9531		-11.718750
9532		-7.812500
9533		-11.718750
9534		-3.906250
9535		-9.765625
9536		-3.906250
9537		-7.812500
9538		-1.953125
9539		-7.812500
9540		0.000000
9541		-5.859375
9542		1.953125
9543		-3.906250
9544		3.906250
9545		-1.953125
9546		3.906250
9547		1.953125
9548		5.859375
9549		3.906250
9550		9.765625
9551		1.953125
9552		11.718750
9553		3.906250
9554		13.671875
9555		5.859375
9556		13.671875
9557		7.812500
9558		15.625000
9559		9.765625
9560		19.531250
9561		11.718750
9562		19.531250
9563		15.625000
9564		19.531250
9565		17.578125
9566		21.484375
9567		17.578125
9568		25.390625
9569		19.531250
9570		25.390625
9571		19.531250
9572		29.296875
9573		21.484375
9574		29.296875
9575		23.437500
9576		31.250000
9577		25.390625
9578		33.203125
9579		27.343750
9580		33.203125
9581		31.250000
9582		33.203125
9583		31.250000
9584		37.109375
9585		31.250000
9586		37.109375
9587		31.250000
9588		39.062500
9589		33.203125
9590		41.015625
9591		33.203125
9592		41.015625
9593		35.156250
9594		42.968750
9595		35.156250
9596		42.968750
9597		39.062500
9598		41.015625
9599		39.062500
9600		42.968750
9601		39.062500
9602		44.921875
9603		39.062500
9604		44.921875
9605		39.062500
9606		46.875000
9607		39.062500
9608		46.875000
9609		41.015625
9610		46.875000
9611		41.015625
9612		46.875000
9613		42.968750
9614		46.875000
9615		42.968750
9616		44.921875
9617		41.015625
9618		46.875000
9619		41.015625
9620		46.875000
9621		41.015625
9622		46.875000
9623		41.015625
9624		46.875000
9625		39.062500
9626		46.875000
9627		39.062500
9628		46.875000
9629		39.062500
9630		44.921875
9631		41.015625
9632		42.968750
9633		37.109375
9634		44.921875
9635		37.109375
9636		44.921875
9637		37.109375
9638		42.968750
9639		35.156250
9640		42.968750
9641		35.156250
9642		42.968750
9643		33.203125
9644		41.015625
9645		33.203125
9646		41.015625
9647		33.203125
9648		37.109375
9649		33.203125
9650		35.156250
9651		29.296875
9652		35.156250
9653		27.343750
9654		35.156250
9655		25.390625
9656		33.203125
9657		23.437500
9658		33.203125
9659		23.437500
9660		31.250000
9661		21.484375
9662		29.296875
9663		21.484375
9664		27.343750
9665		21.484375
9666		23.437500
9667		17.578125
9668		23.437500
9669		15.625000
9670		23.437500
9671		13.671875
9672		21.484375
9673		11.718750
9674		19.531250
9675		9.765625
9676		17.578125
9677		7.812500
9678		15.625000
9679		5.859375
9680		13.671875
9681		5.859375
9682		9.765625
9683		5.859375
9684		7.812500
9685		0.000000
9686		7.812500
9687		-1.953125
9688		7.812500
9689		-1.953125
9690		5.859375
9691		-5.859375
9692		3.906250
9693		-5.859375
9694		1.953125
9695		-7.812500
9696		0.000000
9697		-7.812500
9698		-1.953125
9699		-7.812500
9700		-5.859375
9701		-13.671875
9702		-5.859375
9703		-13.671875
9704		-7.812500
9705		-15.625000
9706		-7.812500
9707		-17.578125
9708		-9.765625
9709		-19.531250
9710		-11.718750
9711		-19.531250
9712		-13.671875
9713		-21.484375
9714		-13.671875
9715		-19.531250
9716		-17.578125
9717		-23.437500
9718		-17.578125
9719		-25.390625
9720		-17.578125
9721		-25.390625
9722		-19.531250
9723		-27.343750
9724		-19.531250
9725		-27.343750
9726		-19.531250
9727		-29.296875
9728		-21.484375
9729		-29.296875
9730		-21.484375
9731		-27.343750
9732		-25.390625
9733		-27.343750
9734		-25.390625
9735		-31.250000
9736		-23.437500
9737		-31.250000
9738		-23.437500
9739		-31.250000
9740		-23.437500
9741		-31.250000
9742		-23.437500
9743		-31.250000
9744		-25.390625
9745		-31.250000
9746		-23.437500
9747		-29.296875
9748		-23.437500
9749		-29.296875
9750		-25.390625
9751		-29.296875
9752		-23.437500
9753		-29.296875
9754		-23.437500
9755		-29.296875
9756		-21.484375
9757		-29.296875
9758		-21.484375
9759		-29.296875
9760		-21.484375
9761		-27.343750
9762		-21.484375
9763		-27.343750
9764		-19.531250
9765		-23.437500
9766		-21.484375
9767		-21.484375
9768		-19.531250
9769		-23.437500
9770		-15.625000
9771		-23.437500
9772		-15.625000
9773		-21.484375
9774		-13.671875
9775		-21.484375
9776		-11.718750
9777		-19.531250
9778		-11.718750
9779		-17.578125
9780		-9.765625
9781		-15.625000
9782		-9.765625
9783		-11.718750
9784		-9.765625
9785		-11.718750
9786		-5.859375
9787		-11.718750
9788		-3.906250
9789		-9.765625
9790		-1.953125
9791		-7.812500
9792		0.000000
9793		-5.859375
9794		1.953125
9795		-3.906250
9796		3.906250
9797		-3.906250
9798		3.906250
9799		1.953125
9800		3.906250
9801		1.953125
9802		7.812500
9803		1.953125
9804		9.765625
9805		3.906250
9806		11.718750
9807		5.859375
9808		13.671875
9809		7.812500
9810		15.625000
9811		9.765625
9812		17.578125
9813		11.718750
9814		19.531250
9815		15.625000
9816		19.531250
9817		17.578125
9818		19.531250
9819		17.578125
9820		25.390625
9821		17.578125
9822		25.390625
9823		19.531250
9824		27.343750
9825		21.484375
9826		29.296875
9827		23.437500
9828		31.250000
9829		25.390625
9830		31.250000
9831		25.390625
9832		31.250000
9833		29.296875
9834		33.203125
9835		29.296875
9836		35.156250
9837		29.296875
9838		37.109375
9839		31.250000
9840		39.062500
9841		31.250000
9842		39.062500
9843		33.203125
9844		41.015625
9845		35.156250
9846		41.015625
9847		35.156250
9848		42.968750
9849		39.062500
9850		41.015625
9851		39.062500
9852		42.968750
9853		39.062500
9854		44.921875
9855		39.062500
9856		44.921875
9857		39.062500
9858		46.875000
9859		39.062500
9860		46.875000
9861		39.062500
9862		46.875000
9863		41.015625
9864		46.875000
9865		41.015625
9866		46.875000
9867		42.968750
9868		44.921875
9869		41.015625
9870		48.828125
9871		41.015625
9872		48.828125
9873		41.015625
9874		46.875000
9875		41.015625
9876		46.875000
9877		41.015625
9878		46.875000
9879		39.062500
9880		46.875000
9881		39.062500
9882		46.875000
9883		41.015625
9884		42.968750
9885		41.015625
9886		42.968750
9887		37.109375
9888		44.921875
9889		37.109375
9890		44.921875
9891		37.109375
9892		44.921875
9893		35.156250
9894		42.968750
9895		33.203125
9896		41.015625
9897		33.203125
9898		41.015625
9899		35.156250
9900		37.109375
9901		33.203125
9902		37.109375
9903		29.296875
9904		37.109375
9905		29.296875
9906		37.109375
9907		27.343750
9908		35.156250
9909		25.390625
9910		33.203125
9911		23.437500
9912		33.203125
9913		23.437500
9914		31.250000
9915		21.484375
9916		29.296875
9917		21.484375
9918		25.390625
9919		17.578125
9920		23.437500
9921		15.625000
9922		23.437500
9923		13.671875
9924		21.484375
9925		11.718750
9926		19.531250
9927		9.765625
9928		19.531250
9929		9.765625
9930		17.578125
9931		7.812500
9932		15.625000
9933		7.812500
9934		11.718750
9935		5.859375
9936		9.765625
9937		1.953125
9938		9.765625
9939		0.000000
9940		7.812500
9941		-1.953125
9942		5.859375
9943		-3.906250
9944		3.906250
9945		-5.859375
9946		1.953125
9947		-5.859375
9948		1.953125
9949		-5.859375
9950		0.000000
9951		-7.812500
9952		-3.906250
9953		-13.671875
9954		-5.859375
9955		-13.671875
9956		-5.859375
9957		-15.625000
9958		-7.812500
9959		-15.625000
9960		-7.812500
9961		-17.578125
9962		-9.765625
9963		-19.531250
9964		-11.718750
9965		-19.531250
9966		-13.671875
9967		-19.531250
9968		-15.625000
9969		-21.484375
9970		-17.578125
9971		-23.437500
9972		-17.578125
9973		-25.390625
9974		-17.578125
9975		-27.343750
9976		-19.531250
9977		-27.343750
9978		-19.531250
9979		-27.343750
9980		-21.484375
9981		-29.296875
9982		-21.484375
9983		-27.343750
9984		-23.437500
9985		-27.343750
9986		-25.390625
9987		-31.250000
9988		-23.437500
9989		-31.250000
9990		-23.437500
9991		-31.250000
9992		-23.437500
9993		-31.250000
9994		-25.390625
9995		-31.250000
9996		-25.390625
9997		-31.250000
9998		-25.390625
9999		-31.250000
10000		-25.390625
