Channel              :		CH1
Frequency            :		1.057kHz
Period               :		0.946ms
PK-PK                :		330.1mV
Probe attenuation    :		1X
Voltage per ADC value:		0.122070mV
Time interval        :		2.00000us

index		CH1_Voltage(mV)
1		56.640625
2		56.640625
3		60.546875
4		52.734375
5		56.640625
6		48.828125
7		54.687500
8		44.921875
9		50.781250
10		41.015625
11		46.875000
12		37.109375
13		42.968750
14		31.250000
15		39.062500
16		27.343750
17		37.109375
18		25.390625
19		31.250000
20		21.484375
21		25.390625
22		15.625000
23		21.484375
24		11.718750
25		17.578125
26		7.812500
27		13.671875
28		3.906250
29		9.765625
30		0.000000
31		5.859375
32		-5.859375
33		0.000000
34		-9.765625
35		-1.953125
36		-13.671875
37		-7.812500
38		-17.578125
39		-11.718750
40		-21.484375
41		-15.625000
42		-25.390625
43		-19.531250
44		-31.250000
45		-23.437500
46		-35.156250
47		-27.343750
48		-41.015625
49		-31.250000
50		-44.921875
51		-35.156250
52		-48.828125
53		-41.015625
54		-52.734375
55		-44.921875
56		-56.640625
57		-50.781250
58		-60.546875
59		-54.687500
60		-66.406250
61		-58.593750
62		-68.359375
63		-60.546875
64		-74.218750
65		-64.453125
66		-78.125000
67		-70.312500
68		-82.031250
69		-72.265625
70		-85.937500
71		-78.125000
72		-89.843750
73		-82.031250
74		-91.796875
75		-85.937500
76		-95.703125
77		-91.796875
78		-101.562500
79		-93.750000
80		-105.468750
81		-95.703125
82		-107.421875
83		-99.609375
84		-113.281250
85		-103.515625
86		-117.187500
87		-105.468750
88		-119.140625
89		-111.328125
90		-121.093750
91		-113.281250
92		-123.046875
93		-119.140625
94		-128.906250
95		-123.046875
96		-132.812500
97		-123.046875
98		-134.765625
99		-126.953125
100		-138.671875
101		-128.906250
102		-142.578125
103		-132.812500
104		-144.531250
105		-136.718750
106		-146.484375
107		-138.671875
108		-146.484375
109		-142.578125
110		-150.390625
111		-146.484375
112		-156.250000
113		-146.484375
114		-156.250000
115		-148.437500
116		-158.203125
117		-150.390625
118		-160.156250
119		-152.343750
120		-162.109375
121		-154.296875
122		-164.062500
123		-156.250000
124		-164.062500
125		-160.156250
126		-164.062500
127		-162.109375
128		-167.968750
129		-162.109375
130		-169.921875
131		-162.109375
132		-171.875000
133		-164.062500
134		-171.875000
135		-166.015625
136		-173.828125
137		-166.015625
138		-173.828125
139		-166.015625
140		-173.828125
141		-167.968750
142		-173.828125
143		-169.921875
144		-173.828125
145		-169.921875
146		-177.734375
147		-167.968750
148		-177.734375
149		-167.968750
150		-175.781250
151		-169.921875
152		-177.734375
153		-169.921875
154		-175.781250
155		-167.968750
156		-175.781250
157		-167.968750
158		-173.828125
159		-169.921875
160		-173.828125
161		-169.921875
162		-175.781250
163		-166.015625
164		-173.828125
165		-166.015625
166		-173.828125
167		-164.062500
168		-171.875000
169		-164.062500
170		-169.921875
171		-162.109375
172		-169.921875
173		-162.109375
174		-167.968750
175		-162.109375
176		-164.062500
177		-160.156250
178		-164.062500
179		-156.250000
180		-162.109375
181		-154.296875
182		-160.156250
183		-152.343750
184		-158.203125
185		-150.390625
186		-156.250000
187		-148.437500
188		-152.343750
189		-146.484375
190		-150.390625
191		-144.531250
192		-146.484375
193		-142.578125
194		-144.531250
195		-138.671875
196		-142.578125
197		-134.765625
198		-140.625000
199		-130.859375
200		-136.718750
201		-126.953125
202		-132.812500
203		-125.000000
204		-130.859375
205		-123.046875
206		-128.906250
207		-119.140625
208		-123.046875
209		-117.187500
210		-119.140625
211		-113.281250
212		-115.234375
213		-109.375000
214		-113.281250
215		-105.468750
216		-109.375000
217		-99.609375
218		-105.468750
219		-95.703125
220		-101.562500
221		-91.796875
222		-97.656250
223		-89.843750
224		-93.750000
225		-85.937500
226		-87.890625
227		-82.031250
228		-83.984375
229		-78.125000
230		-82.031250
231		-72.265625
232		-78.125000
233		-68.359375
234		-72.265625
235		-64.453125
236		-70.312500
237		-58.593750
238		-66.406250
239		-54.687500
240		-60.546875
241		-50.781250
242		-54.687500
243		-48.828125
244		-50.781250
245		-42.968750
246		-46.875000
247		-37.109375
248		-42.968750
249		-31.250000
250		-39.062500
251		-29.296875
252		-35.156250
253		-23.437500
254		-29.296875
255		-19.531250
256		-25.390625
257		-15.625000
258		-21.484375
259		-13.671875
260		-15.625000
261		-9.765625
262		-9.765625
263		-1.953125
264		-7.812500
265		1.953125
266		-3.906250
267		5.859375
268		0.000000
269		9.765625
270		3.906250
271		13.671875
272		7.812500
273		17.578125
274		11.718750
275		21.484375
276		19.531250
277		25.390625
278		23.437500
279		29.296875
280		25.390625
281		35.156250
282		29.296875
283		39.062500
284		33.203125
285		42.968750
286		37.109375
287		46.875000
288		41.015625
289		50.781250
290		44.921875
291		54.687500
292		48.828125
293		56.640625
294		54.687500
295		58.593750
296		56.640625
297		64.453125
298		58.593750
299		68.359375
300		62.500000
301		72.265625
302		66.406250
303		74.218750
304		70.312500
305		78.125000
306		72.265625
307		83.984375
308		76.171875
309		83.984375
310		82.031250
311		85.937500
312		83.984375
313		89.843750
314		85.937500
315		93.750000
316		89.843750
317		97.656250
318		91.796875
319		99.609375
320		93.750000
321		103.515625
322		95.703125
323		105.468750
324		99.609375
325		107.421875
326		103.515625
327		107.421875
328		107.421875
329		111.328125
330		107.421875
331		115.234375
332		109.375000
333		117.187500
334		111.328125
335		121.093750
336		113.281250
337		121.093750
338		115.234375
339		123.046875
340		117.187500
341		125.000000
342		119.140625
343		126.953125
344		123.046875
345		126.953125
346		123.046875
347		130.859375
348		123.046875
349		132.812500
350		125.000000
351		134.765625
352		126.953125
353		134.765625
354		128.906250
355		136.718750
356		128.906250
357		138.671875
358		130.859375
359		138.671875
360		134.765625
361		138.671875
362		136.718750
363		138.671875
364		134.765625
365		142.578125
366		134.765625
367		142.578125
368		136.718750
369		144.531250
370		136.718750
371		144.531250
372		136.718750
373		144.531250
374		138.671875
375		146.484375
376		140.625000
377		144.531250
378		140.625000
379		144.531250
380		140.625000
381		146.484375
382		138.671875
383		146.484375
384		138.671875
385		146.484375
386		138.671875
387		146.484375
388		138.671875
389		146.484375
390		138.671875
391		146.484375
392		138.671875
393		146.484375
394		140.625000
395		144.531250
396		140.625000
397		142.578125
398		138.671875
399		144.531250
400		136.718750
401		144.531250
402		136.718750
403		144.531250
404		136.718750
405		142.578125
406		134.765625
407		142.578125
408		132.812500
409		140.625000
410		134.765625
411		138.671875
412		134.765625
413		136.718750
414		130.859375
415		138.671875
416		128.906250
417		136.718750
418		126.953125
419		136.718750
420		126.953125
421		134.765625
422		125.000000
423		134.765625
424		125.000000
425		130.859375
426		123.046875
427		128.906250
428		123.046875
429		125.000000
430		119.140625
431		125.000000
432		117.187500
433		125.000000
434		115.234375
435		123.046875
436		111.328125
437		119.140625
438		111.328125
439		117.187500
440		107.421875
441		117.187500
442		105.468750
443		113.281250
444		105.468750
445		109.375000
446		101.562500
447		105.468750
448		97.656250
449		105.468750
450		95.703125
451		103.515625
452		89.843750
453		99.609375
454		89.843750
455		97.656250
456		85.937500
457		95.703125
458		82.031250
459		91.796875
460		82.031250
461		85.937500
462		78.125000
463		83.984375
464		74.218750
465		80.078125
466		70.312500
467		80.078125
468		66.406250
469		74.218750
470		64.453125
471		72.265625
472		58.593750
473		68.359375
474		54.687500
475		64.453125
476		52.734375
477		60.546875
478		50.781250
479		56.640625
480		46.875000
481		50.781250
482		39.062500
483		50.781250
484		37.109375
485		46.875000
486		33.203125
487		42.968750
488		29.296875
489		37.109375
490		23.437500
491		33.203125
492		21.484375
493		29.296875
494		17.578125
495		25.390625
496		13.671875
497		19.531250
498		7.812500
499		15.625000
500		3.906250
501		13.671875
502		0.000000
503		9.765625
504		-3.906250
505		5.859375
506		-9.765625
507		0.000000
508		-11.718750
509		-3.906250
510		-15.625000
511		-7.812500
512		-19.531250
513		-13.671875
514		-25.390625
515		-17.578125
516		-29.296875
517		-21.484375
518		-35.156250
519		-25.390625
520		-39.062500
521		-29.296875
522		-42.968750
523		-35.156250
524		-46.875000
525		-39.062500
526		-50.781250
527		-42.968750
528		-54.687500
529		-48.828125
530		-58.593750
531		-52.734375
532		-64.453125
533		-56.640625
534		-68.359375
535		-60.546875
536		-74.218750
537		-62.500000
538		-76.171875
539		-66.406250
540		-82.031250
541		-70.312500
542		-83.984375
543		-76.171875
544		-85.937500
545		-80.078125
546		-89.843750
547		-85.937500
548		-97.656250
549		-89.843750
550		-99.609375
551		-91.796875
552		-105.468750
553		-95.703125
554		-107.421875
555		-99.609375
556		-113.281250
557		-101.562500
558		-115.234375
559		-105.468750
560		-117.187500
561		-109.375000
562		-119.140625
563		-115.234375
564		-123.046875
565		-119.140625
566		-128.906250
567		-119.140625
568		-130.859375
569		-123.046875
570		-134.765625
571		-125.000000
572		-138.671875
573		-128.906250
574		-142.578125
575		-132.812500
576		-144.531250
577		-134.765625
578		-144.531250
579		-138.671875
580		-146.484375
581		-142.578125
582		-152.343750
583		-144.531250
584		-154.296875
585		-146.484375
586		-156.250000
587		-148.437500
588		-158.203125
589		-150.390625
590		-160.156250
591		-152.343750
592		-162.109375
593		-154.296875
594		-164.062500
595		-156.250000
596		-164.062500
597		-160.156250
598		-167.968750
599		-162.109375
600		-169.921875
601		-162.109375
602		-171.875000
603		-162.109375
604		-171.875000
605		-164.062500
606		-173.828125
607		-166.015625
608		-173.828125
609		-166.015625
610		-175.781250
611		-167.968750
612		-173.828125
613		-169.921875
614		-173.828125
615		-171.875000
616		-177.734375
617		-169.921875
618		-177.734375
619		-169.921875
620		-177.734375
621		-169.921875
622		-177.734375
623		-169.921875
624		-177.734375
625		-171.875000
626		-177.734375
627		-171.875000
628		-177.734375
629		-171.875000
630		-175.781250
631		-171.875000
632		-177.734375
633		-169.921875
634		-175.781250
635		-167.968750
636		-175.781250
637		-167.968750
638		-175.781250
639		-167.968750
640		-173.828125
641		-166.015625
642		-171.875000
643		-164.062500
644		-171.875000
645		-164.062500
646		-167.968750
647		-164.062500
648		-166.015625
649		-162.109375
650		-166.015625
651		-158.203125
652		-164.062500
653		-158.203125
654		-164.062500
655		-154.296875
656		-162.109375
657		-152.343750
658		-160.156250
659		-152.343750
660		-156.250000
661		-148.437500
662		-152.343750
663		-148.437500
664		-150.390625
665		-144.531250
666		-148.437500
667		-140.625000
668		-146.484375
669		-138.671875
670		-142.578125
671		-134.765625
672		-140.625000
673		-130.859375
674		-138.671875
675		-128.906250
676		-134.765625
677		-125.000000
678		-130.859375
679		-125.000000
680		-125.000000
681		-121.093750
682		-123.046875
683		-115.234375
684		-121.093750
685		-111.328125
686		-117.187500
687		-107.421875
688		-113.281250
689		-103.515625
690		-109.375000
691		-101.562500
692		-105.468750
693		-95.703125
694		-101.562500
695		-93.750000
696		-95.703125
697		-89.843750
698		-91.796875
699		-85.937500
700		-87.890625
701		-80.078125
702		-85.937500
703		-76.171875
704		-82.031250
705		-72.265625
706		-78.125000
707		-68.359375
708		-72.265625
709		-64.453125
710		-68.359375
711		-58.593750
712		-66.406250
713		-56.640625
714		-58.593750
715		-52.734375
716		-54.687500
717		-46.875000
718		-50.781250
719		-42.968750
720		-46.875000
721		-39.062500
722		-42.968750
723		-33.203125
724		-37.109375
725		-27.343750
726		-33.203125
727		-25.390625
728		-29.296875
729		-21.484375
730		-23.437500
731		-17.578125
732		-17.578125
733		-13.671875
734		-15.625000
735		-7.812500
736		-11.718750
737		-3.906250
738		-7.812500
739		1.953125
740		-3.906250
741		5.859375
742		0.000000
743		9.765625
744		5.859375
745		13.671875
746		11.718750
747		17.578125
748		15.625000
749		21.484375
750		19.531250
751		27.343750
752		21.484375
753		31.250000
754		25.390625
755		35.156250
756		29.296875
757		39.062500
758		33.203125
759		42.968750
760		37.109375
761		46.875000
762		41.015625
763		48.828125
764		46.875000
765		52.734375
766		50.781250
767		56.640625
768		50.781250
769		62.500000
770		56.640625
771		64.453125
772		58.593750
773		68.359375
774		62.500000
775		70.312500
776		66.406250
777		76.171875
778		70.312500
779		78.125000
780		76.171875
781		80.078125
782		78.125000
783		83.984375
784		80.078125
785		87.890625
786		82.031250
787		89.843750
788		85.937500
789		93.750000
790		87.890625
791		97.656250
792		91.796875
793		99.609375
794		93.750000
795		103.515625
796		95.703125
797		103.515625
798		101.562500
799		105.468750
800		103.515625
801		109.375000
802		103.515625
803		111.328125
804		107.421875
805		113.281250
806		109.375000
807		117.187500
808		111.328125
809		117.187500
810		113.281250
811		119.140625
812		115.234375
813		121.093750
814		119.140625
815		123.046875
816		121.093750
817		125.000000
818		121.093750
819		128.906250
820		121.093750
821		130.859375
822		123.046875
823		132.812500
824		125.000000
825		134.765625
826		126.953125
827		134.765625
828		126.953125
829		134.765625
830		130.859375
831		134.765625
832		132.812500
833		136.718750
834		132.812500
835		138.671875
836		132.812500
837		140.625000
838		132.812500
839		142.578125
840		134.765625
841		142.578125
842		134.765625
843		142.578125
844		134.765625
845		142.578125
846		136.718750
847		142.578125
848		138.671875
849		142.578125
850		140.625000
851		142.578125
852		136.718750
853		144.531250
854		136.718750
855		146.484375
856		138.671875
857		146.484375
858		138.671875
859		144.531250
860		138.671875
861		146.484375
862		136.718750
863		144.531250
864		140.625000
865		142.578125
866		140.625000
867		142.578125
868		136.718750
869		144.531250
870		136.718750
871		144.531250
872		136.718750
873		144.531250
874		134.765625
875		142.578125
876		134.765625
877		142.578125
878		132.812500
879		142.578125
880		134.765625
881		140.625000
882		134.765625
883		138.671875
884		130.859375
885		138.671875
886		130.859375
887		138.671875
888		128.906250
889		136.718750
890		126.953125
891		136.718750
892		126.953125
893		134.765625
894		125.000000
895		132.812500
896		125.000000
897		130.859375
898		125.000000
899		126.953125
900		123.046875
901		125.000000
902		119.140625
903		125.000000
904		115.234375
905		125.000000
906		115.234375
907		123.046875
908		113.281250
909		121.093750
910		109.375000
911		117.187500
912		107.421875
913		115.234375
914		107.421875
915		113.281250
916		105.468750
917		109.375000
918		101.562500
919		107.421875
920		97.656250
921		105.468750
922		95.703125
923		103.515625
924		91.796875
925		101.562500
926		89.843750
927		97.656250
928		87.890625
929		95.703125
930		85.937500
931		91.796875
932		82.031250
933		87.890625
934		80.078125
935		83.984375
936		74.218750
937		83.984375
938		72.265625
939		80.078125
940		66.406250
941		76.171875
942		64.453125
943		74.218750
944		60.546875
945		70.312500
946		56.640625
947		64.453125
948		54.687500
949		60.546875
950		50.781250
951		56.640625
952		44.921875
953		54.687500
954		41.015625
955		50.781250
956		39.062500
957		46.875000
958		33.203125
959		42.968750
960		29.296875
961		39.062500
962		25.390625
963		35.156250
964		23.437500
965		31.250000
966		19.531250
967		25.390625
968		13.671875
969		21.484375
970		9.765625
971		19.531250
972		5.859375
973		15.625000
974		0.000000
975		9.765625
976		-3.906250
977		5.859375
978		-7.812500
979		1.953125
980		-11.718750
981		-1.953125
982		-13.671875
983		-7.812500
984		-17.578125
985		-13.671875
986		-25.390625
987		-15.625000
988		-29.296875
989		-19.531250
990		-33.203125
991		-23.437500
992		-37.109375
993		-27.343750
994		-42.968750
995		-33.203125
996		-46.875000
997		-37.109375
998		-48.828125
999		-42.968750
1000		-52.734375
1001		-46.875000
1002		-58.593750
1003		-50.781250
1004		-64.453125
1005		-54.687500
1006		-68.359375
1007		-58.593750
1008		-72.265625
1009		-62.500000
1010		-76.171875
1011		-66.406250
1012		-80.078125
1013		-70.312500
1014		-82.031250
1015		-74.218750
1016		-85.937500
1017		-80.078125
1018		-89.843750
1019		-83.984375
1020		-95.703125
1021		-85.937500
1022		-101.562500
1023		-91.796875
1024		-103.515625
1025		-93.750000
1026		-107.421875
1027		-97.656250
1028		-109.375000
1029		-103.515625
1030		-113.281250
1031		-105.468750
1032		-115.234375
1033		-109.375000
1034		-119.140625
1035		-115.234375
1036		-125.000000
1037		-117.187500
1038		-128.906250
1039		-119.140625
1040		-130.859375
1041		-123.046875
1042		-134.765625
1043		-125.000000
1044		-138.671875
1045		-128.906250
1046		-140.625000
1047		-130.859375
1048		-140.625000
1049		-134.765625
1050		-144.531250
1051		-138.671875
1052		-148.437500
1053		-142.578125
1054		-152.343750
1055		-142.578125
1056		-154.296875
1057		-144.531250
1058		-156.250000
1059		-148.437500
1060		-160.156250
1061		-150.390625
1062		-160.156250
1063		-152.343750
1064		-162.109375
1065		-154.296875
1066		-162.109375
1067		-158.203125
1068		-164.062500
1069		-160.156250
1070		-167.968750
1071		-160.156250
1072		-169.921875
1073		-162.109375
1074		-171.875000
1075		-162.109375
1076		-173.828125
1077		-166.015625
1078		-173.828125
1079		-166.015625
1080		-175.781250
1081		-166.015625
1082		-173.828125
1083		-169.921875
1084		-173.828125
1085		-171.875000
1086		-177.734375
1087		-171.875000
1088		-177.734375
1089		-169.921875
1090		-179.687500
1091		-171.875000
1092		-179.687500
1093		-171.875000
1094		-179.687500
1095		-171.875000
1096		-179.687500
1097		-171.875000
1098		-179.687500
1099		-171.875000
1100		-175.781250
1101		-173.828125
1102		-177.734375
1103		-173.828125
1104		-179.687500
1105		-171.875000
1106		-177.734375
1107		-169.921875
1108		-177.734375
1109		-169.921875
1110		-177.734375
1111		-167.968750
1112		-175.781250
1113		-167.968750
1114		-173.828125
1115		-167.968750
1116		-171.875000
1117		-167.968750
1118		-169.921875
1119		-166.015625
1120		-169.921875
1121		-162.109375
1122		-169.921875
1123		-160.156250
1124		-167.968750
1125		-158.203125
1126		-166.015625
1127		-156.250000
1128		-162.109375
1129		-154.296875
1130		-162.109375
1131		-154.296875
1132		-160.156250
1133		-152.343750
1134		-154.296875
1135		-150.390625
1136		-152.343750
1137		-146.484375
1138		-150.390625
1139		-142.578125
1140		-150.390625
1141		-140.625000
1142		-146.484375
1143		-138.671875
1144		-144.531250
1145		-134.765625
1146		-140.625000
1147		-130.859375
1148		-136.718750
1149		-128.906250
1150		-132.812500
1151		-126.953125
1152		-128.906250
1153		-123.046875
1154		-126.953125
1155		-117.187500
1156		-125.000000
1157		-115.234375
1158		-119.140625
1159		-111.328125
1160		-117.187500
1161		-107.421875
1162		-113.281250
1163		-103.515625
1164		-109.375000
1165		-99.609375
1166		-105.468750
1167		-97.656250
1168		-99.609375
1169		-93.750000
1170		-95.703125
1171		-87.890625
1172		-93.750000
1173		-83.984375
1174		-87.890625
1175		-78.125000
1176		-85.937500
1177		-76.171875
1178		-80.078125
1179		-70.312500
1180		-76.171875
1181		-66.406250
1182		-72.265625
1183		-64.453125
1184		-66.406250
1185		-60.546875
1186		-62.500000
1187		-56.640625
1188		-58.593750
1189		-50.781250
1190		-56.640625
1191		-44.921875
1192		-52.734375
1193		-41.015625
1194		-46.875000
1195		-37.109375
1196		-41.015625
1197		-31.250000
1198		-39.062500
1199		-27.343750
1200		-33.203125
1201		-25.390625
1202		-27.343750
1203		-21.484375
1204		-23.437500
1205		-13.671875
1206		-21.484375
1207		-9.765625
1208		-17.578125
1209		-5.859375
1210		-11.718750
1211		-1.953125
1212		-5.859375
1213		1.953125
1214		-3.906250
1215		5.859375
1216		1.953125
1217		9.765625
1218		7.812500
1219		13.671875
1220		11.718750
1221		19.531250
1222		13.671875
1223		23.437500
1224		17.578125
1225		29.296875
1226		21.484375
1227		31.250000
1228		27.343750
1229		35.156250
1230		29.296875
1231		39.062500
1232		35.156250
1233		42.968750
1234		41.015625
1235		46.875000
1236		44.921875
1237		48.828125
1238		46.875000
1239		54.687500
1240		50.781250
1241		58.593750
1242		52.734375
1243		62.500000
1244		56.640625
1245		66.406250
1246		60.546875
1247		68.359375
1248		64.453125
1249		74.218750
1250		66.406250
1251		74.218750
1252		72.265625
1253		78.125000
1254		74.218750
1255		83.984375
1256		76.171875
1257		85.937500
1258		80.078125
1259		87.890625
1260		83.984375
1261		91.796875
1262		85.937500
1263		95.703125
1264		87.890625
1265		97.656250
1266		91.796875
1267		99.609375
1268		97.656250
1269		101.562500
1270		99.609375
1271		103.515625
1272		99.609375
1273		107.421875
1274		101.562500
1275		111.328125
1276		103.515625
1277		113.281250
1278		107.421875
1279		115.234375
1280		109.375000
1281		117.187500
1282		111.328125
1283		119.140625
1284		115.234375
1285		119.140625
1286		117.187500
1287		121.093750
1288		117.187500
1289		125.000000
1290		119.140625
1291		126.953125
1292		121.093750
1293		128.906250
1294		123.046875
1295		130.859375
1296		123.046875
1297		130.859375
1298		125.000000
1299		134.765625
1300		126.953125
1301		134.765625
1302		130.859375
1303		134.765625
1304		130.859375
1305		136.718750
1306		130.859375
1307		138.671875
1308		130.859375
1309		138.671875
1310		132.812500
1311		140.625000
1312		132.812500
1313		140.625000
1314		134.765625
1315		142.578125
1316		134.765625
1317		142.578125
1318		138.671875
1319		140.625000
1320		138.671875
1321		140.625000
1322		136.718750
1323		144.531250
1324		136.718750
1325		144.531250
1326		136.718750
1327		144.531250
1328		138.671875
1329		144.531250
1330		138.671875
1331		144.531250
1332		138.671875
1333		144.531250
1334		138.671875
1335		144.531250
1336		140.625000
1337		142.578125
1338		136.718750
1339		144.531250
1340		136.718750
1341		144.531250
1342		136.718750
1343		144.531250
1344		136.718750
1345		142.578125
1346		136.718750
1347		142.578125
1348		134.765625
1349		142.578125
1350		134.765625
1351		142.578125
1352		136.718750
1353		138.671875
1354		134.765625
1355		138.671875
1356		132.812500
1357		138.671875
1358		130.859375
1359		138.671875
1360		128.906250
1361		138.671875
1362		128.906250
1363		136.718750
1364		126.953125
1365		134.765625
1366		125.000000
1367		134.765625
1368		126.953125
1369		130.859375
1370		125.000000
1371		128.906250
1372		121.093750
1373		128.906250
1374		119.140625
1375		126.953125
1376		117.187500
1377		125.000000
1378		117.187500
1379		123.046875
1380		113.281250
1381		121.093750
1382		111.328125
1383		119.140625
1384		111.328125
1385		117.187500
1386		109.375000
1387		113.281250
1388		105.468750
1389		111.328125
1390		101.562500
1391		109.375000
1392		99.609375
1393		107.421875
1394		95.703125
1395		105.468750
1396		93.750000
1397		101.562500
1398		91.796875
1399		99.609375
1400		87.890625
1401		97.656250
1402		87.890625
1403		91.796875
1404		83.984375
1405		89.843750
1406		78.125000
1407		85.937500
1408		76.171875
1409		83.984375
1410		72.265625
1411		82.031250
1412		70.312500
1413		78.125000
1414		64.453125
1415		74.218750
1416		62.500000
1417		72.265625
1418		60.546875
1419		68.359375
1420		56.640625
1421		62.500000
1422		50.781250
1423		58.593750
1424		48.828125
1425		56.640625
1426		42.968750
1427		52.734375
1428		39.062500
1429		48.828125
1430		35.156250
1431		44.921875
1432		33.203125
1433		41.015625
1434		29.296875
1435		39.062500
1436		25.390625
1437		31.250000
1438		21.484375
1439		27.343750
1440		15.625000
1441		25.390625
1442		11.718750
1443		21.484375
1444		5.859375
1445		17.578125
1446		3.906250
1447		11.718750
1448		0.000000
1449		7.812500
1450		-5.859375
1451		3.906250
1452		-7.812500
1453		-1.953125
1454		-11.718750
1455		-5.859375
1456		-17.578125
1457		-9.765625
1458		-21.484375
1459		-11.718750
1460		-27.343750
1461		-17.578125
1462		-31.250000
1463		-21.484375
1464		-35.156250
1465		-25.390625
1466		-39.062500
1467		-29.296875
1468		-42.968750
1469		-35.156250
1470		-46.875000
1471		-41.015625
1472		-50.781250
1473		-44.921875
1474		-56.640625
1475		-46.875000
1476		-60.546875
1477		-50.781250
1478		-64.453125
1479		-54.687500
1480		-70.312500
1481		-60.546875
1482		-74.218750
1483		-64.453125
1484		-76.171875
1485		-68.359375
1486		-80.078125
1487		-74.218750
1488		-83.984375
1489		-78.125000
1490		-89.843750
1491		-82.031250
1492		-93.750000
1493		-83.984375
1494		-97.656250
1495		-87.890625
1496		-101.562500
1497		-91.796875
1498		-105.468750
1499		-95.703125
1500		-109.375000
1501		-99.609375
1502		-109.375000
1503		-103.515625
1504		-113.281250
1505		-109.375000
1506		-119.140625
1507		-113.281250
1508		-123.046875
1509		-113.281250
1510		-126.953125
1511		-117.187500
1512		-128.906250
1513		-119.140625
1514		-132.812500
1515		-123.046875
1516		-136.718750
1517		-126.953125
1518		-138.671875
1519		-128.906250
1520		-138.671875
1521		-134.765625
1522		-142.578125
1523		-138.671875
1524		-146.484375
1525		-138.671875
1526		-150.390625
1527		-140.625000
1528		-152.343750
1529		-144.531250
1530		-156.250000
1531		-146.484375
1532		-158.203125
1533		-150.390625
1534		-160.156250
1535		-150.390625
1536		-160.156250
1537		-156.250000
1538		-162.109375
1539		-158.203125
1540		-166.015625
1541		-158.203125
1542		-167.968750
1543		-160.156250
1544		-167.968750
1545		-160.156250
1546		-171.875000
1547		-162.109375
1548		-171.875000
1549		-164.062500
1550		-173.828125
1551		-166.015625
1552		-173.828125
1553		-167.968750
1554		-173.828125
1555		-169.921875
1556		-173.828125
1557		-171.875000
1558		-177.734375
1559		-169.921875
1560		-177.734375
1561		-169.921875
1562		-179.687500
1563		-171.875000
1564		-179.687500
1565		-171.875000
1566		-179.687500
1567		-171.875000
1568		-179.687500
1569		-171.875000
1570		-177.734375
1571		-173.828125
1572		-177.734375
1573		-173.828125
1574		-179.687500
1575		-171.875000
1576		-179.687500
1577		-171.875000
1578		-177.734375
1579		-171.875000
1580		-177.734375
1581		-169.921875
1582		-177.734375
1583		-169.921875
1584		-175.781250
1585		-167.968750
1586		-175.781250
1587		-167.968750
1588		-171.875000
1589		-167.968750
1590		-169.921875
1591		-166.015625
1592		-171.875000
1593		-164.062500
1594		-169.921875
1595		-162.109375
1596		-169.921875
1597		-160.156250
1598		-166.015625
1599		-158.203125
1600		-164.062500
1601		-156.250000
1602		-162.109375
1603		-154.296875
1604		-158.203125
1605		-154.296875
1606		-156.250000
1607		-152.343750
1608		-154.296875
1609		-146.484375
1610		-152.343750
1611		-144.531250
1612		-150.390625
1613		-142.578125
1614		-148.437500
1615		-138.671875
1616		-146.484375
1617		-136.718750
1618		-142.578125
1619		-132.812500
1620		-138.671875
1621		-132.812500
1622		-132.812500
1623		-128.906250
1624		-130.859375
1625		-125.000000
1626		-128.906250
1627		-119.140625
1628		-125.000000
1629		-117.187500
1630		-123.046875
1631		-113.281250
1632		-119.140625
1633		-109.375000
1634		-115.234375
1635		-105.468750
1636		-111.328125
1637		-103.515625
1638		-105.468750
1639		-99.609375
1640		-101.562500
1641		-95.703125
1642		-99.609375
1643		-91.796875
1644		-93.750000
1645		-85.937500
1646		-89.843750
1647		-82.031250
1648		-85.937500
1649		-78.125000
1650		-82.031250
1651		-74.218750
1652		-78.125000
1653		-70.312500
1654		-72.265625
1655		-68.359375
1656		-68.359375
1657		-62.500000
1658		-64.453125
1659		-56.640625
1660		-62.500000
1661		-52.734375
1662		-58.593750
1663		-48.828125
1664		-52.734375
1665		-42.968750
1666		-48.828125
1667		-39.062500
1668		-44.921875
1669		-35.156250
1670		-41.015625
1671		-33.203125
1672		-33.203125
1673		-27.343750
1674		-29.296875
1675		-21.484375
1676		-27.343750
1677		-17.578125
1678		-23.437500
1679		-13.671875
1680		-17.578125
1681		-7.812500
1682		-13.671875
1683		-3.906250
1684		-9.765625
1685		0.000000
1686		-5.859375
1687		3.906250
1688		1.953125
1689		7.812500
1690		5.859375
1691		11.718750
1692		7.812500
1693		17.578125
1694		11.718750
1695		21.484375
1696		15.625000
1697		25.390625
1698		19.531250
1699		29.296875
1700		23.437500
1701		33.203125
1702		27.343750
1703		37.109375
1704		33.203125
1705		39.062500
1706		39.062500
1707		42.968750
1708		41.015625
1709		48.828125
1710		44.921875
1711		52.734375
1712		46.875000
1713		56.640625
1714		50.781250
1715		60.546875
1716		54.687500
1717		64.453125
1718		58.593750
1719		68.359375
1720		60.546875
1721		70.312500
1722		68.359375
1723		72.265625
1724		70.312500
1725		76.171875
1726		72.265625
1727		80.078125
1728		74.218750
1729		83.984375
1730		78.125000
1731		87.890625
1732		80.078125
1733		89.843750
1734		83.984375
1735		93.750000
1736		87.890625
1737		95.703125
1738		91.796875
1739		97.656250
1740		95.703125
1741		99.609375
1742		97.656250
1743		103.515625
1744		97.656250
1745		105.468750
1746		99.609375
1747		109.375000
1748		103.515625
1749		111.328125
1750		105.468750
1751		113.281250
1752		107.421875
1753		115.234375
1754		109.375000
1755		117.187500
1756		115.234375
1757		119.140625
1758		115.234375
1759		123.046875
1760		117.187500
1761		125.000000
1762		117.187500
1763		126.953125
1764		121.093750
1765		128.906250
1766		121.093750
1767		128.906250
1768		123.046875
1769		130.859375
1770		125.000000
1771		132.812500
1772		128.906250
1773		132.812500
1774		130.859375
1775		132.812500
1776		128.906250
1777		136.718750
1778		128.906250
1779		136.718750
1780		130.859375
1781		138.671875
1782		132.812500
1783		140.625000
1784		132.812500
1785		140.625000
1786		132.812500
1787		142.578125
1788		136.718750
1789		140.625000
1790		138.671875
1791		140.625000
1792		136.718750
1793		142.578125
1794		136.718750
1795		144.531250
1796		136.718750
1797		144.531250
1798		136.718750
1799		144.531250
1800		138.671875
1801		144.531250
1802		138.671875
1803		144.531250
1804		138.671875
1805		146.484375
1806		140.625000
1807		142.578125
1808		140.625000
1809		142.578125
1810		138.671875
1811		146.484375
1812		138.671875
1813		144.531250
1814		138.671875
1815		144.531250
1816		136.718750
1817		144.531250
1818		136.718750
1819		144.531250
1820		136.718750
1821		142.578125
1822		136.718750
1823		142.578125
1824		136.718750
1825		140.625000
1826		132.812500
1827		140.625000
1828		132.812500
1829		140.625000
1830		130.859375
1831		138.671875
1832		130.859375
1833		138.671875
1834		128.906250
1835		136.718750
1836		128.906250
1837		136.718750
1838		128.906250
1839		134.765625
1840		126.953125
1841		130.859375
1842		123.046875
1843		130.859375
1844		121.093750
1845		128.906250
1846		119.140625
1847		128.906250
1848		119.140625
1849		126.953125
1850		117.187500
1851		125.000000
1852		115.234375
1853		123.046875
1854		113.281250
1855		121.093750
1856		113.281250
1857		117.187500
1858		111.328125
1859		115.234375
1860		105.468750
1861		113.281250
1862		101.562500
1863		111.328125
1864		101.562500
1865		109.375000
1866		97.656250
1867		107.421875
1868		95.703125
1869		103.515625
1870		91.796875
1871		101.562500
1872		91.796875
1873		99.609375
1874		89.843750
1875		93.750000
1876		85.937500
1877		91.796875
1878		80.078125
1879		89.843750
1880		78.125000
1881		87.890625
1882		74.218750
1883		83.984375
1884		72.265625
1885		80.078125
1886		66.406250
1887		76.171875
1888		66.406250
1889		72.265625
1890		62.500000
1891		68.359375
1892		60.546875
1893		64.453125
1894		54.687500
1895		62.500000
1896		50.781250
1897		60.546875
1898		46.875000
1899		54.687500
1900		42.968750
1901		52.734375
1902		39.062500
1903		48.828125
1904		35.156250
1905		44.921875
1906		33.203125
1907		41.015625
1908		29.296875
1909		33.203125
1910		21.484375
1911		29.296875
1912		19.531250
1913		27.343750
1914		15.625000
1915		23.437500
1916		9.765625
1917		19.531250
1918		5.859375
1919		15.625000
1920		0.000000
1921		11.718750
1922		-1.953125
1923		5.859375
1924		-3.906250
1925		1.953125
1926		-11.718750
1927		-3.906250
1928		-15.625000
1929		-5.859375
1930		-19.531250
1931		-9.765625
1932		-23.437500
1933		-13.671875
1934		-27.343750
1935		-19.531250
1936		-33.203125
1937		-21.484375
1938		-37.109375
1939		-27.343750
1940		-39.062500
1941		-33.203125
1942		-42.968750
1943		-37.109375
1944		-48.828125
1945		-41.015625
1946		-54.687500
1947		-44.921875
1948		-58.593750
1949		-48.828125
1950		-62.500000
1951		-52.734375
1952		-66.406250
1953		-58.593750
1954		-72.265625
1955		-60.546875
1956		-72.265625
1957		-66.406250
1958		-76.171875
1959		-70.312500
1960		-82.031250
1961		-76.171875
1962		-87.890625
1963		-78.125000
1964		-89.843750
1965		-82.031250
1966		-95.703125
1967		-85.937500
1968		-97.656250
1969		-89.843750
1970		-103.515625
1971		-93.750000
1972		-105.468750
1973		-97.656250
1974		-107.421875
1975		-103.515625
1976		-111.328125
1977		-105.468750
1978		-117.187500
1979		-107.421875
1980		-119.140625
1981		-113.281250
1982		-125.000000
1983		-115.234375
1984		-126.953125
1985		-117.187500
1986		-130.859375
1987		-121.093750
1988		-132.812500
1989		-125.000000
1990		-134.765625
1991		-128.906250
1992		-138.671875
1993		-132.812500
1994		-142.578125
1995		-134.765625
1996		-146.484375
1997		-136.718750
1998		-148.437500
1999		-140.625000
2000		-150.390625
2001		-142.578125
2002		-152.343750
2003		-144.531250
2004		-156.250000
2005		-148.437500
2006		-156.250000
2007		-150.390625
2008		-158.203125
2009		-154.296875
2010		-162.109375
2011		-156.250000
2012		-164.062500
2013		-156.250000
2014		-166.015625
2015		-158.203125
2016		-167.968750
2017		-160.156250
2018		-169.921875
2019		-162.109375
2020		-171.875000
2021		-162.109375
2022		-171.875000
2023		-164.062500
2024		-171.875000
2025		-167.968750
2026		-171.875000
2027		-169.921875
2028		-175.781250
2029		-167.968750
2030		-175.781250
2031		-169.921875
2032		-177.734375
2033		-169.921875
2034		-177.734375
2035		-169.921875
2036		-177.734375
2037		-169.921875
2038		-179.687500
2039		-171.875000
2040		-179.687500
2041		-171.875000
2042		-177.734375
2043		-173.828125
2044		-177.734375
2045		-171.875000
2046		-179.687500
2047		-171.875000
2048		-179.687500
2049		-171.875000
2050		-177.734375
2051		-169.921875
2052		-177.734375
2053		-169.921875
2054		-177.734375
2055		-167.968750
2056		-175.781250
2057		-169.921875
2058		-173.828125
2059		-169.921875
2060		-171.875000
2061		-167.968750
2062		-171.875000
2063		-166.015625
2064		-171.875000
2065		-164.062500
2066		-171.875000
2067		-162.109375
2068		-167.968750
2069		-160.156250
2070		-167.968750
2071		-160.156250
2072		-166.015625
2073		-156.250000
2074		-164.062500
2075		-156.250000
2076		-158.203125
2077		-154.296875
2078		-158.203125
2079		-150.390625
2080		-156.250000
2081		-148.437500
2082		-154.296875
2083		-146.484375
2084		-152.343750
2085		-144.531250
2086		-148.437500
2087		-140.625000
2088		-146.484375
2089		-138.671875
2090		-144.531250
2091		-134.765625
2092		-138.671875
2093		-132.812500
2094		-134.765625
2095		-130.859375
2096		-134.765625
2097		-125.000000
2098		-130.859375
2099		-123.046875
2100		-126.953125
2101		-119.140625
2102		-125.000000
2103		-115.234375
2104		-119.140625
2105		-111.328125
2106		-117.187500
2107		-107.421875
2108		-113.281250
2109		-105.468750
2110		-107.421875
2111		-103.515625
2112		-103.515625
2113		-95.703125
2114		-101.562500
2115		-93.750000
2116		-97.656250
2117		-87.890625
2118		-95.703125
2119		-83.984375
2120		-89.843750
2121		-80.078125
2122		-87.890625
2123		-76.171875
2124		-82.031250
2125		-74.218750
2126		-76.171875
2127		-70.312500
2128		-70.312500
2129		-64.453125
2130		-70.312500
2131		-58.593750
2132		-64.453125
2133		-54.687500
2134		-60.546875
2135		-50.781250
2136		-56.640625
2137		-46.875000
2138		-50.781250
2139		-42.968750
2140		-46.875000
2141		-37.109375
2142		-41.015625
2143		-35.156250
2144		-37.109375
2145		-31.250000
2146		-33.203125
2147		-23.437500
2148		-29.296875
2149		-21.484375
2150		-25.390625
2151		-15.625000
2152		-21.484375
2153		-11.718750
2154		-15.625000
2155		-5.859375
2156		-11.718750
2157		-1.953125
2158		-5.859375
2159		0.000000
2160		-1.953125
2161		3.906250
2162		1.953125
2163		11.718750
2164		5.859375
2165		13.671875
2166		7.812500
2167		17.578125
2168		13.671875
2169		23.437500
2170		17.578125
2171		27.343750
2172		21.484375
2173		29.296875
2174		25.390625
2175		33.203125
2176		31.250000
2177		37.109375
2178		35.156250
2179		41.015625
2180		37.109375
2181		46.875000
2182		41.015625
2183		50.781250
2184		42.968750
2185		54.687500
2186		48.828125
2187		58.593750
2188		52.734375
2189		62.500000
2190		56.640625
2191		66.406250
2192		60.546875
2193		66.406250
2194		64.453125
2195		70.312500
2196		68.359375
2197		76.171875
2198		70.312500
2199		78.125000
2200		74.218750
2201		80.078125
2202		76.171875
2203		85.937500
2204		80.078125
2205		87.890625
2206		82.031250
2207		91.796875
2208		85.937500
2209		93.750000
2210		89.843750
2211		95.703125
2212		93.750000
2213		99.609375
2214		93.750000
2215		103.515625
2216		97.656250
2217		105.468750
2218		99.609375
2219		107.421875
2220		101.562500
2221		111.328125
2222		103.515625
2223		113.281250
2224		105.468750
2225		115.234375
2226		111.328125
2227		115.234375
2228		113.281250
2229		117.187500
2230		113.281250
2231		121.093750
2232		115.234375
2233		123.046875
2234		117.187500
2235		125.000000
2236		119.140625
2237		126.953125
2238		119.140625
2239		128.906250
2240		121.093750
2241		130.859375
2242		125.000000
2243		130.859375
2244		126.953125
2245		130.859375
2246		128.906250
2247		132.812500
2248		126.953125
2249		136.718750
2250		128.906250
2251		136.718750
2252		130.859375
2253		138.671875
2254		130.859375
2255		138.671875
2256		130.859375
2257		140.625000
2258		132.812500
2259		140.625000
2260		136.718750
2261		138.671875
2262		136.718750
2263		140.625000
2264		134.765625
2265		144.531250
2266		136.718750
2267		144.531250
2268		136.718750
2269		144.531250
2270		136.718750
2271		144.531250
2272		136.718750
2273		144.531250
2274		138.671875
2275		144.531250
2276		136.718750
2277		144.531250
2278		140.625000
2279		142.578125
2280		138.671875
2281		146.484375
2282		138.671875
2283		146.484375
2284		136.718750
2285		144.531250
2286		136.718750
2287		144.531250
2288		136.718750
2289		144.531250
2290		136.718750
2291		142.578125
2292		136.718750
2293		142.578125
2294		138.671875
2295		140.625000
2296		134.765625
2297		140.625000
2298		134.765625
2299		140.625000
2300		132.812500
2301		140.625000
2302		132.812500
2303		138.671875
2304		130.859375
2305		138.671875
2306		128.906250
2307		136.718750
2308		128.906250
2309		136.718750
2310		128.906250
2311		132.812500
2312		128.906250
2313		130.859375
2314		123.046875
2315		130.859375
2316		123.046875
2317		130.859375
2318		121.093750
2319		128.906250
2320		119.140625
2321		126.953125
2322		117.187500
2323		125.000000
2324		115.234375
2325		123.046875
2326		115.234375
2327		121.093750
2328		113.281250
2329		117.187500
2330		109.375000
2331		115.234375
2332		105.468750
2333		115.234375
2334		105.468750
2335		111.328125
2336		101.562500
2337		109.375000
2338		99.609375
2339		107.421875
2340		95.703125
2341		105.468750
2342		93.750000
2343		103.515625
2344		93.750000
2345		97.656250
2346		89.843750
2347		95.703125
2348		83.984375
2349		93.750000
2350		82.031250
2351		91.796875
2352		80.078125
2353		87.890625
2354		76.171875
2355		83.984375
2356		72.265625
2357		82.031250
2358		68.359375
2359		78.125000
2360		68.359375
2361		76.171875
2362		64.453125
2363		70.312500
2364		58.593750
2365		66.406250
2366		56.640625
2367		64.453125
2368		50.781250
2369		60.546875
2370		46.875000
2371		56.640625
2372		44.921875
2373		52.734375
2374		41.015625
2375		48.828125
2376		39.062500
2377		44.921875
2378		35.156250
2379		39.062500
2380		27.343750
2381		35.156250
2382		25.390625
2383		33.203125
2384		19.531250
2385		29.296875
2386		15.625000
2387		25.390625
2388		11.718750
2389		21.484375
2390		7.812500
2391		15.625000
2392		3.906250
2393		11.718750
2394		1.953125
2395		7.812500
2396		-1.953125
2397		1.953125
2398		-9.765625
2399		-1.953125
2400		-13.671875
2401		-3.906250
2402		-17.578125
2403		-7.812500
2404		-21.484375
2405		-11.718750
2406		-27.343750
2407		-15.625000
2408		-31.250000
2409		-21.484375
2410		-33.203125
2411		-25.390625
2412		-37.109375
2413		-31.250000
2414		-44.921875
2415		-35.156250
2416		-48.828125
2417		-37.109375
2418		-52.734375
2419		-42.968750
2420		-54.687500
2421		-46.875000
2422		-60.546875
2423		-52.734375
2424		-66.406250
2425		-56.640625
2426		-68.359375
2427		-58.593750
2428		-72.265625
2429		-66.406250
2430		-76.171875
2431		-70.312500
2432		-82.031250
2433		-72.265625
2434		-87.890625
2435		-76.171875
2436		-89.843750
2437		-80.078125
2438		-93.750000
2439		-83.984375
2440		-97.656250
2441		-87.890625
2442		-101.562500
2443		-91.796875
2444		-103.515625
2445		-95.703125
2446		-107.421875
2447		-101.562500
2448		-113.281250
2449		-105.468750
2450		-117.187500
2451		-105.468750
2452		-119.140625
2453		-109.375000
2454		-123.046875
2455		-115.234375
2456		-126.953125
2457		-117.187500
2458		-130.859375
2459		-121.093750
2460		-132.812500
2461		-125.000000
2462		-134.765625
2463		-128.906250
2464		-138.671875
2465		-132.812500
2466		-142.578125
2467		-132.812500
2468		-146.484375
2469		-136.718750
2470		-148.437500
2471		-138.671875
2472		-150.390625
2473		-142.578125
2474		-152.343750
2475		-144.531250
2476		-156.250000
2477		-146.484375
2478		-156.250000
2479		-150.390625
2480		-158.203125
2481		-154.296875
2482		-162.109375
2483		-154.296875
2484		-164.062500
2485		-156.250000
2486		-166.015625
2487		-158.203125
2488		-167.968750
2489		-160.156250
2490		-167.968750
2491		-162.109375
2492		-171.875000
2493		-164.062500
2494		-171.875000
2495		-166.015625
2496		-171.875000
2497		-167.968750
2498		-173.828125
2499		-167.968750
2500		-175.781250
2501		-167.968750
2502		-175.781250
2503		-169.921875
2504		-177.734375
2505		-169.921875
2506		-177.734375
2507		-171.875000
2508		-179.687500
2509		-171.875000
2510		-179.687500
2511		-171.875000
2512		-177.734375
2513		-173.828125
2514		-177.734375
2515		-175.781250
2516		-179.687500
2517		-173.828125
2518		-179.687500
2519		-171.875000
2520		-179.687500
2521		-171.875000
2522		-179.687500
2523		-171.875000
2524		-179.687500
2525		-171.875000
2526		-177.734375
2527		-171.875000
2528		-175.781250
2529		-171.875000
2530		-173.828125
2531		-171.875000
2532		-175.781250
2533		-167.968750
2534		-175.781250
2535		-167.968750
2536		-173.828125
2537		-166.015625
2538		-171.875000
2539		-164.062500
2540		-169.921875
2541		-162.109375
2542		-169.921875
2543		-160.156250
2544		-167.968750
2545		-160.156250
2546		-162.109375
2547		-158.203125
2548		-160.156250
2549		-154.296875
2550		-162.109375
2551		-152.343750
2552		-158.203125
2553		-150.390625
2554		-156.250000
2555		-148.437500
2556		-154.296875
2557		-144.531250
2558		-150.390625
2559		-142.578125
2560		-148.437500
2561		-140.625000
2562		-142.578125
2563		-138.671875
2564		-140.625000
2565		-136.718750
2566		-138.671875
2567		-130.859375
2568		-136.718750
2569		-126.953125
2570		-134.765625
2571		-125.000000
2572		-128.906250
2573		-121.093750
2574		-126.953125
2575		-117.187500
2576		-123.046875
2577		-115.234375
2578		-119.140625
2579		-111.328125
2580		-113.281250
2581		-109.375000
2582		-109.375000
2583		-101.562500
2584		-107.421875
2585		-99.609375
2586		-103.515625
2587		-95.703125
2588		-101.562500
2589		-91.796875
2590		-97.656250
2591		-87.890625
2592		-91.796875
2593		-82.031250
2594		-87.890625
2595		-80.078125
2596		-82.031250
2597		-76.171875
2598		-78.125000
2599		-72.265625
2600		-74.218750
2601		-66.406250
2602		-72.265625
2603		-62.500000
2604		-68.359375
2605		-56.640625
2606		-62.500000
2607		-52.734375
2608		-58.593750
2609		-46.875000
2610		-54.687500
2611		-44.921875
2612		-50.781250
2613		-41.015625
2614		-42.968750
2615		-37.109375
2616		-39.062500
2617		-31.250000
2618		-35.156250
2619		-27.343750
2620		-31.250000
2621		-23.437500
2622		-27.343750
2623		-19.531250
2624		-23.437500
2625		-13.671875
2626		-19.531250
2627		-7.812500
2628		-13.671875
2629		-5.859375
2630		-7.812500
2631		-1.953125
2632		-3.906250
2633		1.953125
2634		-1.953125
2635		7.812500
2636		1.953125
2637		11.718750
2638		7.812500
2639		15.625000
2640		11.718750
2641		19.531250
2642		15.625000
2643		23.437500
2644		19.531250
2645		29.296875
2646		25.390625
2647		31.250000
2648		29.296875
2649		35.156250
2650		33.203125
2651		41.015625
2652		35.156250
2653		44.921875
2654		39.062500
2655		48.828125
2656		42.968750
2657		52.734375
2658		46.875000
2659		54.687500
2660		48.828125
2661		60.546875
2662		54.687500
2663		62.500000
2664		60.546875
2665		64.453125
2666		64.453125
2667		70.312500
2668		64.453125
2669		74.218750
2670		68.359375
2671		76.171875
2672		70.312500
2673		80.078125
2674		74.218750
2675		83.984375
2676		78.125000
2677		85.937500
2678		80.078125
2679		87.890625
2680		85.937500
2681		89.843750
2682		87.890625
2683		93.750000
2684		89.843750
2685		97.656250
2686		91.796875
2687		101.562500
2688		95.703125
2689		103.515625
2690		97.656250
2691		107.421875
2692		101.562500
2693		109.375000
2694		103.515625
2695		111.328125
2696		105.468750
2697		111.328125
2698		109.375000
2699		113.281250
2700		109.375000
2701		119.140625
2702		113.281250
2703		121.093750
2704		113.281250
2705		121.093750
2706		115.234375
2707		123.046875
2708		117.187500
2709		126.953125
2710		119.140625
2711		128.906250
2712		121.093750
2713		128.906250
2714		125.000000
2715		128.906250
2716		126.953125
2717		130.859375
2718		126.953125
2719		134.765625
2720		128.906250
2721		136.718750
2722		128.906250
2723		136.718750
2724		130.859375
2725		138.671875
2726		130.859375
2727		138.671875
2728		132.812500
2729		140.625000
2730		134.765625
2731		138.671875
2732		136.718750
2733		140.625000
2734		134.765625
2735		142.578125
2736		134.765625
2737		142.578125
2738		136.718750
2739		144.531250
2740		136.718750
2741		144.531250
2742		136.718750
2743		144.531250
2744		138.671875
2745		144.531250
2746		138.671875
2747		146.484375
2748		140.625000
2749		144.531250
2750		140.625000
2751		146.484375
2752		138.671875
2753		146.484375
2754		138.671875
2755		146.484375
2756		138.671875
2757		146.484375
2758		138.671875
2759		146.484375
2760		138.671875
2761		146.484375
2762		138.671875
2763		146.484375
2764		140.625000
2765		142.578125
2766		138.671875
2767		142.578125
2768		136.718750
2769		144.531250
2770		136.718750
2771		142.578125
2772		134.765625
2773		142.578125
2774		132.812500
2775		142.578125
2776		132.812500
2777		140.625000
2778		130.859375
2779		138.671875
2780		130.859375
2781		138.671875
2782		130.859375
2783		134.765625
2784		128.906250
2785		134.765625
2786		126.953125
2787		134.765625
2788		125.000000
2789		132.812500
2790		123.046875
2791		130.859375
2792		121.093750
2793		128.906250
2794		119.140625
2795		126.953125
2796		119.140625
2797		125.000000
2798		119.140625
2799		121.093750
2800		117.187500
2801		119.140625
2802		111.328125
2803		119.140625
2804		109.375000
2805		117.187500
2806		107.421875
2807		115.234375
2808		103.515625
2809		113.281250
2810		101.562500
2811		111.328125
2812		99.609375
2813		107.421875
2814		99.609375
2815		105.468750
2816		95.703125
2817		101.562500
2818		91.796875
2819		99.609375
2820		89.843750
2821		97.656250
2822		85.937500
2823		93.750000
2824		82.031250
2825		91.796875
2826		78.125000
2827		87.890625
2828		76.171875
2829		85.937500
2830		74.218750
2831		82.031250
2832		72.265625
2833		76.171875
2834		66.406250
2835		74.218750
2836		62.500000
2837		72.265625
2838		58.593750
2839		68.359375
2840		54.687500
2841		64.453125
2842		52.734375
2843		60.546875
2844		46.875000
2845		56.640625
2846		42.968750
2847		54.687500
2848		42.968750
2849		48.828125
2850		39.062500
2851		42.968750
2852		31.250000
2853		41.015625
2854		27.343750
2855		39.062500
2856		23.437500
2857		33.203125
2858		21.484375
2859		29.296875
2860		15.625000
2861		25.390625
2862		11.718750
2863		21.484375
2864		9.765625
2865		17.578125
2866		5.859375
2867		11.718750
2868		0.000000
2869		7.812500
2870		-5.859375
2871		3.906250
2872		-9.765625
2873		0.000000
2874		-13.671875
2875		-3.906250
2876		-17.578125
2877		-7.812500
2878		-21.484375
2879		-11.718750
2880		-25.390625
2881		-17.578125
2882		-29.296875
2883		-23.437500
2884		-33.203125
2885		-27.343750
2886		-39.062500
2887		-31.250000
2888		-42.968750
2889		-33.203125
2890		-48.828125
2891		-39.062500
2892		-52.734375
2893		-42.968750
2894		-56.640625
2895		-46.875000
2896		-60.546875
2897		-50.781250
2898		-62.500000
2899		-56.640625
2900		-66.406250
2901		-60.546875
2902		-74.218750
2903		-64.453125
2904		-76.171875
2905		-66.406250
2906		-82.031250
2907		-72.265625
2908		-83.984375
2909		-76.171875
2910		-89.843750
2911		-80.078125
2912		-93.750000
2913		-83.984375
2914		-95.703125
2915		-87.890625
2916		-99.609375
2917		-93.750000
2918		-103.515625
2919		-97.656250
2920		-109.375000
2921		-99.609375
2922		-111.328125
2923		-103.515625
2924		-115.234375
2925		-107.421875
2926		-119.140625
2927		-109.375000
2928		-123.046875
2929		-113.281250
2930		-125.000000
2931		-117.187500
2932		-126.953125
2933		-123.046875
2934		-130.859375
2935		-125.000000
2936		-136.718750
2937		-128.906250
2938		-138.671875
2939		-128.906250
2940		-142.578125
2941		-132.812500
2942		-144.531250
2943		-136.718750
2944		-148.437500
2945		-138.671875
2946		-152.343750
2947		-140.625000
2948		-150.390625
2949		-144.531250
2950		-152.343750
2951		-148.437500
2952		-158.203125
2953		-150.390625
2954		-158.203125
2955		-150.390625
2956		-162.109375
2957		-152.343750
2958		-164.062500
2959		-156.250000
2960		-166.015625
2961		-156.250000
2962		-167.968750
2963		-160.156250
2964		-167.968750
2965		-160.156250
2966		-167.968750
2967		-164.062500
2968		-169.921875
2969		-166.015625
2970		-171.875000
2971		-166.015625
2972		-173.828125
2973		-166.015625
2974		-175.781250
2975		-167.968750
2976		-177.734375
2977		-167.968750
2978		-177.734375
2979		-169.921875
2980		-177.734375
2981		-169.921875
2982		-177.734375
2983		-171.875000
2984		-175.781250
2985		-173.828125
2986		-179.687500
2987		-171.875000
2988		-179.687500
2989		-171.875000
2990		-179.687500
2991		-171.875000
2992		-179.687500
2993		-171.875000
2994		-179.687500
2995		-171.875000
2996		-177.734375
2997		-171.875000
2998		-177.734375
2999		-169.921875
3000		-175.781250
3001		-171.875000
3002		-175.781250
3003		-169.921875
3004		-175.781250
3005		-167.968750
3006		-175.781250
3007		-167.968750
3008		-173.828125
3009		-166.015625
3010		-173.828125
3011		-164.062500
3012		-171.875000
3013		-164.062500
3014		-169.921875
3015		-162.109375
3016		-166.015625
3017		-162.109375
3018		-164.062500
3019		-160.156250
3020		-164.062500
3021		-156.250000
3022		-162.109375
3023		-154.296875
3024		-160.156250
3025		-152.343750
3026		-158.203125
3027		-150.390625
3028		-156.250000
3029		-146.484375
3030		-154.296875
3031		-144.531250
3032		-148.437500
3033		-144.531250
3034		-144.531250
3035		-140.625000
3036		-142.578125
3037		-134.765625
3038		-142.578125
3039		-134.765625
3040		-140.625000
3041		-128.906250
3042		-134.765625
3043		-126.953125
3044		-132.812500
3045		-125.000000
3046		-128.906250
3047		-121.093750
3048		-125.000000
3049		-117.187500
3050		-119.140625
3051		-115.234375
3052		-117.187500
3053		-111.328125
3054		-113.281250
3055		-105.468750
3056		-111.328125
3057		-101.562500
3058		-105.468750
3059		-97.656250
3060		-103.515625
3061		-93.750000
3062		-99.609375
3063		-89.843750
3064		-95.703125
3065		-85.937500
3066		-91.796875
3067		-83.984375
3068		-85.937500
3069		-80.078125
3070		-82.031250
3071		-72.265625
3072		-80.078125
3073		-70.312500
3074		-76.171875
3075		-64.453125
3076		-70.312500
3077		-60.546875
3078		-66.406250
3079		-56.640625
3080		-62.500000
3081		-52.734375
3082		-56.640625
3083		-48.828125
3084		-50.781250
3085		-44.921875
3086		-46.875000
3087		-39.062500
3088		-42.968750
3089		-33.203125
3090		-39.062500
3091		-29.296875
3092		-37.109375
3093		-25.390625
3094		-31.250000
3095		-21.484375
3096		-27.343750
3097		-17.578125
3098		-21.484375
3099		-13.671875
3100		-15.625000
3101		-9.765625
3102		-11.718750
3103		-5.859375
3104		-9.765625
3105		0.000000
3106		-5.859375
3107		3.906250
3108		-1.953125
3109		9.765625
3110		3.906250
3111		13.671875
3112		7.812500
3113		17.578125
3114		13.671875
3115		21.484375
3116		15.625000
3117		23.437500
3118		23.437500
3119		27.343750
3120		27.343750
3121		35.156250
3122		29.296875
3123		39.062500
3124		33.203125
3125		42.968750
3126		35.156250
3127		44.921875
3128		39.062500
3129		48.828125
3130		42.968750
3131		52.734375
3132		48.828125
3133		56.640625
3134		52.734375
3135		58.593750
3136		56.640625
3137		62.500000
3138		58.593750
3139		66.406250
3140		62.500000
3141		72.265625
3142		64.453125
3143		74.218750
3144		70.312500
3145		78.125000
3146		72.265625
3147		80.078125
3148		76.171875
3149		85.937500
3150		78.125000
3151		85.937500
3152		83.984375
3153		87.890625
3154		85.937500
3155		93.750000
3156		87.890625
3157		97.656250
3158		89.843750
3159		99.609375
3160		93.750000
3161		101.562500
3162		95.703125
3163		105.468750
3164		97.656250
3165		107.421875
3166		101.562500
3167		109.375000
3168		105.468750
3169		109.375000
3170		107.421875
3171		113.281250
3172		107.421875
3173		117.187500
3174		109.375000
3175		117.187500
3176		111.328125
3177		121.093750
3178		115.234375
3179		123.046875
3180		117.187500
3181		125.000000
3182		119.140625
3183		126.953125
3184		123.046875
3185		126.953125
3186		125.000000
3187		126.953125
3188		123.046875
3189		130.859375
3190		125.000000
3191		132.812500
3192		125.000000
3193		134.765625
3194		128.906250
3195		136.718750
3196		128.906250
3197		136.718750
3198		130.859375
3199		138.671875
3200		130.859375
3201		138.671875
3202		134.765625
3203		138.671875
3204		134.765625
3205		140.625000
3206		134.765625
3207		142.578125
3208		134.765625
3209		142.578125
3210		136.718750
3211		142.578125
3212		136.718750
3213		142.578125
3214		136.718750
3215		144.531250
3216		136.718750
3217		144.531250
3218		140.625000
3219		142.578125
3220		140.625000
3221		142.578125
3222		138.671875
3223		146.484375
3224		138.671875
3225		146.484375
3226		138.671875
3227		146.484375
3228		138.671875
3229		144.531250
3230		138.671875
3231		144.531250
3232		138.671875
3233		144.531250
3234		138.671875
3235		144.531250
3236		140.625000
3237		142.578125
3238		136.718750
3239		144.531250
3240		136.718750
3241		144.531250
3242		136.718750
3243		142.578125
3244		134.765625
3245		142.578125
3246		134.765625
3247		142.578125
3248		132.812500
3249		140.625000
3250		132.812500
3251		138.671875
3252		132.812500
3253		136.718750
3254		130.859375
3255		134.765625
3256		128.906250
3257		136.718750
3258		126.953125
3259		134.765625
3260		125.000000
3261		132.812500
3262		123.046875
3263		130.859375
3264		123.046875
3265		128.906250
3266		119.140625
3267		128.906250
3268		121.093750
3269		125.000000
3270		119.140625
3271		123.046875
3272		115.234375
3273		123.046875
3274		113.281250
3275		121.093750
3276		111.328125
3277		119.140625
3278		109.375000
3279		117.187500
3280		105.468750
3281		115.234375
3282		103.515625
3283		111.328125
3284		101.562500
3285		109.375000
3286		99.609375
3287		105.468750
3288		97.656250
3289		101.562500
3290		93.750000
3291		101.562500
3292		89.843750
3293		99.609375
3294		85.937500
3295		95.703125
3296		83.984375
3297		93.750000
3298		82.031250
3299		89.843750
3300		78.125000
3301		85.937500
3302		76.171875
3303		82.031250
3304		74.218750
3305		78.125000
3306		66.406250
3307		76.171875
3308		64.453125
3309		72.265625
3310		60.546875
3311		70.312500
3312		56.640625
3313		66.406250
3314		54.687500
3315		62.500000
3316		48.828125
3317		58.593750
3318		48.828125
3319		54.687500
3320		44.921875
3321		48.828125
3322		39.062500
3323		44.921875
3324		35.156250
3325		42.968750
3326		31.250000
3327		39.062500
3328		27.343750
3329		35.156250
3330		21.484375
3331		31.250000
3332		19.531250
3333		27.343750
3334		15.625000
3335		23.437500
3336		11.718750
3337		17.578125
3338		7.812500
3339		13.671875
3340		1.953125
3341		11.718750
3342		-3.906250
3343		5.859375
3344		-7.812500
3345		1.953125
3346		-11.718750
3347		-1.953125
3348		-15.625000
3349		-5.859375
3350		-19.531250
3351		-9.765625
3352		-21.484375
3353		-15.625000
3354		-27.343750
3355		-21.484375
3356		-33.203125
3357		-25.390625
3358		-37.109375
3359		-27.343750
3360		-42.968750
3361		-31.250000
3362		-46.875000
3363		-35.156250
3364		-48.828125
3365		-41.015625
3366		-54.687500
3367		-44.921875
3368		-56.640625
3369		-48.828125
3370		-60.546875
3371		-54.687500
3372		-66.406250
3373		-58.593750
3374		-70.312500
3375		-62.500000
3376		-76.171875
3377		-66.406250
3378		-78.125000
3379		-70.312500
3380		-83.984375
3381		-74.218750
3382		-85.937500
3383		-78.125000
3384		-91.796875
3385		-82.031250
3386		-91.796875
3387		-87.890625
3388		-97.656250
3389		-91.796875
3390		-103.515625
3391		-93.750000
3392		-107.421875
3393		-97.656250
3394		-109.375000
3395		-99.609375
3396		-113.281250
3397		-103.515625
3398		-117.187500
3399		-109.375000
3400		-121.093750
3401		-111.328125
3402		-121.093750
3403		-115.234375
3404		-125.000000
3405		-121.093750
3406		-130.859375
3407		-123.046875
3408		-132.812500
3409		-123.046875
3410		-136.718750
3411		-128.906250
3412		-140.625000
3413		-130.859375
3414		-142.578125
3415		-134.765625
3416		-146.484375
3417		-136.718750
3418		-148.437500
3419		-140.625000
3420		-148.437500
3421		-144.531250
3422		-150.390625
3423		-146.484375
3424		-156.250000
3425		-148.437500
3426		-158.203125
3427		-148.437500
3428		-160.156250
3429		-152.343750
3430		-162.109375
3431		-154.296875
3432		-164.062500
3433		-156.250000
3434		-166.015625
3435		-158.203125
3436		-166.015625
3437		-160.156250
3438		-166.015625
3439		-164.062500
3440		-169.921875
3441		-164.062500
3442		-171.875000
3443		-164.062500
3444		-171.875000
3445		-166.015625
3446		-173.828125
3447		-166.015625
3448		-175.781250
3449		-167.968750
3450		-175.781250
3451		-167.968750
3452		-175.781250
3453		-169.921875
3454		-173.828125
3455		-171.875000
3456		-175.781250
3457		-171.875000
3458		-177.734375
3459		-169.921875
3460		-177.734375
3461		-169.921875
3462		-177.734375
3463		-171.875000
3464		-177.734375
3465		-171.875000
3466		-177.734375
3467		-169.921875
3468		-177.734375
3469		-169.921875
3470		-173.828125
3471		-171.875000
3472		-173.828125
3473		-171.875000
3474		-175.781250
3475		-167.968750
3476		-175.781250
3477		-167.968750
3478		-173.828125
3479		-167.968750
3480		-173.828125
3481		-164.062500
3482		-171.875000
3483		-164.062500
3484		-171.875000
3485		-162.109375
3486		-169.921875
3487		-162.109375
3488		-166.015625
3489		-162.109375
3490		-164.062500
3491		-158.203125
3492		-164.062500
3493		-156.250000
3494		-162.109375
3495		-154.296875
3496		-160.156250
3497		-150.390625
3498		-158.203125
3499		-150.390625
3500		-156.250000
3501		-146.484375
3502		-152.343750
3503		-144.531250
3504		-148.437500
3505		-144.531250
3506		-144.531250
3507		-140.625000
3508		-144.531250
3509		-136.718750
3510		-142.578125
3511		-132.812500
3512		-140.625000
3513		-130.859375
3514		-136.718750
3515		-126.953125
3516		-132.812500
3517		-125.000000
3518		-128.906250
3519		-119.140625
3520		-126.953125
3521		-119.140625
3522		-121.093750
3523		-115.234375
3524		-117.187500
3525		-109.375000
3526		-115.234375
3527		-105.468750
3528		-111.328125
3529		-103.515625
3530		-109.375000
3531		-99.609375
3532		-105.468750
3533		-95.703125
3534		-99.609375
3535		-91.796875
3536		-97.656250
3537		-89.843750
3538		-89.843750
3539		-83.984375
3540		-85.937500
3541		-80.078125
3542		-83.984375
3543		-74.218750
3544		-80.078125
3545		-70.312500
3546		-76.171875
3547		-66.406250
3548		-72.265625
3549		-62.500000
3550		-66.406250
3551		-56.640625
3552		-62.500000
3553		-54.687500
3554		-56.640625
3555		-50.781250
3556		-52.734375
3557		-46.875000
3558		-48.828125
3559		-41.015625
3560		-44.921875
3561		-35.156250
3562		-41.015625
3563		-31.250000
3564		-37.109375
3565		-27.343750
3566		-33.203125
3567		-23.437500
3568		-27.343750
3569		-17.578125
3570		-23.437500
3571		-15.625000
3572		-17.578125
3573		-11.718750
3574		-11.718750
3575		-5.859375
3576		-9.765625
3577		0.000000
3578		-7.812500
3579		3.906250
3580		-1.953125
3581		7.812500
3582		1.953125
3583		11.718750
3584		7.812500
3585		15.625000
3586		9.765625
3587		19.531250
3588		17.578125
3589		23.437500
3590		21.484375
3591		27.343750
3592		23.437500
3593		33.203125
3594		27.343750
3595		37.109375
3596		31.250000
3597		41.015625
3598		35.156250
3599		44.921875
3600		39.062500
3601		48.828125
3602		42.968750
3603		50.781250
3604		46.875000
3605		54.687500
3606		52.734375
3607		56.640625
3608		54.687500
3609		62.500000
3610		56.640625
3611		66.406250
3612		60.546875
3613		70.312500
3614		64.453125
3615		72.265625
3616		68.359375
3617		76.171875
3618		72.265625
3619		80.078125
3620		74.218750
3621		82.031250
3622		80.078125
3623		83.984375
3624		83.984375
3625		87.890625
3626		83.984375
3627		93.750000
3628		85.937500
3629		95.703125
3630		89.843750
3631		99.609375
3632		91.796875
3633		101.562500
3634		95.703125
3635		103.515625
3636		97.656250
3637		105.468750
3638		103.515625
3639		107.421875
3640		105.468750
3641		109.375000
3642		107.421875
3643		113.281250
3644		107.421875
3645		115.234375
3646		109.375000
3647		119.140625
3648		111.328125
3649		119.140625
3650		113.281250
3651		123.046875
3652		115.234375
3653		125.000000
3654		119.140625
3655		125.000000
3656		123.046875
3657		125.000000
3658		123.046875
3659		128.906250
3660		123.046875
3661		130.859375
3662		125.000000
3663		132.812500
3664		126.953125
3665		132.812500
3666		126.953125
3667		134.765625
3668		128.906250
3669		136.718750
3670		128.906250
3671		136.718750
3672		134.765625
3673		136.718750
3674		134.765625
3675		138.671875
3676		132.812500
3677		140.625000
3678		134.765625
3679		142.578125
3680		134.765625
3681		142.578125
3682		136.718750
3683		144.531250
3684		136.718750
3685		144.531250
3686		136.718750
3687		144.531250
3688		136.718750
3689		144.531250
3690		140.625000
3691		142.578125
3692		138.671875
3693		144.531250
3694		138.671875
3695		146.484375
3696		136.718750
3697		146.484375
3698		138.671875
3699		146.484375
3700		138.671875
3701		144.531250
3702		138.671875
3703		146.484375
3704		138.671875
3705		144.531250
3706		140.625000
3707		142.578125
3708		138.671875
3709		144.531250
3710		136.718750
3711		144.531250
3712		136.718750
3713		144.531250
3714		134.765625
3715		142.578125
3716		134.765625
3717		142.578125
3718		134.765625
3719		140.625000
3720		132.812500
3721		140.625000
3722		134.765625
3723		138.671875
3724		134.765625
3725		136.718750
3726		130.859375
3727		136.718750
3728		128.906250
3729		136.718750
3730		126.953125
3731		134.765625
3732		125.000000
3733		134.765625
3734		125.000000
3735		132.812500
3736		123.046875
3737		132.812500
3738		123.046875
3739		128.906250
3740		123.046875
3741		125.000000
3742		117.187500
3743		125.000000
3744		115.234375
3745		125.000000
3746		113.281250
3747		123.046875
3748		111.328125
3749		119.140625
3750		109.375000
3751		117.187500
3752		107.421875
3753		115.234375
3754		105.468750
3755		113.281250
3756		105.468750
3757		109.375000
3758		101.562500
3759		107.421875
3760		97.656250
3761		105.468750
3762		95.703125
3763		103.515625
3764		91.796875
3765		99.609375
3766		87.890625
3767		97.656250
3768		85.937500
3769		93.750000
3770		82.031250
3771		91.796875
3772		82.031250
3773		87.890625
3774		78.125000
3775		83.984375
3776		72.265625
3777		80.078125
3778		68.359375
3779		80.078125
3780		66.406250
3781		76.171875
3782		62.500000
3783		72.265625
3784		58.593750
3785		68.359375
3786		54.687500
3787		64.453125
3788		52.734375
3789		60.546875
3790		50.781250
3791		56.640625
3792		44.921875
3793		52.734375
3794		41.015625
3795		48.828125
3796		37.109375
3797		46.875000
3798		33.203125
3799		42.968750
3800		29.296875
3801		37.109375
3802		25.390625
3803		35.156250
3804		19.531250
3805		31.250000
3806		17.578125
3807		23.437500
3808		15.625000
3809		19.531250
3810		9.765625
3811		17.578125
3812		3.906250
3813		13.671875
3814		0.000000
3815		9.765625
3816		-3.906250
3817		5.859375
3818		-7.812500
3819		0.000000
3820		-13.671875
3821		-3.906250
3822		-15.625000
3823		-7.812500
3824		-19.531250
3825		-13.671875
3826		-25.390625
3827		-17.578125
3828		-31.250000
3829		-19.531250
3830		-35.156250
3831		-25.390625
3832		-39.062500
3833		-29.296875
3834		-42.968750
3835		-31.250000
3836		-48.828125
3837		-37.109375
3838		-50.781250
3839		-42.968750
3840		-54.687500
3841		-48.828125
3842		-58.593750
3843		-52.734375
3844		-64.453125
3845		-56.640625
3846		-68.359375
3847		-58.593750
3848		-72.265625
3849		-62.500000
3850		-76.171875
3851		-66.406250
3852		-80.078125
3853		-70.312500
3854		-83.984375
3855		-76.171875
3856		-85.937500
3857		-80.078125
3858		-89.843750
3859		-85.937500
3860		-97.656250
3861		-87.890625
3862		-101.562500
3863		-91.796875
3864		-103.515625
3865		-95.703125
3866		-109.375000
3867		-97.656250
3868		-111.328125
3869		-101.562500
3870		-115.234375
3871		-105.468750
3872		-117.187500
3873		-109.375000
3874		-119.140625
3875		-115.234375
3876		-123.046875
3877		-117.187500
3878		-128.906250
3879		-119.140625
3880		-130.859375
3881		-123.046875
3882		-134.765625
3883		-126.953125
3884		-136.718750
3885		-128.906250
3886		-140.625000
3887		-130.859375
3888		-142.578125
3889		-134.765625
3890		-144.531250
3891		-138.671875
3892		-146.484375
3893		-142.578125
3894		-150.390625
3895		-142.578125
3896		-152.343750
3897		-144.531250
3898		-156.250000
3899		-148.437500
3900		-158.203125
3901		-150.390625
3902		-160.156250
3903		-152.343750
3904		-162.109375
3905		-154.296875
3906		-162.109375
3907		-156.250000
3908		-164.062500
3909		-160.156250
3910		-166.015625
3911		-162.109375
3912		-167.968750
3913		-160.156250
3914		-169.921875
3915		-162.109375
3916		-171.875000
3917		-164.062500
3918		-173.828125
3919		-166.015625
3920		-173.828125
3921		-166.015625
3922		-175.781250
3923		-166.015625
3924		-173.828125
3925		-169.921875
3926		-173.828125
3927		-169.921875
3928		-175.781250
3929		-169.921875
3930		-177.734375
3931		-169.921875
3932		-177.734375
3933		-169.921875
3934		-177.734375
3935		-169.921875
3936		-177.734375
3937		-169.921875
3938		-177.734375
3939		-169.921875
3940		-177.734375
3941		-169.921875
3942		-173.828125
3943		-171.875000
3944		-175.781250
3945		-167.968750
3946		-175.781250
3947		-167.968750
3948		-175.781250
3949		-167.968750
3950		-173.828125
3951		-167.968750
3952		-173.828125
3953		-166.015625
3954		-171.875000
3955		-164.062500
3956		-171.875000
3957		-164.062500
3958		-166.015625
3959		-164.062500
3960		-166.015625
3961		-162.109375
3962		-166.015625
3963		-158.203125
3964		-164.062500
3965		-156.250000
3966		-162.109375
3967		-154.296875
3968		-160.156250
3969		-152.343750
3970		-158.203125
3971		-150.390625
3972		-156.250000
3973		-146.484375
3974		-150.390625
3975		-146.484375
3976		-148.437500
3977		-144.531250
3978		-146.484375
3979		-140.625000
3980		-146.484375
3981		-136.718750
3982		-142.578125
3983		-134.765625
3984		-138.671875
3985		-130.859375
3986		-138.671875
3987		-126.953125
3988		-134.765625
3989		-125.000000
3990		-130.859375
3991		-123.046875
3992		-125.000000
3993		-121.093750
3994		-121.093750
3995		-115.234375
3996		-121.093750
3997		-111.328125
3998		-117.187500
3999		-107.421875
4000		-113.281250
4001		-103.515625
4002		-109.375000
4003		-101.562500
4004		-105.468750
4005		-95.703125
4006		-103.515625
4007		-91.796875
4008		-95.703125
4009		-89.843750
4010		-91.796875
4011		-85.937500
4012		-87.890625
4013		-80.078125
4014		-85.937500
4015		-76.171875
4016		-82.031250
4017		-72.265625
4018		-78.125000
4019		-68.359375
4020		-72.265625
4021		-62.500000
4022		-70.312500
4023		-60.546875
4024		-64.453125
4025		-56.640625
4026		-58.593750
4027		-52.734375
4028		-54.687500
4029		-46.875000
4030		-50.781250
4031		-41.015625
4032		-46.875000
4033		-37.109375
4034		-42.968750
4035		-33.203125
4036		-39.062500
4037		-27.343750
4038		-33.203125
4039		-25.390625
4040		-31.250000
4041		-21.484375
4042		-23.437500
4043		-17.578125
4044		-19.531250
4045		-13.671875
4046		-15.625000
4047		-7.812500
4048		-11.718750
4049		-1.953125
4050		-7.812500
4051		3.906250
4052		-3.906250
4053		5.859375
4054		1.953125
4055		9.765625
4056		5.859375
4057		15.625000
4058		11.718750
4059		17.578125
4060		15.625000
4061		21.484375
4062		19.531250
4063		25.390625
4064		21.484375
4065		31.250000
4066		27.343750
4067		35.156250
4068		29.296875
4069		37.109375
4070		33.203125
4071		42.968750
4072		37.109375
4073		46.875000
4074		42.968750
4075		48.828125
4076		46.875000
4077		52.734375
4078		50.781250
4079		56.640625
4080		52.734375
4081		62.500000
4082		56.640625
4083		66.406250
4084		60.546875
4085		68.359375
4086		62.500000
4087		72.265625
4088		66.406250
4089		76.171875
4090		70.312500
4091		78.125000
4092		76.171875
4093		80.078125
4094		78.125000
4095		83.984375
4096		82.031250
4097		87.890625
4098		82.031250
4099		91.796875
4100		85.937500
4101		93.750000
4102		87.890625
4103		97.656250
4104		91.796875
4105		99.609375
4106		93.750000
4107		103.515625
4108		97.656250
4109		103.515625
4110		101.562500
4111		105.468750
4112		103.515625
4113		109.375000
4114		103.515625
4115		113.281250
4116		105.468750
4117		115.234375
4118		109.375000
4119		117.187500
4120		111.328125
4121		119.140625
4122		113.281250
4123		121.093750
4124		115.234375
4125		123.046875
4126		119.140625
4127		123.046875
4128		121.093750
4129		125.000000
4130		121.093750
4131		130.859375
4132		123.046875
4133		130.859375
4134		123.046875
4135		130.859375
4136		125.000000
4137		134.765625
4138		126.953125
4139		134.765625
4140		128.906250
4141		136.718750
4142		132.812500
4143		134.765625
4144		134.765625
4145		136.718750
4146		132.812500
4147		140.625000
4148		132.812500
4149		140.625000
4150		134.765625
4151		142.578125
4152		134.765625
4153		142.578125
4154		136.718750
4155		144.531250
4156		136.718750
4157		144.531250
4158		136.718750
4159		144.531250
4160		140.625000
4161		142.578125
4162		140.625000
4163		144.531250
4164		138.671875
4165		144.531250
4166		140.625000
4167		146.484375
4168		140.625000
4169		146.484375
4170		140.625000
4171		146.484375
4172		140.625000
4173		146.484375
4174		140.625000
4175		146.484375
4176		142.578125
4177		144.531250
4178		142.578125
4179		144.531250
4180		138.671875
4181		146.484375
4182		138.671875
4183		146.484375
4184		138.671875
4185		146.484375
4186		136.718750
4187		144.531250
4188		136.718750
4189		144.531250
4190		136.718750
4191		144.531250
4192		136.718750
4193		142.578125
4194		136.718750
4195		140.625000
4196		134.765625
4197		138.671875
4198		132.812500
4199		140.625000
4200		130.859375
4201		138.671875
4202		130.859375
4203		136.718750
4204		128.906250
4205		136.718750
4206		126.953125
4207		134.765625
4208		125.000000
4209		132.812500
4210		126.953125
4211		130.859375
4212		125.000000
4213		128.906250
4214		121.093750
4215		128.906250
4216		119.140625
4217		126.953125
4218		115.234375
4219		125.000000
4220		115.234375
4221		123.046875
4222		113.281250
4223		121.093750
4224		109.375000
4225		119.140625
4226		109.375000
4227		117.187500
4228		107.421875
4229		111.328125
4230		103.515625
4231		111.328125
4232		99.609375
4233		109.375000
4234		97.656250
4235		105.468750
4236		95.703125
4237		103.515625
4238		93.750000
4239		101.562500
4240		89.843750
4241		97.656250
4242		87.890625
4243		95.703125
4244		85.937500
4245		89.843750
4246		82.031250
4247		87.890625
4248		78.125000
4249		85.937500
4250		74.218750
4251		83.984375
4252		70.312500
4253		80.078125
4254		66.406250
4255		76.171875
4256		62.500000
4257		72.265625
4258		60.546875
4259		68.359375
4260		58.593750
4261		62.500000
4262		54.687500
4263		60.546875
4264		46.875000
4265		56.640625
4266		44.921875
4267		54.687500
4268		41.015625
4269		50.781250
4270		37.109375
4271		44.921875
4272		33.203125
4273		42.968750
4274		29.296875
4275		39.062500
4276		27.343750
4277		35.156250
4278		23.437500
4279		29.296875
4280		15.625000
4281		25.390625
4282		11.718750
4283		23.437500
4284		9.765625
4285		17.578125
4286		5.859375
4287		13.671875
4288		0.000000
4289		9.765625
4290		-3.906250
4291		5.859375
4292		-7.812500
4293		0.000000
4294		-9.765625
4295		-3.906250
4296		-15.625000
4297		-9.765625
4298		-21.484375
4299		-11.718750
4300		-25.390625
4301		-15.625000
4302		-31.250000
4303		-19.531250
4304		-33.203125
4305		-25.390625
4306		-39.062500
4307		-29.296875
4308		-42.968750
4309		-33.203125
4310		-44.921875
4311		-37.109375
4312		-48.828125
4313		-42.968750
4314		-54.687500
4315		-48.828125
4316		-58.593750
4317		-50.781250
4318		-64.453125
4319		-52.734375
4320		-68.359375
4321		-58.593750
4322		-72.265625
4323		-62.500000
4324		-78.125000
4325		-66.406250
4326		-78.125000
4327		-70.312500
4328		-82.031250
4329		-76.171875
4330		-87.890625
4331		-80.078125
4332		-91.796875
4333		-82.031250
4334		-95.703125
4335		-85.937500
4336		-101.562500
4337		-89.843750
4338		-103.515625
4339		-93.750000
4340		-105.468750
4341		-97.656250
4342		-109.375000
4343		-101.562500
4344		-113.281250
4345		-107.421875
4346		-115.234375
4347		-111.328125
4348		-121.093750
4349		-113.281250
4350		-123.046875
4351		-115.234375
4352		-126.953125
4353		-119.140625
4354		-130.859375
4355		-121.093750
4356		-134.765625
4357		-125.000000
4358		-136.718750
4359		-128.906250
4360		-138.671875
4361		-130.859375
4362		-140.625000
4363		-136.718750
4364		-144.531250
4365		-138.671875
4366		-148.437500
4367		-138.671875
4368		-150.390625
4369		-140.625000
4370		-152.343750
4371		-144.531250
4372		-154.296875
4373		-146.484375
4374		-158.203125
4375		-148.437500
4376		-160.156250
4377		-150.390625
4378		-158.203125
4379		-154.296875
4380		-160.156250
4381		-156.250000
4382		-166.015625
4383		-156.250000
4384		-167.968750
4385		-158.203125
4386		-167.968750
4387		-160.156250
4388		-169.921875
4389		-162.109375
4390		-169.921875
4391		-162.109375
4392		-171.875000
4393		-164.062500
4394		-171.875000
4395		-166.015625
4396		-171.875000
4397		-167.968750
4398		-173.828125
4399		-167.968750
4400		-175.781250
4401		-166.015625
4402		-175.781250
4403		-167.968750
4404		-175.781250
4405		-167.968750
4406		-175.781250
4407		-167.968750
4408		-175.781250
4409		-167.968750
4410		-175.781250
4411		-169.921875
4412		-173.828125
4413		-169.921875
4414		-173.828125
4415		-167.968750
4416		-175.781250
4417		-167.968750
4418		-175.781250
4419		-167.968750
4420		-175.781250
4421		-166.015625
4422		-173.828125
4423		-166.015625
4424		-171.875000
4425		-166.015625
4426		-171.875000
4427		-164.062500
4428		-167.968750
4429		-164.062500
4430		-166.015625
4431		-164.062500
4432		-167.968750
4433		-160.156250
4434		-166.015625
4435		-158.203125
4436		-164.062500
4437		-156.250000
4438		-162.109375
4439		-154.296875
4440		-160.156250
4441		-152.343750
4442		-158.203125
4443		-150.390625
4444		-156.250000
4445		-148.437500
4446		-150.390625
4447		-148.437500
4448		-148.437500
4449		-144.531250
4450		-148.437500
4451		-140.625000
4452		-146.484375
4453		-138.671875
4454		-142.578125
4455		-134.765625
4456		-142.578125
4457		-130.859375
4458		-136.718750
4459		-128.906250
4460		-134.765625
4461		-126.953125
4462		-128.906250
4463		-125.000000
4464		-125.000000
4465		-121.093750
4466		-123.046875
4467		-115.234375
4468		-121.093750
4469		-111.328125
4470		-117.187500
4471		-109.375000
4472		-115.234375
4473		-105.468750
4474		-111.328125
4475		-99.609375
4476		-105.468750
4477		-97.656250
4478		-101.562500
4479		-95.703125
4480		-97.656250
4481		-91.796875
4482		-93.750000
4483		-85.937500
4484		-91.796875
4485		-82.031250
4486		-87.890625
4487		-78.125000
4488		-82.031250
4489		-74.218750
4490		-80.078125
4491		-68.359375
4492		-76.171875
4493		-66.406250
4494		-70.312500
4495		-62.500000
4496		-64.453125
4497		-58.593750
4498		-60.546875
4499		-54.687500
4500		-56.640625
4501		-46.875000
4502		-54.687500
4503		-44.921875
4504		-48.828125
4505		-39.062500
4506		-44.921875
4507		-35.156250
4508		-41.015625
4509		-31.250000
4510		-37.109375
4511		-25.390625
4512		-29.296875
4513		-23.437500
4514		-25.390625
4515		-19.531250
4516		-19.531250
4517		-13.671875
4518		-19.531250
4519		-9.765625
4520		-13.671875
4521		-3.906250
4522		-7.812500
4523		1.953125
4524		-3.906250
4525		3.906250
4526		-1.953125
4527		7.812500
4528		3.906250
4529		11.718750
4530		9.765625
4531		15.625000
4532		13.671875
4533		19.531250
4534		15.625000
4535		25.390625
4536		19.531250
4537		29.296875
4538		23.437500
4539		33.203125
4540		29.296875
4541		37.109375
4542		31.250000
4543		41.015625
4544		37.109375
4545		44.921875
4546		42.968750
4547		46.875000
4548		46.875000
4549		50.781250
4550		48.828125
4551		56.640625
4552		50.781250
4553		60.546875
4554		54.687500
4555		62.500000
4556		58.593750
4557		66.406250
4558		62.500000
4559		72.265625
4560		66.406250
4561		74.218750
4562		68.359375
4563		76.171875
4564		74.218750
4565		78.125000
4566		78.125000
4567		83.984375
4568		80.078125
4569		87.890625
4570		82.031250
4571		89.843750
4572		83.984375
4573		93.750000
4574		87.890625
4575		95.703125
4576		89.843750
4577		97.656250
4578		93.750000
4579		101.562500
4580		97.656250
4581		101.562500
4582		101.562500
4583		105.468750
4584		101.562500
4585		109.375000
4586		103.515625
4587		111.328125
4588		107.421875
4589		113.281250
4590		107.421875
4591		117.187500
4592		111.328125
4593		119.140625
4594		113.281250
4595		121.093750
4596		117.187500
4597		121.093750
4598		119.140625
4599		123.046875
4600		121.093750
4601		126.953125
4602		119.140625
4603		128.906250
4604		123.046875
4605		130.859375
4606		125.000000
4607		132.812500
4608		125.000000
4609		132.812500
4610		126.953125
4611		134.765625
4612		130.859375
4613		136.718750
4614		132.812500
4615		136.718750
4616		134.765625
4617		136.718750
4618		132.812500
4619		140.625000
4620		134.765625
4621		142.578125
4622		134.765625
4623		142.578125
4624		134.765625
4625		144.531250
4626		136.718750
4627		144.531250
4628		136.718750
4629		144.531250
4630		140.625000
4631		144.531250
4632		140.625000
4633		144.531250
4634		138.671875
4635		146.484375
4636		138.671875
4637		146.484375
4638		140.625000
4639		148.437500
4640		140.625000
4641		148.437500
4642		140.625000
4643		148.437500
4644		140.625000
4645		148.437500
4646		140.625000
4647		146.484375
4648		142.578125
4649		144.531250
4650		140.625000
4651		146.484375
4652		140.625000
4653		146.484375
4654		138.671875
4655		146.484375
4656		138.671875
4657		146.484375
4658		138.671875
4659		146.484375
4660		138.671875
4661		144.531250
4662		136.718750
4663		144.531250
4664		138.671875
4665		142.578125
4666		138.671875
4667		140.625000
4668		134.765625
4669		142.578125
4670		132.812500
4671		140.625000
4672		130.859375
4673		140.625000
4674		132.812500
4675		138.671875
4676		130.859375
4677		138.671875
4678		128.906250
4679		136.718750
4680		128.906250
4681		134.765625
4682		128.906250
4683		130.859375
4684		123.046875
4685		130.859375
4686		123.046875
4687		130.859375
4688		121.093750
4689		128.906250
4690		119.140625
4691		126.953125
4692		117.187500
4693		125.000000
4694		113.281250
4695		123.046875
4696		113.281250
4697		119.140625
4698		113.281250
4699		115.234375
4700		107.421875
4701		113.281250
4702		103.515625
4703		113.281250
4704		101.562500
4705		111.328125
4706		99.609375
4707		109.375000
4708		97.656250
4709		105.468750
4710		93.750000
4711		103.515625
4712		91.796875
4713		99.609375
4714		91.796875
4715		95.703125
4716		87.890625
4717		91.796875
4718		82.031250
4719		89.843750
4720		80.078125
4721		87.890625
4722		76.171875
4723		85.937500
4724		72.265625
4725		82.031250
4726		70.312500
4727		78.125000
4728		66.406250
4729		74.218750
4730		64.453125
4731		72.265625
4732		60.546875
4733		66.406250
4734		56.640625
4735		62.500000
4736		52.734375
4737		60.546875
4738		48.828125
4739		56.640625
4740		42.968750
4741		52.734375
4742		41.015625
4743		48.828125
4744		37.109375
4745		44.921875
4746		33.203125
4747		41.015625
4748		29.296875
4749		35.156250
4750		25.390625
4751		31.250000
4752		19.531250
4753		29.296875
4754		15.625000
4755		25.390625
4756		11.718750
4757		21.484375
4758		7.812500
4759		17.578125
4760		3.906250
4761		13.671875
4762		0.000000
4763		7.812500
4764		-3.906250
4765		3.906250
4766		-7.812500
4767		-1.953125
4768		-13.671875
4769		-5.859375
4770		-17.578125
4771		-7.812500
4772		-23.437500
4773		-13.671875
4774		-25.390625
4775		-17.578125
4776		-31.250000
4777		-21.484375
4778		-35.156250
4779		-25.390625
4780		-39.062500
4781		-29.296875
4782		-41.015625
4783		-37.109375
4784		-46.875000
4785		-41.015625
4786		-52.734375
4787		-42.968750
4788		-56.640625
4789		-48.828125
4790		-60.546875
4791		-50.781250
4792		-64.453125
4793		-54.687500
4794		-70.312500
4795		-58.593750
4796		-72.265625
4797		-62.500000
4798		-76.171875
4799		-70.312500
4800		-80.078125
4801		-74.218750
4802		-85.937500
4803		-78.125000
4804		-89.843750
4805		-80.078125
4806		-93.750000
4807		-83.984375
4808		-95.703125
4809		-87.890625
4810		-101.562500
4811		-91.796875
4812		-103.515625
4813		-95.703125
4814		-105.468750
4815		-97.656250
4816		-109.375000
4817		-105.468750
4818		-115.234375
4819		-107.421875
4820		-117.187500
4821		-109.375000
4822		-123.046875
4823		-113.281250
4824		-125.000000
4825		-117.187500
4826		-128.906250
4827		-121.093750
4828		-130.859375
4829		-123.046875
4830		-132.812500
4831		-126.953125
4832		-134.765625
4833		-130.859375
4834		-138.671875
4835		-134.765625
4836		-142.578125
4837		-134.765625
4838		-146.484375
4839		-136.718750
4840		-148.437500
4841		-140.625000
4842		-150.390625
4843		-142.578125
4844		-154.296875
4845		-144.531250
4846		-156.250000
4847		-148.437500
4848		-156.250000
4849		-150.390625
4850		-158.203125
4851		-154.296875
4852		-162.109375
4853		-156.250000
4854		-164.062500
4855		-156.250000
4856		-166.015625
4857		-158.203125
4858		-167.968750
4859		-160.156250
4860		-169.921875
4861		-162.109375
4862		-169.921875
4863		-162.109375
4864		-171.875000
4865		-164.062500
4866		-169.921875
4867		-166.015625
4868		-171.875000
4869		-167.968750
4870		-175.781250
4871		-167.968750
4872		-175.781250
4873		-167.968750
4874		-175.781250
4875		-167.968750
4876		-175.781250
4877		-169.921875
4878		-175.781250
4879		-169.921875
4880		-177.734375
4881		-169.921875
4882		-173.828125
4883		-171.875000
4884		-175.781250
4885		-171.875000
4886		-177.734375
4887		-167.968750
4888		-175.781250
4889		-167.968750
4890		-175.781250
4891		-167.968750
4892		-175.781250
4893		-167.968750
4894		-175.781250
4895		-167.968750
4896		-173.828125
4897		-166.015625
4898		-171.875000
4899		-166.015625
4900		-169.921875
4901		-166.015625
4902		-167.968750
4903		-164.062500
4904		-169.921875
4905		-162.109375
4906		-167.968750
4907		-160.156250
4908		-166.015625
4909		-158.203125
4910		-164.062500
4911		-156.250000
4912		-164.062500
4913		-154.296875
4914		-160.156250
4915		-152.343750
4916		-156.250000
4917		-152.343750
4918		-154.296875
4919		-150.390625
4920		-154.296875
4921		-146.484375
4922		-152.343750
4923		-142.578125
4924		-148.437500
4925		-140.625000
4926		-146.484375
4927		-136.718750
4928		-142.578125
4929		-134.765625
4930		-140.625000
4931		-130.859375
4932		-136.718750
4933		-130.859375
4934		-132.812500
4935		-126.953125
4936		-128.906250
4937		-121.093750
4938		-128.906250
4939		-119.140625
4940		-125.000000
4941		-115.234375
4942		-123.046875
4943		-111.328125
4944		-117.187500
4945		-107.421875
4946		-113.281250
4947		-105.468750
4948		-109.375000
4949		-101.562500
4950		-105.468750
4951		-99.609375
4952		-99.609375
4953		-93.750000
4954		-97.656250
4955		-89.843750
4956		-93.750000
4957		-85.937500
4958		-91.796875
4959		-82.031250
4960		-85.937500
4961		-76.171875
4962		-82.031250
4963		-74.218750
4964		-78.125000
4965		-68.359375
4966		-72.265625
4967		-66.406250
4968		-68.359375
4969		-62.500000
4970		-64.453125
4971		-54.687500
4972		-62.500000
4973		-50.781250
4974		-56.640625
4975		-46.875000
4976		-52.734375
4977		-41.015625
4978		-48.828125
4979		-39.062500
4980		-42.968750
4981		-33.203125
4982		-39.062500
4983		-31.250000
4984		-33.203125
4985		-27.343750
4986		-27.343750
4987		-21.484375
4988		-27.343750
4989		-17.578125
4990		-21.484375
4991		-11.718750
4992		-17.578125
4993		-7.812500
4994		-11.718750
4995		-3.906250
4996		-9.765625
4997		1.953125
4998		-3.906250
4999		3.906250
5000		1.953125
5001		7.812500
5002		5.859375
5003		11.718750
5004		9.765625
5005		17.578125
5006		13.671875
5007		21.484375
5008		17.578125
5009		25.390625
5010		21.484375
5011		29.296875
5012		25.390625
5013		33.203125
5014		31.250000
5015		37.109375
5016		33.203125
5017		41.015625
5018		39.062500
5019		44.921875
5020		42.968750
5021		50.781250
5022		44.921875
5023		52.734375
5024		46.875000
5025		58.593750
5026		52.734375
5027		60.546875
5028		54.687500
5029		66.406250
5030		58.593750
5031		68.359375
5032		62.500000
5033		70.312500
5034		68.359375
5035		72.265625
5036		72.265625
5037		78.125000
5038		74.218750
5039		82.031250
5040		76.171875
5041		83.984375
5042		78.125000
5043		87.890625
5044		82.031250
5045		91.796875
5046		83.984375
5047		93.750000
5048		87.890625
5049		97.656250
5050		93.750000
5051		97.656250
5052		95.703125
5053		101.562500
5054		97.656250
5055		105.468750
5056		99.609375
5057		107.421875
5058		101.562500
5059		109.375000
5060		105.468750
5061		113.281250
5062		105.468750
5063		115.234375
5064		109.375000
5065		117.187500
5066		111.328125
5067		117.187500
5068		115.234375
5069		119.140625
5070		117.187500
5071		123.046875
5072		117.187500
5073		126.953125
5074		119.140625
5075		128.906250
5076		121.093750
5077		128.906250
5078		123.046875
5079		130.859375
5080		125.000000
5081		132.812500
5082		125.000000
5083		134.765625
5084		130.859375
5085		132.812500
5086		130.859375
5087		134.765625
5088		130.859375
5089		138.671875
5090		132.812500
5091		140.625000
5092		132.812500
5093		140.625000
5094		132.812500
5095		142.578125
5096		134.765625
5097		142.578125
5098		136.718750
5099		142.578125
5100		136.718750
5101		144.531250
5102		140.625000
5103		142.578125
5104		138.671875
5105		144.531250
5106		138.671875
5107		146.484375
5108		138.671875
5109		146.484375
5110		138.671875
5111		146.484375
5112		138.671875
5113		146.484375
5114		140.625000
5115		146.484375
5116		140.625000
5117		146.484375
5118		142.578125
5119		144.531250
5120		142.578125
5121		144.531250
5122		140.625000
5123		146.484375
5124		140.625000
5125		146.484375
5126		138.671875
5127		146.484375
5128		138.671875
5129		146.484375
5130		138.671875
5131		146.484375
5132		138.671875
5133		146.484375
5134		140.625000
5135		142.578125
5136		138.671875
5137		142.578125
5138		136.718750
5139		142.578125
5140		134.765625
5141		142.578125
5142		134.765625
5143		142.578125
5144		132.812500
5145		140.625000
5146		132.812500
5147		140.625000
5148		130.859375
5149		138.671875
5150		128.906250
5151		136.718750
5152		130.859375
5153		134.765625
5154		128.906250
5155		132.812500
5156		125.000000
5157		132.812500
5158		123.046875
5159		130.859375
5160		121.093750
5161		128.906250
5162		119.140625
5163		126.953125
5164		117.187500
5165		125.000000
5166		115.234375
5167		123.046875
5168		115.234375
5169		119.140625
5170		113.281250
5171		117.187500
5172		109.375000
5173		117.187500
5174		105.468750
5175		115.234375
5176		105.468750
5177		113.281250
5178		101.562500
5179		111.328125
5180		97.656250
5181		107.421875
5182		95.703125
5183		105.468750
5184		95.703125
5185		103.515625
5186		93.750000
5187		97.656250
5188		87.890625
5189		95.703125
5190		85.937500
5191		93.750000
5192		82.031250
5193		91.796875
5194		78.125000
5195		87.890625
5196		74.218750
5197		83.984375
5198		72.265625
5199		80.078125
5200		70.312500
5201		78.125000
5202		66.406250
5203		72.265625
5204		64.453125
5205		68.359375
5206		58.593750
5207		66.406250
5208		54.687500
5209		64.453125
5210		50.781250
5211		60.546875
5212		46.875000
5213		54.687500
5214		42.968750
5215		52.734375
5216		39.062500
5217		48.828125
5218		37.109375
5219		42.968750
5220		33.203125
5221		39.062500
5222		27.343750
5223		35.156250
5224		23.437500
5225		33.203125
5226		17.578125
5227		27.343750
5228		13.671875
5229		23.437500
5230		9.765625
5231		19.531250
5232		5.859375
5233		15.625000
5234		3.906250
5235		11.718750
5236		0.000000
5237		5.859375
5238		-3.906250
5239		1.953125
5240		-11.718750
5241		-1.953125
5242		-15.625000
5243		-5.859375
5244		-19.531250
5245		-9.765625
5246		-23.437500
5247		-13.671875
5248		-29.296875
5249		-17.578125
5250		-31.250000
5251		-23.437500
5252		-35.156250
5253		-29.296875
5254		-39.062500
5255		-33.203125
5256		-44.921875
5257		-37.109375
5258		-48.828125
5259		-39.062500
5260		-52.734375
5261		-42.968750
5262		-58.593750
5263		-46.875000
5264		-60.546875
5265		-52.734375
5266		-66.406250
5267		-56.640625
5268		-68.359375
5269		-60.546875
5270		-72.265625
5271		-66.406250
5272		-80.078125
5273		-70.312500
5274		-82.031250
5275		-74.218750
5276		-85.937500
5277		-78.125000
5278		-89.843750
5279		-80.078125
5280		-93.750000
5281		-85.937500
5282		-97.656250
5283		-87.890625
5284		-101.562500
5285		-91.796875
5286		-103.515625
5287		-97.656250
5288		-107.421875
5289		-101.562500
5290		-111.328125
5291		-103.515625
5292		-115.234375
5293		-107.421875
5294		-119.140625
5295		-109.375000
5296		-123.046875
5297		-113.281250
5298		-126.953125
5299		-115.234375
5300		-130.859375
5301		-121.093750
5302		-130.859375
5303		-125.000000
5304		-132.812500
5305		-128.906250
5306		-138.671875
5307		-130.859375
5308		-142.578125
5309		-132.812500
5310		-144.531250
5311		-134.765625
5312		-146.484375
5313		-138.671875
5314		-150.390625
5315		-140.625000
5316		-152.343750
5317		-142.578125
5318		-152.343750
5319		-146.484375
5320		-154.296875
5321		-150.390625
5322		-156.250000
5323		-152.343750
5324		-160.156250
5325		-152.343750
5326		-162.109375
5327		-154.296875
5328		-164.062500
5329		-154.296875
5330		-166.015625
5331		-158.203125
5332		-166.015625
5333		-158.203125
5334		-167.968750
5335		-160.156250
5336		-167.968750
5337		-164.062500
5338		-167.968750
5339		-164.062500
5340		-171.875000
5341		-166.015625
5342		-173.828125
5343		-166.015625
5344		-173.828125
5345		-166.015625
5346		-173.828125
5347		-166.015625
5348		-175.781250
5349		-167.968750
5350		-175.781250
5351		-167.968750
5352		-175.781250
5353		-167.968750
5354		-173.828125
5355		-169.921875
5356		-173.828125
5357		-167.968750
5358		-175.781250
5359		-167.968750
5360		-175.781250
5361		-167.968750
5362		-175.781250
5363		-166.015625
5364		-173.828125
5365		-166.015625
5366		-173.828125
5367		-166.015625
5368		-173.828125
5369		-166.015625
5370		-169.921875
5371		-167.968750
5372		-169.921875
5373		-166.015625
5374		-169.921875
5375		-162.109375
5376		-169.921875
5377		-162.109375
5378		-167.968750
5379		-158.203125
5380		-166.015625
5381		-158.203125
5382		-164.062500
5383		-156.250000
5384		-162.109375
5385		-154.296875
5386		-160.156250
5387		-154.296875
5388		-156.250000
5389		-152.343750
5390		-154.296875
5391		-148.437500
5392		-154.296875
5393		-144.531250
5394		-152.343750
5395		-142.578125
5396		-150.390625
5397		-142.578125
5398		-148.437500
5399		-138.671875
5400		-144.531250
5401		-134.765625
5402		-140.625000
5403		-134.765625
5404		-136.718750
5405		-130.859375
5406		-132.812500
5407		-126.953125
5408		-132.812500
5409		-123.046875
5410		-128.906250
5411		-119.140625
5412		-126.953125
5413		-117.187500
5414		-123.046875
5415		-113.281250
5416		-117.187500
5417		-109.375000
5418		-115.234375
5419		-105.468750
5420		-109.375000
5421		-103.515625
5422		-105.468750
5423		-99.609375
5424		-101.562500
5425		-95.703125
5426		-99.609375
5427		-91.796875
5428		-95.703125
5429		-85.937500
5430		-91.796875
5431		-82.031250
5432		-87.890625
5433		-78.125000
5434		-83.984375
5435		-76.171875
5436		-78.125000
5437		-72.265625
5438		-74.218750
5439		-68.359375
5440		-70.312500
5441		-62.500000
5442		-68.359375
5443		-58.593750
5444		-64.453125
5445		-52.734375
5446		-58.593750
5447		-46.875000
5448		-54.687500
5449		-44.921875
5450		-50.781250
5451		-41.015625
5452		-44.921875
5453		-37.109375
5454		-39.062500
5455		-33.203125
5456		-35.156250
5457		-29.296875
5458		-31.250000
5459		-23.437500
5460		-29.296875
5461		-19.531250
5462		-23.437500
5463		-13.671875
5464		-19.531250
5465		-11.718750
5466		-15.625000
5467		-5.859375
5468		-11.718750
5469		0.000000
5470		-3.906250
5471		1.953125
5472		0.000000
5473		5.859375
5474		3.906250
5475		11.718750
5476		5.859375
5477		17.578125
5478		11.718750
5479		19.531250
5480		13.671875
5481		23.437500
5482		21.484375
5483		27.343750
5484		25.390625
5485		33.203125
5486		27.343750
5487		35.156250
5488		33.203125
5489		39.062500
5490		37.109375
5491		44.921875
5492		39.062500
5493		48.828125
5494		42.968750
5495		50.781250
5496		44.921875
5497		54.687500
5498		52.734375
5499		56.640625
5500		56.640625
5501		60.546875
5502		58.593750
5503		66.406250
5504		62.500000
5505		68.359375
5506		66.406250
5507		72.265625
5508		68.359375
5509		76.171875
5510		72.265625
5511		80.078125
5512		74.218750
5513		82.031250
5514		80.078125
5515		83.984375
5516		82.031250
5517		87.890625
5518		85.937500
5519		91.796875
5520		87.890625
5521		93.750000
5522		91.796875
5523		95.703125
5524		95.703125
5525		99.609375
5526		93.750000
5527		103.515625
5528		99.609375
5529		105.468750
5530		103.515625
5531		107.421875
5532		105.468750
5533		109.375000
5534		109.375000
5535		113.281250
5536		109.375000
5537		115.234375
5538		113.281250
5539		117.187500
5540		115.234375
5541		119.140625
5542		115.234375
5543		123.046875
5544		117.187500
5545		123.046875
5546		121.093750
5547		125.000000
5548		123.046875
5549		126.953125
5550		125.000000
5551		128.906250
5552		126.953125
5553		130.859375
5554		126.953125
5555		130.859375
5556		130.859375
5557		132.812500
5558		130.859375
5559		136.718750
5560		130.859375
5561		136.718750
5562		132.812500
5563		136.718750
5564		134.765625
5565		138.671875
5566		136.718750
5567		138.671875
5568		136.718750
5569		140.625000
5570		136.718750
5571		140.625000
5572		138.671875
5573		142.578125
5574		140.625000
5575		144.531250
5576		138.671875
5577		144.531250
5578		140.625000
5579		146.484375
5580		140.625000
5581		144.531250
5582		142.578125
5583		144.531250
5584		142.578125
5585		146.484375
5586		142.578125
5587		146.484375
5588		142.578125
5589		146.484375
5590		142.578125
5591		146.484375
5592		142.578125
5593		146.484375
5594		140.625000
5595		146.484375
5596		142.578125
5597		146.484375
5598		142.578125
5599		146.484375
5600		142.578125
5601		146.484375
5602		142.578125
5603		144.531250
5604		140.625000
5605		146.484375
5606		140.625000
5607		144.531250
5608		138.671875
5609		142.578125
5610		138.671875
5611		142.578125
5612		138.671875
5613		142.578125
5614		138.671875
5615		140.625000
5616		136.718750
5617		140.625000
5618		136.718750
5619		138.671875
5620		134.765625
5621		138.671875
5622		132.812500
5623		136.718750
5624		132.812500
5625		134.765625
5626		130.859375
5627		134.765625
5628		128.906250
5629		132.812500
5630		126.953125
5631		130.859375
5632		125.000000
5633		128.906250
5634		123.046875
5635		126.953125
5636		121.093750
5637		126.953125
5638		119.140625
5639		125.000000
5640		119.140625
5641		123.046875
5642		117.187500
5643		121.093750
5644		113.281250
5645		117.187500
5646		111.328125
5647		115.234375
5648		107.421875
5649		113.281250
5650		107.421875
5651		111.328125
5652		103.515625
5653		109.375000
5654		101.562500
5655		105.468750
5656		99.609375
5657		103.515625
5658		95.703125
5659		99.609375
5660		93.750000
5661		97.656250
5662		89.843750
5663		95.703125
5664		87.890625
5665		91.796875
5666		83.984375
5667		87.890625
5668		80.078125
5669		85.937500
5670		76.171875
5671		82.031250
5672		74.218750
5673		78.125000
5674		70.312500
5675		76.171875
5676		66.406250
5677		72.265625
5678		62.500000
5679		68.359375
5680		58.593750
5681		64.453125
5682		56.640625
5683		60.546875
5684		52.734375
5685		58.593750
5686		48.828125
5687		54.687500
5688		44.921875
5689		50.781250
5690		41.015625
5691		44.921875
5692		35.156250
5693		42.968750
5694		33.203125
5695		39.062500
5696		29.296875
5697		33.203125
5698		25.390625
5699		31.250000
5700		19.531250
5701		25.390625
5702		15.625000
5703		21.484375
5704		11.718750
5705		17.578125
5706		7.812500
5707		13.671875
5708		3.906250
5709		9.765625
5710		-1.953125
5711		5.859375
5712		-3.906250
5713		0.000000
5714		-9.765625
5715		-1.953125
5716		-13.671875
5717		-7.812500
5718		-17.578125
5719		-11.718750
5720		-21.484375
5721		-15.625000
5722		-25.390625
5723		-19.531250
5724		-31.250000
5725		-25.390625
5726		-35.156250
5727		-29.296875
5728		-39.062500
5729		-33.203125
5730		-44.921875
5731		-37.109375
5732		-48.828125
5733		-42.968750
5734		-52.734375
5735		-46.875000
5736		-56.640625
5737		-50.781250
5738		-60.546875
5739		-54.687500
5740		-64.453125
5741		-58.593750
5742		-68.359375
5743		-62.500000
5744		-72.265625
5745		-66.406250
5746		-76.171875
5747		-70.312500
5748		-82.031250
5749		-74.218750
5750		-85.937500
5751		-78.125000
5752		-89.843750
5753		-82.031250
5754		-91.796875
5755		-85.937500
5756		-95.703125
5757		-89.843750
5758		-99.609375
5759		-93.750000
5760		-103.515625
5761		-97.656250
5762		-107.421875
5763		-101.562500
5764		-109.375000
5765		-105.468750
5766		-113.281250
5767		-107.421875
5768		-117.187500
5769		-111.328125
5770		-121.093750
5771		-115.234375
5772		-123.046875
5773		-119.140625
5774		-126.953125
5775		-123.046875
5776		-130.859375
5777		-125.000000
5778		-132.812500
5779		-126.953125
5780		-136.718750
5781		-130.859375
5782		-140.625000
5783		-132.812500
5784		-142.578125
5785		-134.765625
5786		-144.531250
5787		-138.671875
5788		-146.484375
5789		-140.625000
5790		-148.437500
5791		-144.531250
5792		-152.343750
5793		-146.484375
5794		-156.250000
5795		-148.437500
5796		-156.250000
5797		-150.390625
5798		-158.203125
5799		-152.343750
5800		-160.156250
5801		-154.296875
5802		-162.109375
5803		-156.250000
5804		-162.109375
5805		-156.250000
5806		-164.062500
5807		-158.203125
5808		-166.015625
5809		-162.109375
5810		-167.968750
5811		-162.109375
5812		-169.921875
5813		-164.062500
5814		-169.921875
5815		-164.062500
5816		-171.875000
5817		-166.015625
5818		-171.875000
5819		-166.015625
5820		-171.875000
5821		-167.968750
5822		-171.875000
5823		-167.968750
5824		-171.875000
5825		-169.921875
5826		-171.875000
5827		-169.921875
5828		-173.828125
5829		-167.968750
5830		-173.828125
5831		-167.968750
5832		-173.828125
5833		-167.968750
5834		-173.828125
5835		-167.968750
5836		-173.828125
5837		-167.968750
5838		-171.875000
5839		-166.015625
5840		-169.921875
5841		-167.968750
5842		-169.921875
5843		-166.015625
5844		-169.921875
5845		-166.015625
5846		-167.968750
5847		-164.062500
5848		-166.015625
5849		-164.062500
5850		-166.015625
5851		-162.109375
5852		-164.062500
5853		-160.156250
5854		-162.109375
5855		-158.203125
5856		-162.109375
5857		-156.250000
5858		-158.203125
5859		-154.296875
5860		-156.250000
5861		-152.343750
5862		-154.296875
5863		-150.390625
5864		-152.343750
5865		-148.437500
5866		-150.390625
5867		-146.484375
5868		-148.437500
5869		-142.578125
5870		-144.531250
5871		-140.625000
5872		-142.578125
5873		-138.671875
5874		-140.625000
5875		-134.765625
5876		-136.718750
5877		-132.812500
5878		-134.765625
5879		-128.906250
5880		-130.859375
5881		-126.953125
5882		-126.953125
5883		-123.046875
5884		-125.000000
5885		-119.140625
5886		-121.093750
5887		-117.187500
5888		-117.187500
5889		-113.281250
5890		-113.281250
5891		-109.375000
5892		-111.328125
5893		-105.468750
5894		-107.421875
5895		-101.562500
5896		-103.515625
5897		-97.656250
5898		-99.609375
5899		-93.750000
5900		-95.703125
5901		-89.843750
5902		-91.796875
5903		-85.937500
5904		-87.890625
5905		-82.031250
5906		-83.984375
5907		-78.125000
5908		-80.078125
5909		-74.218750
5910		-76.171875
5911		-70.312500
5912		-72.265625
5913		-66.406250
5914		-66.406250
5915		-60.546875
5916		-62.500000
5917		-56.640625
5918		-58.593750
5919		-52.734375
5920		-54.687500
5921		-48.828125
5922		-50.781250
5923		-44.921875
5924		-46.875000
5925		-39.062500
5926		-41.015625
5927		-35.156250
5928		-37.109375
5929		-31.250000
5930		-33.203125
5931		-27.343750
5932		-27.343750
5933		-21.484375
5934		-23.437500
5935		-17.578125
5936		-19.531250
5937		-13.671875
5938		-15.625000
5939		-9.765625
5940		-9.765625
5941		-5.859375
5942		-5.859375
5943		0.000000
5944		-1.953125
5945		5.859375
5946		0.000000
5947		11.718750
5948		3.906250
5949		15.625000
5950		7.812500
5951		17.578125
5952		15.625000
5953		21.484375
5954		19.531250
5955		25.390625
5956		23.437500
5957		29.296875
5958		27.343750
5959		33.203125
5960		31.250000
5961		37.109375
5962		33.203125
5963		42.968750
5964		37.109375
5965		46.875000
5966		41.015625
5967		50.781250
5968		46.875000
5969		52.734375
5970		50.781250
5971		56.640625
5972		54.687500
5973		58.593750
5974		58.593750
5975		62.500000
5976		62.500000
5977		66.406250
5978		64.453125
5979		74.218750
5980		68.359375
5981		78.125000
5982		70.312500
5983		80.078125
5984		72.265625
5985		80.078125
5986		78.125000
5987		83.984375
5988		82.031250
5989		85.937500
5990		85.937500
5991		89.843750
5992		87.890625
5993		91.796875
5994		91.796875
5995		95.703125
5996		91.796875
5997		99.609375
5998		93.750000
5999		103.515625
6000		95.703125
6001		105.468750
6002		101.562500
6003		105.468750
6004		105.468750
6005		109.375000
6006		107.421875
6007		111.328125
6008		109.375000
6009		113.281250
6010		111.328125
6011		115.234375
6012		111.328125
6013		121.093750
6014		113.281250
6015		123.046875
6016		115.234375
6017		125.000000
6018		121.093750
6019		123.046875
6020		123.046875
6021		126.953125
6022		125.000000
6023		126.953125
6024		126.953125
6025		128.906250
6026		126.953125
6027		130.859375
6028		126.953125
6029		136.718750
6030		128.906250
6031		136.718750
6032		128.906250
6033		138.671875
6034		130.859375
6035		138.671875
6036		134.765625
6037		138.671875
6038		136.718750
6039		138.671875
6040		136.718750
6041		140.625000
6042		138.671875
6043		140.625000
6044		138.671875
6045		142.578125
6046		136.718750
6047		146.484375
6048		138.671875
6049		146.484375
6050		138.671875
6051		148.437500
6052		142.578125
6053		144.531250
6054		142.578125
6055		144.531250
6056		142.578125
6057		146.484375
6058		144.531250
6059		146.484375
6060		144.531250
6061		146.484375
6062		140.625000
6063		150.390625
6064		140.625000
6065		150.390625
6066		140.625000
6067		150.390625
6068		140.625000
6069		150.390625
6070		144.531250
6071		146.484375
6072		144.531250
6073		146.484375
6074		142.578125
6075		146.484375
6076		142.578125
6077		144.531250
6078		142.578125
6079		144.531250
6080		138.671875
6081		148.437500
6082		138.671875
6083		146.484375
6084		136.718750
6085		146.484375
6086		138.671875
6087		142.578125
6088		138.671875
6089		140.625000
6090		136.718750
6091		140.625000
6092		136.718750
6093		138.671875
6094		134.765625
6095		138.671875
6096		130.859375
6097		140.625000
6098		128.906250
6099		138.671875
6100		128.906250
6101		136.718750
6102		128.906250
6103		132.812500
6104		126.953125
6105		130.859375
6106		126.953125
6107		128.906250
6108		123.046875
6109		126.953125
6110		123.046875
6111		125.000000
6112		117.187500
6113		125.000000
6114		115.234375
6115		125.000000
6116		111.328125
6117		123.046875
6118		111.328125
6119		121.093750
6120		111.328125
6121		115.234375
6122		107.421875
6123		113.281250
6124		105.468750
6125		111.328125
6126		103.515625
6127		107.421875
6128		101.562500
6129		105.468750
6130		97.656250
6131		101.562500
6132		93.750000
6133		101.562500
6134		91.796875
6135		99.609375
6136		89.843750
6137		93.750000
6138		85.937500
6139		89.843750
6140		83.984375
6141		87.890625
6142		80.078125
6143		83.984375
6144		76.171875
6145		82.031250
6146		72.265625
6147		78.125000
6148		68.359375
6149		76.171875
6150		64.453125
6151		74.218750
6152		62.500000
6153		68.359375
6154		58.593750
6155		64.453125
6156		54.687500
6157		60.546875
6158		52.734375
6159		56.640625
6160		48.828125
6161		52.734375
6162		41.015625
6163		48.828125
6164		41.015625
6165		44.921875
6166		35.156250
6167		42.968750
6168		31.250000
6169		39.062500
6170		27.343750
6171		33.203125
6172		23.437500
6173		29.296875
6174		19.531250
6175		25.390625
6176		15.625000
6177		21.484375
6178		11.718750
6179		17.578125
6180		7.812500
6181		13.671875
6182		3.906250
6183		7.812500
6184		-1.953125
6185		3.906250
6186		-5.859375
6187		0.000000
6188		-9.765625
6189		-3.906250
6190		-13.671875
6191		-7.812500
6192		-17.578125
6193		-11.718750
6194		-23.437500
6195		-17.578125
6196		-27.343750
6197		-21.484375
6198		-31.250000
6199		-25.390625
6200		-35.156250
6201		-29.296875
6202		-39.062500
6203		-35.156250
6204		-44.921875
6205		-39.062500
6206		-48.828125
6207		-42.968750
6208		-52.734375
6209		-46.875000
6210		-56.640625
6211		-50.781250
6212		-60.546875
6213		-54.687500
6214		-64.453125
6215		-60.546875
6216		-68.359375
6217		-64.453125
6218		-74.218750
6219		-68.359375
6220		-78.125000
6221		-72.265625
6222		-82.031250
6223		-74.218750
6224		-85.937500
6225		-80.078125
6226		-89.843750
6227		-83.984375
6228		-93.750000
6229		-87.890625
6230		-97.656250
6231		-91.796875
6232		-99.609375
6233		-93.750000
6234		-103.515625
6235		-99.609375
6236		-107.421875
6237		-103.515625
6238		-111.328125
6239		-105.468750
6240		-115.234375
6241		-109.375000
6242		-117.187500
6243		-113.281250
6244		-121.093750
6245		-115.234375
6246		-125.000000
6247		-119.140625
6248		-126.953125
6249		-121.093750
6250		-130.859375
6251		-125.000000
6252		-132.812500
6253		-128.906250
6254		-136.718750
6255		-130.859375
6256		-138.671875
6257		-132.812500
6258		-140.625000
6259		-136.718750
6260		-144.531250
6261		-140.625000
6262		-146.484375
6263		-142.578125
6264		-150.390625
6265		-144.531250
6266		-152.343750
6267		-146.484375
6268		-154.296875
6269		-148.437500
6270		-156.250000
6271		-152.343750
6272		-158.203125
6273		-152.343750
6274		-158.203125
6275		-154.296875
6276		-160.156250
6277		-156.250000
6278		-162.109375
6279		-158.203125
6280		-164.062500
6281		-160.156250
6282		-166.015625
6283		-160.156250
6284		-166.015625
6285		-162.109375
6286		-167.968750
6287		-164.062500
6288		-169.921875
6289		-164.062500
6290		-169.921875
6291		-166.015625
6292		-169.921875
6293		-167.968750
6294		-169.921875
6295		-167.968750
6296		-171.875000
6297		-167.968750
6298		-173.828125
6299		-167.968750
6300		-171.875000
6301		-167.968750
6302		-171.875000
6303		-167.968750
6304		-171.875000
6305		-167.968750
6306		-171.875000
6307		-167.968750
6308		-171.875000
6309		-167.968750
6310		-169.921875
6311		-167.968750
6312		-169.921875
6313		-167.968750
6314		-169.921875
6315		-164.062500
6316		-167.968750
6317		-164.062500
6318		-167.968750
6319		-164.062500
6320		-166.015625
6321		-162.109375
6322		-166.015625
6323		-160.156250
6324		-164.062500
6325		-160.156250
6326		-162.109375
6327		-158.203125
6328		-160.156250
6329		-156.250000
6330		-158.203125
6331		-154.296875
6332		-158.203125
6333		-152.343750
6334		-156.250000
6335		-150.390625
6336		-152.343750
6337		-148.437500
6338		-150.390625
6339		-146.484375
6340		-148.437500
6341		-144.531250
6342		-146.484375
6343		-140.625000
6344		-142.578125
6345		-138.671875
6346		-140.625000
6347		-134.765625
6348		-138.671875
6349		-132.812500
6350		-134.765625
6351		-130.859375
6352		-130.859375
6353		-126.953125
6354		-128.906250
6355		-123.046875
6356		-126.953125
6357		-121.093750
6358		-121.093750
6359		-117.187500
6360		-119.140625
6361		-113.281250
6362		-115.234375
6363		-111.328125
6364		-111.328125
6365		-105.468750
6366		-109.375000
6367		-101.562500
6368		-105.468750
6369		-99.609375
6370		-99.609375
6371		-93.750000
6372		-97.656250
6373		-89.843750
6374		-93.750000
6375		-87.890625
6376		-89.843750
6377		-83.984375
6378		-85.937500
6379		-80.078125
6380		-80.078125
6381		-76.171875
6382		-76.171875
6383		-70.312500
6384		-72.265625
6385		-66.406250
6386		-68.359375
6387		-62.500000
6388		-64.453125
6389		-58.593750
6390		-60.546875
6391		-54.687500
6392		-54.687500
6393		-50.781250
6394		-52.734375
6395		-44.921875
6396		-46.875000
6397		-41.015625
6398		-42.968750
6399		-35.156250
6400		-39.062500
6401		-31.250000
6402		-33.203125
6403		-27.343750
6404		-29.296875
6405		-23.437500
6406		-25.390625
6407		-19.531250
6408		-21.484375
6409		-15.625000
6410		-15.625000
6411		-9.765625
6412		-11.718750
6413		-5.859375
6414		-7.812500
6415		-1.953125
6416		-3.906250
6417		1.953125
6418		1.953125
6419		5.859375
6420		5.859375
6421		11.718750
6422		9.765625
6423		15.625000
6424		13.671875
6425		19.531250
6426		17.578125
6427		23.437500
6428		21.484375
6429		27.343750
6430		25.390625
6431		31.250000
6432		31.250000
6433		35.156250
6434		35.156250
6435		41.015625
6436		37.109375
6437		42.968750
6438		41.015625
6439		46.875000
6440		44.921875
6441		50.781250
6442		48.828125
6443		54.687500
6444		52.734375
6445		58.593750
6446		56.640625
6447		62.500000
6448		60.546875
6449		66.406250
6450		64.453125
6451		68.359375
6452		68.359375
6453		72.265625
6454		70.312500
6455		76.171875
6456		74.218750
6457		80.078125
6458		78.125000
6459		82.031250
6460		82.031250
6461		85.937500
6462		83.984375
6463		87.890625
6464		85.937500
6465		91.796875
6466		89.843750
6467		95.703125
6468		93.750000
6469		97.656250
6470		95.703125
6471		99.609375
6472		99.609375
6473		103.515625
6474		101.562500
6475		105.468750
6476		103.515625
6477		107.421875
6478		105.468750
6479		111.328125
6480		109.375000
6481		113.281250
6482		111.328125
6483		115.234375
6484		113.281250
6485		117.187500
6486		115.234375
6487		119.140625
6488		117.187500
6489		121.093750
6490		121.093750
6491		123.046875
6492		123.046875
6493		126.953125
6494		125.000000
6495		126.953125
6496		125.000000
6497		128.906250
6498		126.953125
6499		130.859375
6500		128.906250
6501		132.812500
6502		130.859375
6503		134.765625
6504		132.812500
6505		136.718750
6506		132.812500
6507		136.718750
6508		134.765625
6509		138.671875
6510		136.718750
6511		138.671875
6512		136.718750
6513		140.625000
6514		138.671875
6515		140.625000
6516		138.671875
6517		142.578125
6518		140.625000
6519		142.578125
6520		140.625000
6521		144.531250
6522		142.578125
6523		144.531250
6524		142.578125
6525		144.531250
6526		142.578125
6527		146.484375
6528		142.578125
6529		146.484375
6530		144.531250
6531		146.484375
6532		142.578125
6533		148.437500
6534		144.531250
6535		146.484375
6536		144.531250
6537		146.484375
6538		144.531250
6539		146.484375
6540		144.531250
6541		146.484375
6542		144.531250
6543		148.437500
6544		144.531250
6545		146.484375
6546		144.531250
6547		146.484375
6548		144.531250
6549		146.484375
6550		140.625000
6551		146.484375
6552		142.578125
6553		144.531250
6554		142.578125
6555		144.531250
6556		140.625000
6557		144.531250
6558		140.625000
6559		142.578125
6560		140.625000
6561		142.578125
6562		138.671875
6563		140.625000
6564		136.718750
6565		140.625000
6566		134.765625
6567		140.625000
6568		132.812500
6569		140.625000
6570		134.765625
6571		136.718750
6572		132.812500
6573		134.765625
6574		130.859375
6575		134.765625
6576		128.906250
6577		132.812500
6578		126.953125
6579		130.859375
6580		126.953125
6581		128.906250
6582		125.000000
6583		126.953125
6584		121.093750
6585		126.953125
6586		119.140625
6587		125.000000
6588		117.187500
6589		121.093750
6590		115.234375
6591		119.140625
6592		113.281250
6593		117.187500
6594		111.328125
6595		115.234375
6596		109.375000
6597		113.281250
6598		105.468750
6599		109.375000
6600		101.562500
6601		109.375000
6602		99.609375
6603		107.421875
6604		97.656250
6605		101.562500
6606		93.750000
6607		99.609375
6608		91.796875
6609		97.656250
6610		89.843750
6611		93.750000
6612		85.937500
6613		89.843750
6614		82.031250
6615		87.890625
6616		78.125000
6617		83.984375
6618		74.218750
6619		83.984375
6620		72.265625
6621		80.078125
6622		70.312500
6623		74.218750
6624		66.406250
6625		70.312500
6626		62.500000
6627		66.406250
6628		58.593750
6629		62.500000
6630		54.687500
6631		60.546875
6632		50.781250
6633		56.640625
6634		46.875000
6635		52.734375
6636		42.968750
6637		48.828125
6638		39.062500
6639		44.921875
6640		35.156250
6641		41.015625
6642		31.250000
6643		37.109375
6644		27.343750
6645		33.203125
6646		23.437500
6647		29.296875
6648		19.531250
6649		25.390625
6650		13.671875
6651		19.531250
6652		9.765625
6653		17.578125
6654		5.859375
6655		13.671875
6656		1.953125
6657		7.812500
6658		-1.953125
6659		3.906250
6660		-5.859375
6661		0.000000
6662		-9.765625
6663		-3.906250
6664		-15.625000
6665		-9.765625
6666		-19.531250
6667		-13.671875
6668		-23.437500
6669		-15.625000
6670		-27.343750
6671		-21.484375
6672		-31.250000
6673		-27.343750
6674		-37.109375
6675		-31.250000
6676		-41.015625
6677		-35.156250
6678		-44.921875
6679		-39.062500
6680		-48.828125
6681		-42.968750
6682		-52.734375
6683		-46.875000
6684		-58.593750
6685		-52.734375
6686		-62.500000
6687		-54.687500
6688		-66.406250
6689		-60.546875
6690		-70.312500
6691		-64.453125
6692		-74.218750
6693		-68.359375
6694		-78.125000
6695		-72.265625
6696		-82.031250
6697		-76.171875
6698		-85.937500
6699		-80.078125
6700		-89.843750
6701		-83.984375
6702		-95.703125
6703		-85.937500
6704		-97.656250
6705		-89.843750
6706		-101.562500
6707		-95.703125
6708		-105.468750
6709		-99.609375
6710		-107.421875
6711		-103.515625
6712		-111.328125
6713		-105.468750
6714		-115.234375
6715		-109.375000
6716		-117.187500
6717		-113.281250
6718		-123.046875
6719		-115.234375
6720		-125.000000
6721		-119.140625
6722		-126.953125
6723		-123.046875
6724		-130.859375
6725		-126.953125
6726		-134.765625
6727		-128.906250
6728		-136.718750
6729		-132.812500
6730		-138.671875
6731		-134.765625
6732		-142.578125
6733		-136.718750
6734		-146.484375
6735		-140.625000
6736		-150.390625
6737		-140.625000
6738		-148.437500
6739		-144.531250
6740		-150.390625
6741		-148.437500
6742		-154.296875
6743		-150.390625
6744		-156.250000
6745		-152.343750
6746		-158.203125
6747		-154.296875
6748		-160.156250
6749		-156.250000
6750		-162.109375
6751		-156.250000
6752		-164.062500
6753		-158.203125
6754		-164.062500
6755		-160.156250
6756		-166.015625
6757		-162.109375
6758		-166.015625
6759		-164.062500
6760		-167.968750
6761		-164.062500
6762		-167.968750
6763		-166.015625
6764		-169.921875
6765		-166.015625
6766		-169.921875
6767		-167.968750
6768		-171.875000
6769		-167.968750
6770		-171.875000
6771		-167.968750
6772		-171.875000
6773		-167.968750
6774		-171.875000
6775		-169.921875
6776		-171.875000
6777		-167.968750
6778		-171.875000
6779		-169.921875
6780		-171.875000
6781		-167.968750
6782		-171.875000
6783		-167.968750
6784		-169.921875
6785		-167.968750
6786		-171.875000
6787		-166.015625
6788		-167.968750
6789		-166.015625
6790		-167.968750
6791		-166.015625
6792		-167.968750
6793		-164.062500
6794		-166.015625
6795		-162.109375
6796		-164.062500
6797		-162.109375
6798		-164.062500
6799		-160.156250
6800		-162.109375
6801		-158.203125
6802		-160.156250
6803		-156.250000
6804		-158.203125
6805		-154.296875
6806		-156.250000
6807		-152.343750
6808		-154.296875
6809		-150.390625
6810		-152.343750
6811		-148.437500
6812		-150.390625
6813		-146.484375
6814		-148.437500
6815		-142.578125
6816		-146.484375
6817		-140.625000
6818		-142.578125
6819		-138.671875
6820		-140.625000
6821		-136.718750
6822		-136.718750
6823		-132.812500
6824		-134.765625
6825		-130.859375
6826		-132.812500
6827		-126.953125
6828		-128.906250
6829		-125.000000
6830		-125.000000
6831		-121.093750
6832		-123.046875
6833		-117.187500
6834		-119.140625
6835		-113.281250
6836		-115.234375
6837		-109.375000
6838		-113.281250
6839		-107.421875
6840		-107.421875
6841		-103.515625
6842		-103.515625
6843		-99.609375
6844		-101.562500
6845		-95.703125
6846		-97.656250
6847		-91.796875
6848		-93.750000
6849		-87.890625
6850		-89.843750
6851		-83.984375
6852		-85.937500
6853		-80.078125
6854		-80.078125
6855		-76.171875
6856		-76.171875
6857		-70.312500
6858		-72.265625
6859		-66.406250
6860		-68.359375
6861		-62.500000
6862		-64.453125
6863		-58.593750
6864		-60.546875
6865		-54.687500
6866		-56.640625
6867		-50.781250
6868		-50.781250
6869		-44.921875
6870		-46.875000
6871		-41.015625
6872		-42.968750
6873		-37.109375
6874		-39.062500
6875		-33.203125
6876		-33.203125
6877		-27.343750
6878		-29.296875
6879		-23.437500
6880		-25.390625
6881		-19.531250
6882		-21.484375
6883		-15.625000
6884		-15.625000
6885		-9.765625
6886		-11.718750
6887		-5.859375
6888		-7.812500
6889		-1.953125
6890		-3.906250
6891		1.953125
6892		1.953125
6893		5.859375
6894		5.859375
6895		11.718750
6896		9.765625
6897		15.625000
6898		13.671875
6899		19.531250
6900		17.578125
6901		23.437500
6902		21.484375
6903		27.343750
6904		25.390625
6905		31.250000
6906		29.296875
6907		35.156250
6908		35.156250
6909		39.062500
6910		39.062500
6911		42.968750
6912		42.968750
6913		46.875000
6914		46.875000
6915		50.781250
6916		48.828125
6917		54.687500
6918		52.734375
6919		58.593750
6920		56.640625
6921		62.500000
6922		60.546875
6923		66.406250
6924		64.453125
6925		70.312500
6926		68.359375
6927		72.265625
6928		70.312500
6929		76.171875
6930		74.218750
6931		80.078125
6932		78.125000
6933		82.031250
6934		82.031250
6935		85.937500
6936		83.984375
6937		89.843750
6938		87.890625
6939		91.796875
6940		89.843750
6941		95.703125
6942		93.750000
6943		97.656250
6944		95.703125
6945		101.562500
6946		99.609375
6947		103.515625
6948		101.562500
6949		105.468750
6950		103.515625
6951		107.421875
6952		107.421875
6953		111.328125
6954		109.375000
6955		113.281250
6956		111.328125
6957		115.234375
6958		113.281250
6959		117.187500
6960		115.234375
6961		119.140625
6962		119.140625
6963		121.093750
6964		121.093750
6965		123.046875
6966		123.046875
6967		125.000000
6968		125.000000
6969		126.953125
6970		126.953125
6971		128.906250
6972		126.953125
6973		130.859375
6974		128.906250
6975		132.812500
6976		130.859375
6977		134.765625
6978		132.812500
6979		134.765625
6980		134.765625
6981		136.718750
6982		134.765625
6983		138.671875
6984		136.718750
6985		138.671875
6986		136.718750
6987		140.625000
6988		138.671875
6989		140.625000
6990		140.625000
6991		142.578125
6992		140.625000
6993		142.578125
6994		140.625000
6995		144.531250
6996		142.578125
6997		144.531250
6998		142.578125
6999		144.531250
7000		142.578125
7001		146.484375
7002		144.531250
7003		146.484375
7004		144.531250
7005		146.484375
7006		144.531250
7007		146.484375
7008		144.531250
7009		146.484375
7010		144.531250
7011		146.484375
7012		144.531250
7013		146.484375
7014		144.531250
7015		146.484375
7016		144.531250
7017		146.484375
7018		144.531250
7019		146.484375
7020		144.531250
7021		146.484375
7022		144.531250
7023		146.484375
7024		142.578125
7025		146.484375
7026		142.578125
7027		144.531250
7028		142.578125
7029		144.531250
7030		140.625000
7031		144.531250
7032		140.625000
7033		142.578125
7034		138.671875
7035		142.578125
7036		138.671875
7037		142.578125
7038		136.718750
7039		140.625000
7040		136.718750
7041		138.671875
7042		134.765625
7043		138.671875
7044		132.812500
7045		136.718750
7046		132.812500
7047		134.765625
7048		130.859375
7049		134.765625
7050		128.906250
7051		132.812500
7052		126.953125
7053		130.859375
7054		125.000000
7055		128.906250
7056		123.046875
7057		126.953125
7058		121.093750
7059		125.000000
7060		119.140625
7061		123.046875
7062		117.187500
7063		121.093750
7064		115.234375
7065		119.140625
7066		113.281250
7067		117.187500
7068		111.328125
7069		115.234375
7070		109.375000
7071		113.281250
7072		105.468750
7073		109.375000
7074		103.515625
7075		107.421875
7076		101.562500
7077		105.468750
7078		97.656250
7079		101.562500
7080		95.703125
7081		99.609375
7082		91.796875
7083		95.703125
7084		87.890625
7085		93.750000
7086		85.937500
7087		89.843750
7088		82.031250
7089		87.890625
7090		80.078125
7091		83.984375
7092		76.171875
7093		80.078125
7094		72.265625
7095		78.125000
7096		68.359375
7097		74.218750
7098		66.406250
7099		70.312500
7100		62.500000
7101		66.406250
7102		58.593750
7103		62.500000
7104		54.687500
7105		60.546875
7106		50.781250
7107		54.687500
7108		46.875000
7109		52.734375
7110		42.968750
7111		48.828125
7112		39.062500
7113		44.921875
7114		35.156250
7115		41.015625
7116		31.250000
7117		37.109375
7118		27.343750
7119		33.203125
7120		23.437500
7121		27.343750
7122		17.578125
7123		23.437500
7124		13.671875
7125		19.531250
7126		9.765625
7127		15.625000
7128		5.859375
7129		11.718750
7130		1.953125
7131		7.812500
7132		-1.953125
7133		3.906250
7134		-7.812500
7135		-1.953125
7136		-11.718750
7137		-5.859375
7138		-15.625000
7139		-9.765625
7140		-19.531250
7141		-13.671875
7142		-23.437500
7143		-17.578125
7144		-27.343750
7145		-21.484375
7146		-33.203125
7147		-27.343750
7148		-37.109375
7149		-31.250000
7150		-41.015625
7151		-35.156250
7152		-44.921875
7153		-39.062500
7154		-48.828125
7155		-44.921875
7156		-54.687500
7157		-48.828125
7158		-58.593750
7159		-52.734375
7160		-62.500000
7161		-56.640625
7162		-66.406250
7163		-60.546875
7164		-70.312500
7165		-64.453125
7166		-74.218750
7167		-68.359375
7168		-78.125000
7169		-72.265625
7170		-82.031250
7171		-76.171875
7172		-85.937500
7173		-80.078125
7174		-89.843750
7175		-83.984375
7176		-93.750000
7177		-87.890625
7178		-97.656250
7179		-91.796875
7180		-101.562500
7181		-95.703125
7182		-105.468750
7183		-99.609375
7184		-107.421875
7185		-103.515625
7186		-111.328125
7187		-107.421875
7188		-115.234375
7189		-111.328125
7190		-119.140625
7191		-113.281250
7192		-121.093750
7193		-117.187500
7194		-125.000000
7195		-119.140625
7196		-128.906250
7197		-123.046875
7198		-130.859375
7199		-126.953125
7200		-134.765625
7201		-130.859375
7202		-136.718750
7203		-132.812500
7204		-140.625000
7205		-134.765625
7206		-142.578125
7207		-138.671875
7208		-144.531250
7209		-140.625000
7210		-146.484375
7211		-142.578125
7212		-150.390625
7213		-146.484375
7214		-152.343750
7215		-148.437500
7216		-154.296875
7217		-150.390625
7218		-156.250000
7219		-152.343750
7220		-158.203125
7221		-154.296875
7222		-160.156250
7223		-156.250000
7224		-160.156250
7225		-158.203125
7226		-162.109375
7227		-160.156250
7228		-164.062500
7229		-160.156250
7230		-166.015625
7231		-162.109375
7232		-167.968750
7233		-164.062500
7234		-167.968750
7235		-164.062500
7236		-167.968750
7237		-166.015625
7238		-167.968750
7239		-166.015625
7240		-169.921875
7241		-166.015625
7242		-169.921875
7243		-167.968750
7244		-171.875000
7245		-167.968750
7246		-169.921875
7247		-167.968750
7248		-169.921875
7249		-167.968750
7250		-171.875000
7251		-167.968750
7252		-169.921875
7253		-167.968750
7254		-169.921875
7255		-167.968750
7256		-169.921875
7257		-166.015625
7258		-169.921875
7259		-166.015625
7260		-167.968750
7261		-166.015625
7262		-167.968750
7263		-166.015625
7264		-166.015625
7265		-164.062500
7266		-166.015625
7267		-162.109375
7268		-166.015625
7269		-162.109375
7270		-164.062500
7271		-160.156250
7272		-162.109375
7273		-158.203125
7274		-160.156250
7275		-156.250000
7276		-158.203125
7277		-154.296875
7278		-156.250000
7279		-152.343750
7280		-156.250000
7281		-150.390625
7282		-152.343750
7283		-148.437500
7284		-150.390625
7285		-146.484375
7286		-148.437500
7287		-144.531250
7288		-146.484375
7289		-142.578125
7290		-144.531250
7291		-138.671875
7292		-140.625000
7293		-136.718750
7294		-138.671875
7295		-134.765625
7296		-134.765625
7297		-130.859375
7298		-132.812500
7299		-126.953125
7300		-128.906250
7301		-125.000000
7302		-126.953125
7303		-121.093750
7304		-123.046875
7305		-117.187500
7306		-119.140625
7307		-115.234375
7308		-117.187500
7309		-111.328125
7310		-113.281250
7311		-107.421875
7312		-109.375000
7313		-103.515625
7314		-105.468750
7315		-99.609375
7316		-101.562500
7317		-95.703125
7318		-97.656250
7319		-91.796875
7320		-93.750000
7321		-87.890625
7322		-89.843750
7323		-83.984375
7324		-85.937500
7325		-80.078125
7326		-82.031250
7327		-76.171875
7328		-78.125000
7329		-72.265625
7330		-74.218750
7331		-68.359375
7332		-70.312500
7333		-64.453125
7334		-64.453125
7335		-60.546875
7336		-60.546875
7337		-54.687500
7338		-56.640625
7339		-50.781250
7340		-52.734375
7341		-46.875000
7342		-48.828125
7343		-42.968750
7344		-42.968750
7345		-37.109375
7346		-39.062500
7347		-33.203125
7348		-35.156250
7349		-29.296875
7350		-31.250000
7351		-25.390625
7352		-27.343750
7353		-21.484375
7354		-21.484375
7355		-15.625000
7356		-17.578125
7357		-11.718750
7358		-13.671875
7359		-7.812500
7360		-9.765625
7361		-3.906250
7362		-3.906250
7363		0.000000
7364		0.000000
7365		5.859375
7366		3.906250
7367		9.765625
7368		7.812500
7369		13.671875
7370		11.718750
7371		17.578125
7372		17.578125
7373		21.484375
7374		21.484375
7375		25.390625
7376		25.390625
7377		29.296875
7378		29.296875
7379		35.156250
7380		33.203125
7381		39.062500
7382		37.109375
7383		42.968750
7384		41.015625
7385		46.875000
7386		44.921875
7387		50.781250
7388		48.828125
7389		52.734375
7390		52.734375
7391		56.640625
7392		56.640625
7393		60.546875
7394		60.546875
7395		64.453125
7396		62.500000
7397		68.359375
7398		66.406250
7399		72.265625
7400		70.312500
7401		74.218750
7402		74.218750
7403		78.125000
7404		76.171875
7405		82.031250
7406		80.078125
7407		83.984375
7408		83.984375
7409		87.890625
7410		85.937500
7411		89.843750
7412		89.843750
7413		93.750000
7414		91.796875
7415		95.703125
7416		95.703125
7417		99.609375
7418		97.656250
7419		103.515625
7420		101.562500
7421		105.468750
7422		103.515625
7423		107.421875
7424		105.468750
7425		109.375000
7426		107.421875
7427		111.328125
7428		111.328125
7429		115.234375
7430		113.281250
7431		117.187500
7432		115.234375
7433		119.140625
7434		117.187500
7435		121.093750
7436		119.140625
7437		123.046875
7438		121.093750
7439		125.000000
7440		123.046875
7441		126.953125
7442		125.000000
7443		128.906250
7444		126.953125
7445		130.859375
7446		128.906250
7447		132.812500
7448		130.859375
7449		132.812500
7450		132.812500
7451		134.765625
7452		132.812500
7453		136.718750
7454		134.765625
7455		138.671875
7456		136.718750
7457		138.671875
7458		136.718750
7459		140.625000
7460		138.671875
7461		140.625000
7462		138.671875
7463		142.578125
7464		140.625000
7465		142.578125
7466		140.625000
7467		144.531250
7468		142.578125
7469		144.531250
7470		142.578125
7471		144.531250
7472		142.578125
7473		146.484375
7474		142.578125
7475		146.484375
7476		144.531250
7477		146.484375
7478		144.531250
7479		146.484375
7480		144.531250
7481		146.484375
7482		144.531250
7483		146.484375
7484		144.531250
7485		148.437500
7486		144.531250
7487		148.437500
7488		144.531250
7489		146.484375
7490		144.531250
7491		148.437500
7492		144.531250
7493		146.484375
7494		144.531250
7495		146.484375
7496		144.531250
7497		146.484375
7498		142.578125
7499		146.484375
7500		142.578125
7501		144.531250
7502		142.578125
7503		144.531250
7504		140.625000
7505		144.531250
7506		140.625000
7507		142.578125
7508		138.671875
7509		142.578125
7510		138.671875
7511		140.625000
7512		136.718750
7513		140.625000
7514		136.718750
7515		138.671875
7516		134.765625
7517		138.671875
7518		132.812500
7519		136.718750
7520		132.812500
7521		134.765625
7522		130.859375
7523		134.765625
7524		128.906250
7525		132.812500
7526		126.953125
7527		130.859375
7528		125.000000
7529		128.906250
7530		123.046875
7531		126.953125
7532		121.093750
7533		125.000000
7534		119.140625
7535		123.046875
7536		117.187500
7537		121.093750
7538		115.234375
7539		119.140625
7540		113.281250
7541		117.187500
7542		109.375000
7543		115.234375
7544		107.421875
7545		111.328125
7546		105.468750
7547		109.375000
7548		101.562500
7549		107.421875
7550		99.609375
7551		103.515625
7552		97.656250
7553		101.562500
7554		93.750000
7555		97.656250
7556		91.796875
7557		95.703125
7558		87.890625
7559		91.796875
7560		83.984375
7561		89.843750
7562		82.031250
7563		85.937500
7564		78.125000
7565		83.984375
7566		74.218750
7567		80.078125
7568		72.265625
7569		76.171875
7570		68.359375
7571		72.265625
7572		64.453125
7573		68.359375
7574		60.546875
7575		66.406250
7576		56.640625
7577		62.500000
7578		52.734375
7579		58.593750
7580		48.828125
7581		54.687500
7582		44.921875
7583		50.781250
7584		41.015625
7585		46.875000
7586		37.109375
7587		42.968750
7588		33.203125
7589		39.062500
7590		29.296875
7591		35.156250
7592		25.390625
7593		31.250000
7594		21.484375
7595		27.343750
7596		15.625000
7597		23.437500
7598		11.718750
7599		17.578125
7600		5.859375
7601		13.671875
7602		3.906250
7603		9.765625
7604		0.000000
7605		5.859375
7606		-3.906250
7607		1.953125
7608		-7.812500
7609		-1.953125
7610		-11.718750
7611		-7.812500
7612		-19.531250
7613		-11.718750
7614		-21.484375
7615		-15.625000
7616		-25.390625
7617		-19.531250
7618		-29.296875
7619		-23.437500
7620		-35.156250
7621		-27.343750
7622		-39.062500
7623		-33.203125
7624		-42.968750
7625		-37.109375
7626		-46.875000
7627		-41.015625
7628		-50.781250
7629		-44.921875
7630		-54.687500
7631		-46.875000
7632		-58.593750
7633		-54.687500
7634		-64.453125
7635		-56.640625
7636		-66.406250
7637		-62.500000
7638		-72.265625
7639		-62.500000
7640		-76.171875
7641		-70.312500
7642		-80.078125
7643		-74.218750
7644		-83.984375
7645		-76.171875
7646		-87.890625
7647		-82.031250
7648		-91.796875
7649		-85.937500
7650		-95.703125
7651		-89.843750
7652		-97.656250
7653		-91.796875
7654		-101.562500
7655		-97.656250
7656		-105.468750
7657		-99.609375
7658		-109.375000
7659		-103.515625
7660		-115.234375
7661		-107.421875
7662		-117.187500
7663		-109.375000
7664		-119.140625
7665		-113.281250
7666		-123.046875
7667		-117.187500
7668		-126.953125
7669		-119.140625
7670		-128.906250
7671		-125.000000
7672		-132.812500
7673		-125.000000
7674		-134.765625
7675		-130.859375
7676		-138.671875
7677		-132.812500
7678		-142.578125
7679		-134.765625
7680		-144.531250
7681		-136.718750
7682		-146.484375
7683		-140.625000
7684		-150.390625
7685		-142.578125
7686		-152.343750
7687		-142.578125
7688		-154.296875
7689		-146.484375
7690		-154.296875
7691		-150.390625
7692		-156.250000
7693		-152.343750
7694		-158.203125
7695		-152.343750
7696		-162.109375
7697		-152.343750
7698		-160.156250
7699		-156.250000
7700		-164.062500
7701		-158.203125
7702		-166.015625
7703		-158.203125
7704		-167.968750
7705		-160.156250
7706		-166.015625
7707		-162.109375
7708		-166.015625
7709		-164.062500
7710		-169.921875
7711		-164.062500
7712		-171.875000
7713		-162.109375
7714		-169.921875
7715		-164.062500
7716		-169.921875
7717		-166.015625
7718		-173.828125
7719		-164.062500
7720		-171.875000
7721		-164.062500
7722		-173.828125
7723		-164.062500
7724		-169.921875
7725		-166.015625
7726		-171.875000
7727		-166.015625
7728		-171.875000
7729		-164.062500
7730		-171.875000
7731		-164.062500
7732		-167.968750
7733		-166.015625
7734		-169.921875
7735		-162.109375
7736		-169.921875
7737		-160.156250
7738		-167.968750
7739		-160.156250
7740		-166.015625
7741		-162.109375
7742		-164.062500
7743		-160.156250
7744		-164.062500
7745		-158.203125
7746		-164.062500
7747		-154.296875
7748		-162.109375
7749		-154.296875
7750		-158.203125
7751		-154.296875
7752		-158.203125
7753		-148.437500
7754		-156.250000
7755		-148.437500
7756		-156.250000
7757		-146.484375
7758		-150.390625
7759		-146.484375
7760		-146.484375
7761		-142.578125
7762		-146.484375
7763		-138.671875
7764		-144.531250
7765		-136.718750
7766		-138.671875
7767		-134.765625
7768		-136.718750
7769		-128.906250
7770		-136.718750
7771		-126.953125
7772		-132.812500
7773		-125.000000
7774		-128.906250
7775		-123.046875
7776		-125.000000
7777		-119.140625
7778		-123.046875
7779		-115.234375
7780		-121.093750
7781		-111.328125
7782		-115.234375
7783		-109.375000
7784		-111.328125
7785		-105.468750
7786		-109.375000
7787		-99.609375
7788		-103.515625
7789		-95.703125
7790		-99.609375
7791		-93.750000
7792		-95.703125
7793		-89.843750
7794		-91.796875
7795		-85.937500
7796		-89.843750
7797		-80.078125
7798		-83.984375
7799		-78.125000
7800		-80.078125
7801		-74.218750
7802		-78.125000
7803		-66.406250
7804		-74.218750
7805		-66.406250
7806		-68.359375
7807		-62.500000
7808		-62.500000
7809		-58.593750
7810		-58.593750
7811		-52.734375
7812		-54.687500
7813		-44.921875
7814		-52.734375
7815		-44.921875
7816		-46.875000
7817		-41.015625
7818		-41.015625
7819		-35.156250
7820		-41.015625
7821		-29.296875
7822		-33.203125
7823		-25.390625
7824		-29.296875
7825		-23.437500
7826		-25.390625
7827		-19.531250
7828		-19.531250
7829		-13.671875
7830		-17.578125
7831		-9.765625
7832		-13.671875
7833		-5.859375
7834		-7.812500
7835		-1.953125
7836		-3.906250
7837		5.859375
7838		-1.953125
7839		7.812500
7840		3.906250
7841		11.718750
7842		9.765625
7843		15.625000
7844		13.671875
7845		21.484375
7846		17.578125
7847		27.343750
7848		21.484375
7849		29.296875
7850		27.343750
7851		31.250000
7852		31.250000
7853		39.062500
7854		31.250000
7855		41.015625
7856		37.109375
7857		44.921875
7858		42.968750
7859		46.875000
7860		46.875000
7861		50.781250
7862		48.828125
7863		56.640625
7864		50.781250
7865		60.546875
7866		56.640625
7867		62.500000
7868		60.546875
7869		68.359375
7870		64.453125
7871		70.312500
7872		68.359375
7873		76.171875
7874		72.265625
7875		76.171875
7876		74.218750
7877		80.078125
7878		78.125000
7879		82.031250
7880		80.078125
7881		87.890625
7882		82.031250
7883		89.843750
7884		87.890625
7885		91.796875
7886		89.843750
7887		95.703125
7888		93.750000
7889		97.656250
7890		97.656250
7891		101.562500
7892		99.609375
7893		103.515625
7894		101.562500
7895		105.468750
7896		105.468750
7897		109.375000
7898		105.468750
7899		113.281250
7900		107.421875
7901		113.281250
7902		111.328125
7903		117.187500
7904		111.328125
7905		117.187500
7906		117.187500
7907		121.093750
7908		119.140625
7909		123.046875
7910		121.093750
7911		123.046875
7912		123.046875
7913		126.953125
7914		125.000000
7915		126.953125
7916		126.953125
7917		128.906250
7918		128.906250
7919		130.859375
7920		128.906250
7921		132.812500
7922		130.859375
7923		134.765625
7924		130.859375
7925		136.718750
7926		134.765625
7927		136.718750
7928		134.765625
7929		138.671875
7930		136.718750
7931		138.671875
7932		138.671875
7933		140.625000
7934		138.671875
7935		142.578125
7936		140.625000
7937		142.578125
7938		140.625000
7939		142.578125
7940		140.625000
7941		144.531250
7942		142.578125
7943		144.531250
7944		142.578125
7945		144.531250
7946		142.578125
7947		146.484375
7948		142.578125
7949		148.437500
7950		142.578125
7951		148.437500
7952		142.578125
7953		148.437500
7954		142.578125
7955		148.437500
7956		144.531250
7957		148.437500
7958		144.531250
7959		148.437500
7960		144.531250
7961		148.437500
7962		142.578125
7963		148.437500
7964		142.578125
7965		148.437500
7966		142.578125
7967		148.437500
7968		142.578125
7969		148.437500
7970		142.578125
7971		148.437500
7972		142.578125
7973		146.484375
7974		140.625000
7975		146.484375
7976		140.625000
7977		144.531250
7978		140.625000
7979		144.531250
7980		138.671875
7981		144.531250
7982		136.718750
7983		142.578125
7984		134.765625
7985		142.578125
7986		134.765625
7987		140.625000
7988		134.765625
7989		140.625000
7990		132.812500
7991		138.671875
7992		132.812500
7993		136.718750
7994		130.859375
7995		134.765625
7996		128.906250
7997		132.812500
7998		126.953125
7999		132.812500
8000		125.000000
8001		130.859375
8002		123.046875
8003		130.859375
8004		121.093750
8005		128.906250
8006		119.140625
8007		125.000000
8008		119.140625
8009		123.046875
8010		115.234375
8011		119.140625
8012		113.281250
8013		117.187500
8014		111.328125
8015		117.187500
8016		107.421875
8017		113.281250
8018		103.515625
8019		111.328125
8020		103.515625
8021		109.375000
8022		99.609375
8023		105.468750
8024		97.656250
8025		103.515625
8026		95.703125
8027		99.609375
8028		91.796875
8029		97.656250
8030		87.890625
8031		95.703125
8032		85.937500
8033		91.796875
8034		82.031250
8035		87.890625
8036		80.078125
8037		85.937500
8038		76.171875
8039		82.031250
8040		72.265625
8041		78.125000
8042		70.312500
8043		76.171875
8044		66.406250
8045		70.312500
8046		62.500000
8047		66.406250
8048		58.593750
8049		64.453125
8050		54.687500
8051		60.546875
8052		48.828125
8053		56.640625
8054		46.875000
8055		52.734375
8056		42.968750
8057		50.781250
8058		39.062500
8059		44.921875
8060		35.156250
8061		41.015625
8062		31.250000
8063		37.109375
8064		27.343750
8065		33.203125
8066		23.437500
8067		29.296875
8068		15.625000
8069		25.390625
8070		15.625000
8071		21.484375
8072		9.765625
8073		15.625000
8074		5.859375
8075		11.718750
8076		1.953125
8077		7.812500
8078		-1.953125
8079		3.906250
8080		-5.859375
8081		0.000000
8082		-9.765625
8083		-3.906250
8084		-15.625000
8085		-7.812500
8086		-19.531250
8087		-11.718750
8088		-23.437500
8089		-17.578125
8090		-27.343750
8091		-21.484375
8092		-31.250000
8093		-25.390625
8094		-37.109375
8095		-29.296875
8096		-41.015625
8097		-35.156250
8098		-44.921875
8099		-39.062500
8100		-48.828125
8101		-42.968750
8102		-54.687500
8103		-46.875000
8104		-58.593750
8105		-50.781250
8106		-60.546875
8107		-54.687500
8108		-66.406250
8109		-58.593750
8110		-68.359375
8111		-64.453125
8112		-74.218750
8113		-68.359375
8114		-78.125000
8115		-70.312500
8116		-82.031250
8117		-76.171875
8118		-85.937500
8119		-80.078125
8120		-89.843750
8121		-82.031250
8122		-93.750000
8123		-87.890625
8124		-97.656250
8125		-91.796875
8126		-99.609375
8127		-95.703125
8128		-103.515625
8129		-99.609375
8130		-107.421875
8131		-101.562500
8132		-111.328125
8133		-105.468750
8134		-115.234375
8135		-109.375000
8136		-119.140625
8137		-113.281250
8138		-121.093750
8139		-117.187500
8140		-125.000000
8141		-119.140625
8142		-126.953125
8143		-123.046875
8144		-130.859375
8145		-125.000000
8146		-132.812500
8147		-128.906250
8148		-136.718750
8149		-130.859375
8150		-138.671875
8151		-134.765625
8152		-142.578125
8153		-136.718750
8154		-144.531250
8155		-138.671875
8156		-146.484375
8157		-142.578125
8158		-148.437500
8159		-144.531250
8160		-150.390625
8161		-146.484375
8162		-152.343750
8163		-148.437500
8164		-154.296875
8165		-150.390625
8166		-156.250000
8167		-152.343750
8168		-158.203125
8169		-154.296875
8170		-160.156250
8171		-156.250000
8172		-162.109375
8173		-158.203125
8174		-162.109375
8175		-160.156250
8176		-164.062500
8177		-160.156250
8178		-166.015625
8179		-162.109375
8180		-167.968750
8181		-162.109375
8182		-167.968750
8183		-164.062500
8184		-167.968750
8185		-164.062500
8186		-169.921875
8187		-164.062500
8188		-169.921875
8189		-166.015625
8190		-169.921875
8191		-166.015625
8192		-169.921875
8193		-166.015625
8194		-169.921875
8195		-166.015625
8196		-169.921875
8197		-166.015625
8198		-169.921875
8199		-166.015625
8200		-169.921875
8201		-166.015625
8202		-169.921875
8203		-166.015625
8204		-167.968750
8205		-164.062500
8206		-167.968750
8207		-164.062500
8208		-167.968750
8209		-164.062500
8210		-167.968750
8211		-162.109375
8212		-164.062500
8213		-162.109375
8214		-164.062500
8215		-160.156250
8216		-162.109375
8217		-158.203125
8218		-162.109375
8219		-156.250000
8220		-160.156250
8221		-156.250000
8222		-158.203125
8223		-154.296875
8224		-156.250000
8225		-152.343750
8226		-154.296875
8227		-150.390625
8228		-152.343750
8229		-148.437500
8230		-150.390625
8231		-146.484375
8232		-148.437500
8233		-144.531250
8234		-146.484375
8235		-140.625000
8236		-142.578125
8237		-138.671875
8238		-140.625000
8239		-136.718750
8240		-138.671875
8241		-132.812500
8242		-134.765625
8243		-128.906250
8244		-132.812500
8245		-126.953125
8246		-128.906250
8247		-125.000000
8248		-126.953125
8249		-121.093750
8250		-123.046875
8251		-117.187500
8252		-119.140625
8253		-115.234375
8254		-115.234375
8255		-111.328125
8256		-111.328125
8257		-107.421875
8258		-109.375000
8259		-103.515625
8260		-105.468750
8261		-99.609375
8262		-101.562500
8263		-95.703125
8264		-97.656250
8265		-91.796875
8266		-93.750000
8267		-87.890625
8268		-89.843750
8269		-83.984375
8270		-85.937500
8271		-80.078125
8272		-82.031250
8273		-76.171875
8274		-78.125000
8275		-72.265625
8276		-74.218750
8277		-66.406250
8278		-68.359375
8279		-64.453125
8280		-64.453125
8281		-60.546875
8282		-60.546875
8283		-54.687500
8284		-56.640625
8285		-50.781250
8286		-52.734375
8287		-46.875000
8288		-48.828125
8289		-42.968750
8290		-44.921875
8291		-39.062500
8292		-39.062500
8293		-33.203125
8294		-35.156250
8295		-29.296875
8296		-31.250000
8297		-25.390625
8298		-27.343750
8299		-19.531250
8300		-21.484375
8301		-15.625000
8302		-17.578125
8303		-11.718750
8304		-13.671875
8305		-7.812500
8306		-9.765625
8307		-3.906250
8308		-3.906250
8309		1.953125
8310		0.000000
8311		5.859375
8312		3.906250
8313		9.765625
8314		7.812500
8315		13.671875
8316		11.718750
8317		17.578125
8318		15.625000
8319		21.484375
8320		21.484375
8321		25.390625
8322		25.390625
8323		31.250000
8324		29.296875
8325		35.156250
8326		33.203125
8327		39.062500
8328		35.156250
8329		42.968750
8330		41.015625
8331		46.875000
8332		44.921875
8333		50.781250
8334		46.875000
8335		52.734375
8336		52.734375
8337		56.640625
8338		54.687500
8339		60.546875
8340		58.593750
8341		64.453125
8342		62.500000
8343		68.359375
8344		66.406250
8345		72.265625
8346		70.312500
8347		74.218750
8348		74.218750
8349		80.078125
8350		76.171875
8351		82.031250
8352		80.078125
8353		83.984375
8354		83.984375
8355		87.890625
8356		85.937500
8357		91.796875
8358		87.890625
8359		93.750000
8360		91.796875
8361		97.656250
8362		95.703125
8363		99.609375
8364		97.656250
8365		101.562500
8366		99.609375
8367		105.468750
8368		103.515625
8369		107.421875
8370		105.468750
8371		111.328125
8372		107.421875
8373		113.281250
8374		111.328125
8375		115.234375
8376		113.281250
8377		117.187500
8378		115.234375
8379		119.140625
8380		117.187500
8381		121.093750
8382		119.140625
8383		125.000000
8384		121.093750
8385		125.000000
8386		123.046875
8387		126.953125
8388		125.000000
8389		128.906250
8390		126.953125
8391		130.859375
8392		128.906250
8393		132.812500
8394		128.906250
8395		134.765625
8396		132.812500
8397		134.765625
8398		134.765625
8399		136.718750
8400		132.812500
8401		138.671875
8402		136.718750
8403		140.625000
8404		136.718750
8405		140.625000
8406		138.671875
8407		142.578125
8408		138.671875
8409		142.578125
8410		140.625000
8411		144.531250
8412		140.625000
8413		144.531250
8414		142.578125
8415		144.531250
8416		142.578125
8417		146.484375
8418		142.578125
8419		146.484375
8420		144.531250
8421		146.484375
8422		144.531250
8423		148.437500
8424		144.531250
8425		148.437500
8426		144.531250
8427		148.437500
8428		144.531250
8429		148.437500
8430		146.484375
8431		148.437500
8432		144.531250
8433		148.437500
8434		144.531250
8435		148.437500
8436		144.531250
8437		148.437500
8438		144.531250
8439		148.437500
8440		144.531250
8441		148.437500
8442		144.531250
8443		148.437500
8444		142.578125
8445		146.484375
8446		142.578125
8447		146.484375
8448		142.578125
8449		144.531250
8450		140.625000
8451		146.484375
8452		140.625000
8453		144.531250
8454		140.625000
8455		142.578125
8456		138.671875
8457		142.578125
8458		136.718750
8459		142.578125
8460		136.718750
8461		140.625000
8462		134.765625
8463		140.625000
8464		134.765625
8465		136.718750
8466		130.859375
8467		136.718750
8468		130.859375
8469		134.765625
8470		128.906250
8471		134.765625
8472		126.953125
8473		130.859375
8474		126.953125
8475		130.859375
8476		125.000000
8477		128.906250
8478		121.093750
8479		126.953125
8480		121.093750
8481		125.000000
8482		119.140625
8483		121.093750
8484		115.234375
8485		121.093750
8486		113.281250
8487		117.187500
8488		111.328125
8489		115.234375
8490		107.421875
8491		113.281250
8492		105.468750
8493		111.328125
8494		103.515625
8495		107.421875
8496		101.562500
8497		105.468750
8498		97.656250
8499		101.562500
8500		95.703125
8501		99.609375
8502		91.796875
8503		97.656250
8504		89.843750
8505		93.750000
8506		85.937500
8507		91.796875
8508		82.031250
8509		87.890625
8510		78.125000
8511		83.984375
8512		76.171875
8513		80.078125
8514		72.265625
8515		78.125000
8516		66.406250
8517		74.218750
8518		64.453125
8519		70.312500
8520		60.546875
8521		66.406250
8522		58.593750
8523		64.453125
8524		54.687500
8525		58.593750
8526		50.781250
8527		56.640625
8528		44.921875
8529		52.734375
8530		42.968750
8531		48.828125
8532		39.062500
8533		44.921875
8534		35.156250
8535		41.015625
8536		31.250000
8537		37.109375
8538		27.343750
8539		33.203125
8540		23.437500
8541		29.296875
8542		17.578125
8543		25.390625
8544		13.671875
8545		19.531250
8546		9.765625
8547		17.578125
8548		5.859375
8549		11.718750
8550		1.953125
8551		7.812500
8552		-1.953125
8553		3.906250
8554		-7.812500
8555		0.000000
8556		-11.718750
8557		-5.859375
8558		-15.625000
8559		-7.812500
8560		-19.531250
8561		-13.671875
8562		-23.437500
8563		-17.578125
8564		-27.343750
8565		-21.484375
8566		-33.203125
8567		-27.343750
8568		-37.109375
8569		-29.296875
8570		-41.015625
8571		-35.156250
8572		-44.921875
8573		-39.062500
8574		-48.828125
8575		-42.968750
8576		-52.734375
8577		-48.828125
8578		-58.593750
8579		-50.781250
8580		-62.500000
8581		-54.687500
8582		-66.406250
8583		-60.546875
8584		-70.312500
8585		-64.453125
8586		-74.218750
8587		-68.359375
8588		-78.125000
8589		-72.265625
8590		-82.031250
8591		-76.171875
8592		-85.937500
8593		-80.078125
8594		-89.843750
8595		-83.984375
8596		-93.750000
8597		-87.890625
8598		-97.656250
8599		-91.796875
8600		-103.515625
8601		-95.703125
8602		-105.468750
8603		-99.609375
8604		-107.421875
8605		-103.515625
8606		-111.328125
8607		-105.468750
8608		-115.234375
8609		-109.375000
8610		-119.140625
8611		-113.281250
8612		-123.046875
8613		-117.187500
8614		-125.000000
8615		-119.140625
8616		-126.953125
8617		-123.046875
8618		-130.859375
8619		-126.953125
8620		-132.812500
8621		-128.906250
8622		-136.718750
8623		-130.859375
8624		-138.671875
8625		-134.765625
8626		-142.578125
8627		-136.718750
8628		-144.531250
8629		-140.625000
8630		-146.484375
8631		-140.625000
8632		-148.437500
8633		-144.531250
8634		-150.390625
8635		-146.484375
8636		-152.343750
8637		-148.437500
8638		-156.250000
8639		-150.390625
8640		-156.250000
8641		-152.343750
8642		-158.203125
8643		-154.296875
8644		-160.156250
8645		-156.250000
8646		-162.109375
8647		-158.203125
8648		-162.109375
8649		-158.203125
8650		-164.062500
8651		-160.156250
8652		-164.062500
8653		-160.156250
8654		-166.015625
8655		-162.109375
8656		-166.015625
8657		-164.062500
8658		-167.968750
8659		-164.062500
8660		-167.968750
8661		-164.062500
8662		-167.968750
8663		-166.015625
8664		-167.968750
8665		-164.062500
8666		-167.968750
8667		-166.015625
8668		-169.921875
8669		-166.015625
8670		-169.921875
8671		-166.015625
8672		-167.968750
8673		-166.015625
8674		-167.968750
8675		-166.015625
8676		-167.968750
8677		-164.062500
8678		-167.968750
8679		-164.062500
8680		-167.968750
8681		-162.109375
8682		-166.015625
8683		-162.109375
8684		-164.062500
8685		-160.156250
8686		-164.062500
8687		-160.156250
8688		-164.062500
8689		-158.203125
8690		-162.109375
8691		-158.203125
8692		-160.156250
8693		-156.250000
8694		-158.203125
8695		-154.296875
8696		-156.250000
8697		-150.390625
8698		-156.250000
8699		-150.390625
8700		-152.343750
8701		-148.437500
8702		-150.390625
8703		-146.484375
8704		-150.390625
8705		-144.531250
8706		-146.484375
8707		-142.578125
8708		-144.531250
8709		-140.625000
8710		-140.625000
8711		-136.718750
8712		-138.671875
8713		-134.765625
8714		-136.718750
8715		-130.859375
8716		-132.812500
8717		-128.906250
8718		-130.859375
8719		-125.000000
8720		-128.906250
8721		-123.046875
8722		-125.000000
8723		-119.140625
8724		-121.093750
8725		-115.234375
8726		-117.187500
8727		-111.328125
8728		-113.281250
8729		-109.375000
8730		-111.328125
8731		-105.468750
8732		-107.421875
8733		-101.562500
8734		-103.515625
8735		-97.656250
8736		-99.609375
8737		-93.750000
8738		-95.703125
8739		-89.843750
8740		-91.796875
8741		-85.937500
8742		-87.890625
8743		-82.031250
8744		-83.984375
8745		-78.125000
8746		-80.078125
8747		-74.218750
8748		-76.171875
8749		-70.312500
8750		-72.265625
8751		-66.406250
8752		-66.406250
8753		-62.500000
8754		-62.500000
8755		-56.640625
8756		-58.593750
8757		-52.734375
8758		-54.687500
8759		-48.828125
8760		-50.781250
8761		-44.921875
8762		-46.875000
8763		-39.062500
8764		-41.015625
8765		-35.156250
8766		-37.109375
8767		-31.250000
8768		-33.203125
8769		-27.343750
8770		-29.296875
8771		-23.437500
8772		-25.390625
8773		-19.531250
8774		-19.531250
8775		-13.671875
8776		-15.625000
8777		-9.765625
8778		-11.718750
8779		-5.859375
8780		-5.859375
8781		0.000000
8782		-1.953125
8783		3.906250
8784		1.953125
8785		7.812500
8786		5.859375
8787		11.718750
8788		9.765625
8789		15.625000
8790		13.671875
8791		19.531250
8792		17.578125
8793		23.437500
8794		23.437500
8795		29.296875
8796		27.343750
8797		31.250000
8798		31.250000
8799		37.109375
8800		35.156250
8801		41.015625
8802		39.062500
8803		44.921875
8804		41.015625
8805		48.828125
8806		46.875000
8807		52.734375
8808		48.828125
8809		54.687500
8810		54.687500
8811		60.546875
8812		58.593750
8813		62.500000
8814		60.546875
8815		66.406250
8816		64.453125
8817		70.312500
8818		68.359375
8819		74.218750
8820		72.265625
8821		76.171875
8822		76.171875
8823		80.078125
8824		78.125000
8825		83.984375
8826		82.031250
8827		87.890625
8828		83.984375
8829		89.843750
8830		87.890625
8831		93.750000
8832		89.843750
8833		95.703125
8834		93.750000
8835		97.656250
8836		97.656250
8837		101.562500
8838		99.609375
8839		103.515625
8840		101.562500
8841		107.421875
8842		103.515625
8843		109.375000
8844		107.421875
8845		113.281250
8846		109.375000
8847		113.281250
8848		111.328125
8849		117.187500
8850		115.234375
8851		119.140625
8852		117.187500
8853		121.093750
8854		117.187500
8855		123.046875
8856		121.093750
8857		125.000000
8858		121.093750
8859		128.906250
8860		125.000000
8861		130.859375
8862		126.953125
8863		130.859375
8864		128.906250
8865		132.812500
8866		128.906250
8867		132.812500
8868		130.859375
8869		134.765625
8870		130.859375
8871		136.718750
8872		132.812500
8873		138.671875
8874		132.812500
8875		140.625000
8876		134.765625
8877		142.578125
8878		134.765625
8879		142.578125
8880		138.671875
8881		142.578125
8882		138.671875
8883		142.578125
8884		140.625000
8885		144.531250
8886		140.625000
8887		146.484375
8888		142.578125
8889		146.484375
8890		140.625000
8891		148.437500
8892		140.625000
8893		148.437500
8894		142.578125
8895		148.437500
8896		142.578125
8897		148.437500
8898		142.578125
8899		148.437500
8900		144.531250
8901		148.437500
8902		146.484375
8903		148.437500
8904		142.578125
8905		150.390625
8906		142.578125
8907		150.390625
8908		142.578125
8909		150.390625
8910		142.578125
8911		150.390625
8912		142.578125
8913		150.390625
8914		142.578125
8915		148.437500
8916		144.531250
8917		148.437500
8918		144.531250
8919		146.484375
8920		140.625000
8921		146.484375
8922		138.671875
8923		148.437500
8924		138.671875
8925		146.484375
8926		138.671875
8927		144.531250
8928		136.718750
8929		144.531250
8930		136.718750
8931		144.531250
8932		136.718750
8933		142.578125
8934		136.718750
8935		138.671875
8936		134.765625
8937		138.671875
8938		130.859375
8939		138.671875
8940		128.906250
8941		138.671875
8942		128.906250
8943		136.718750
8944		126.953125
8945		134.765625
8946		125.000000
8947		132.812500
8948		123.046875
8949		130.859375
8950		123.046875
8951		126.953125
8952		121.093750
8953		125.000000
8954		117.187500
8955		125.000000
8956		115.234375
8957		123.046875
8958		113.281250
8959		121.093750
8960		111.328125
8961		119.140625
8962		107.421875
8963		115.234375
8964		105.468750
8965		115.234375
8966		103.515625
8967		111.328125
8968		103.515625
8969		107.421875
8970		99.609375
8971		103.515625
8972		95.703125
8973		103.515625
8974		91.796875
8975		99.609375
8976		87.890625
8977		97.656250
8978		85.937500
8979		93.750000
8980		82.031250
8981		89.843750
8982		80.078125
8983		87.890625
8984		78.125000
8985		82.031250
8986		74.218750
8987		80.078125
8988		70.312500
8989		76.171875
8990		64.453125
8991		74.218750
8992		62.500000
8993		70.312500
8994		58.593750
8995		68.359375
8996		54.687500
8997		64.453125
8998		50.781250
8999		60.546875
9000		48.828125
9001		54.687500
9002		44.921875
9003		50.781250
9004		39.062500
9005		46.875000
9006		35.156250
9007		44.921875
9008		31.250000
9009		39.062500
9010		27.343750
9011		37.109375
9012		23.437500
9013		31.250000
9014		19.531250
9015		29.296875
9016		15.625000
9017		23.437500
9018		13.671875
9019		19.531250
9020		7.812500
9021		13.671875
9022		1.953125
9023		11.718750
9024		-1.953125
9025		7.812500
9026		-5.859375
9027		3.906250
9028		-11.718750
9029		0.000000
9030		-15.625000
9031		-5.859375
9032		-19.531250
9033		-9.765625
9034		-21.484375
9035		-15.625000
9036		-25.390625
9037		-19.531250
9038		-33.203125
9039		-23.437500
9040		-35.156250
9041		-27.343750
9042		-41.015625
9043		-31.250000
9044		-44.921875
9045		-35.156250
9046		-48.828125
9047		-39.062500
9048		-52.734375
9049		-42.968750
9050		-54.687500
9051		-48.828125
9052		-60.546875
9053		-54.687500
9054		-66.406250
9055		-58.593750
9056		-68.359375
9057		-58.593750
9058		-74.218750
9059		-64.453125
9060		-78.125000
9061		-68.359375
9062		-82.031250
9063		-72.265625
9064		-85.937500
9065		-76.171875
9066		-89.843750
9067		-80.078125
9068		-91.796875
9069		-85.937500
9070		-95.703125
9071		-89.843750
9072		-101.562500
9073		-91.796875
9074		-105.468750
9075		-95.703125
9076		-109.375000
9077		-99.609375
9078		-111.328125
9079		-101.562500
9080		-115.234375
9081		-105.468750
9082		-119.140625
9083		-111.328125
9084		-119.140625
9085		-113.281250
9086		-123.046875
9087		-117.187500
9088		-128.906250
9089		-121.093750
9090		-130.859375
9091		-123.046875
9092		-134.765625
9093		-125.000000
9094		-136.718750
9095		-126.953125
9096		-140.625000
9097		-130.859375
9098		-142.578125
9099		-134.765625
9100		-144.531250
9101		-134.765625
9102		-144.531250
9103		-140.625000
9104		-146.484375
9105		-142.578125
9106		-152.343750
9107		-142.578125
9108		-154.296875
9109		-144.531250
9110		-156.250000
9111		-146.484375
9112		-158.203125
9113		-150.390625
9114		-160.156250
9115		-152.343750
9116		-162.109375
9117		-152.343750
9118		-160.156250
9119		-156.250000
9120		-162.109375
9121		-158.203125
9122		-166.015625
9123		-158.203125
9124		-166.015625
9125		-160.156250
9126		-167.968750
9127		-160.156250
9128		-169.921875
9129		-162.109375
9130		-169.921875
9131		-162.109375
9132		-169.921875
9133		-162.109375
9134		-171.875000
9135		-164.062500
9136		-167.968750
9137		-166.015625
9138		-169.921875
9139		-166.015625
9140		-171.875000
9141		-164.062500
9142		-171.875000
9143		-164.062500
9144		-171.875000
9145		-164.062500
9146		-171.875000
9147		-164.062500
9148		-171.875000
9149		-164.062500
9150		-171.875000
9151		-164.062500
9152		-167.968750
9153		-166.015625
9154		-167.968750
9155		-164.062500
9156		-167.968750
9157		-160.156250
9158		-167.968750
9159		-160.156250
9160		-166.015625
9161		-158.203125
9162		-166.015625
9163		-158.203125
9164		-166.015625
9165		-156.250000
9166		-162.109375
9167		-154.296875
9168		-160.156250
9169		-154.296875
9170		-156.250000
9171		-152.343750
9172		-156.250000
9173		-150.390625
9174		-154.296875
9175		-146.484375
9176		-154.296875
9177		-144.531250
9178		-152.343750
9179		-142.578125
9180		-148.437500
9181		-140.625000
9182		-144.531250
9183		-138.671875
9184		-142.578125
9185		-134.765625
9186		-138.671875
9187		-134.765625
9188		-134.765625
9189		-130.859375
9190		-134.765625
9191		-125.000000
9192		-132.812500
9193		-123.046875
9194		-128.906250
9195		-119.140625
9196		-125.000000
9197		-115.234375
9198		-123.046875
9199		-113.281250
9200		-119.140625
9201		-109.375000
9202		-115.234375
9203		-107.421875
9204		-109.375000
9205		-105.468750
9206		-105.468750
9207		-99.609375
9208		-105.468750
9209		-95.703125
9210		-101.562500
9211		-91.796875
9212		-95.703125
9213		-87.890625
9214		-91.796875
9215		-83.984375
9216		-89.843750
9217		-80.078125
9218		-83.984375
9219		-78.125000
9220		-78.125000
9221		-72.265625
9222		-74.218750
9223		-68.359375
9224		-74.218750
9225		-62.500000
9226		-68.359375
9227		-58.593750
9228		-62.500000
9229		-54.687500
9230		-60.546875
9231		-50.781250
9232		-56.640625
9233		-46.875000
9234		-50.781250
9235		-42.968750
9236		-44.921875
9237		-39.062500
9238		-41.015625
9239		-35.156250
9240		-37.109375
9241		-27.343750
9242		-35.156250
9243		-23.437500
9244		-29.296875
9245		-21.484375
9246		-25.390625
9247		-15.625000
9248		-19.531250
9249		-11.718750
9250		-17.578125
9251		-7.812500
9252		-11.718750
9253		-3.906250
9254		-5.859375
9255		0.000000
9256		-1.953125
9257		5.859375
9258		1.953125
9259		9.765625
9260		5.859375
9261		13.671875
9262		7.812500
9263		17.578125
9264		13.671875
9265		23.437500
9266		17.578125
9267		27.343750
9268		21.484375
9269		29.296875
9270		27.343750
9271		33.203125
9272		31.250000
9273		37.109375
9274		35.156250
9275		42.968750
9276		37.109375
9277		46.875000
9278		41.015625
9279		50.781250
9280		44.921875
9281		54.687500
9282		48.828125
9283		58.593750
9284		52.734375
9285		62.500000
9286		58.593750
9287		64.453125
9288		62.500000
9289		68.359375
9290		64.453125
9291		72.265625
9292		66.406250
9293		76.171875
9294		70.312500
9295		80.078125
9296		74.218750
9297		82.031250
9298		78.125000
9299		85.937500
9300		80.078125
9301		89.843750
9302		83.984375
9303		89.843750
9304		87.890625
9305		93.750000
9306		91.796875
9307		97.656250
9308		91.796875
9309		101.562500
9310		95.703125
9311		103.515625
9312		97.656250
9313		105.468750
9314		99.609375
9315		109.375000
9316		103.515625
9317		111.328125
9318		105.468750
9319		113.281250
9320		109.375000
9321		115.234375
9322		113.281250
9323		117.187500
9324		113.281250
9325		121.093750
9326		115.234375
9327		123.046875
9328		117.187500
9329		125.000000
9330		119.140625
9331		126.953125
9332		121.093750
9333		128.906250
9334		123.046875
9335		130.859375
9336		123.046875
9337		130.859375
9338		128.906250
9339		130.859375
9340		130.859375
9341		136.718750
9342		128.906250
9343		138.671875
9344		130.859375
9345		138.671875
9346		130.859375
9347		140.625000
9348		132.812500
9349		140.625000
9350		134.765625
9351		142.578125
9352		134.765625
9353		142.578125
9354		138.671875
9355		142.578125
9356		140.625000
9357		142.578125
9358		138.671875
9359		146.484375
9360		138.671875
9361		148.437500
9362		138.671875
9363		148.437500
9364		140.625000
9365		148.437500
9366		140.625000
9367		148.437500
9368		140.625000
9369		148.437500
9370		144.531250
9371		148.437500
9372		144.531250
9373		148.437500
9374		142.578125
9375		150.390625
9376		142.578125
9377		150.390625
9378		142.578125
9379		150.390625
9380		142.578125
9381		150.390625
9382		142.578125
9383		150.390625
9384		142.578125
9385		150.390625
9386		142.578125
9387		148.437500
9388		144.531250
9389		146.484375
9390		144.531250
9391		146.484375
9392		140.625000
9393		148.437500
9394		140.625000
9395		148.437500
9396		138.671875
9397		146.484375
9398		138.671875
9399		146.484375
9400		136.718750
9401		144.531250
9402		136.718750
9403		144.531250
9404		138.671875
9405		140.625000
9406		136.718750
9407		140.625000
9408		132.812500
9409		140.625000
9410		130.859375
9411		140.625000
9412		130.859375
9413		138.671875
9414		128.906250
9415		136.718750
9416		126.953125
9417		134.765625
9418		125.000000
9419		134.765625
9420		125.000000
9421		132.812500
9422		125.000000
9423		128.906250
9424		121.093750
9425		126.953125
9426		119.140625
9427		126.953125
9428		115.234375
9429		123.046875
9430		113.281250
9431		123.046875
9432		111.328125
9433		119.140625
9434		109.375000
9435		117.187500
9436		107.421875
9437		115.234375
9438		107.421875
9439		111.328125
9440		103.515625
9441		109.375000
9442		99.609375
9443		107.421875
9444		97.656250
9445		105.468750
9446		93.750000
9447		101.562500
9448		89.843750
9449		99.609375
9450		85.937500
9451		97.656250
9452		83.984375
9453		91.796875
9454		83.984375
9455		87.890625
9456		80.078125
9457		83.984375
9458		74.218750
9459		82.031250
9460		72.265625
9461		80.078125
9462		68.359375
9463		76.171875
9464		66.406250
9465		72.265625
9466		60.546875
9467		70.312500
9468		56.640625
9469		66.406250
9470		54.687500
9471		60.546875
9472		50.781250
9473		56.640625
9474		46.875000
9475		52.734375
9476		41.015625
9477		50.781250
9478		37.109375
9479		46.875000
9480		35.156250
9481		42.968750
9482		29.296875
9483		39.062500
9484		25.390625
9485		35.156250
9486		21.484375
9487		31.250000
9488		19.531250
9489		25.390625
9490		15.625000
9491		21.484375
9492		7.812500
9493		17.578125
9494		3.906250
9495		13.671875
9496		0.000000
9497		11.718750
9498		-3.906250
9499		5.859375
9500		-7.812500
9501		1.953125
9502		-11.718750
9503		-1.953125
9504		-13.671875
9505		-5.859375
9506		-19.531250
9507		-13.671875
9508		-25.390625
9509		-17.578125
9510		-29.296875
9511		-19.531250
9512		-33.203125
9513		-23.437500
9514		-37.109375
9515		-29.296875
9516		-42.968750
9517		-33.203125
9518		-44.921875
9519		-37.109375
9520		-48.828125
9521		-41.015625
9522		-52.734375
9523		-46.875000
9524		-56.640625
9525		-50.781250
9526		-62.500000
9527		-54.687500
9528		-68.359375
9529		-58.593750
9530		-72.265625
9531		-60.546875
9532		-74.218750
9533		-66.406250
9534		-78.125000
9535		-70.312500
9536		-83.984375
9537		-74.218750
9538		-85.937500
9539		-80.078125
9540		-89.843750
9541		-83.984375
9542		-93.750000
9543		-87.890625
9544		-99.609375
9545		-89.843750
9546		-103.515625
9547		-93.750000
9548		-107.421875
9549		-95.703125
9550		-109.375000
9551		-101.562500
9552		-113.281250
9553		-103.515625
9554		-115.234375
9555		-107.421875
9556		-117.187500
9557		-113.281250
9558		-121.093750
9559		-115.234375
9560		-125.000000
9561		-117.187500
9562		-128.906250
9563		-121.093750
9564		-132.812500
9565		-123.046875
9566		-136.718750
9567		-125.000000
9568		-138.671875
9569		-128.906250
9570		-140.625000
9571		-132.812500
9572		-140.625000
9573		-136.718750
9574		-144.531250
9575		-138.671875
9576		-148.437500
9577		-140.625000
9578		-150.390625
9579		-142.578125
9580		-152.343750
9581		-142.578125
9582		-156.250000
9583		-146.484375
9584		-158.203125
9585		-148.437500
9586		-158.203125
9587		-152.343750
9588		-158.203125
9589		-152.343750
9590		-160.156250
9591		-156.250000
9592		-164.062500
9593		-158.203125
9594		-164.062500
9595		-156.250000
9596		-166.015625
9597		-158.203125
9598		-167.968750
9599		-160.156250
9600		-167.968750
9601		-162.109375
9602		-169.921875
9603		-162.109375
9604		-169.921875
9605		-162.109375
9606		-167.968750
9607		-166.015625
9608		-167.968750
9609		-166.015625
9610		-171.875000
9611		-164.062500
9612		-171.875000
9613		-164.062500
9614		-171.875000
9615		-164.062500
9616		-171.875000
9617		-164.062500
9618		-171.875000
9619		-166.015625
9620		-171.875000
9621		-164.062500
9622		-169.921875
9623		-166.015625
9624		-167.968750
9625		-166.015625
9626		-167.968750
9627		-164.062500
9628		-167.968750
9629		-164.062500
9630		-167.968750
9631		-162.109375
9632		-167.968750
9633		-160.156250
9634		-166.015625
9635		-160.156250
9636		-164.062500
9637		-158.203125
9638		-162.109375
9639		-156.250000
9640		-160.156250
9641		-156.250000
9642		-158.203125
9643		-154.296875
9644		-158.203125
9645		-150.390625
9646		-156.250000
9647		-148.437500
9648		-156.250000
9649		-146.484375
9650		-152.343750
9651		-144.531250
9652		-150.390625
9653		-142.578125
9654		-148.437500
9655		-140.625000
9656		-142.578125
9657		-138.671875
9658		-140.625000
9659		-136.718750
9660		-138.671875
9661		-130.859375
9662		-136.718750
9663		-128.906250
9664		-134.765625
9665		-125.000000
9666		-132.812500
9667		-121.093750
9668		-126.953125
9669		-119.140625
9670		-125.000000
9671		-117.187500
9672		-121.093750
9673		-115.234375
9674		-115.234375
9675		-111.328125
9676		-113.281250
9677		-105.468750
9678		-111.328125
9679		-101.562500
9680		-107.421875
9681		-97.656250
9682		-103.515625
9683		-93.750000
9684		-99.609375
9685		-91.796875
9686		-95.703125
9687		-85.937500
9688		-91.796875
9689		-83.984375
9690		-85.937500
9691		-80.078125
9692		-82.031250
9693		-76.171875
9694		-78.125000
9695		-70.312500
9696		-76.171875
9697		-66.406250
9698		-70.312500
9699		-62.500000
9700		-68.359375
9701		-58.593750
9702		-64.453125
9703		-52.734375
9704		-58.593750
9705		-48.828125
9706		-52.734375
9707		-46.875000
9708		-48.828125
9709		-42.968750
9710		-44.921875
9711		-37.109375
9712		-41.015625
9713		-31.250000
9714		-35.156250
9715		-27.343750
9716		-31.250000
9717		-23.437500
9718		-29.296875
9719		-19.531250
9720		-25.390625
9721		-15.625000
9722		-19.531250
9723		-11.718750
9724		-13.671875
9725		-7.812500
9726		-9.765625
9727		-3.906250
9728		-7.812500
9729		1.953125
9730		-1.953125
9731		5.859375
9732		0.000000
9733		11.718750
9734		5.859375
9735		15.625000
9736		9.765625
9737		19.531250
9738		13.671875
9739		23.437500
9740		19.531250
9741		25.390625
9742		25.390625
9743		31.250000
9744		29.296875
9745		37.109375
9746		31.250000
9747		39.062500
9748		33.203125
9749		44.921875
9750		39.062500
9751		48.828125
9752		42.968750
9753		50.781250
9754		46.875000
9755		54.687500
9756		48.828125
9757		58.593750
9758		56.640625
9759		60.546875
9760		58.593750
9761		66.406250
9762		60.546875
9763		70.312500
9764		64.453125
9765		74.218750
9766		68.359375
9767		76.171875
9768		70.312500
9769		80.078125
9770		74.218750
9771		83.984375
9772		78.125000
9773		85.937500
9774		83.984375
9775		87.890625
9776		85.937500
9777		91.796875
9778		87.890625
9779		95.703125
9780		89.843750
9781		99.609375
9782		91.796875
9783		101.562500
9784		95.703125
9785		103.515625
9786		97.656250
9787		107.421875
9788		101.562500
9789		109.375000
9790		105.468750
9791		109.375000
9792		109.375000
9793		113.281250
9794		111.328125
9795		117.187500
9796		111.328125
9797		119.140625
9798		113.281250
9799		121.093750
9800		115.234375
9801		123.046875
9802		117.187500
9803		125.000000
9804		119.140625
9805		126.953125
9806		121.093750
9807		128.906250
9808		125.000000
9809		128.906250
9810		126.953125
9811		130.859375
9812		126.953125
9813		134.765625
9814		126.953125
9815		136.718750
9816		128.906250
9817		138.671875
9818		130.859375
9819		138.671875
9820		132.812500
9821		140.625000
9822		132.812500
9823		140.625000
9824		136.718750
9825		140.625000
9826		138.671875
9827		140.625000
9828		136.718750
9829		144.531250
9830		136.718750
9831		144.531250
9832		138.671875
9833		146.484375
9834		140.625000
9835		146.484375
9836		140.625000
9837		148.437500
9838		140.625000
9839		148.437500
9840		142.578125
9841		148.437500
9842		144.531250
9843		146.484375
9844		142.578125
9845		146.484375
9846		142.578125
9847		150.390625
9848		142.578125
9849		150.390625
9850		142.578125
9851		150.390625
9852		142.578125
9853		150.390625
9854		142.578125
9855		150.390625
9856		142.578125
9857		150.390625
9858		144.531250
9859		146.484375
9860		144.531250
9861		146.484375
9862		140.625000
9863		148.437500
9864		140.625000
9865		148.437500
9866		140.625000
9867		148.437500
9868		138.671875
9869		146.484375
9870		138.671875
9871		146.484375
9872		136.718750
9873		144.531250
9874		138.671875
9875		144.531250
9876		138.671875
9877		142.578125
9878		134.765625
9879		142.578125
9880		132.812500
9881		142.578125
9882		132.812500
9883		140.625000
9884		130.859375
9885		138.671875
9886		128.906250
9887		136.718750
9888		128.906250
9889		136.718750
9890		126.953125
9891		134.765625
9892		126.953125
9893		130.859375
9894		125.000000
9895		128.906250
9896		121.093750
9897		128.906250
9898		119.140625
9899		126.953125
9900		117.187500
9901		125.000000
9902		115.234375
9903		123.046875
9904		113.281250
9905		121.093750
9906		109.375000
9907		119.140625
9908		111.328125
9909		117.187500
9910		107.421875
9911		111.328125
9912		103.515625
9913		109.375000
9914		99.609375
9915		109.375000
9916		97.656250
9917		105.468750
9918		95.703125
9919		103.515625
9920		91.796875
9921		99.609375
9922		87.890625
9923		97.656250
9924		87.890625
9925		93.750000
9926		83.984375
9927		89.843750
9928		80.078125
9929		85.937500
9930		76.171875
9931		85.937500
9932		72.265625
9933		82.031250
9934		68.359375
9935		78.125000
9936		66.406250
9937		74.218750
9938		60.546875
9939		70.312500
9940		58.593750
9941		66.406250
9942		56.640625
9943		62.500000
9944		52.734375
9945		58.593750
9946		46.875000
9947		54.687500
9948		44.921875
9949		52.734375
9950		39.062500
9951		48.828125
9952		35.156250
9953		44.921875
9954		31.250000
9955		41.015625
9956		27.343750
9957		37.109375
9958		25.390625
9959		33.203125
9960		21.484375
9961		27.343750
9962		13.671875
9963		23.437500
9964		11.718750
9965		19.531250
9966		7.812500
9967		15.625000
9968		1.953125
9969		11.718750
9970		-1.953125
9971		7.812500
9972		-5.859375
9973		3.906250
9974		-9.765625
9975		0.000000
9976		-13.671875
9977		-7.812500
9978		-17.578125
9979		-11.718750
9980		-25.390625
9981		-13.671875
9982		-27.343750
9983		-17.578125
9984		-33.203125
9985		-23.437500
9986		-37.109375
9987		-27.343750
9988		-41.015625
9989		-31.250000
9990		-44.921875
9991		-35.156250
9992		-46.875000
9993		-41.015625
9994		-50.781250
9995		-44.921875
9996		-56.640625
9997		-48.828125
9998		-62.500000
9999		-52.734375
10000		-66.406250
