Channel              :		CH1
Frequency            :		1.056kHz
Period               :		0.947ms
PK-PK                :		304.7mV
Probe attenuation    :		1X
Voltage per ADC value:		0.122070mV
Time interval        :		2.00000us

index		CH1_Voltage(mV)
1		46.875000
2		46.875000
3		54.687500
4		42.968750
5		52.734375
6		41.015625
7		48.828125
8		35.156250
9		46.875000
10		33.203125
11		41.015625
12		31.250000
13		39.062500
14		27.343750
15		33.203125
16		23.437500
17		29.296875
18		19.531250
19		27.343750
20		11.718750
21		23.437500
22		11.718750
23		19.531250
24		5.859375
25		15.625000
26		1.953125
27		11.718750
28		-1.953125
29		7.812500
30		-3.906250
31		3.906250
32		-7.812500
33		-1.953125
34		-13.671875
35		-5.859375
36		-17.578125
37		-7.812500
38		-21.484375
39		-11.718750
40		-25.390625
41		-15.625000
42		-29.296875
43		-19.531250
44		-33.203125
45		-23.437500
46		-35.156250
47		-29.296875
48		-39.062500
49		-33.203125
50		-46.875000
51		-37.109375
52		-48.828125
53		-41.015625
54		-54.687500
55		-42.968750
56		-56.640625
57		-48.828125
58		-60.546875
59		-50.781250
60		-64.453125
61		-56.640625
62		-68.359375
63		-58.593750
64		-70.312500
65		-64.453125
66		-74.218750
67		-68.359375
68		-80.078125
69		-72.265625
70		-83.984375
71		-74.218750
72		-85.937500
73		-78.125000
74		-89.843750
75		-80.078125
76		-93.750000
77		-85.937500
78		-97.656250
79		-87.890625
80		-97.656250
81		-91.796875
82		-103.515625
83		-97.656250
84		-105.468750
85		-99.609375
86		-109.375000
87		-103.515625
88		-113.281250
89		-105.468750
90		-115.234375
91		-109.375000
92		-119.140625
93		-111.328125
94		-121.093750
95		-115.234375
96		-123.046875
97		-117.187500
98		-125.000000
99		-121.093750
100		-128.906250
101		-123.046875
102		-132.812500
103		-125.000000
104		-136.718750
105		-126.953125
106		-136.718750
107		-128.906250
108		-140.625000
109		-130.859375
110		-142.578125
111		-134.765625
112		-142.578125
113		-136.718750
114		-142.578125
115		-138.671875
116		-144.531250
117		-142.578125
118		-148.437500
119		-142.578125
120		-150.390625
121		-142.578125
122		-152.343750
123		-144.531250
124		-154.296875
125		-146.484375
126		-154.296875
127		-146.484375
128		-156.250000
129		-148.437500
130		-156.250000
131		-150.390625
132		-156.250000
133		-152.343750
134		-158.203125
135		-152.343750
136		-160.156250
137		-152.343750
138		-160.156250
139		-152.343750
140		-160.156250
141		-154.296875
142		-160.156250
143		-154.296875
144		-160.156250
145		-154.296875
146		-160.156250
147		-154.296875
148		-158.203125
149		-156.250000
150		-160.156250
151		-154.296875
152		-160.156250
153		-154.296875
154		-160.156250
155		-152.343750
156		-160.156250
157		-152.343750
158		-158.203125
159		-152.343750
160		-158.203125
161		-152.343750
162		-158.203125
163		-150.390625
164		-156.250000
165		-150.390625
166		-152.343750
167		-150.390625
168		-154.296875
169		-146.484375
170		-152.343750
171		-144.531250
172		-152.343750
173		-144.531250
174		-150.390625
175		-140.625000
176		-148.437500
177		-140.625000
178		-146.484375
179		-138.671875
180		-144.531250
181		-136.718750
182		-140.625000
183		-136.718750
184		-138.671875
185		-134.765625
186		-138.671875
187		-130.859375
188		-134.765625
189		-128.906250
190		-134.765625
191		-125.000000
192		-130.859375
193		-123.046875
194		-128.906250
195		-119.140625
196		-125.000000
197		-117.187500
198		-121.093750
199		-115.234375
200		-117.187500
201		-113.281250
202		-115.234375
203		-107.421875
204		-113.281250
205		-103.515625
206		-111.328125
207		-101.562500
208		-107.421875
209		-97.656250
210		-103.515625
211		-95.703125
212		-99.609375
213		-91.796875
214		-97.656250
215		-89.843750
216		-91.796875
217		-85.937500
218		-87.890625
219		-80.078125
220		-85.937500
221		-76.171875
222		-83.984375
223		-72.265625
224		-78.125000
225		-70.312500
226		-76.171875
227		-66.406250
228		-72.265625
229		-62.500000
230		-68.359375
231		-58.593750
232		-60.546875
233		-56.640625
234		-56.640625
235		-52.734375
236		-54.687500
237		-46.875000
238		-50.781250
239		-42.968750
240		-48.828125
241		-37.109375
242		-42.968750
243		-35.156250
244		-41.015625
245		-31.250000
246		-35.156250
247		-25.390625
248		-31.250000
249		-23.437500
250		-25.390625
251		-19.531250
252		-21.484375
253		-13.671875
254		-19.531250
255		-9.765625
256		-15.625000
257		-5.859375
258		-11.718750
259		-1.953125
260		-7.812500
261		0.000000
262		-3.906250
263		5.859375
264		0.000000
265		7.812500
266		5.859375
267		11.718750
268		9.765625
269		15.625000
270		11.718750
271		21.484375
272		15.625000
273		25.390625
274		19.531250
275		29.296875
276		23.437500
277		31.250000
278		27.343750
279		37.109375
280		29.296875
281		39.062500
282		37.109375
283		41.015625
284		41.015625
285		44.921875
286		42.968750
287		50.781250
288		44.921875
289		52.734375
290		48.828125
291		56.640625
292		52.734375
293		60.546875
294		54.687500
295		64.453125
296		58.593750
297		66.406250
298		62.500000
299		68.359375
300		66.406250
301		70.312500
302		70.312500
303		76.171875
304		70.312500
305		78.125000
306		74.218750
307		82.031250
308		76.171875
309		85.937500
310		80.078125
311		87.890625
312		82.031250
313		91.796875
314		85.937500
315		93.750000
316		89.843750
317		93.750000
318		91.796875
319		95.703125
320		93.750000
321		101.562500
322		95.703125
323		103.515625
324		97.656250
325		105.468750
326		99.609375
327		107.421875
328		101.562500
329		109.375000
330		103.515625
331		111.328125
332		105.468750
333		113.281250
334		109.375000
335		113.281250
336		111.328125
337		117.187500
338		111.328125
339		119.140625
340		113.281250
341		121.093750
342		115.234375
343		123.046875
344		115.234375
345		123.046875
346		117.187500
347		126.953125
348		119.140625
349		126.953125
350		123.046875
351		126.953125
352		125.000000
353		126.953125
354		123.046875
355		130.859375
356		125.000000
357		130.859375
358		125.000000
359		132.812500
360		125.000000
361		132.812500
362		126.953125
363		134.765625
364		126.953125
365		134.765625
366		128.906250
367		134.765625
368		130.859375
369		134.765625
370		130.859375
371		136.718750
372		128.906250
373		138.671875
374		130.859375
375		138.671875
376		130.859375
377		138.671875
378		130.859375
379		138.671875
380		130.859375
381		138.671875
382		130.859375
383		138.671875
384		134.765625
385		136.718750
386		134.765625
387		136.718750
388		130.859375
389		138.671875
390		130.859375
391		138.671875
392		130.859375
393		138.671875
394		130.859375
395		138.671875
396		130.859375
397		136.718750
398		128.906250
399		136.718750
400		130.859375
401		134.765625
402		130.859375
403		132.812500
404		126.953125
405		134.765625
406		126.953125
407		134.765625
408		125.000000
409		132.812500
410		125.000000
411		132.812500
412		123.046875
413		130.859375
414		121.093750
415		128.906250
416		121.093750
417		128.906250
418		121.093750
419		125.000000
420		117.187500
421		125.000000
422		117.187500
423		125.000000
424		115.234375
425		123.046875
426		113.281250
427		121.093750
428		111.328125
429		119.140625
430		109.375000
431		117.187500
432		107.421875
433		115.234375
434		107.421875
435		111.328125
436		105.468750
437		109.375000
438		101.562500
439		109.375000
440		99.609375
441		107.421875
442		97.656250
443		105.468750
444		93.750000
445		103.515625
446		91.796875
447		99.609375
448		89.843750
449		97.656250
450		89.843750
451		93.750000
452		85.937500
453		89.843750
454		82.031250
455		87.890625
456		78.125000
457		87.890625
458		76.171875
459		83.984375
460		72.265625
461		82.031250
462		70.312500
463		78.125000
464		64.453125
465		74.218750
466		62.500000
467		72.265625
468		60.546875
469		66.406250
470		58.593750
471		62.500000
472		52.734375
473		62.500000
474		48.828125
475		58.593750
476		44.921875
477		54.687500
478		42.968750
479		50.781250
480		39.062500
481		46.875000
482		35.156250
483		42.968750
484		33.203125
485		41.015625
486		29.296875
487		35.156250
488		23.437500
489		31.250000
490		19.531250
491		29.296875
492		15.625000
493		25.390625
494		11.718750
495		21.484375
496		7.812500
497		17.578125
498		5.859375
499		13.671875
500		1.953125
501		9.765625
502		-1.953125
503		3.906250
504		-7.812500
505		0.000000
506		-11.718750
507		-1.953125
508		-13.671875
509		-5.859375
510		-19.531250
511		-9.765625
512		-23.437500
513		-13.671875
514		-27.343750
515		-17.578125
516		-31.250000
517		-21.484375
518		-33.203125
519		-27.343750
520		-37.109375
521		-31.250000
522		-42.968750
523		-35.156250
524		-46.875000
525		-37.109375
526		-50.781250
527		-42.968750
528		-56.640625
529		-44.921875
530		-58.593750
531		-48.828125
532		-62.500000
533		-54.687500
534		-64.453125
535		-58.593750
536		-68.359375
537		-62.500000
538		-74.218750
539		-66.406250
540		-78.125000
541		-68.359375
542		-80.078125
543		-72.265625
544		-83.984375
545		-76.171875
546		-89.843750
547		-78.125000
548		-91.796875
549		-82.031250
550		-93.750000
551		-85.937500
552		-95.703125
553		-91.796875
554		-99.609375
555		-95.703125
556		-105.468750
557		-97.656250
558		-107.421875
559		-99.609375
560		-111.328125
561		-103.515625
562		-113.281250
563		-105.468750
564		-117.187500
565		-109.375000
566		-121.093750
567		-111.328125
568		-121.093750
569		-115.234375
570		-123.046875
571		-119.140625
572		-128.906250
573		-121.093750
574		-132.812500
575		-123.046875
576		-132.812500
577		-125.000000
578		-134.765625
579		-128.906250
580		-138.671875
581		-130.859375
582		-140.625000
583		-132.812500
584		-140.625000
585		-132.812500
586		-142.578125
587		-138.671875
588		-146.484375
589		-140.625000
590		-148.437500
591		-138.671875
592		-150.390625
593		-140.625000
594		-150.390625
595		-142.578125
596		-152.343750
597		-144.531250
598		-152.343750
599		-146.484375
600		-154.296875
601		-146.484375
602		-154.296875
603		-150.390625
604		-154.296875
605		-152.343750
606		-158.203125
607		-150.390625
608		-158.203125
609		-150.390625
610		-158.203125
611		-152.343750
612		-160.156250
613		-152.343750
614		-160.156250
615		-152.343750
616		-160.156250
617		-152.343750
618		-160.156250
619		-154.296875
620		-158.203125
621		-154.296875
622		-160.156250
623		-152.343750
624		-160.156250
625		-152.343750
626		-160.156250
627		-152.343750
628		-160.156250
629		-152.343750
630		-158.203125
631		-150.390625
632		-158.203125
633		-150.390625
634		-156.250000
635		-150.390625
636		-154.296875
637		-150.390625
638		-152.343750
639		-148.437500
640		-154.296875
641		-146.484375
642		-152.343750
643		-144.531250
644		-150.390625
645		-142.578125
646		-148.437500
647		-142.578125
648		-148.437500
649		-138.671875
650		-146.484375
651		-136.718750
652		-144.531250
653		-136.718750
654		-138.671875
655		-136.718750
656		-138.671875
657		-132.812500
658		-138.671875
659		-128.906250
660		-136.718750
661		-126.953125
662		-132.812500
663		-125.000000
664		-130.859375
665		-123.046875
666		-128.906250
667		-119.140625
668		-125.000000
669		-117.187500
670		-121.093750
671		-115.234375
672		-117.187500
673		-111.328125
674		-117.187500
675		-109.375000
676		-115.234375
677		-105.468750
678		-109.375000
679		-101.562500
680		-107.421875
681		-99.609375
682		-103.515625
683		-95.703125
684		-101.562500
685		-91.796875
686		-95.703125
687		-89.843750
688		-91.796875
689		-85.937500
690		-89.843750
691		-80.078125
692		-87.890625
693		-78.125000
694		-83.984375
695		-74.218750
696		-78.125000
697		-70.312500
698		-74.218750
699		-66.406250
700		-72.265625
701		-62.500000
702		-68.359375
703		-60.546875
704		-62.500000
705		-56.640625
706		-58.593750
707		-50.781250
708		-54.687500
709		-46.875000
710		-52.734375
711		-42.968750
712		-48.828125
713		-39.062500
714		-44.921875
715		-35.156250
716		-39.062500
717		-31.250000
718		-35.156250
719		-27.343750
720		-29.296875
721		-25.390625
722		-25.390625
723		-21.484375
724		-23.437500
725		-13.671875
726		-19.531250
727		-11.718750
728		-15.625000
729		-7.812500
730		-13.671875
731		-3.906250
732		-9.765625
733		1.953125
734		-3.906250
735		3.906250
736		0.000000
737		7.812500
738		5.859375
739		9.765625
740		9.765625
741		17.578125
742		11.718750
743		21.484375
744		15.625000
745		25.390625
746		17.578125
747		27.343750
748		21.484375
749		33.203125
750		27.343750
751		35.156250
752		31.250000
753		37.109375
754		35.156250
755		41.015625
756		39.062500
757		46.875000
758		41.015625
759		48.828125
760		44.921875
761		54.687500
762		48.828125
763		56.640625
764		50.781250
765		60.546875
766		54.687500
767		62.500000
768		58.593750
769		66.406250
770		62.500000
771		68.359375
772		66.406250
773		70.312500
774		68.359375
775		76.171875
776		70.312500
777		80.078125
778		72.265625
779		82.031250
780		76.171875
781		83.984375
782		78.125000
783		87.890625
784		82.031250
785		91.796875
786		83.984375
787		91.796875
788		89.843750
789		93.750000
790		91.796875
791		99.609375
792		91.796875
793		101.562500
794		93.750000
795		103.515625
796		97.656250
797		105.468750
798		99.609375
799		107.421875
800		101.562500
801		109.375000
802		103.515625
803		111.328125
804		107.421875
805		113.281250
806		111.328125
807		113.281250
808		111.328125
809		117.187500
810		111.328125
811		119.140625
812		113.281250
813		121.093750
814		115.234375
815		123.046875
816		117.187500
817		125.000000
818		119.140625
819		126.953125
820		119.140625
821		125.000000
822		123.046875
823		126.953125
824		123.046875
825		130.859375
826		123.046875
827		130.859375
828		125.000000
829		132.812500
830		126.953125
831		132.812500
832		126.953125
833		134.765625
834		128.906250
835		136.718750
836		128.906250
837		136.718750
838		130.859375
839		134.765625
840		130.859375
841		136.718750
842		130.859375
843		138.671875
844		130.859375
845		138.671875
846		132.812500
847		140.625000
848		130.859375
849		140.625000
850		132.812500
851		140.625000
852		132.812500
853		140.625000
854		134.765625
855		138.671875
856		136.718750
857		138.671875
858		132.812500
859		140.625000
860		132.812500
861		140.625000
862		132.812500
863		140.625000
864		132.812500
865		140.625000
866		132.812500
867		140.625000
868		130.859375
869		140.625000
870		132.812500
871		138.671875
872		132.812500
873		136.718750
874		130.859375
875		136.718750
876		128.906250
877		138.671875
878		128.906250
879		136.718750
880		126.953125
881		136.718750
882		126.953125
883		134.765625
884		125.000000
885		132.812500
886		125.000000
887		132.812500
888		126.953125
889		128.906250
890		125.000000
891		128.906250
892		121.093750
893		128.906250
894		119.140625
895		126.953125
896		117.187500
897		126.953125
898		115.234375
899		123.046875
900		113.281250
901		121.093750
902		113.281250
903		121.093750
904		111.328125
905		119.140625
906		111.328125
907		115.234375
908		107.421875
909		113.281250
910		105.468750
911		111.328125
912		101.562500
913		111.328125
914		99.609375
915		107.421875
916		97.656250
917		107.421875
918		95.703125
919		103.515625
920		93.750000
921		101.562500
922		93.750000
923		97.656250
924		87.890625
925		93.750000
926		83.984375
927		93.750000
928		82.031250
929		89.843750
930		78.125000
931		87.890625
932		76.171875
933		85.937500
934		74.218750
935		82.031250
936		70.312500
937		78.125000
938		68.359375
939		74.218750
940		66.406250
941		72.265625
942		60.546875
943		68.359375
944		56.640625
945		66.406250
946		54.687500
947		64.453125
948		50.781250
949		60.546875
950		46.875000
951		56.640625
952		42.968750
953		52.734375
954		41.015625
955		48.828125
956		39.062500
957		44.921875
958		31.250000
959		41.015625
960		29.296875
961		39.062500
962		25.390625
963		33.203125
964		21.484375
965		31.250000
966		17.578125
967		25.390625
968		13.671875
969		23.437500
970		9.765625
971		19.531250
972		7.812500
973		13.671875
974		3.906250
975		9.765625
976		-1.953125
977		7.812500
978		-5.859375
979		3.906250
980		-9.765625
981		0.000000
982		-13.671875
983		-3.906250
984		-17.578125
985		-7.812500
986		-21.484375
987		-11.718750
988		-23.437500
989		-15.625000
990		-27.343750
991		-21.484375
992		-33.203125
993		-25.390625
994		-37.109375
995		-29.296875
996		-41.015625
997		-33.203125
998		-46.875000
999		-35.156250
1000		-48.828125
1001		-41.015625
1002		-54.687500
1003		-44.921875
1004		-54.687500
1005		-46.875000
1006		-58.593750
1007		-52.734375
1008		-62.500000
1009		-56.640625
1010		-68.359375
1011		-58.593750
1012		-72.265625
1013		-64.453125
1014		-76.171875
1015		-66.406250
1016		-80.078125
1017		-70.312500
1018		-82.031250
1019		-74.218750
1020		-85.937500
1021		-76.171875
1022		-87.890625
1023		-83.984375
1024		-91.796875
1025		-85.937500
1026		-97.656250
1027		-89.843750
1028		-99.609375
1029		-89.843750
1030		-101.562500
1031		-95.703125
1032		-107.421875
1033		-97.656250
1034		-109.375000
1035		-99.609375
1036		-111.328125
1037		-103.515625
1038		-115.234375
1039		-107.421875
1040		-115.234375
1041		-111.328125
1042		-121.093750
1043		-115.234375
1044		-125.000000
1045		-115.234375
1046		-126.953125
1047		-119.140625
1048		-128.906250
1049		-121.093750
1050		-132.812500
1051		-123.046875
1052		-134.765625
1053		-125.000000
1054		-136.718750
1055		-128.906250
1056		-134.765625
1057		-132.812500
1058		-138.671875
1059		-132.812500
1060		-142.578125
1061		-134.765625
1062		-144.531250
1063		-134.765625
1064		-146.484375
1065		-138.671875
1066		-146.484375
1067		-140.625000
1068		-148.437500
1069		-140.625000
1070		-150.390625
1071		-142.578125
1072		-148.437500
1073		-144.531250
1074		-150.390625
1075		-146.484375
1076		-152.343750
1077		-146.484375
1078		-154.296875
1079		-146.484375
1080		-156.250000
1081		-148.437500
1082		-156.250000
1083		-148.437500
1084		-156.250000
1085		-150.390625
1086		-158.203125
1087		-150.390625
1088		-158.203125
1089		-150.390625
1090		-154.296875
1091		-152.343750
1092		-154.296875
1093		-152.343750
1094		-158.203125
1095		-150.390625
1096		-158.203125
1097		-150.390625
1098		-158.203125
1099		-150.390625
1100		-158.203125
1101		-150.390625
1102		-156.250000
1103		-148.437500
1104		-156.250000
1105		-148.437500
1106		-154.296875
1107		-150.390625
1108		-152.343750
1109		-148.437500
1110		-152.343750
1111		-146.484375
1112		-152.343750
1113		-144.531250
1114		-152.343750
1115		-142.578125
1116		-150.390625
1117		-142.578125
1118		-148.437500
1119		-140.625000
1120		-146.484375
1121		-138.671875
1122		-144.531250
1123		-138.671875
1124		-140.625000
1125		-138.671875
1126		-138.671875
1127		-134.765625
1128		-138.671875
1129		-130.859375
1130		-136.718750
1131		-128.906250
1132		-134.765625
1133		-126.953125
1134		-132.812500
1135		-125.000000
1136		-130.859375
1137		-123.046875
1138		-128.906250
1139		-119.140625
1140		-123.046875
1141		-119.140625
1142		-121.093750
1143		-115.234375
1144		-119.140625
1145		-111.328125
1146		-117.187500
1147		-109.375000
1148		-113.281250
1149		-105.468750
1150		-111.328125
1151		-101.562500
1152		-107.421875
1153		-99.609375
1154		-105.468750
1155		-95.703125
1156		-99.609375
1157		-93.750000
1158		-95.703125
1159		-91.796875
1160		-91.796875
1161		-85.937500
1162		-91.796875
1163		-82.031250
1164		-87.890625
1165		-78.125000
1166		-83.984375
1167		-74.218750
1168		-80.078125
1169		-72.265625
1170		-78.125000
1171		-68.359375
1172		-72.265625
1173		-64.453125
1174		-66.406250
1175		-62.500000
1176		-62.500000
1177		-58.593750
1178		-60.546875
1179		-52.734375
1180		-58.593750
1181		-46.875000
1182		-52.734375
1183		-44.921875
1184		-48.828125
1185		-41.015625
1186		-44.921875
1187		-35.156250
1188		-42.968750
1189		-31.250000
1190		-37.109375
1191		-29.296875
1192		-31.250000
1193		-27.343750
1194		-27.343750
1195		-21.484375
1196		-25.390625
1197		-15.625000
1198		-21.484375
1199		-11.718750
1200		-17.578125
1201		-7.812500
1202		-13.671875
1203		-3.906250
1204		-9.765625
1205		0.000000
1206		-5.859375
1207		1.953125
1208		0.000000
1209		5.859375
1210		3.906250
1211		9.765625
1212		5.859375
1213		15.625000
1214		9.765625
1215		19.531250
1216		13.671875
1217		21.484375
1218		17.578125
1219		27.343750
1220		21.484375
1221		31.250000
1222		25.390625
1223		33.203125
1224		31.250000
1225		37.109375
1226		35.156250
1227		39.062500
1228		37.109375
1229		44.921875
1230		39.062500
1231		48.828125
1232		42.968750
1233		52.734375
1234		46.875000
1235		54.687500
1236		50.781250
1237		60.546875
1238		54.687500
1239		62.500000
1240		56.640625
1241		64.453125
1242		62.500000
1243		66.406250
1244		64.453125
1245		72.265625
1246		66.406250
1247		76.171875
1248		70.312500
1249		78.125000
1250		72.265625
1251		82.031250
1252		74.218750
1253		83.984375
1254		78.125000
1255		87.890625
1256		82.031250
1257		87.890625
1258		85.937500
1259		89.843750
1260		89.843750
1261		93.750000
1262		89.843750
1263		97.656250
1264		91.796875
1265		99.609375
1266		95.703125
1267		103.515625
1268		97.656250
1269		105.468750
1270		97.656250
1271		107.421875
1272		101.562500
1273		109.375000
1274		103.515625
1275		109.375000
1276		107.421875
1277		111.328125
1278		109.375000
1279		115.234375
1280		109.375000
1281		117.187500
1282		111.328125
1283		119.140625
1284		113.281250
1285		121.093750
1286		115.234375
1287		123.046875
1288		117.187500
1289		125.000000
1290		119.140625
1291		126.953125
1292		123.046875
1293		126.953125
1294		125.000000
1295		128.906250
1296		123.046875
1297		130.859375
1298		125.000000
1299		132.812500
1300		125.000000
1301		132.812500
1302		126.953125
1303		134.765625
1304		128.906250
1305		134.765625
1306		128.906250
1307		136.718750
1308		130.859375
1309		134.765625
1310		132.812500
1311		134.765625
1312		130.859375
1313		138.671875
1314		132.812500
1315		138.671875
1316		132.812500
1317		140.625000
1318		132.812500
1319		140.625000
1320		132.812500
1321		140.625000
1322		134.765625
1323		140.625000
1324		132.812500
1325		140.625000
1326		136.718750
1327		138.671875
1328		134.765625
1329		140.625000
1330		134.765625
1331		142.578125
1332		134.765625
1333		140.625000
1334		134.765625
1335		140.625000
1336		134.765625
1337		140.625000
1338		134.765625
1339		140.625000
1340		134.765625
1341		140.625000
1342		134.765625
1343		138.671875
1344		134.765625
1345		136.718750
1346		130.859375
1347		138.671875
1348		130.859375
1349		138.671875
1350		130.859375
1351		136.718750
1352		128.906250
1353		136.718750
1354		128.906250
1355		136.718750
1356		126.953125
1357		134.765625
1358		126.953125
1359		134.765625
1360		126.953125
1361		130.859375
1362		125.000000
1363		130.859375
1364		123.046875
1365		130.859375
1366		121.093750
1367		128.906250
1368		121.093750
1369		128.906250
1370		117.187500
1371		126.953125
1372		117.187500
1373		125.000000
1374		117.187500
1375		123.046875
1376		115.234375
1377		119.140625
1378		113.281250
1379		117.187500
1380		109.375000
1381		117.187500
1382		107.421875
1383		115.234375
1384		105.468750
1385		113.281250
1386		103.515625
1387		111.328125
1388		99.609375
1389		109.375000
1390		97.656250
1391		107.421875
1392		97.656250
1393		101.562500
1394		95.703125
1395		99.609375
1396		89.843750
1397		97.656250
1398		89.843750
1399		95.703125
1400		83.984375
1401		93.750000
1402		82.031250
1403		91.796875
1404		80.078125
1405		87.890625
1406		76.171875
1407		83.984375
1408		76.171875
1409		82.031250
1410		72.265625
1411		78.125000
1412		68.359375
1413		74.218750
1414		64.453125
1415		72.265625
1416		60.546875
1417		70.312500
1418		56.640625
1419		66.406250
1420		54.687500
1421		64.453125
1422		50.781250
1423		60.546875
1424		48.828125
1425		56.640625
1426		44.921875
1427		50.781250
1428		41.015625
1429		46.875000
1430		35.156250
1431		44.921875
1432		33.203125
1433		41.015625
1434		29.296875
1435		37.109375
1436		25.390625
1437		33.203125
1438		21.484375
1439		31.250000
1440		17.578125
1441		25.390625
1442		15.625000
1443		23.437500
1444		11.718750
1445		17.578125
1446		5.859375
1447		13.671875
1448		1.953125
1449		11.718750
1450		-1.953125
1451		7.812500
1452		-5.859375
1453		1.953125
1454		-11.718750
1455		0.000000
1456		-13.671875
1457		-3.906250
1458		-15.625000
1459		-7.812500
1460		-19.531250
1461		-13.671875
1462		-25.390625
1463		-17.578125
1464		-29.296875
1465		-19.531250
1466		-33.203125
1467		-23.437500
1468		-37.109375
1469		-27.343750
1470		-41.015625
1471		-31.250000
1472		-46.875000
1473		-35.156250
1474		-48.828125
1475		-39.062500
1476		-50.781250
1477		-44.921875
1478		-54.687500
1479		-48.828125
1480		-60.546875
1481		-52.734375
1482		-64.453125
1483		-54.687500
1484		-68.359375
1485		-58.593750
1486		-72.265625
1487		-62.500000
1488		-74.218750
1489		-66.406250
1490		-78.125000
1491		-70.312500
1492		-80.078125
1493		-72.265625
1494		-83.984375
1495		-78.125000
1496		-89.843750
1497		-82.031250
1498		-91.796875
1499		-83.984375
1500		-97.656250
1501		-85.937500
1502		-99.609375
1503		-89.843750
1504		-103.515625
1505		-93.750000
1506		-105.468750
1507		-95.703125
1508		-107.421875
1509		-99.609375
1510		-109.375000
1511		-105.468750
1512		-111.328125
1513		-107.421875
1514		-117.187500
1515		-109.375000
1516		-121.093750
1517		-111.328125
1518		-123.046875
1519		-115.234375
1520		-125.000000
1521		-117.187500
1522		-126.953125
1523		-119.140625
1524		-130.859375
1525		-123.046875
1526		-130.859375
1527		-125.000000
1528		-132.812500
1529		-128.906250
1530		-136.718750
1531		-128.906250
1532		-138.671875
1533		-130.859375
1534		-140.625000
1535		-132.812500
1536		-142.578125
1537		-134.765625
1538		-144.531250
1539		-136.718750
1540		-146.484375
1541		-136.718750
1542		-146.484375
1543		-138.671875
1544		-146.484375
1545		-142.578125
1546		-150.390625
1547		-142.578125
1548		-150.390625
1549		-144.531250
1550		-152.343750
1551		-144.531250
1552		-152.343750
1553		-144.531250
1554		-154.296875
1555		-146.484375
1556		-154.296875
1557		-146.484375
1558		-154.296875
1559		-146.484375
1560		-154.296875
1561		-148.437500
1562		-152.343750
1563		-150.390625
1564		-156.250000
1565		-148.437500
1566		-156.250000
1567		-148.437500
1568		-156.250000
1569		-148.437500
1570		-156.250000
1571		-148.437500
1572		-156.250000
1573		-148.437500
1574		-156.250000
1575		-148.437500
1576		-152.343750
1577		-148.437500
1578		-150.390625
1579		-148.437500
1580		-152.343750
1581		-146.484375
1582		-152.343750
1583		-144.531250
1584		-150.390625
1585		-144.531250
1586		-150.390625
1587		-142.578125
1588		-148.437500
1589		-142.578125
1590		-148.437500
1591		-140.625000
1592		-146.484375
1593		-138.671875
1594		-142.578125
1595		-138.671875
1596		-140.625000
1597		-136.718750
1598		-140.625000
1599		-134.765625
1600		-140.625000
1601		-130.859375
1602		-138.671875
1603		-128.906250
1604		-134.765625
1605		-126.953125
1606		-132.812500
1607		-125.000000
1608		-130.859375
1609		-123.046875
1610		-128.906250
1611		-121.093750
1612		-123.046875
1613		-119.140625
1614		-121.093750
1615		-113.281250
1616		-121.093750
1617		-111.328125
1618		-117.187500
1619		-109.375000
1620		-115.234375
1621		-105.468750
1622		-111.328125
1623		-101.562500
1624		-109.375000
1625		-99.609375
1626		-105.468750
1627		-97.656250
1628		-99.609375
1629		-95.703125
1630		-95.703125
1631		-91.796875
1632		-93.750000
1633		-85.937500
1634		-91.796875
1635		-82.031250
1636		-87.890625
1637		-80.078125
1638		-83.984375
1639		-76.171875
1640		-82.031250
1641		-72.265625
1642		-78.125000
1643		-66.406250
1644		-72.265625
1645		-66.406250
1646		-68.359375
1647		-62.500000
1648		-64.453125
1649		-58.593750
1650		-62.500000
1651		-52.734375
1652		-58.593750
1653		-48.828125
1654		-54.687500
1655		-44.921875
1656		-50.781250
1657		-42.968750
1658		-46.875000
1659		-37.109375
1660		-41.015625
1661		-35.156250
1662		-37.109375
1663		-31.250000
1664		-33.203125
1665		-27.343750
1666		-31.250000
1667		-21.484375
1668		-25.390625
1669		-17.578125
1670		-23.437500
1671		-13.671875
1672		-19.531250
1673		-9.765625
1674		-15.625000
1675		-5.859375
1676		-11.718750
1677		-1.953125
1678		-3.906250
1679		1.953125
1680		0.000000
1681		3.906250
1682		1.953125
1683		11.718750
1684		5.859375
1685		13.671875
1686		7.812500
1687		17.578125
1688		11.718750
1689		21.484375
1690		15.625000
1691		25.390625
1692		19.531250
1693		31.250000
1694		23.437500
1695		31.250000
1696		29.296875
1697		35.156250
1698		33.203125
1699		39.062500
1700		35.156250
1701		44.921875
1702		39.062500
1703		46.875000
1704		41.015625
1705		50.781250
1706		46.875000
1707		54.687500
1708		48.828125
1709		58.593750
1710		50.781250
1711		60.546875
1712		58.593750
1713		62.500000
1714		60.546875
1715		66.406250
1716		62.500000
1717		70.312500
1718		64.453125
1719		74.218750
1720		68.359375
1721		78.125000
1722		72.265625
1723		80.078125
1724		74.218750
1725		83.984375
1726		78.125000
1727		85.937500
1728		80.078125
1729		85.937500
1730		85.937500
1731		89.843750
1732		85.937500
1733		93.750000
1734		89.843750
1735		97.656250
1736		89.843750
1737		99.609375
1738		93.750000
1739		101.562500
1740		95.703125
1741		105.468750
1742		99.609375
1743		107.421875
1744		101.562500
1745		107.421875
1746		105.468750
1747		109.375000
1748		107.421875
1749		111.328125
1750		107.421875
1751		115.234375
1752		109.375000
1753		117.187500
1754		111.328125
1755		119.140625
1756		113.281250
1757		121.093750
1758		115.234375
1759		123.046875
1760		115.234375
1761		125.000000
1762		121.093750
1763		123.046875
1764		123.046875
1765		125.000000
1766		123.046875
1767		128.906250
1768		123.046875
1769		130.859375
1770		125.000000
1771		130.859375
1772		125.000000
1773		132.812500
1774		126.953125
1775		132.812500
1776		128.906250
1777		134.765625
1778		128.906250
1779		134.765625
1780		132.812500
1781		134.765625
1782		130.859375
1783		136.718750
1784		130.859375
1785		138.671875
1786		130.859375
1787		138.671875
1788		132.812500
1789		140.625000
1790		132.812500
1791		140.625000
1792		134.765625
1793		140.625000
1794		134.765625
1795		142.578125
1796		136.718750
1797		138.671875
1798		136.718750
1799		140.625000
1800		134.765625
1801		142.578125
1802		134.765625
1803		142.578125
1804		134.765625
1805		142.578125
1806		134.765625
1807		142.578125
1808		134.765625
1809		142.578125
1810		134.765625
1811		142.578125
1812		136.718750
1813		140.625000
1814		136.718750
1815		138.671875
1816		132.812500
1817		140.625000
1818		132.812500
1819		140.625000
1820		132.812500
1821		138.671875
1822		130.859375
1823		138.671875
1824		130.859375
1825		138.671875
1826		128.906250
1827		138.671875
1828		128.906250
1829		136.718750
1830		130.859375
1831		134.765625
1832		128.906250
1833		132.812500
1834		125.000000
1835		132.812500
1836		125.000000
1837		132.812500
1838		123.046875
1839		130.859375
1840		121.093750
1841		130.859375
1842		121.093750
1843		128.906250
1844		119.140625
1845		126.953125
1846		119.140625
1847		123.046875
1848		117.187500
1849		121.093750
1850		113.281250
1851		121.093750
1852		111.328125
1853		119.140625
1854		109.375000
1855		117.187500
1856		107.421875
1857		115.234375
1858		105.468750
1859		113.281250
1860		103.515625
1861		111.328125
1862		103.515625
1863		109.375000
1864		101.562500
1865		105.468750
1866		95.703125
1867		103.515625
1868		93.750000
1869		103.515625
1870		91.796875
1871		99.609375
1872		87.890625
1873		97.656250
1874		85.937500
1875		93.750000
1876		83.984375
1877		91.796875
1878		82.031250
1879		89.843750
1880		80.078125
1881		83.984375
1882		76.171875
1883		80.078125
1884		70.312500
1885		80.078125
1886		68.359375
1887		76.171875
1888		64.453125
1889		72.265625
1890		60.546875
1891		70.312500
1892		56.640625
1893		66.406250
1894		52.734375
1895		62.500000
1896		52.734375
1897		60.546875
1898		48.828125
1899		54.687500
1900		42.968750
1901		50.781250
1902		39.062500
1903		48.828125
1904		37.109375
1905		44.921875
1906		33.203125
1907		42.968750
1908		27.343750
1909		39.062500
1910		25.390625
1911		33.203125
1912		23.437500
1913		31.250000
1914		19.531250
1915		25.390625
1916		13.671875
1917		21.484375
1918		9.765625
1919		19.531250
1920		5.859375
1921		15.625000
1922		1.953125
1923		9.765625
1924		-1.953125
1925		7.812500
1926		-5.859375
1927		3.906250
1928		-7.812500
1929		0.000000
1930		-11.718750
1931		-5.859375
1932		-15.625000
1933		-9.765625
1934		-21.484375
1935		-13.671875
1936		-25.390625
1937		-15.625000
1938		-29.296875
1939		-19.531250
1940		-33.203125
1941		-23.437500
1942		-37.109375
1943		-29.296875
1944		-42.968750
1945		-33.203125
1946		-44.921875
1947		-35.156250
1948		-46.875000
1949		-41.015625
1950		-52.734375
1951		-44.921875
1952		-56.640625
1953		-46.875000
1954		-60.546875
1955		-52.734375
1956		-64.453125
1957		-54.687500
1958		-68.359375
1959		-58.593750
1960		-72.265625
1961		-62.500000
1962		-74.218750
1963		-66.406250
1964		-76.171875
1965		-72.265625
1966		-82.031250
1967		-76.171875
1968		-85.937500
1969		-78.125000
1970		-89.843750
1971		-80.078125
1972		-93.750000
1973		-83.984375
1974		-95.703125
1975		-87.890625
1976		-99.609375
1977		-91.796875
1978		-103.515625
1979		-93.750000
1980		-105.468750
1981		-97.656250
1982		-107.421875
1983		-101.562500
1984		-111.328125
1985		-105.468750
1986		-115.234375
1987		-107.421875
1988		-117.187500
1989		-109.375000
1990		-121.093750
1991		-113.281250
1992		-123.046875
1993		-115.234375
1994		-126.953125
1995		-117.187500
1996		-126.953125
1997		-121.093750
1998		-128.906250
1999		-125.000000
2000		-130.859375
2001		-126.953125
2002		-136.718750
2003		-126.953125
2004		-136.718750
2005		-128.906250
2006		-140.625000
2007		-130.859375
2008		-142.578125
2009		-132.812500
2010		-144.531250
2011		-134.765625
2012		-144.531250
2013		-136.718750
2014		-144.531250
2015		-140.625000
2016		-146.484375
2017		-142.578125
2018		-150.390625
2019		-142.578125
2020		-150.390625
2021		-142.578125
2022		-152.343750
2023		-144.531250
2024		-152.343750
2025		-146.484375
2026		-154.296875
2027		-146.484375
2028		-154.296875
2029		-146.484375
2030		-154.296875
2031		-148.437500
2032		-154.296875
2033		-150.390625
2034		-154.296875
2035		-150.390625
2036		-156.250000
2037		-148.437500
2038		-156.250000
2039		-150.390625
2040		-158.203125
2041		-150.390625
2042		-158.203125
2043		-150.390625
2044		-156.250000
2045		-150.390625
2046		-156.250000
2047		-148.437500
2048		-154.296875
2049		-150.390625
2050		-154.296875
2051		-150.390625
2052		-156.250000
2053		-146.484375
2054		-154.296875
2055		-146.484375
2056		-154.296875
2057		-146.484375
2058		-152.343750
2059		-144.531250
2060		-152.343750
2061		-144.531250
2062		-150.390625
2063		-142.578125
2064		-148.437500
2065		-142.578125
2066		-144.531250
2067		-142.578125
2068		-144.531250
2069		-138.671875
2070		-144.531250
2071		-136.718750
2072		-142.578125
2073		-134.765625
2074		-140.625000
2075		-132.812500
2076		-138.671875
2077		-130.859375
2078		-136.718750
2079		-128.906250
2080		-134.765625
2081		-126.953125
2082		-128.906250
2083		-126.953125
2084		-126.953125
2085		-123.046875
2086		-126.953125
2087		-119.140625
2088		-125.000000
2089		-115.234375
2090		-121.093750
2091		-113.281250
2092		-119.140625
2093		-111.328125
2094		-117.187500
2095		-107.421875
2096		-113.281250
2097		-105.468750
2098		-107.421875
2099		-103.515625
2100		-105.468750
2101		-99.609375
2102		-101.562500
2103		-93.750000
2104		-99.609375
2105		-91.796875
2106		-97.656250
2107		-87.890625
2108		-93.750000
2109		-83.984375
2110		-89.843750
2111		-82.031250
2112		-85.937500
2113		-76.171875
2114		-82.031250
2115		-76.171875
2116		-78.125000
2117		-72.265625
2118		-74.218750
2119		-68.359375
2120		-72.265625
2121		-62.500000
2122		-68.359375
2123		-58.593750
2124		-62.500000
2125		-54.687500
2126		-60.546875
2127		-50.781250
2128		-56.640625
2129		-46.875000
2130		-52.734375
2131		-44.921875
2132		-46.875000
2133		-41.015625
2134		-42.968750
2135		-37.109375
2136		-41.015625
2137		-31.250000
2138		-37.109375
2139		-27.343750
2140		-33.203125
2141		-23.437500
2142		-27.343750
2143		-19.531250
2144		-23.437500
2145		-15.625000
2146		-21.484375
2147		-11.718750
2148		-15.625000
2149		-9.765625
2150		-11.718750
2151		-5.859375
2152		-5.859375
2153		0.000000
2154		-3.906250
2155		3.906250
2156		-1.953125
2157		7.812500
2158		1.953125
2159		11.718750
2160		7.812500
2161		15.625000
2162		9.765625
2163		19.531250
2164		13.671875
2165		21.484375
2166		21.484375
2167		25.390625
2168		23.437500
2169		31.250000
2170		27.343750
2171		35.156250
2172		29.296875
2173		39.062500
2174		33.203125
2175		42.968750
2176		37.109375
2177		46.875000
2178		41.015625
2179		48.828125
2180		42.968750
2181		52.734375
2182		48.828125
2183		54.687500
2184		52.734375
2185		56.640625
2186		54.687500
2187		62.500000
2188		58.593750
2189		66.406250
2190		60.546875
2191		70.312500
2192		64.453125
2193		72.265625
2194		66.406250
2195		74.218750
2196		70.312500
2197		78.125000
2198		72.265625
2199		80.078125
2200		78.125000
2201		82.031250
2202		82.031250
2203		85.937500
2204		82.031250
2205		89.843750
2206		83.984375
2207		91.796875
2208		87.890625
2209		95.703125
2210		89.843750
2211		97.656250
2212		91.796875
2213		99.609375
2214		95.703125
2215		101.562500
2216		99.609375
2217		103.515625
2218		101.562500
2219		105.468750
2220		101.562500
2221		109.375000
2222		103.515625
2223		111.328125
2224		105.468750
2225		113.281250
2226		107.421875
2227		115.234375
2228		109.375000
2229		117.187500
2230		111.328125
2231		119.140625
2232		115.234375
2233		119.140625
2234		117.187500
2235		121.093750
2236		117.187500
2237		125.000000
2238		117.187500
2239		125.000000
2240		119.140625
2241		126.953125
2242		121.093750
2243		128.906250
2244		121.093750
2245		130.859375
2246		123.046875
2247		130.859375
2248		125.000000
2249		130.859375
2250		128.906250
2251		130.859375
2252		128.906250
2253		132.812500
2254		128.906250
2255		134.765625
2256		128.906250
2257		136.718750
2258		128.906250
2259		136.718750
2260		128.906250
2261		136.718750
2262		130.859375
2263		138.671875
2264		130.859375
2265		138.671875
2266		134.765625
2267		136.718750
2268		134.765625
2269		136.718750
2270		132.812500
2271		140.625000
2272		132.812500
2273		140.625000
2274		132.812500
2275		140.625000
2276		132.812500
2277		140.625000
2278		132.812500
2279		140.625000
2280		132.812500
2281		140.625000
2282		132.812500
2283		140.625000
2284		134.765625
2285		136.718750
2286		134.765625
2287		138.671875
2288		132.812500
2289		138.671875
2290		130.859375
2291		138.671875
2292		130.859375
2293		138.671875
2294		128.906250
2295		136.718750
2296		128.906250
2297		136.718750
2298		128.906250
2299		134.765625
2300		128.906250
2301		132.812500
2302		128.906250
2303		130.859375
2304		125.000000
2305		132.812500
2306		125.000000
2307		130.859375
2308		123.046875
2309		130.859375
2310		121.093750
2311		128.906250
2312		119.140625
2313		128.906250
2314		119.140625
2315		126.953125
2316		119.140625
2317		125.000000
2318		119.140625
2319		121.093750
2320		115.234375
2321		121.093750
2322		111.328125
2323		121.093750
2324		111.328125
2325		119.140625
2326		109.375000
2327		117.187500
2328		107.421875
2329		115.234375
2330		105.468750
2331		113.281250
2332		101.562500
2333		111.328125
2334		101.562500
2335		105.468750
2336		99.609375
2337		103.515625
2338		95.703125
2339		103.515625
2340		93.750000
2341		101.562500
2342		89.843750
2343		99.609375
2344		87.890625
2345		95.703125
2346		83.984375
2347		93.750000
2348		82.031250
2349		91.796875
2350		82.031250
2351		87.890625
2352		78.125000
2353		83.984375
2354		74.218750
2355		80.078125
2356		70.312500
2357		80.078125
2358		66.406250
2359		76.171875
2360		64.453125
2361		74.218750
2362		60.546875
2363		70.312500
2364		56.640625
2365		66.406250
2366		56.640625
2367		62.500000
2368		52.734375
2369		58.593750
2370		48.828125
2371		54.687500
2372		44.921875
2373		54.687500
2374		41.015625
2375		48.828125
2376		37.109375
2377		44.921875
2378		33.203125
2379		42.968750
2380		29.296875
2381		39.062500
2382		25.390625
2383		35.156250
2384		23.437500
2385		29.296875
2386		19.531250
2387		25.390625
2388		13.671875
2389		21.484375
2390		9.765625
2391		19.531250
2392		7.812500
2393		15.625000
2394		1.953125
2395		11.718750
2396		-1.953125
2397		7.812500
2398		-5.859375
2399		3.906250
2400		-7.812500
2401		0.000000
2402		-11.718750
2403		-5.859375
2404		-17.578125
2405		-9.765625
2406		-21.484375
2407		-11.718750
2408		-25.390625
2409		-15.625000
2410		-29.296875
2411		-19.531250
2412		-33.203125
2413		-23.437500
2414		-37.109375
2415		-27.343750
2416		-41.015625
2417		-31.250000
2418		-42.968750
2419		-37.109375
2420		-46.875000
2421		-41.015625
2422		-52.734375
2423		-42.968750
2424		-56.640625
2425		-46.875000
2426		-60.546875
2427		-50.781250
2428		-64.453125
2429		-54.687500
2430		-68.359375
2431		-58.593750
2432		-72.265625
2433		-62.500000
2434		-72.265625
2435		-66.406250
2436		-76.171875
2437		-72.265625
2438		-82.031250
2439		-76.171875
2440		-87.890625
2441		-78.125000
2442		-91.796875
2443		-80.078125
2444		-93.750000
2445		-83.984375
2446		-97.656250
2447		-87.890625
2448		-99.609375
2449		-91.796875
2450		-101.562500
2451		-93.750000
2452		-103.515625
2453		-99.609375
2454		-109.375000
2455		-103.515625
2456		-113.281250
2457		-105.468750
2458		-117.187500
2459		-107.421875
2460		-119.140625
2461		-109.375000
2462		-123.046875
2463		-113.281250
2464		-123.046875
2465		-115.234375
2466		-126.953125
2467		-119.140625
2468		-126.953125
2469		-123.046875
2470		-128.906250
2471		-125.000000
2472		-134.765625
2473		-126.953125
2474		-136.718750
2475		-128.906250
2476		-138.671875
2477		-130.859375
2478		-140.625000
2479		-132.812500
2480		-142.578125
2481		-134.765625
2482		-144.531250
2483		-136.718750
2484		-144.531250
2485		-138.671875
2486		-146.484375
2487		-142.578125
2488		-150.390625
2489		-142.578125
2490		-150.390625
2491		-142.578125
2492		-152.343750
2493		-144.531250
2494		-154.296875
2495		-146.484375
2496		-154.296875
2497		-146.484375
2498		-156.250000
2499		-148.437500
2500		-156.250000
2501		-148.437500
2502		-154.296875
2503		-152.343750
2504		-154.296875
2505		-152.343750
2506		-158.203125
2507		-150.390625
2508		-160.156250
2509		-150.390625
2510		-160.156250
2511		-152.343750
2512		-158.203125
2513		-152.343750
2514		-158.203125
2515		-152.343750
2516		-160.156250
2517		-152.343750
2518		-158.203125
2519		-152.343750
2520		-156.250000
2521		-152.343750
2522		-158.203125
2523		-150.390625
2524		-158.203125
2525		-150.390625
2526		-156.250000
2527		-150.390625
2528		-156.250000
2529		-148.437500
2530		-156.250000
2531		-148.437500
2532		-154.296875
2533		-146.484375
2534		-154.296875
2535		-144.531250
2536		-150.390625
2537		-146.484375
2538		-148.437500
2539		-144.531250
2540		-148.437500
2541		-140.625000
2542		-148.437500
2543		-140.625000
2544		-146.484375
2545		-136.718750
2546		-144.531250
2547		-136.718750
2548		-142.578125
2549		-134.765625
2550		-140.625000
2551		-130.859375
2552		-134.765625
2553		-130.859375
2554		-132.812500
2555		-128.906250
2556		-132.812500
2557		-125.000000
2558		-130.859375
2559		-123.046875
2560		-128.906250
2561		-119.140625
2562		-125.000000
2563		-117.187500
2564		-123.046875
2565		-115.234375
2566		-119.140625
2567		-111.328125
2568		-117.187500
2569		-109.375000
2570		-111.328125
2571		-107.421875
2572		-109.375000
2573		-101.562500
2574		-107.421875
2575		-99.609375
2576		-103.515625
2577		-95.703125
2578		-101.562500
2579		-91.796875
2580		-97.656250
2581		-87.890625
2582		-93.750000
2583		-85.937500
2584		-89.843750
2585		-82.031250
2586		-85.937500
2587		-80.078125
2588		-82.031250
2589		-76.171875
2590		-78.125000
2591		-70.312500
2592		-76.171875
2593		-66.406250
2594		-72.265625
2595		-62.500000
2596		-68.359375
2597		-60.546875
2598		-64.453125
2599		-54.687500
2600		-58.593750
2601		-50.781250
2602		-56.640625
2603		-48.828125
2604		-50.781250
2605		-44.921875
2606		-46.875000
2607		-39.062500
2608		-44.921875
2609		-35.156250
2610		-39.062500
2611		-33.203125
2612		-37.109375
2613		-29.296875
2614		-31.250000
2615		-25.390625
2616		-27.343750
2617		-19.531250
2618		-23.437500
2619		-17.578125
2620		-19.531250
2621		-13.671875
2622		-15.625000
2623		-7.812500
2624		-13.671875
2625		-3.906250
2626		-9.765625
2627		0.000000
2628		-3.906250
2629		5.859375
2630		0.000000
2631		7.812500
2632		3.906250
2633		13.671875
2634		5.859375
2635		15.625000
2636		13.671875
2637		17.578125
2638		15.625000
2639		21.484375
2640		19.531250
2641		27.343750
2642		21.484375
2643		31.250000
2644		25.390625
2645		35.156250
2646		29.296875
2647		39.062500
2648		33.203125
2649		42.968750
2650		37.109375
2651		44.921875
2652		41.015625
2653		46.875000
2654		46.875000
2655		50.781250
2656		48.828125
2657		54.687500
2658		50.781250
2659		58.593750
2660		52.734375
2661		64.453125
2662		58.593750
2663		66.406250
2664		60.546875
2665		68.359375
2666		62.500000
2667		72.265625
2668		66.406250
2669		74.218750
2670		72.265625
2671		76.171875
2672		74.218750
2673		80.078125
2674		76.171875
2675		85.937500
2676		78.125000
2677		87.890625
2678		82.031250
2679		89.843750
2680		83.984375
2681		91.796875
2682		85.937500
2683		95.703125
2684		89.843750
2685		97.656250
2686		91.796875
2687		97.656250
2688		95.703125
2689		99.609375
2690		97.656250
2691		105.468750
2692		99.609375
2693		107.421875
2694		101.562500
2695		109.375000
2696		103.515625
2697		111.328125
2698		105.468750
2699		113.281250
2700		107.421875
2701		115.234375
2702		109.375000
2703		115.234375
2704		113.281250
2705		117.187500
2706		115.234375
2707		121.093750
2708		115.234375
2709		123.046875
2710		117.187500
2711		123.046875
2712		117.187500
2713		125.000000
2714		119.140625
2715		126.953125
2716		119.140625
2717		128.906250
2718		121.093750
2719		128.906250
2720		125.000000
2721		128.906250
2722		126.953125
2723		130.859375
2724		125.000000
2725		132.812500
2726		126.953125
2727		134.765625
2728		126.953125
2729		134.765625
2730		126.953125
2731		134.765625
2732		128.906250
2733		136.718750
2734		128.906250
2735		136.718750
2736		130.859375
2737		136.718750
2738		132.812500
2739		136.718750
2740		132.812500
2741		136.718750
2742		130.859375
2743		138.671875
2744		132.812500
2745		138.671875
2746		132.812500
2747		138.671875
2748		132.812500
2749		140.625000
2750		132.812500
2751		140.625000
2752		132.812500
2753		138.671875
2754		134.765625
2755		136.718750
2756		134.765625
2757		136.718750
2758		132.812500
2759		138.671875
2760		130.859375
2761		138.671875
2762		130.859375
2763		138.671875
2764		130.859375
2765		138.671875
2766		130.859375
2767		136.718750
2768		128.906250
2769		136.718750
2770		128.906250
2771		134.765625
2772		130.859375
2773		132.812500
2774		126.953125
2775		132.812500
2776		125.000000
2777		132.812500
2778		125.000000
2779		132.812500
2780		123.046875
2781		130.859375
2782		121.093750
2783		130.859375
2784		121.093750
2785		128.906250
2786		119.140625
2787		126.953125
2788		121.093750
2789		123.046875
2790		119.140625
2791		123.046875
2792		115.234375
2793		123.046875
2794		113.281250
2795		121.093750
2796		111.328125
2797		119.140625
2798		109.375000
2799		117.187500
2800		107.421875
2801		115.234375
2802		105.468750
2803		113.281250
2804		105.468750
2805		109.375000
2806		103.515625
2807		107.421875
2808		97.656250
2809		105.468750
2810		95.703125
2811		105.468750
2812		93.750000
2813		101.562500
2814		89.843750
2815		99.609375
2816		87.890625
2817		97.656250
2818		85.937500
2819		93.750000
2820		85.937500
2821		91.796875
2822		82.031250
2823		87.890625
2824		78.125000
2825		83.984375
2826		74.218750
2827		83.984375
2828		72.265625
2829		80.078125
2830		68.359375
2831		78.125000
2832		66.406250
2833		74.218750
2834		60.546875
2835		70.312500
2836		60.546875
2837		68.359375
2838		58.593750
2839		62.500000
2840		54.687500
2841		58.593750
2842		48.828125
2843		56.640625
2844		44.921875
2845		54.687500
2846		41.015625
2847		50.781250
2848		39.062500
2849		48.828125
2850		35.156250
2851		42.968750
2852		33.203125
2853		41.015625
2854		29.296875
2855		37.109375
2856		25.390625
2857		31.250000
2858		21.484375
2859		27.343750
2860		15.625000
2861		23.437500
2862		13.671875
2863		19.531250
2864		7.812500
2865		17.578125
2866		5.859375
2867		13.671875
2868		1.953125
2869		9.765625
2870		-1.953125
2871		5.859375
2872		-5.859375
2873		0.000000
2874		-9.765625
2875		-3.906250
2876		-15.625000
2877		-7.812500
2878		-17.578125
2879		-9.765625
2880		-23.437500
2881		-13.671875
2882		-27.343750
2883		-17.578125
2884		-31.250000
2885		-21.484375
2886		-33.203125
2887		-25.390625
2888		-37.109375
2889		-31.250000
2890		-41.015625
2891		-35.156250
2892		-46.875000
2893		-39.062500
2894		-50.781250
2895		-41.015625
2896		-54.687500
2897		-44.921875
2898		-56.640625
2899		-48.828125
2900		-62.500000
2901		-52.734375
2902		-66.406250
2903		-56.640625
2904		-68.359375
2905		-62.500000
2906		-72.265625
2907		-66.406250
2908		-76.171875
2909		-70.312500
2910		-82.031250
2911		-72.265625
2912		-85.937500
2913		-76.171875
2914		-87.890625
2915		-78.125000
2916		-91.796875
2917		-83.984375
2918		-95.703125
2919		-85.937500
2920		-97.656250
2921		-89.843750
2922		-99.609375
2923		-93.750000
2924		-103.515625
2925		-97.656250
2926		-109.375000
2927		-101.562500
2928		-111.328125
2929		-103.515625
2930		-115.234375
2931		-105.468750
2932		-117.187500
2933		-107.421875
2934		-121.093750
2935		-111.328125
2936		-123.046875
2937		-113.281250
2938		-125.000000
2939		-117.187500
2940		-126.953125
2941		-123.046875
2942		-130.859375
2943		-125.000000
2944		-132.812500
2945		-125.000000
2946		-136.718750
2947		-126.953125
2948		-138.671875
2949		-128.906250
2950		-140.625000
2951		-132.812500
2952		-142.578125
2953		-134.765625
2954		-142.578125
2955		-136.718750
2956		-142.578125
2957		-140.625000
2958		-144.531250
2959		-142.578125
2960		-148.437500
2961		-142.578125
2962		-150.390625
2963		-142.578125
2964		-152.343750
2965		-144.531250
2966		-154.296875
2967		-146.484375
2968		-154.296875
2969		-146.484375
2970		-156.250000
2971		-148.437500
2972		-154.296875
2973		-150.390625
2974		-154.296875
2975		-152.343750
2976		-158.203125
2977		-150.390625
2978		-158.203125
2979		-150.390625
2980		-160.156250
2981		-152.343750
2982		-160.156250
2983		-152.343750
2984		-160.156250
2985		-152.343750
2986		-160.156250
2987		-152.343750
2988		-160.156250
2989		-152.343750
2990		-158.203125
2991		-154.296875
2992		-158.203125
2993		-154.296875
2994		-160.156250
2995		-152.343750
2996		-158.203125
2997		-152.343750
2998		-158.203125
2999		-152.343750
3000		-158.203125
3001		-150.390625
3002		-156.250000
3003		-148.437500
3004		-156.250000
3005		-148.437500
3006		-152.343750
3007		-150.390625
3008		-150.390625
3009		-148.437500
3010		-152.343750
3011		-144.531250
3012		-150.390625
3013		-144.531250
3014		-148.437500
3015		-142.578125
3016		-148.437500
3017		-140.625000
3018		-146.484375
3019		-138.671875
3020		-144.531250
3021		-134.765625
3022		-140.625000
3023		-136.718750
3024		-138.671875
3025		-134.765625
3026		-136.718750
3027		-128.906250
3028		-136.718750
3029		-128.906250
3030		-132.812500
3031		-125.000000
3032		-130.859375
3033		-121.093750
3034		-128.906250
3035		-119.140625
3036		-125.000000
3037		-117.187500
3038		-123.046875
3039		-115.234375
3040		-117.187500
3041		-113.281250
3042		-115.234375
3043		-109.375000
3044		-113.281250
3045		-105.468750
3046		-111.328125
3047		-101.562500
3048		-107.421875
3049		-97.656250
3050		-103.515625
3051		-95.703125
3052		-101.562500
3053		-91.796875
3054		-97.656250
3055		-87.890625
3056		-93.750000
3057		-85.937500
3058		-87.890625
3059		-83.984375
3060		-83.984375
3061		-78.125000
3062		-82.031250
3063		-72.265625
3064		-80.078125
3065		-70.312500
3066		-76.171875
3067		-66.406250
3068		-72.265625
3069		-62.500000
3070		-68.359375
3071		-58.593750
3072		-64.453125
3073		-56.640625
3074		-58.593750
3075		-52.734375
3076		-54.687500
3077		-48.828125
3078		-50.781250
3079		-42.968750
3080		-48.828125
3081		-39.062500
3082		-44.921875
3083		-35.156250
3084		-41.015625
3085		-31.250000
3086		-35.156250
3087		-27.343750
3088		-31.250000
3089		-23.437500
3090		-25.390625
3091		-21.484375
3092		-21.484375
3093		-17.578125
3094		-19.531250
3095		-9.765625
3096		-17.578125
3097		-7.812500
3098		-11.718750
3099		-1.953125
3100		-9.765625
3101		0.000000
3102		-3.906250
3103		5.859375
3104		0.000000
3105		7.812500
3106		3.906250
3107		9.765625
3108		9.765625
3109		15.625000
3110		13.671875
3111		19.531250
3112		13.671875
3113		23.437500
3114		19.531250
3115		27.343750
3116		23.437500
3117		31.250000
3118		27.343750
3119		35.156250
3120		29.296875
3121		39.062500
3122		35.156250
3123		41.015625
3124		39.062500
3125		44.921875
3126		42.968750
3127		46.875000
3128		44.921875
3129		52.734375
3130		48.828125
3131		58.593750
3132		50.781250
3133		60.546875
3134		54.687500
3135		62.500000
3136		56.640625
3137		66.406250
3138		60.546875
3139		70.312500
3140		64.453125
3141		70.312500
3142		68.359375
3143		74.218750
3144		72.265625
3145		78.125000
3146		72.265625
3147		82.031250
3148		76.171875
3149		85.937500
3150		78.125000
3151		87.890625
3152		82.031250
3153		89.843750
3154		83.984375
3155		93.750000
3156		85.937500
3157		93.750000
3158		91.796875
3159		95.703125
3160		93.750000
3161		99.609375
3162		93.750000
3163		101.562500
3164		97.656250
3165		105.468750
3166		97.656250
3167		107.421875
3168		101.562500
3169		109.375000
3170		103.515625
3171		111.328125
3172		105.468750
3173		113.281250
3174		109.375000
3175		113.281250
3176		111.328125
3177		115.234375
3178		111.328125
3179		119.140625
3180		113.281250
3181		121.093750
3182		115.234375
3183		123.046875
3184		117.187500
3185		125.000000
3186		119.140625
3187		126.953125
3188		119.140625
3189		126.953125
3190		121.093750
3191		126.953125
3192		125.000000
3193		126.953125
3194		125.000000
3195		130.859375
3196		125.000000
3197		132.812500
3198		125.000000
3199		132.812500
3200		125.000000
3201		132.812500
3202		126.953125
3203		134.765625
3204		126.953125
3205		134.765625
3206		128.906250
3207		134.765625
3208		132.812500
3209		134.765625
3210		132.812500
3211		134.765625
3212		130.859375
3213		136.718750
3214		130.859375
3215		138.671875
3216		130.859375
3217		138.671875
3218		130.859375
3219		138.671875
3220		130.859375
3221		138.671875
3222		132.812500
3223		138.671875
3224		132.812500
3225		138.671875
3226		134.765625
3227		136.718750
3228		130.859375
3229		138.671875
3230		130.859375
3231		138.671875
3232		130.859375
3233		138.671875
3234		130.859375
3235		138.671875
3236		130.859375
3237		138.671875
3238		130.859375
3239		136.718750
3240		128.906250
3241		136.718750
3242		130.859375
3243		134.765625
3244		128.906250
3245		134.765625
3246		126.953125
3247		134.765625
3248		126.953125
3249		132.812500
3250		125.000000
3251		132.812500
3252		125.000000
3253		132.812500
3254		123.046875
3255		130.859375
3256		123.046875
3257		130.859375
3258		123.046875
3259		126.953125
3260		121.093750
3261		125.000000
3262		117.187500
3263		125.000000
3264		117.187500
3265		123.046875
3266		115.234375
3267		123.046875
3268		113.281250
3269		121.093750
3270		111.328125
3271		119.140625
3272		109.375000
3273		117.187500
3274		107.421875
3275		115.234375
3276		107.421875
3277		111.328125
3278		103.515625
3279		109.375000
3280		101.562500
3281		109.375000
3282		97.656250
3283		105.468750
3284		95.703125
3285		105.468750
3286		93.750000
3287		101.562500
3288		91.796875
3289		99.609375
3290		87.890625
3291		95.703125
3292		87.890625
3293		91.796875
3294		83.984375
3295		89.843750
3296		80.078125
3297		87.890625
3298		78.125000
3299		85.937500
3300		74.218750
3301		82.031250
3302		72.265625
3303		80.078125
3304		66.406250
3305		78.125000
3306		64.453125
3307		74.218750
3308		64.453125
3309		72.265625
3310		60.546875
3311		66.406250
3312		54.687500
3313		62.500000
3314		52.734375
3315		60.546875
3316		48.828125
3317		56.640625
3318		44.921875
3319		54.687500
3320		41.015625
3321		50.781250
3322		39.062500
3323		46.875000
3324		35.156250
3325		44.921875
3326		33.203125
3327		37.109375
3328		27.343750
3329		33.203125
3330		21.484375
3331		31.250000
3332		19.531250
3333		29.296875
3334		15.625000
3335		25.390625
3336		9.765625
3337		19.531250
3338		7.812500
3339		15.625000
3340		3.906250
3341		13.671875
3342		1.953125
3343		7.812500
3344		-1.953125
3345		3.906250
3346		-7.812500
3347		0.000000
3348		-11.718750
3349		-1.953125
3350		-17.578125
3351		-5.859375
3352		-19.531250
3353		-11.718750
3354		-23.437500
3355		-13.671875
3356		-29.296875
3357		-17.578125
3358		-29.296875
3359		-23.437500
3360		-33.203125
3361		-27.343750
3362		-37.109375
3363		-33.203125
3364		-42.968750
3365		-35.156250
3366		-48.828125
3367		-37.109375
3368		-50.781250
3369		-42.968750
3370		-54.687500
3371		-44.921875
3372		-58.593750
3373		-50.781250
3374		-62.500000
3375		-54.687500
3376		-64.453125
3377		-60.546875
3378		-68.359375
3379		-62.500000
3380		-74.218750
3381		-66.406250
3382		-78.125000
3383		-68.359375
3384		-80.078125
3385		-72.265625
3386		-83.984375
3387		-76.171875
3388		-89.843750
3389		-80.078125
3390		-91.796875
3391		-83.984375
3392		-93.750000
3393		-85.937500
3394		-97.656250
3395		-91.796875
3396		-103.515625
3397		-95.703125
3398		-105.468750
3399		-97.656250
3400		-107.421875
3401		-99.609375
3402		-111.328125
3403		-103.515625
3404		-115.234375
3405		-107.421875
3406		-117.187500
3407		-109.375000
3408		-119.140625
3409		-111.328125
3410		-121.093750
3411		-117.187500
3412		-125.000000
3413		-119.140625
3414		-128.906250
3415		-121.093750
3416		-130.859375
3417		-123.046875
3418		-134.765625
3419		-125.000000
3420		-136.718750
3421		-126.953125
3422		-138.671875
3423		-128.906250
3424		-140.625000
3425		-132.812500
3426		-140.625000
3427		-136.718750
3428		-142.578125
3429		-138.671875
3430		-146.484375
3431		-138.671875
3432		-148.437500
3433		-140.625000
3434		-150.390625
3435		-142.578125
3436		-150.390625
3437		-144.531250
3438		-152.343750
3439		-144.531250
3440		-154.296875
3441		-144.531250
3442		-154.296875
3443		-148.437500
3444		-154.296875
3445		-150.390625
3446		-156.250000
3447		-150.390625
3448		-156.250000
3449		-150.390625
3450		-158.203125
3451		-152.343750
3452		-158.203125
3453		-152.343750
3454		-158.203125
3455		-154.296875
3456		-158.203125
3457		-152.343750
3458		-158.203125
3459		-152.343750
3460		-158.203125
3461		-156.250000
3462		-158.203125
3463		-156.250000
3464		-160.156250
3465		-152.343750
3466		-160.156250
3467		-152.343750
3468		-160.156250
3469		-152.343750
3470		-160.156250
3471		-152.343750
3472		-158.203125
3473		-150.390625
3474		-158.203125
3475		-150.390625
3476		-158.203125
3477		-150.390625
3478		-154.296875
3479		-150.390625
3480		-154.296875
3481		-148.437500
3482		-154.296875
3483		-146.484375
3484		-152.343750
3485		-144.531250
3486		-150.390625
3487		-142.578125
3488		-150.390625
3489		-142.578125
3490		-148.437500
3491		-140.625000
3492		-146.484375
3493		-138.671875
3494		-142.578125
3495		-138.671875
3496		-140.625000
3497		-136.718750
3498		-140.625000
3499		-132.812500
3500		-138.671875
3501		-130.859375
3502		-136.718750
3503		-126.953125
3504		-132.812500
3505		-125.000000
3506		-130.859375
3507		-123.046875
3508		-128.906250
3509		-119.140625
3510		-123.046875
3511		-119.140625
3512		-121.093750
3513		-115.234375
3514		-119.140625
3515		-111.328125
3516		-117.187500
3517		-107.421875
3518		-113.281250
3519		-105.468750
3520		-111.328125
3521		-103.515625
3522		-107.421875
3523		-97.656250
3524		-103.515625
3525		-93.750000
3526		-101.562500
3527		-93.750000
3528		-95.703125
3529		-89.843750
3530		-91.796875
3531		-85.937500
3532		-89.843750
3533		-80.078125
3534		-85.937500
3535		-78.125000
3536		-83.984375
3537		-74.218750
3538		-80.078125
3539		-70.312500
3540		-74.218750
3541		-66.406250
3542		-72.265625
3543		-62.500000
3544		-66.406250
3545		-60.546875
3546		-62.500000
3547		-56.640625
3548		-58.593750
3549		-50.781250
3550		-56.640625
3551		-46.875000
3552		-52.734375
3553		-42.968750
3554		-48.828125
3555		-39.062500
3556		-44.921875
3557		-35.156250
3558		-39.062500
3559		-31.250000
3560		-37.109375
3561		-29.296875
3562		-29.296875
3563		-25.390625
3564		-25.390625
3565		-19.531250
3566		-23.437500
3567		-15.625000
3568		-21.484375
3569		-11.718750
3570		-15.625000
3571		-5.859375
3572		-11.718750
3573		-3.906250
3574		-7.812500
3575		0.000000
3576		-3.906250
3577		3.906250
3578		1.953125
3579		7.812500
3580		5.859375
3581		11.718750
3582		7.812500
3583		15.625000
3584		9.765625
3585		19.531250
3586		15.625000
3587		25.390625
3588		19.531250
3589		27.343750
3590		21.484375
3591		31.250000
3592		25.390625
3593		35.156250
3594		31.250000
3595		37.109375
3596		35.156250
3597		41.015625
3598		39.062500
3599		46.875000
3600		41.015625
3601		50.781250
3602		44.921875
3603		52.734375
3604		48.828125
3605		56.640625
3606		50.781250
3607		60.546875
3608		54.687500
3609		64.453125
3610		58.593750
3611		64.453125
3612		62.500000
3613		66.406250
3614		66.406250
3615		72.265625
3616		66.406250
3617		76.171875
3618		70.312500
3619		78.125000
3620		72.265625
3621		82.031250
3622		76.171875
3623		83.984375
3624		80.078125
3625		87.890625
3626		82.031250
3627		89.843750
3628		85.937500
3629		89.843750
3630		89.843750
3631		93.750000
3632		89.843750
3633		97.656250
3634		91.796875
3635		99.609375
3636		93.750000
3637		103.515625
3638		95.703125
3639		103.515625
3640		99.609375
3641		105.468750
3642		101.562500
3643		109.375000
3644		101.562500
3645		109.375000
3646		107.421875
3647		111.328125
3648		109.375000
3649		115.234375
3650		109.375000
3651		117.187500
3652		111.328125
3653		119.140625
3654		113.281250
3655		119.140625
3656		115.234375
3657		119.140625
3658		115.234375
3659		123.046875
3660		117.187500
3661		125.000000
3662		121.093750
3663		125.000000
3664		123.046875
3665		125.000000
3666		123.046875
3667		128.906250
3668		123.046875
3669		130.859375
3670		125.000000
3671		132.812500
3672		126.953125
3673		130.859375
3674		126.953125
3675		130.859375
3676		128.906250
3677		132.812500
3678		128.906250
3679		132.812500
3680		130.859375
3681		132.812500
3682		130.859375
3683		136.718750
3684		128.906250
3685		136.718750
3686		130.859375
3687		138.671875
3688		130.859375
3689		138.671875
3690		132.812500
3691		136.718750
3692		132.812500
3693		136.718750
3694		132.812500
3695		136.718750
3696		134.765625
3697		136.718750
3698		132.812500
3699		138.671875
3700		132.812500
3701		138.671875
3702		132.812500
3703		136.718750
3704		132.812500
3705		138.671875
3706		132.812500
3707		136.718750
3708		132.812500
3709		136.718750
3710		130.859375
3711		136.718750
3712		132.812500
3713		134.765625
3714		130.859375
3715		134.765625
3716		130.859375
3717		134.765625
3718		128.906250
3719		132.812500
3720		126.953125
3721		132.812500
3722		128.906250
3723		130.859375
3724		126.953125
3725		130.859375
3726		125.000000
3727		128.906250
3728		125.000000
3729		128.906250
3730		123.046875
3731		126.953125
3732		121.093750
3733		125.000000
3734		121.093750
3735		123.046875
3736		119.140625
3737		123.046875
3738		117.187500
3739		121.093750
3740		115.234375
3741		119.140625
3742		113.281250
3743		117.187500
3744		111.328125
3745		117.187500
3746		111.328125
3747		113.281250
3748		107.421875
3749		111.328125
3750		105.468750
3751		111.328125
3752		103.515625
3753		107.421875
3754		101.562500
3755		105.468750
3756		99.609375
3757		103.515625
3758		97.656250
3759		101.562500
3760		93.750000
3761		99.609375
3762		91.796875
3763		97.656250
3764		89.843750
3765		93.750000
3766		85.937500
3767		91.796875
3768		83.984375
3769		87.890625
3770		82.031250
3771		85.937500
3772		78.125000
3773		83.984375
3774		74.218750
3775		80.078125
3776		72.265625
3777		78.125000
3778		68.359375
3779		74.218750
3780		66.406250
3781		70.312500
3782		60.546875
3783		66.406250
3784		58.593750
3785		64.453125
3786		56.640625
3787		60.546875
3788		52.734375
3789		56.640625
3790		48.828125
3791		54.687500
3792		44.921875
3793		50.781250
3794		41.015625
3795		46.875000
3796		39.062500
3797		42.968750
3798		35.156250
3799		39.062500
3800		31.250000
3801		37.109375
3802		27.343750
3803		33.203125
3804		23.437500
3805		29.296875
3806		19.531250
3807		25.390625
3808		15.625000
3809		21.484375
3810		11.718750
3811		17.578125
3812		7.812500
3813		13.671875
3814		3.906250
3815		9.765625
3816		0.000000
3817		5.859375
3818		-3.906250
3819		1.953125
3820		-7.812500
3821		-1.953125
3822		-11.718750
3823		-5.859375
3824		-15.625000
3825		-9.765625
3826		-19.531250
3827		-13.671875
3828		-23.437500
3829		-17.578125
3830		-27.343750
3831		-21.484375
3832		-31.250000
3833		-25.390625
3834		-35.156250
3835		-29.296875
3836		-39.062500
3837		-33.203125
3838		-42.968750
3839		-37.109375
3840		-46.875000
3841		-41.015625
3842		-50.781250
3843		-44.921875
3844		-54.687500
3845		-48.828125
3846		-58.593750
3847		-52.734375
3848		-62.500000
3849		-56.640625
3850		-66.406250
3851		-60.546875
3852		-70.312500
3853		-64.453125
3854		-74.218750
3855		-68.359375
3856		-78.125000
3857		-72.265625
3858		-80.078125
3859		-76.171875
3860		-83.984375
3861		-78.125000
3862		-87.890625
3863		-82.031250
3864		-91.796875
3865		-85.937500
3866		-95.703125
3867		-89.843750
3868		-99.609375
3869		-93.750000
3870		-101.562500
3871		-97.656250
3872		-103.515625
3873		-99.609375
3874		-107.421875
3875		-103.515625
3876		-111.328125
3877		-105.468750
3878		-115.234375
3879		-109.375000
3880		-117.187500
3881		-111.328125
3882		-119.140625
3883		-115.234375
3884		-123.046875
3885		-117.187500
3886		-125.000000
3887		-119.140625
3888		-128.906250
3889		-123.046875
3890		-130.859375
3891		-125.000000
3892		-132.812500
3893		-128.906250
3894		-134.765625
3895		-130.859375
3896		-136.718750
3897		-132.812500
3898		-138.671875
3899		-134.765625
3900		-142.578125
3901		-136.718750
3902		-142.578125
3903		-138.671875
3904		-144.531250
3905		-140.625000
3906		-146.484375
3907		-142.578125
3908		-148.437500
3909		-142.578125
3910		-148.437500
3911		-146.484375
3912		-152.343750
3913		-146.484375
3914		-152.343750
3915		-148.437500
3916		-152.343750
3917		-150.390625
3918		-154.296875
3919		-150.390625
3920		-154.296875
3921		-150.390625
3922		-156.250000
3923		-152.343750
3924		-156.250000
3925		-152.343750
3926		-156.250000
3927		-154.296875
3928		-156.250000
3929		-154.296875
3930		-158.203125
3931		-152.343750
3932		-156.250000
3933		-154.296875
3934		-158.203125
3935		-154.296875
3936		-158.203125
3937		-154.296875
3938		-158.203125
3939		-152.343750
3940		-156.250000
3941		-154.296875
3942		-156.250000
3943		-152.343750
3944		-156.250000
3945		-152.343750
3946		-156.250000
3947		-152.343750
3948		-154.296875
3949		-152.343750
3950		-154.296875
3951		-148.437500
3952		-154.296875
3953		-148.437500
3954		-152.343750
3955		-148.437500
3956		-150.390625
3957		-146.484375
3958		-148.437500
3959		-146.484375
3960		-148.437500
3961		-144.531250
3962		-146.484375
3963		-140.625000
3964		-144.531250
3965		-140.625000
3966		-142.578125
3967		-138.671875
3968		-142.578125
3969		-136.718750
3970		-138.671875
3971		-134.765625
3972		-136.718750
3973		-132.812500
3974		-134.765625
3975		-130.859375
3976		-132.812500
3977		-126.953125
3978		-130.859375
3979		-125.000000
3980		-126.953125
3981		-123.046875
3982		-125.000000
3983		-121.093750
3984		-121.093750
3985		-117.187500
3986		-119.140625
3987		-113.281250
3988		-115.234375
3989		-111.328125
3990		-113.281250
3991		-109.375000
3992		-109.375000
3993		-105.468750
3994		-107.421875
3995		-101.562500
3996		-103.515625
3997		-97.656250
3998		-101.562500
3999		-95.703125
4000		-97.656250
4001		-91.796875
4002		-93.750000
4003		-87.890625
4004		-89.843750
4005		-85.937500
4006		-85.937500
4007		-82.031250
4008		-83.984375
4009		-76.171875
4010		-78.125000
4011		-74.218750
4012		-76.171875
4013		-70.312500
4014		-72.265625
4015		-66.406250
4016		-68.359375
4017		-62.500000
4018		-64.453125
4019		-58.593750
4020		-60.546875
4021		-54.687500
4022		-56.640625
4023		-50.781250
4024		-52.734375
4025		-46.875000
4026		-48.828125
4027		-42.968750
4028		-44.921875
4029		-39.062500
4030		-41.015625
4031		-35.156250
4032		-37.109375
4033		-31.250000
4034		-31.250000
4035		-27.343750
4036		-29.296875
4037		-23.437500
4038		-23.437500
4039		-19.531250
4040		-21.484375
4041		-15.625000
4042		-15.625000
4043		-11.718750
4044		-13.671875
4045		-5.859375
4046		-7.812500
4047		-1.953125
4048		-3.906250
4049		0.000000
4050		0.000000
4051		3.906250
4052		3.906250
4053		7.812500
4054		5.859375
4055		11.718750
4056		11.718750
4057		15.625000
4058		13.671875
4059		21.484375
4060		17.578125
4061		25.390625
4062		21.484375
4063		27.343750
4064		25.390625
4065		31.250000
4066		29.296875
4067		35.156250
4068		33.203125
4069		39.062500
4070		37.109375
4071		42.968750
4072		41.015625
4073		44.921875
4074		42.968750
4075		48.828125
4076		48.828125
4077		52.734375
4078		50.781250
4079		56.640625
4080		54.687500
4081		60.546875
4082		56.640625
4083		62.500000
4084		60.546875
4085		66.406250
4086		62.500000
4087		68.359375
4088		68.359375
4089		72.265625
4090		70.312500
4091		76.171875
4092		74.218750
4093		80.078125
4094		76.171875
4095		80.078125
4096		80.078125
4097		83.984375
4098		82.031250
4099		85.937500
4100		85.937500
4101		89.843750
4102		87.890625
4103		91.796875
4104		89.843750
4105		93.750000
4106		91.796875
4107		97.656250
4108		95.703125
4109		99.609375
4110		97.656250
4111		101.562500
4112		99.609375
4113		105.468750
4114		101.562500
4115		105.468750
4116		105.468750
4117		107.421875
4118		107.421875
4119		109.375000
4120		107.421875
4121		111.328125
4122		109.375000
4123		115.234375
4124		111.328125
4125		115.234375
4126		113.281250
4127		119.140625
4128		115.234375
4129		119.140625
4130		117.187500
4131		121.093750
4132		119.140625
4133		123.046875
4134		121.093750
4135		123.046875
4136		121.093750
4137		125.000000
4138		123.046875
4139		126.953125
4140		125.000000
4141		126.953125
4142		125.000000
4143		128.906250
4144		126.953125
4145		130.859375
4146		126.953125
4147		130.859375
4148		128.906250
4149		132.812500
4150		130.859375
4151		132.812500
4152		128.906250
4153		132.812500
4154		130.859375
4155		134.765625
4156		130.859375
4157		134.765625
4158		132.812500
4159		134.765625
4160		132.812500
4161		136.718750
4162		132.812500
4163		136.718750
4164		132.812500
4165		136.718750
4166		134.765625
4167		136.718750
4168		134.765625
4169		136.718750
4170		132.812500
4171		136.718750
4172		132.812500
4173		138.671875
4174		132.812500
4175		138.671875
4176		132.812500
4177		136.718750
4178		132.812500
4179		136.718750
4180		130.859375
4181		136.718750
4182		132.812500
4183		136.718750
4184		132.812500
4185		134.765625
4186		130.859375
4187		134.765625
4188		130.859375
4189		134.765625
4190		128.906250
4191		134.765625
4192		128.906250
4193		134.765625
4194		128.906250
4195		132.812500
4196		126.953125
4197		130.859375
4198		125.000000
4199		130.859375
4200		125.000000
4201		128.906250
4202		125.000000
4203		126.953125
4204		123.046875
4205		126.953125
4206		121.093750
4207		126.953125
4208		119.140625
4209		125.000000
4210		117.187500
4211		123.046875
4212		117.187500
4213		121.093750
4214		115.234375
4215		121.093750
4216		113.281250
4217		119.140625
4218		111.328125
4219		115.234375
4220		109.375000
4221		113.281250
4222		107.421875
4223		113.281250
4224		105.468750
4225		111.328125
4226		103.515625
4227		107.421875
4228		101.562500
4229		107.421875
4230		97.656250
4231		105.468750
4232		97.656250
4233		101.562500
4234		93.750000
4235		97.656250
4236		89.843750
4237		95.703125
4238		87.890625
4239		95.703125
4240		85.937500
4241		91.796875
4242		82.031250
4243		89.843750
4244		80.078125
4245		85.937500
4246		78.125000
4247		83.984375
4248		74.218750
4249		82.031250
4250		72.265625
4251		76.171875
4252		68.359375
4253		74.218750
4254		64.453125
4255		70.312500
4256		60.546875
4257		68.359375
4258		58.593750
4259		64.453125
4260		54.687500
4261		62.500000
4262		50.781250
4263		58.593750
4264		46.875000
4265		54.687500
4266		44.921875
4267		52.734375
4268		41.015625
4269		46.875000
4270		37.109375
4271		42.968750
4272		33.203125
4273		41.015625
4274		29.296875
4275		37.109375
4276		25.390625
4277		33.203125
4278		21.484375
4279		29.296875
4280		17.578125
4281		25.390625
4282		15.625000
4283		21.484375
4284		11.718750
4285		15.625000
4286		7.812500
4287		11.718750
4288		3.906250
4289		9.765625
4290		0.000000
4291		5.859375
4292		-3.906250
4293		1.953125
4294		-7.812500
4295		-3.906250
4296		-11.718750
4297		-7.812500
4298		-15.625000
4299		-9.765625
4300		-19.531250
4301		-13.671875
4302		-23.437500
4303		-19.531250
4304		-27.343750
4305		-23.437500
4306		-31.250000
4307		-27.343750
4308		-35.156250
4309		-31.250000
4310		-39.062500
4311		-35.156250
4312		-42.968750
4313		-39.062500
4314		-46.875000
4315		-41.015625
4316		-52.734375
4317		-46.875000
4318		-54.687500
4319		-50.781250
4320		-58.593750
4321		-54.687500
4322		-62.500000
4323		-58.593750
4324		-66.406250
4325		-62.500000
4326		-70.312500
4327		-66.406250
4328		-74.218750
4329		-70.312500
4330		-78.125000
4331		-72.265625
4332		-82.031250
4333		-76.171875
4334		-85.937500
4335		-80.078125
4336		-87.890625
4337		-83.984375
4338		-91.796875
4339		-87.890625
4340		-95.703125
4341		-89.843750
4342		-99.609375
4343		-93.750000
4344		-101.562500
4345		-97.656250
4346		-105.468750
4347		-99.609375
4348		-107.421875
4349		-103.515625
4350		-111.328125
4351		-107.421875
4352		-113.281250
4353		-109.375000
4354		-117.187500
4355		-113.281250
4356		-119.140625
4357		-115.234375
4358		-123.046875
4359		-119.140625
4360		-125.000000
4361		-121.093750
4362		-126.953125
4363		-123.046875
4364		-130.859375
4365		-126.953125
4366		-132.812500
4367		-128.906250
4368		-134.765625
4369		-130.859375
4370		-136.718750
4371		-132.812500
4372		-138.671875
4373		-134.765625
4374		-140.625000
4375		-136.718750
4376		-142.578125
4377		-140.625000
4378		-144.531250
4379		-140.625000
4380		-146.484375
4381		-142.578125
4382		-148.437500
4383		-144.531250
4384		-148.437500
4385		-146.484375
4386		-150.390625
4387		-148.437500
4388		-154.296875
4389		-146.484375
4390		-156.250000
4391		-146.484375
4392		-158.203125
4393		-148.437500
4394		-154.296875
4395		-152.343750
4396		-156.250000
4397		-152.343750
4398		-156.250000
4399		-154.296875
4400		-156.250000
4401		-154.296875
4402		-156.250000
4403		-154.296875
4404		-160.156250
4405		-152.343750
4406		-160.156250
4407		-152.343750
4408		-160.156250
4409		-152.343750
4410		-160.156250
4411		-152.343750
4412		-158.203125
4413		-154.296875
4414		-156.250000
4415		-154.296875
4416		-156.250000
4417		-154.296875
4418		-156.250000
4419		-154.296875
4420		-156.250000
4421		-152.343750
4422		-158.203125
4423		-148.437500
4424		-156.250000
4425		-148.437500
4426		-156.250000
4427		-146.484375
4428		-152.343750
4429		-148.437500
4430		-150.390625
4431		-148.437500
4432		-148.437500
4433		-146.484375
4434		-148.437500
4435		-144.531250
4436		-146.484375
4437		-142.578125
4438		-146.484375
4439		-136.718750
4440		-146.484375
4441		-136.718750
4442		-144.531250
4443		-132.812500
4444		-142.578125
4445		-134.765625
4446		-136.718750
4447		-132.812500
4448		-134.765625
4449		-130.859375
4450		-132.812500
4451		-126.953125
4452		-128.906250
4453		-125.000000
4454		-126.953125
4455		-123.046875
4456		-126.953125
4457		-117.187500
4458		-125.000000
4459		-113.281250
4460		-121.093750
4461		-111.328125
4462		-115.234375
4463		-111.328125
4464		-113.281250
4465		-107.421875
4466		-109.375000
4467		-105.468750
4468		-105.468750
4469		-101.562500
4470		-103.515625
4471		-97.656250
4472		-101.562500
4473		-91.796875
4474		-97.656250
4475		-87.890625
4476		-95.703125
4477		-85.937500
4478		-89.843750
4479		-83.984375
4480		-85.937500
4481		-80.078125
4482		-82.031250
4483		-78.125000
4484		-78.125000
4485		-74.218750
4486		-74.218750
4487		-70.312500
4488		-70.312500
4489		-62.500000
4490		-70.312500
4491		-58.593750
4492		-66.406250
4493		-54.687500
4494		-62.500000
4495		-54.687500
4496		-56.640625
4497		-50.781250
4498		-52.734375
4499		-46.875000
4500		-46.875000
4501		-42.968750
4502		-42.968750
4503		-39.062500
4504		-39.062500
4505		-35.156250
4506		-37.109375
4507		-27.343750
4508		-33.203125
4509		-23.437500
4510		-29.296875
4511		-19.531250
4512		-23.437500
4513		-17.578125
4514		-19.531250
4515		-13.671875
4516		-15.625000
4517		-9.765625
4518		-11.718750
4519		-5.859375
4520		-7.812500
4521		-1.953125
4522		-3.906250
4523		5.859375
4524		-3.906250
4525		7.812500
4526		1.953125
4527		11.718750
4528		5.859375
4529		13.671875
4530		11.718750
4531		17.578125
4532		15.625000
4533		21.484375
4534		19.531250
4535		23.437500
4536		23.437500
4537		27.343750
4538		27.343750
4539		31.250000
4540		27.343750
4541		37.109375
4542		31.250000
4543		41.015625
4544		35.156250
4545		44.921875
4546		41.015625
4547		46.875000
4548		44.921875
4549		48.828125
4550		48.828125
4551		52.734375
4552		52.734375
4553		56.640625
4554		54.687500
4555		60.546875
4556		56.640625
4557		66.406250
4558		56.640625
4559		70.312500
4560		60.546875
4561		72.265625
4562		66.406250
4563		72.265625
4564		70.312500
4565		76.171875
4566		74.218750
4567		78.125000
4568		76.171875
4569		82.031250
4570		80.078125
4571		83.984375
4572		82.031250
4573		85.937500
4574		85.937500
4575		93.750000
4576		85.937500
4577		93.750000
4578		87.890625
4579		95.703125
4580		93.750000
4581		97.656250
4582		95.703125
4583		99.609375
4584		97.656250
4585		101.562500
4586		99.609375
4587		103.515625
4588		101.562500
4589		105.468750
4590		105.468750
4591		109.375000
4592		105.468750
4593		113.281250
4594		107.421875
4595		113.281250
4596		111.328125
4597		115.234375
4598		113.281250
4599		115.234375
4600		115.234375
4601		117.187500
4602		117.187500
4603		119.140625
4604		117.187500
4605		121.093750
4606		119.140625
4607		125.000000
4608		119.140625
4609		125.000000
4610		119.140625
4611		126.953125
4612		123.046875
4613		126.953125
4614		125.000000
4615		126.953125
4616		125.000000
4617		128.906250
4618		126.953125
4619		130.859375
4620		128.906250
4621		130.859375
4622		128.906250
4623		130.859375
4624		130.859375
4625		132.812500
4626		130.859375
4627		134.765625
4628		130.859375
4629		134.765625
4630		132.812500
4631		134.765625
4632		132.812500
4633		134.765625
4634		132.812500
4635		134.765625
4636		132.812500
4637		136.718750
4638		132.812500
4639		136.718750
4640		132.812500
4641		136.718750
4642		134.765625
4643		136.718750
4644		134.765625
4645		136.718750
4646		134.765625
4647		136.718750
4648		132.812500
4649		136.718750
4650		134.765625
4651		136.718750
4652		132.812500
4653		136.718750
4654		132.812500
4655		136.718750
4656		132.812500
4657		134.765625
4658		132.812500
4659		134.765625
4660		130.859375
4661		134.765625
4662		130.859375
4663		134.765625
4664		130.859375
4665		132.812500
4666		128.906250
4667		132.812500
4668		128.906250
4669		130.859375
4670		126.953125
4671		130.859375
4672		126.953125
4673		128.906250
4674		125.000000
4675		128.906250
4676		123.046875
4677		126.953125
4678		123.046875
4679		125.000000
4680		121.093750
4681		125.000000
4682		119.140625
4683		123.046875
4684		119.140625
4685		121.093750
4686		117.187500
4687		119.140625
4688		115.234375
4689		119.140625
4690		111.328125
4691		117.187500
4692		111.328125
4693		117.187500
4694		109.375000
4695		113.281250
4696		107.421875
4697		111.328125
4698		103.515625
4699		109.375000
4700		103.515625
4701		107.421875
4702		101.562500
4703		105.468750
4704		97.656250
4705		101.562500
4706		95.703125
4707		99.609375
4708		93.750000
4709		99.609375
4710		89.843750
4711		95.703125
4712		87.890625
4713		91.796875
4714		83.984375
4715		89.843750
4716		82.031250
4717		87.890625
4718		80.078125
4719		83.984375
4720		76.171875
4721		80.078125
4722		74.218750
4723		78.125000
4724		70.312500
4725		74.218750
4726		66.406250
4727		72.265625
4728		64.453125
4729		68.359375
4730		60.546875
4731		66.406250
4732		56.640625
4733		62.500000
4734		54.687500
4735		60.546875
4736		50.781250
4737		54.687500
4738		46.875000
4739		52.734375
4740		41.015625
4741		48.828125
4742		39.062500
4743		46.875000
4744		37.109375
4745		42.968750
4746		33.203125
4747		39.062500
4748		27.343750
4749		35.156250
4750		25.390625
4751		31.250000
4752		21.484375
4753		27.343750
4754		17.578125
4755		23.437500
4756		13.671875
4757		19.531250
4758		9.765625
4759		15.625000
4760		5.859375
4761		11.718750
4762		1.953125
4763		7.812500
4764		-1.953125
4765		3.906250
4766		-5.859375
4767		0.000000
4768		-9.765625
4769		-3.906250
4770		-13.671875
4771		-7.812500
4772		-17.578125
4773		-11.718750
4774		-23.437500
4775		-15.625000
4776		-27.343750
4777		-19.531250
4778		-29.296875
4779		-23.437500
4780		-35.156250
4781		-27.343750
4782		-39.062500
4783		-31.250000
4784		-41.015625
4785		-35.156250
4786		-44.921875
4787		-39.062500
4788		-48.828125
4789		-42.968750
4790		-52.734375
4791		-48.828125
4792		-56.640625
4793		-48.828125
4794		-60.546875
4795		-54.687500
4796		-64.453125
4797		-58.593750
4798		-68.359375
4799		-62.500000
4800		-72.265625
4801		-66.406250
4802		-76.171875
4803		-70.312500
4804		-80.078125
4805		-74.218750
4806		-82.031250
4807		-78.125000
4808		-87.890625
4809		-80.078125
4810		-89.843750
4811		-83.984375
4812		-93.750000
4813		-87.890625
4814		-97.656250
4815		-91.796875
4816		-99.609375
4817		-93.750000
4818		-103.515625
4819		-97.656250
4820		-105.468750
4821		-101.562500
4822		-109.375000
4823		-103.515625
4824		-115.234375
4825		-107.421875
4826		-117.187500
4827		-109.375000
4828		-119.140625
4829		-113.281250
4830		-121.093750
4831		-115.234375
4832		-125.000000
4833		-119.140625
4834		-125.000000
4835		-121.093750
4836		-128.906250
4837		-125.000000
4838		-130.859375
4839		-126.953125
4840		-132.812500
4841		-128.906250
4842		-136.718750
4843		-130.859375
4844		-138.671875
4845		-132.812500
4846		-138.671875
4847		-136.718750
4848		-142.578125
4849		-138.671875
4850		-144.531250
4851		-138.671875
4852		-144.531250
4853		-142.578125
4854		-146.484375
4855		-144.531250
4856		-148.437500
4857		-144.531250
4858		-150.390625
4859		-146.484375
4860		-150.390625
4861		-148.437500
4862		-152.343750
4863		-148.437500
4864		-152.343750
4865		-150.390625
4866		-154.296875
4867		-150.390625
4868		-154.296875
4869		-152.343750
4870		-156.250000
4871		-152.343750
4872		-156.250000
4873		-154.296875
4874		-156.250000
4875		-154.296875
4876		-158.203125
4877		-154.296875
4878		-156.250000
4879		-154.296875
4880		-156.250000
4881		-154.296875
4882		-158.203125
4883		-154.296875
4884		-158.203125
4885		-154.296875
4886		-156.250000
4887		-154.296875
4888		-156.250000
4889		-154.296875
4890		-156.250000
4891		-154.296875
4892		-156.250000
4893		-152.343750
4894		-154.296875
4895		-152.343750
4896		-154.296875
4897		-150.390625
4898		-152.343750
4899		-150.390625
4900		-152.343750
4901		-148.437500
4902		-152.343750
4903		-146.484375
4904		-148.437500
4905		-146.484375
4906		-148.437500
4907		-144.531250
4908		-146.484375
4909		-142.578125
4910		-144.531250
4911		-142.578125
4912		-142.578125
4913		-140.625000
4914		-142.578125
4915		-138.671875
4916		-138.671875
4917		-136.718750
4918		-136.718750
4919		-132.812500
4920		-134.765625
4921		-130.859375
4922		-132.812500
4923		-128.906250
4924		-130.859375
4925		-126.953125
4926		-128.906250
4927		-123.046875
4928		-125.000000
4929		-121.093750
4930		-123.046875
4931		-119.140625
4932		-119.140625
4933		-115.234375
4934		-117.187500
4935		-113.281250
4936		-113.281250
4937		-109.375000
4938		-111.328125
4939		-107.421875
4940		-107.421875
4941		-103.515625
4942		-105.468750
4943		-99.609375
4944		-101.562500
4945		-97.656250
4946		-99.609375
4947		-93.750000
4948		-95.703125
4949		-89.843750
4950		-91.796875
4951		-85.937500
4952		-87.890625
4953		-82.031250
4954		-83.984375
4955		-80.078125
4956		-80.078125
4957		-74.218750
4958		-76.171875
4959		-72.265625
4960		-74.218750
4961		-68.359375
4962		-70.312500
4963		-64.453125
4964		-66.406250
4965		-60.546875
4966		-62.500000
4967		-56.640625
4968		-58.593750
4969		-52.734375
4970		-54.687500
4971		-48.828125
4972		-50.781250
4973		-44.921875
4974		-46.875000
4975		-41.015625
4976		-42.968750
4977		-37.109375
4978		-39.062500
4979		-33.203125
4980		-35.156250
4981		-29.296875
4982		-29.296875
4983		-25.390625
4984		-25.390625
4985		-21.484375
4986		-21.484375
4987		-15.625000
4988		-17.578125
4989		-13.671875
4990		-13.671875
4991		-9.765625
4992		-9.765625
4993		-3.906250
4994		-5.859375
4995		-1.953125
4996		-1.953125
4997		3.906250
4998		1.953125
4999		7.812500
5000		5.859375
5001		11.718750
5002		9.765625
5003		13.671875
5004		13.671875
5005		17.578125
5006		17.578125
5007		21.484375
5008		21.484375
5009		25.390625
5010		25.390625
5011		31.250000
5012		27.343750
5013		33.203125
5014		31.250000
5015		37.109375
5016		35.156250
5017		41.015625
5018		39.062500
5019		44.921875
5020		42.968750
5021		46.875000
5022		46.875000
5023		50.781250
5024		48.828125
5025		54.687500
5026		52.734375
5027		60.546875
5028		54.687500
5029		62.500000
5030		58.593750
5031		64.453125
5032		62.500000
5033		68.359375
5034		66.406250
5035		70.312500
5036		70.312500
5037		74.218750
5038		72.265625
5039		76.171875
5040		74.218750
5041		80.078125
5042		78.125000
5043		82.031250
5044		78.125000
5045		85.937500
5046		82.031250
5047		87.890625
5048		85.937500
5049		89.843750
5050		89.843750
5051		93.750000
5052		91.796875
5053		95.703125
5054		93.750000
5055		97.656250
5056		97.656250
5057		99.609375
5058		99.609375
5059		103.515625
5060		99.609375
5061		107.421875
5062		101.562500
5063		109.375000
5064		105.468750
5065		109.375000
5066		107.421875
5067		111.328125
5068		109.375000
5069		113.281250
5070		111.328125
5071		115.234375
5072		113.281250
5073		117.187500
5074		115.234375
5075		119.140625
5076		117.187500
5077		119.140625
5078		115.234375
5079		123.046875
5080		117.187500
5081		125.000000
5082		121.093750
5083		125.000000
5084		123.046875
5085		126.953125
5086		123.046875
5087		126.953125
5088		125.000000
5089		126.953125
5090		126.953125
5091		128.906250
5092		126.953125
5093		130.859375
5094		125.000000
5095		132.812500
5096		126.953125
5097		132.812500
5098		130.859375
5099		132.812500
5100		130.859375
5101		132.812500
5102		130.859375
5103		134.765625
5104		132.812500
5105		134.765625
5106		132.812500
5107		134.765625
5108		132.812500
5109		134.765625
5110		130.859375
5111		136.718750
5112		132.812500
5113		138.671875
5114		132.812500
5115		136.718750
5116		134.765625
5117		136.718750
5118		134.765625
5119		136.718750
5120		134.765625
5121		136.718750
5122		134.765625
5123		136.718750
5124		132.812500
5125		136.718750
5126		132.812500
5127		136.718750
5128		132.812500
5129		136.718750
5130		130.859375
5131		136.718750
5132		132.812500
5133		134.765625
5134		130.859375
5135		134.765625
5136		130.859375
5137		132.812500
5138		128.906250
5139		132.812500
5140		128.906250
5141		130.859375
5142		128.906250
5143		130.859375
5144		126.953125
5145		130.859375
5146		125.000000
5147		130.859375
5148		125.000000
5149		126.953125
5150		123.046875
5151		126.953125
5152		121.093750
5153		125.000000
5154		121.093750
5155		123.046875
5156		119.140625
5157		123.046875
5158		117.187500
5159		121.093750
5160		115.234375
5161		119.140625
5162		113.281250
5163		121.093750
5164		111.328125
5165		117.187500
5166		111.328125
5167		113.281250
5168		109.375000
5169		111.328125
5170		107.421875
5171		109.375000
5172		103.515625
5173		109.375000
5174		101.562500
5175		105.468750
5176		99.609375
5177		103.515625
5178		95.703125
5179		101.562500
5180		93.750000
5181		99.609375
5182		91.796875
5183		95.703125
5184		89.843750
5185		93.750000
5186		87.890625
5187		91.796875
5188		83.984375
5189		87.890625
5190		82.031250
5191		85.937500
5192		78.125000
5193		82.031250
5194		74.218750
5195		80.078125
5196		72.265625
5197		76.171875
5198		70.312500
5199		74.218750
5200		66.406250
5201		70.312500
5202		62.500000
5203		68.359375
5204		58.593750
5205		64.453125
5206		56.640625
5207		60.546875
5208		52.734375
5209		56.640625
5210		48.828125
5211		54.687500
5212		46.875000
5213		52.734375
5214		42.968750
5215		46.875000
5216		39.062500
5217		42.968750
5218		35.156250
5219		39.062500
5220		31.250000
5221		37.109375
5222		27.343750
5223		33.203125
5224		23.437500
5225		29.296875
5226		19.531250
5227		25.390625
5228		13.671875
5229		21.484375
5230		11.718750
5231		17.578125
5232		7.812500
5233		13.671875
5234		3.906250
5235		9.765625
5236		0.000000
5237		5.859375
5238		-3.906250
5239		1.953125
5240		-7.812500
5241		-1.953125
5242		-11.718750
5243		-5.859375
5244		-15.625000
5245		-9.765625
5246		-19.531250
5247		-13.671875
5248		-23.437500
5249		-17.578125
5250		-27.343750
5251		-21.484375
5252		-31.250000
5253		-25.390625
5254		-35.156250
5255		-29.296875
5256		-39.062500
5257		-33.203125
5258		-42.968750
5259		-37.109375
5260		-46.875000
5261		-41.015625
5262		-50.781250
5263		-44.921875
5264		-54.687500
5265		-48.828125
5266		-58.593750
5267		-52.734375
5268		-62.500000
5269		-56.640625
5270		-66.406250
5271		-60.546875
5272		-70.312500
5273		-64.453125
5274		-74.218750
5275		-68.359375
5276		-76.171875
5277		-72.265625
5278		-80.078125
5279		-76.171875
5280		-83.984375
5281		-80.078125
5282		-87.890625
5283		-82.031250
5284		-91.796875
5285		-85.937500
5286		-93.750000
5287		-89.843750
5288		-97.656250
5289		-93.750000
5290		-101.562500
5291		-95.703125
5292		-105.468750
5293		-99.609375
5294		-107.421875
5295		-101.562500
5296		-111.328125
5297		-105.468750
5298		-113.281250
5299		-109.375000
5300		-117.187500
5301		-111.328125
5302		-119.140625
5303		-115.234375
5304		-121.093750
5305		-117.187500
5306		-125.000000
5307		-121.093750
5308		-126.953125
5309		-123.046875
5310		-128.906250
5311		-125.000000
5312		-132.812500
5313		-128.906250
5314		-134.765625
5315		-130.859375
5316		-136.718750
5317		-132.812500
5318		-138.671875
5319		-134.765625
5320		-140.625000
5321		-136.718750
5322		-142.578125
5323		-138.671875
5324		-144.531250
5325		-140.625000
5326		-146.484375
5327		-142.578125
5328		-148.437500
5329		-144.531250
5330		-148.437500
5331		-146.484375
5332		-150.390625
5333		-148.437500
5334		-152.343750
5335		-148.437500
5336		-152.343750
5337		-150.390625
5338		-154.296875
5339		-150.390625
5340		-154.296875
5341		-152.343750
5342		-156.250000
5343		-152.343750
5344		-156.250000
5345		-154.296875
5346		-158.203125
5347		-154.296875
5348		-158.203125
5349		-154.296875
5350		-158.203125
5351		-156.250000
5352		-158.203125
5353		-156.250000
5354		-158.203125
5355		-156.250000
5356		-158.203125
5357		-154.296875
5358		-158.203125
5359		-154.296875
5360		-158.203125
5361		-156.250000
5362		-158.203125
5363		-154.296875
5364		-156.250000
5365		-154.296875
5366		-156.250000
5367		-152.343750
5368		-156.250000
5369		-152.343750
5370		-154.296875
5371		-152.343750
5372		-154.296875
5373		-150.390625
5374		-152.343750
5375		-150.390625
5376		-152.343750
5377		-148.437500
5378		-150.390625
5379		-146.484375
5380		-150.390625
5381		-146.484375
5382		-146.484375
5383		-144.531250
5384		-146.484375
5385		-142.578125
5386		-142.578125
5387		-140.625000
5388		-142.578125
5389		-138.671875
5390		-140.625000
5391		-136.718750
5392		-136.718750
5393		-134.765625
5394		-136.718750
5395		-132.812500
5396		-132.812500
5397		-128.906250
5398		-130.859375
5399		-126.953125
5400		-128.906250
5401		-125.000000
5402		-126.953125
5403		-121.093750
5404		-123.046875
5405		-119.140625
5406		-121.093750
5407		-115.234375
5408		-117.187500
5409		-113.281250
5410		-115.234375
5411		-109.375000
5412		-111.328125
5413		-107.421875
5414		-107.421875
5415		-103.515625
5416		-105.468750
5417		-99.609375
5418		-101.562500
5419		-97.656250
5420		-97.656250
5421		-93.750000
5422		-95.703125
5423		-89.843750
5424		-91.796875
5425		-85.937500
5426		-87.890625
5427		-82.031250
5428		-83.984375
5429		-80.078125
5430		-80.078125
5431		-76.171875
5432		-76.171875
5433		-72.265625
5434		-72.265625
5435		-68.359375
5436		-70.312500
5437		-64.453125
5438		-64.453125
5439		-60.546875
5440		-60.546875
5441		-56.640625
5442		-58.593750
5443		-52.734375
5444		-52.734375
5445		-48.828125
5446		-50.781250
5447		-44.921875
5448		-46.875000
5449		-41.015625
5450		-42.968750
5451		-37.109375
5452		-37.109375
5453		-31.250000
5454		-33.203125
5455		-29.296875
5456		-29.296875
5457		-23.437500
5458		-25.390625
5459		-19.531250
5460		-21.484375
5461		-15.625000
5462		-17.578125
5463		-11.718750
5464		-13.671875
5465		-7.812500
5466		-9.765625
5467		-3.906250
5468		-5.859375
5469		0.000000
5470		-1.953125
5471		3.906250
5472		1.953125
5473		7.812500
5474		5.859375
5475		11.718750
5476		9.765625
5477		15.625000
5478		13.671875
5479		19.531250
5480		17.578125
5481		23.437500
5482		21.484375
5483		25.390625
5484		25.390625
5485		29.296875
5486		29.296875
5487		33.203125
5488		33.203125
5489		37.109375
5490		35.156250
5491		41.015625
5492		39.062500
5493		44.921875
5494		42.968750
5495		46.875000
5496		46.875000
5497		50.781250
5498		48.828125
5499		54.687500
5500		52.734375
5501		58.593750
5502		54.687500
5503		60.546875
5504		60.546875
5505		64.453125
5506		62.500000
5507		68.359375
5508		66.406250
5509		70.312500
5510		68.359375
5511		74.218750
5512		72.265625
5513		76.171875
5514		76.171875
5515		80.078125
5516		78.125000
5517		82.031250
5518		80.078125
5519		85.937500
5520		83.984375
5521		87.890625
5522		85.937500
5523		89.843750
5524		87.890625
5525		93.750000
5526		91.796875
5527		95.703125
5528		93.750000
5529		97.656250
5530		97.656250
5531		99.609375
5532		99.609375
5533		103.515625
5534		101.562500
5535		105.468750
5536		103.515625
5537		107.421875
5538		105.468750
5539		109.375000
5540		107.421875
5541		111.328125
5542		109.375000
5543		113.281250
5544		111.328125
5545		115.234375
5546		113.281250
5547		117.187500
5548		115.234375
5549		117.187500
5550		117.187500
5551		119.140625
5552		119.140625
5553		121.093750
5554		119.140625
5555		123.046875
5556		121.093750
5557		125.000000
5558		121.093750
5559		125.000000
5560		123.046875
5561		126.953125
5562		125.000000
5563		128.906250
5564		126.953125
5565		128.906250
5566		126.953125
5567		130.859375
5568		126.953125
5569		130.859375
5570		128.906250
5571		130.859375
5572		128.906250
5573		132.812500
5574		130.859375
5575		132.812500
5576		130.859375
5577		132.812500
5578		130.859375
5579		134.765625
5580		132.812500
5581		134.765625
5582		132.812500
5583		134.765625
5584		132.812500
5585		134.765625
5586		132.812500
5587		136.718750
5588		132.812500
5589		136.718750
5590		132.812500
5591		136.718750
5592		132.812500
5593		136.718750
5594		132.812500
5595		136.718750
5596		132.812500
5597		136.718750
5598		132.812500
5599		134.765625
5600		132.812500
5601		134.765625
5602		130.859375
5603		136.718750
5604		130.859375
5605		134.765625
5606		130.859375
5607		134.765625
5608		130.859375
5609		132.812500
5610		130.859375
5611		132.812500
5612		128.906250
5613		132.812500
5614		128.906250
5615		132.812500
5616		126.953125
5617		130.859375
5618		126.953125
5619		128.906250
5620		125.000000
5621		128.906250
5622		123.046875
5623		126.953125
5624		121.093750
5625		125.000000
5626		121.093750
5627		125.000000
5628		119.140625
5629		123.046875
5630		119.140625
5631		121.093750
5632		117.187500
5633		119.140625
5634		115.234375
5635		119.140625
5636		113.281250
5637		117.187500
5638		111.328125
5639		115.234375
5640		109.375000
5641		113.281250
5642		107.421875
5643		111.328125
5644		105.468750
5645		109.375000
5646		103.515625
5647		107.421875
5648		101.562500
5649		105.468750
5650		97.656250
5651		103.515625
5652		95.703125
5653		99.609375
5654		93.750000
5655		97.656250
5656		91.796875
5657		95.703125
5658		87.890625
5659		93.750000
5660		85.937500
5661		89.843750
5662		83.984375
5663		87.890625
5664		80.078125
5665		85.937500
5666		78.125000
5667		82.031250
5668		74.218750
5669		78.125000
5670		72.265625
5671		76.171875
5672		68.359375
5673		72.265625
5674		64.453125
5675		70.312500
5676		62.500000
5677		66.406250
5678		58.593750
5679		62.500000
5680		54.687500
5681		60.546875
5682		50.781250
5683		56.640625
5684		48.828125
5685		52.734375
5686		44.921875
5687		48.828125
5688		41.015625
5689		46.875000
5690		37.109375
5691		42.968750
5692		33.203125
5693		39.062500
5694		29.296875
5695		35.156250
5696		25.390625
5697		31.250000
5698		21.484375
5699		27.343750
5700		19.531250
5701		23.437500
5702		13.671875
5703		19.531250
5704		9.765625
5705		15.625000
5706		7.812500
5707		11.718750
5708		3.906250
5709		7.812500
5710		-1.953125
5711		3.906250
5712		-5.859375
5713		0.000000
5714		-9.765625
5715		-3.906250
5716		-13.671875
5717		-7.812500
5718		-17.578125
5719		-11.718750
5720		-21.484375
5721		-15.625000
5722		-25.390625
5723		-19.531250
5724		-29.296875
5725		-23.437500
5726		-33.203125
5727		-27.343750
5728		-37.109375
5729		-31.250000
5730		-41.015625
5731		-35.156250
5732		-44.921875
5733		-39.062500
5734		-48.828125
5735		-42.968750
5736		-52.734375
5737		-46.875000
5738		-56.640625
5739		-50.781250
5740		-60.546875
5741		-54.687500
5742		-64.453125
5743		-58.593750
5744		-66.406250
5745		-62.500000
5746		-70.312500
5747		-66.406250
5748		-74.218750
5749		-70.312500
5750		-78.125000
5751		-74.218750
5752		-82.031250
5753		-78.125000
5754		-85.937500
5755		-80.078125
5756		-89.843750
5757		-83.984375
5758		-91.796875
5759		-87.890625
5760		-97.656250
5761		-91.796875
5762		-99.609375
5763		-95.703125
5764		-103.515625
5765		-97.656250
5766		-105.468750
5767		-101.562500
5768		-109.375000
5769		-103.515625
5770		-111.328125
5771		-107.421875
5772		-115.234375
5773		-111.328125
5774		-117.187500
5775		-113.281250
5776		-121.093750
5777		-117.187500
5778		-123.046875
5779		-119.140625
5780		-125.000000
5781		-121.093750
5782		-128.906250
5783		-125.000000
5784		-130.859375
5785		-126.953125
5786		-132.812500
5787		-128.906250
5788		-134.765625
5789		-132.812500
5790		-138.671875
5791		-134.765625
5792		-140.625000
5793		-136.718750
5794		-142.578125
5795		-138.671875
5796		-144.531250
5797		-140.625000
5798		-146.484375
5799		-142.578125
5800		-146.484375
5801		-144.531250
5802		-148.437500
5803		-146.484375
5804		-150.390625
5805		-146.484375
5806		-152.343750
5807		-148.437500
5808		-152.343750
5809		-150.390625
5810		-154.296875
5811		-150.390625
5812		-154.296875
5813		-152.343750
5814		-156.250000
5815		-152.343750
5816		-156.250000
5817		-154.296875
5818		-158.203125
5819		-154.296875
5820		-158.203125
5821		-156.250000
5822		-158.203125
5823		-156.250000
5824		-158.203125
5825		-156.250000
5826		-158.203125
5827		-156.250000
5828		-158.203125
5829		-156.250000
5830		-160.156250
5831		-156.250000
5832		-158.203125
5833		-156.250000
5834		-158.203125
5835		-156.250000
5836		-158.203125
5837		-156.250000
5838		-158.203125
5839		-154.296875
5840		-156.250000
5841		-154.296875
5842		-156.250000
5843		-152.343750
5844		-154.296875
5845		-152.343750
5846		-154.296875
5847		-152.343750
5848		-152.343750
5849		-150.390625
5850		-152.343750
5851		-148.437500
5852		-150.390625
5853		-146.484375
5854		-148.437500
5855		-146.484375
5856		-146.484375
5857		-144.531250
5858		-144.531250
5859		-142.578125
5860		-144.531250
5861		-140.625000
5862		-142.578125
5863		-138.671875
5864		-140.625000
5865		-136.718750
5866		-138.671875
5867		-132.812500
5868		-134.765625
5869		-132.812500
5870		-132.812500
5871		-128.906250
5872		-130.859375
5873		-126.953125
5874		-128.906250
5875		-125.000000
5876		-125.000000
5877		-121.093750
5878		-123.046875
5879		-119.140625
5880		-119.140625
5881		-115.234375
5882		-117.187500
5883		-113.281250
5884		-113.281250
5885		-109.375000
5886		-111.328125
5887		-107.421875
5888		-107.421875
5889		-103.515625
5890		-105.468750
5891		-99.609375
5892		-101.562500
5893		-97.656250
5894		-97.656250
5895		-93.750000
5896		-95.703125
5897		-89.843750
5898		-91.796875
5899		-85.937500
5900		-89.843750
5901		-82.031250
5902		-83.984375
5903		-78.125000
5904		-80.078125
5905		-74.218750
5906		-76.171875
5907		-72.265625
5908		-72.265625
5909		-68.359375
5910		-68.359375
5911		-64.453125
5912		-64.453125
5913		-60.546875
5914		-60.546875
5915		-56.640625
5916		-56.640625
5917		-52.734375
5918		-52.734375
5919		-48.828125
5920		-48.828125
5921		-44.921875
5922		-44.921875
5923		-39.062500
5924		-41.015625
5925		-35.156250
5926		-37.109375
5927		-31.250000
5928		-33.203125
5929		-27.343750
5930		-29.296875
5931		-23.437500
5932		-25.390625
5933		-19.531250
5934		-21.484375
5935		-15.625000
5936		-17.578125
5937		-11.718750
5938		-13.671875
5939		-7.812500
5940		-9.765625
5941		-3.906250
5942		-5.859375
5943		0.000000
5944		-1.953125
5945		3.906250
5946		1.953125
5947		7.812500
5948		5.859375
5949		11.718750
5950		9.765625
5951		15.625000
5952		13.671875
5953		19.531250
5954		17.578125
5955		23.437500
5956		21.484375
5957		27.343750
5958		25.390625
5959		31.250000
5960		29.296875
5961		35.156250
5962		33.203125
5963		37.109375
5964		37.109375
5965		41.015625
5966		39.062500
5967		44.921875
5968		42.968750
5969		48.828125
5970		44.921875
5971		52.734375
5972		50.781250
5973		54.687500
5974		54.687500
5975		58.593750
5976		56.640625
5977		62.500000
5978		60.546875
5979		64.453125
5980		64.453125
5981		68.359375
5982		66.406250
5983		72.265625
5984		70.312500
5985		74.218750
5986		72.265625
5987		76.171875
5988		76.171875
5989		80.078125
5990		78.125000
5991		82.031250
5992		82.031250
5993		85.937500
5994		83.984375
5995		87.890625
5996		87.890625
5997		91.796875
5998		89.843750
5999		93.750000
6000		91.796875
6001		95.703125
6002		93.750000
6003		97.656250
6004		97.656250
6005		101.562500
6006		99.609375
6007		103.515625
6008		101.562500
6009		105.468750
6010		103.515625
6011		107.421875
6012		105.468750
6013		109.375000
6014		107.421875
6015		111.328125
6016		109.375000
6017		113.281250
6018		111.328125
6019		115.234375
6020		113.281250
6021		117.187500
6022		115.234375
6023		119.140625
6024		117.187500
6025		119.140625
6026		119.140625
6027		121.093750
6028		119.140625
6029		123.046875
6030		121.093750
6031		125.000000
6032		123.046875
6033		125.000000
6034		123.046875
6035		126.953125
6036		125.000000
6037		128.906250
6038		126.953125
6039		128.906250
6040		125.000000
6041		130.859375
6042		128.906250
6043		130.859375
6044		126.953125
6045		132.812500
6046		128.906250
6047		132.812500
6048		130.859375
6049		132.812500
6050		130.859375
6051		134.765625
6052		130.859375
6053		134.765625
6054		132.812500
6055		134.765625
6056		130.859375
6057		136.718750
6058		132.812500
6059		134.765625
6060		130.859375
6061		138.671875
6062		132.812500
6063		136.718750
6064		130.859375
6065		136.718750
6066		132.812500
6067		136.718750
6068		132.812500
6069		136.718750
6070		132.812500
6071		136.718750
6072		130.859375
6073		136.718750
6074		130.859375
6075		134.765625
6076		130.859375
6077		136.718750
6078		128.906250
6079		134.765625
6080		126.953125
6081		136.718750
6082		130.859375
6083		132.812500
6084		128.906250
6085		132.812500
6086		126.953125
6087		132.812500
6088		126.953125
6089		130.859375
6090		125.000000
6091		132.812500
6092		125.000000
6093		128.906250
6094		123.046875
6095		128.906250
6096		123.046875
6097		126.953125
6098		119.140625
6099		128.906250
6100		121.093750
6101		123.046875
6102		117.187500
6103		123.046875
6104		113.281250
6105		123.046875
6106		113.281250
6107		121.093750
6108		113.281250
6109		119.140625
6110		111.328125
6111		115.234375
6112		109.375000
6113		117.187500
6114		105.468750
6115		115.234375
6116		107.421875
6117		109.375000
6118		103.515625
6119		107.421875
6120		99.609375
6121		107.421875
6122		97.656250
6123		105.468750
6124		97.656250
6125		103.515625
6126		95.703125
6127		99.609375
6128		89.843750
6129		97.656250
6130		89.843750
6131		93.750000
6132		85.937500
6133		93.750000
6134		83.984375
6135		87.890625
6136		80.078125
6137		85.937500
6138		76.171875
6139		83.984375
6140		76.171875
6141		80.078125
6142		72.265625
6143		78.125000
6144		66.406250
6145		74.218750
6146		64.453125
6147		74.218750
6148		60.546875
6149		68.359375
6150		60.546875
6151		64.453125
6152		56.640625
6153		60.546875
6154		52.734375
6155		58.593750
6156		46.875000
6157		58.593750
6158		44.921875
6159		50.781250
6160		42.968750
6161		46.875000
6162		37.109375
6163		46.875000
6164		31.250000
6165		41.015625
6166		31.250000
6167		37.109375
6168		27.343750
6169		33.203125
6170		23.437500
6171		29.296875
6172		19.531250
6173		27.343750
6174		15.625000
6175		23.437500
6176		13.671875
6177		17.578125
6178		5.859375
6179		13.671875
6180		5.859375
6181		13.671875
6182		0.000000
6183		9.765625
6184		-1.953125
6185		1.953125
6186		-9.765625
6187		-1.953125
6188		-13.671875
6189		-3.906250
6190		-15.625000
6191		-5.859375
6192		-19.531250
6193		-13.671875
6194		-23.437500
6195		-17.578125
6196		-29.296875
6197		-17.578125
6198		-33.203125
6199		-23.437500
6200		-35.156250
6201		-29.296875
6202		-39.062500
6203		-33.203125
6204		-42.968750
6205		-37.109375
6206		-46.875000
6207		-39.062500
6208		-50.781250
6209		-42.968750
6210		-54.687500
6211		-48.828125
6212		-62.500000
6213		-50.781250
6214		-62.500000
6215		-52.734375
6216		-66.406250
6217		-58.593750
6218		-70.312500
6219		-64.453125
6220		-74.218750
6221		-68.359375
6222		-80.078125
6223		-70.312500
6224		-82.031250
6225		-76.171875
6226		-83.984375
6227		-80.078125
6228		-91.796875
6229		-82.031250
6230		-91.796875
6231		-82.031250
6232		-95.703125
6233		-87.890625
6234		-97.656250
6235		-93.750000
6236		-101.562500
6237		-95.703125
6238		-105.468750
6239		-99.609375
6240		-109.375000
6241		-99.609375
6242		-111.328125
6243		-105.468750
6244		-113.281250
6245		-109.375000
6246		-119.140625
6247		-109.375000
6248		-123.046875
6249		-115.234375
6250		-123.046875
6251		-117.187500
6252		-125.000000
6253		-121.093750
6254		-128.906250
6255		-123.046875
6256		-132.812500
6257		-125.000000
6258		-132.812500
6259		-126.953125
6260		-134.765625
6261		-130.859375
6262		-140.625000
6263		-132.812500
6264		-140.625000
6265		-132.812500
6266		-142.578125
6267		-134.765625
6268		-142.578125
6269		-140.625000
6270		-146.484375
6271		-140.625000
6272		-148.437500
6273		-140.625000
6274		-150.390625
6275		-142.578125
6276		-150.390625
6277		-146.484375
6278		-152.343750
6279		-148.437500
6280		-156.250000
6281		-146.484375
6282		-154.296875
6283		-148.437500
6284		-154.296875
6285		-152.343750
6286		-156.250000
6287		-152.343750
6288		-158.203125
6289		-152.343750
6290		-160.156250
6291		-152.343750
6292		-160.156250
6293		-154.296875
6294		-158.203125
6295		-156.250000
6296		-162.109375
6297		-152.343750
6298		-162.109375
6299		-154.296875
6300		-162.109375
6301		-154.296875
6302		-160.156250
6303		-156.250000
6304		-160.156250
6305		-156.250000
6306		-162.109375
6307		-154.296875
6308		-162.109375
6309		-154.296875
6310		-158.203125
6311		-156.250000
6312		-162.109375
6313		-152.343750
6314		-158.203125
6315		-156.250000
6316		-162.109375
6317		-150.390625
6318		-156.250000
6319		-154.296875
6320		-156.250000
6321		-152.343750
6322		-154.296875
6323		-152.343750
6324		-156.250000
6325		-146.484375
6326		-154.296875
6327		-148.437500
6328		-150.390625
6329		-146.484375
6330		-152.343750
6331		-144.531250
6332		-148.437500
6333		-144.531250
6334		-146.484375
6335		-142.578125
6336		-144.531250
6337		-140.625000
6338		-142.578125
6339		-138.671875
6340		-140.625000
6341		-136.718750
6342		-140.625000
6343		-132.812500
6344		-134.765625
6345		-132.812500
6346		-134.765625
6347		-126.953125
6348		-130.859375
6349		-126.953125
6350		-128.906250
6351		-125.000000
6352		-125.000000
6353		-121.093750
6354		-123.046875
6355		-117.187500
6356		-119.140625
6357		-115.234375
6358		-117.187500
6359		-113.281250
6360		-113.281250
6361		-109.375000
6362		-111.328125
6363		-105.468750
6364		-107.421875
6365		-103.515625
6366		-103.515625
6367		-97.656250
6368		-101.562500
6369		-95.703125
6370		-97.656250
6371		-91.796875
6372		-93.750000
6373		-87.890625
6374		-89.843750
6375		-83.984375
6376		-85.937500
6377		-82.031250
6378		-83.984375
6379		-78.125000
6380		-78.125000
6381		-74.218750
6382		-76.171875
6383		-70.312500
6384		-72.265625
6385		-66.406250
6386		-68.359375
6387		-62.500000
6388		-64.453125
6389		-58.593750
6390		-60.546875
6391		-52.734375
6392		-56.640625
6393		-48.828125
6394		-52.734375
6395		-44.921875
6396		-48.828125
6397		-41.015625
6398		-44.921875
6399		-37.109375
6400		-41.015625
6401		-33.203125
6402		-35.156250
6403		-29.296875
6404		-31.250000
6405		-27.343750
6406		-27.343750
6407		-19.531250
6408		-25.390625
6409		-15.625000
6410		-19.531250
6411		-13.671875
6412		-17.578125
6413		-9.765625
6414		-13.671875
6415		-3.906250
6416		-9.765625
6417		-1.953125
6418		-3.906250
6419		1.953125
6420		0.000000
6421		5.859375
6422		3.906250
6423		9.765625
6424		7.812500
6425		13.671875
6426		9.765625
6427		19.531250
6428		13.671875
6429		21.484375
6430		19.531250
6431		25.390625
6432		23.437500
6433		29.296875
6434		25.390625
6435		31.250000
6436		31.250000
6437		35.156250
6438		35.156250
6439		41.015625
6440		37.109375
6441		44.921875
6442		41.015625
6443		48.828125
6444		42.968750
6445		50.781250
6446		46.875000
6447		54.687500
6448		50.781250
6449		56.640625
6450		54.687500
6451		60.546875
6452		58.593750
6453		62.500000
6454		62.500000
6455		66.406250
6456		64.453125
6457		70.312500
6458		66.406250
6459		72.265625
6460		70.312500
6461		76.171875
6462		72.265625
6463		80.078125
6464		76.171875
6465		82.031250
6466		78.125000
6467		83.984375
6468		82.031250
6469		85.937500
6470		83.984375
6471		89.843750
6472		87.890625
6473		91.796875
6474		89.843750
6475		93.750000
6476		91.796875
6477		97.656250
6478		93.750000
6479		99.609375
6480		95.703125
6481		101.562500
6482		99.609375
6483		103.515625
6484		101.562500
6485		107.421875
6486		103.515625
6487		107.421875
6488		105.468750
6489		109.375000
6490		105.468750
6491		111.328125
6492		107.421875
6493		113.281250
6494		111.328125
6495		115.234375
6496		111.328125
6497		117.187500
6498		113.281250
6499		119.140625
6500		115.234375
6501		121.093750
6502		117.187500
6503		121.093750
6504		119.140625
6505		123.046875
6506		119.140625
6507		125.000000
6508		121.093750
6509		125.000000
6510		123.046875
6511		125.000000
6512		123.046875
6513		128.906250
6514		125.000000
6515		128.906250
6516		125.000000
6517		128.906250
6518		125.000000
6519		128.906250
6520		126.953125
6521		130.859375
6522		128.906250
6523		130.859375
6524		128.906250
6525		132.812500
6526		126.953125
6527		132.812500
6528		126.953125
6529		134.765625
6530		128.906250
6531		132.812500
6532		130.859375
6533		132.812500
6534		130.859375
6535		134.765625
6536		130.859375
6537		134.765625
6538		130.859375
6539		132.812500
6540		130.859375
6541		132.812500
6542		130.859375
6543		134.765625
6544		130.859375
6545		134.765625
6546		126.953125
6547		134.765625
6548		128.906250
6549		132.812500
6550		128.906250
6551		132.812500
6552		128.906250
6553		132.812500
6554		128.906250
6555		130.859375
6556		126.953125
6557		130.859375
6558		126.953125
6559		130.859375
6560		126.953125
6561		128.906250
6562		123.046875
6563		128.906250
6564		123.046875
6565		126.953125
6566		123.046875
6567		126.953125
6568		121.093750
6569		125.000000
6570		121.093750
6571		123.046875
6572		119.140625
6573		123.046875
6574		117.187500
6575		121.093750
6576		117.187500
6577		119.140625
6578		115.234375
6579		119.140625
6580		113.281250
6581		117.187500
6582		111.328125
6583		115.234375
6584		109.375000
6585		113.281250
6586		107.421875
6587		111.328125
6588		105.468750
6589		109.375000
6590		103.515625
6591		107.421875
6592		101.562500
6593		105.468750
6594		97.656250
6595		103.515625
6596		95.703125
6597		101.562500
6598		93.750000
6599		99.609375
6600		91.796875
6601		95.703125
6602		87.890625
6603		93.750000
6604		85.937500
6605		91.796875
6606		83.984375
6607		87.890625
6608		82.031250
6609		85.937500
6610		78.125000
6611		83.984375
6612		76.171875
6613		80.078125
6614		72.265625
6615		78.125000
6616		68.359375
6617		74.218750
6618		66.406250
6619		70.312500
6620		62.500000
6621		68.359375
6622		60.546875
6623		64.453125
6624		56.640625
6625		60.546875
6626		52.734375
6627		58.593750
6628		48.828125
6629		54.687500
6630		46.875000
6631		52.734375
6632		42.968750
6633		46.875000
6634		39.062500
6635		44.921875
6636		35.156250
6637		41.015625
6638		31.250000
6639		37.109375
6640		27.343750
6641		33.203125
6642		23.437500
6643		29.296875
6644		21.484375
6645		25.390625
6646		17.578125
6647		21.484375
6648		13.671875
6649		17.578125
6650		9.765625
6651		15.625000
6652		3.906250
6653		11.718750
6654		1.953125
6655		5.859375
6656		-1.953125
6657		1.953125
6658		-7.812500
6659		0.000000
6660		-9.765625
6661		-5.859375
6662		-15.625000
6663		-9.765625
6664		-19.531250
6665		-13.671875
6666		-23.437500
6667		-17.578125
6668		-27.343750
6669		-21.484375
6670		-31.250000
6671		-23.437500
6672		-35.156250
6673		-29.296875
6674		-39.062500
6675		-33.203125
6676		-42.968750
6677		-37.109375
6678		-46.875000
6679		-41.015625
6680		-50.781250
6681		-44.921875
6682		-54.687500
6683		-48.828125
6684		-58.593750
6685		-52.734375
6686		-62.500000
6687		-56.640625
6688		-66.406250
6689		-60.546875
6690		-70.312500
6691		-64.453125
6692		-72.265625
6693		-68.359375
6694		-76.171875
6695		-70.312500
6696		-80.078125
6697		-76.171875
6698		-83.984375
6699		-78.125000
6700		-87.890625
6701		-82.031250
6702		-91.796875
6703		-85.937500
6704		-93.750000
6705		-87.890625
6706		-97.656250
6707		-93.750000
6708		-101.562500
6709		-95.703125
6710		-105.468750
6711		-99.609375
6712		-107.421875
6713		-103.515625
6714		-111.328125
6715		-105.468750
6716		-113.281250
6717		-109.375000
6718		-117.187500
6719		-111.328125
6720		-121.093750
6721		-115.234375
6722		-123.046875
6723		-119.140625
6724		-126.953125
6725		-121.093750
6726		-128.906250
6727		-123.046875
6728		-130.859375
6729		-126.953125
6730		-134.765625
6731		-128.906250
6732		-136.718750
6733		-132.812500
6734		-138.671875
6735		-132.812500
6736		-142.578125
6737		-136.718750
6738		-142.578125
6739		-138.671875
6740		-144.531250
6741		-140.625000
6742		-146.484375
6743		-142.578125
6744		-148.437500
6745		-144.531250
6746		-150.390625
6747		-144.531250
6748		-152.343750
6749		-148.437500
6750		-152.343750
6751		-148.437500
6752		-154.296875
6753		-150.390625
6754		-156.250000
6755		-150.390625
6756		-156.250000
6757		-154.296875
6758		-158.203125
6759		-154.296875
6760		-160.156250
6761		-154.296875
6762		-160.156250
6763		-156.250000
6764		-160.156250
6765		-156.250000
6766		-162.109375
6767		-158.203125
6768		-162.109375
6769		-158.203125
6770		-162.109375
6771		-158.203125
6772		-162.109375
6773		-158.203125
6774		-162.109375
6775		-158.203125
6776		-162.109375
6777		-158.203125
6778		-162.109375
6779		-158.203125
6780		-162.109375
6781		-158.203125
6782		-160.156250
6783		-158.203125
6784		-160.156250
6785		-156.250000
6786		-160.156250
6787		-156.250000
6788		-160.156250
6789		-156.250000
6790		-158.203125
6791		-156.250000
6792		-158.203125
6793		-152.343750
6794		-156.250000
6795		-152.343750
6796		-156.250000
6797		-152.343750
6798		-154.296875
6799		-150.390625
6800		-152.343750
6801		-148.437500
6802		-152.343750
6803		-146.484375
6804		-150.390625
6805		-144.531250
6806		-146.484375
6807		-144.531250
6808		-144.531250
6809		-140.625000
6810		-144.531250
6811		-138.671875
6812		-140.625000
6813		-136.718750
6814		-140.625000
6815		-134.765625
6816		-136.718750
6817		-132.812500
6818		-134.765625
6819		-128.906250
6820		-130.859375
6821		-126.953125
6822		-128.906250
6823		-125.000000
6824		-126.953125
6825		-121.093750
6826		-123.046875
6827		-119.140625
6828		-121.093750
6829		-117.187500
6830		-117.187500
6831		-111.328125
6832		-115.234375
6833		-109.375000
6834		-111.328125
6835		-107.421875
6836		-107.421875
6837		-103.515625
6838		-105.468750
6839		-99.609375
6840		-101.562500
6841		-97.656250
6842		-97.656250
6843		-91.796875
6844		-93.750000
6845		-89.843750
6846		-91.796875
6847		-85.937500
6848		-87.890625
6849		-82.031250
6850		-83.984375
6851		-78.125000
6852		-80.078125
6853		-74.218750
6854		-76.171875
6855		-72.265625
6856		-72.265625
6857		-68.359375
6858		-68.359375
6859		-62.500000
6860		-66.406250
6861		-60.546875
6862		-60.546875
6863		-54.687500
6864		-56.640625
6865		-50.781250
6866		-52.734375
6867		-46.875000
6868		-48.828125
6869		-42.968750
6870		-44.921875
6871		-39.062500
6872		-41.015625
6873		-35.156250
6874		-37.109375
6875		-31.250000
6876		-33.203125
6877		-27.343750
6878		-29.296875
6879		-23.437500
6880		-25.390625
6881		-19.531250
6882		-21.484375
6883		-15.625000
6884		-17.578125
6885		-11.718750
6886		-13.671875
6887		-7.812500
6888		-9.765625
6889		-3.906250
6890		-3.906250
6891		0.000000
6892		0.000000
6893		5.859375
6894		1.953125
6895		9.765625
6896		5.859375
6897		11.718750
6898		9.765625
6899		17.578125
6900		13.671875
6901		19.531250
6902		17.578125
6903		23.437500
6904		21.484375
6905		27.343750
6906		25.390625
6907		31.250000
6908		29.296875
6909		35.156250
6910		33.203125
6911		39.062500
6912		37.109375
6913		42.968750
6914		41.015625
6915		46.875000
6916		42.968750
6917		48.828125
6918		46.875000
6919		52.734375
6920		50.781250
6921		54.687500
6922		52.734375
6923		58.593750
6924		56.640625
6925		62.500000
6926		60.546875
6927		66.406250
6928		62.500000
6929		68.359375
6930		66.406250
6931		72.265625
6932		70.312500
6933		74.218750
6934		72.265625
6935		78.125000
6936		76.171875
6937		80.078125
6938		78.125000
6939		82.031250
6940		82.031250
6941		85.937500
6942		83.984375
6943		87.890625
6944		85.937500
6945		91.796875
6946		87.890625
6947		93.750000
6948		91.796875
6949		95.703125
6950		93.750000
6951		99.609375
6952		95.703125
6953		101.562500
6954		97.656250
6955		103.515625
6956		99.609375
6957		105.468750
6958		103.515625
6959		107.421875
6960		105.468750
6961		109.375000
6962		107.421875
6963		111.328125
6964		109.375000
6965		113.281250
6966		111.328125
6967		115.234375
6968		113.281250
6969		117.187500
6970		113.281250
6971		119.140625
6972		117.187500
6973		121.093750
6974		117.187500
6975		121.093750
6976		119.140625
6977		123.046875
6978		119.140625
6979		125.000000
6980		121.093750
6981		125.000000
6982		123.046875
6983		126.953125
6984		125.000000
6985		126.953125
6986		125.000000
6987		128.906250
6988		125.000000
6989		128.906250
6990		126.953125
6991		130.859375
6992		128.906250
6993		130.859375
6994		126.953125
6995		132.812500
6996		128.906250
6997		132.812500
6998		128.906250
6999		132.812500
7000		130.859375
7001		132.812500
7002		130.859375
7003		134.765625
7004		130.859375
7005		134.765625
7006		130.859375
7007		134.765625
7008		132.812500
7009		134.765625
7010		130.859375
7011		136.718750
7012		130.859375
7013		134.765625
7014		130.859375
7015		134.765625
7016		132.812500
7017		134.765625
7018		130.859375
7019		134.765625
7020		130.859375
7021		134.765625
7022		128.906250
7023		134.765625
7024		130.859375
7025		132.812500
7026		128.906250
7027		132.812500
7028		128.906250
7029		132.812500
7030		128.906250
7031		130.859375
7032		126.953125
7033		130.859375
7034		126.953125
7035		128.906250
7036		125.000000
7037		128.906250
7038		125.000000
7039		128.906250
7040		123.046875
7041		126.953125
7042		123.046875
7043		125.000000
7044		121.093750
7045		123.046875
7046		119.140625
7047		123.046875
7048		117.187500
7049		123.046875
7050		117.187500
7051		121.093750
7052		115.234375
7053		119.140625
7054		113.281250
7055		117.187500
7056		111.328125
7057		115.234375
7058		109.375000
7059		113.281250
7060		107.421875
7061		111.328125
7062		105.468750
7063		109.375000
7064		103.515625
7065		107.421875
7066		99.609375
7067		105.468750
7068		99.609375
7069		103.515625
7070		95.703125
7071		101.562500
7072		93.750000
7073		97.656250
7074		91.796875
7075		95.703125
7076		89.843750
7077		93.750000
7078		87.890625
7079		91.796875
7080		83.984375
7081		89.843750
7082		82.031250
7083		85.937500
7084		78.125000
7085		83.984375
7086		74.218750
7087		80.078125
7088		72.265625
7089		78.125000
7090		70.312500
7091		74.218750
7092		66.406250
7093		70.312500
7094		62.500000
7095		68.359375
7096		58.593750
7097		66.406250
7098		56.640625
7099		60.546875
7100		52.734375
7101		58.593750
7102		48.828125
7103		54.687500
7104		46.875000
7105		50.781250
7106		42.968750
7107		46.875000
7108		39.062500
7109		44.921875
7110		35.156250
7111		41.015625
7112		31.250000
7113		37.109375
7114		29.296875
7115		33.203125
7116		25.390625
7117		31.250000
7118		19.531250
7119		25.390625
7120		17.578125
7121		21.484375
7122		13.671875
7123		17.578125
7124		9.765625
7125		15.625000
7126		5.859375
7127		9.765625
7128		0.000000
7129		5.859375
7130		-3.906250
7131		1.953125
7132		-7.812500
7133		-1.953125
7134		-11.718750
7135		-5.859375
7136		-15.625000
7137		-7.812500
7138		-19.531250
7139		-13.671875
7140		-21.484375
7141		-17.578125
7142		-27.343750
7143		-21.484375
7144		-31.250000
7145		-25.390625
7146		-35.156250
7147		-27.343750
7148		-39.062500
7149		-33.203125
7150		-42.968750
7151		-37.109375
7152		-46.875000
7153		-41.015625
7154		-50.781250
7155		-44.921875
7156		-54.687500
7157		-48.828125
7158		-58.593750
7159		-52.734375
7160		-60.546875
7161		-56.640625
7162		-66.406250
7163		-60.546875
7164		-68.359375
7165		-62.500000
7166		-72.265625
7167		-66.406250
7168		-76.171875
7169		-70.312500
7170		-82.031250
7171		-76.171875
7172		-83.984375
7173		-78.125000
7174		-87.890625
7175		-82.031250
7176		-91.796875
7177		-85.937500
7178		-93.750000
7179		-89.843750
7180		-97.656250
7181		-91.796875
7182		-101.562500
7183		-95.703125
7184		-103.515625
7185		-99.609375
7186		-107.421875
7187		-101.562500
7188		-111.328125
7189		-105.468750
7190		-113.281250
7191		-109.375000
7192		-115.234375
7193		-111.328125
7194		-119.140625
7195		-115.234375
7196		-121.093750
7197		-117.187500
7198		-125.000000
7199		-121.093750
7200		-126.953125
7201		-123.046875
7202		-130.859375
7203		-126.953125
7204		-132.812500
7205		-126.953125
7206		-136.718750
7207		-130.859375
7208		-136.718750
7209		-132.812500
7210		-138.671875
7211		-134.765625
7212		-142.578125
7213		-136.718750
7214		-142.578125
7215		-140.625000
7216		-144.531250
7217		-140.625000
7218		-146.484375
7219		-142.578125
7220		-148.437500
7221		-144.531250
7222		-150.390625
7223		-144.531250
7224		-152.343750
7225		-148.437500
7226		-152.343750
7227		-150.390625
7228		-154.296875
7229		-150.390625
7230		-156.250000
7231		-150.390625
7232		-156.250000
7233		-152.343750
7234		-156.250000
7235		-154.296875
7236		-158.203125
7237		-154.296875
7238		-158.203125
7239		-156.250000
7240		-158.203125
7241		-156.250000
7242		-160.156250
7243		-156.250000
7244		-160.156250
7245		-156.250000
7246		-160.156250
7247		-156.250000
7248		-160.156250
7249		-156.250000
7250		-160.156250
7251		-156.250000
7252		-160.156250
7253		-156.250000
7254		-158.203125
7255		-156.250000
7256		-160.156250
7257		-156.250000
7258		-158.203125
7259		-154.296875
7260		-158.203125
7261		-154.296875
7262		-156.250000
7263		-152.343750
7264		-156.250000
7265		-152.343750
7266		-154.296875
7267		-150.390625
7268		-154.296875
7269		-150.390625
7270		-152.343750
7271		-148.437500
7272		-152.343750
7273		-146.484375
7274		-150.390625
7275		-144.531250
7276		-148.437500
7277		-144.531250
7278		-146.484375
7279		-142.578125
7280		-144.531250
7281		-140.625000
7282		-142.578125
7283		-138.671875
7284		-140.625000
7285		-136.718750
7286		-138.671875
7287		-134.765625
7288		-136.718750
7289		-130.859375
7290		-132.812500
7291		-128.906250
7292		-130.859375
7293		-126.953125
7294		-128.906250
7295		-125.000000
7296		-125.000000
7297		-121.093750
7298		-123.046875
7299		-119.140625
7300		-121.093750
7301		-115.234375
7302		-117.187500
7303		-113.281250
7304		-115.234375
7305		-109.375000
7306		-111.328125
7307		-105.468750
7308		-107.421875
7309		-103.515625
7310		-103.515625
7311		-99.609375
7312		-101.562500
7313		-95.703125
7314		-97.656250
7315		-91.796875
7316		-95.703125
7317		-89.843750
7318		-89.843750
7319		-85.937500
7320		-87.890625
7321		-82.031250
7322		-83.984375
7323		-78.125000
7324		-80.078125
7325		-74.218750
7326		-78.125000
7327		-70.312500
7328		-72.265625
7329		-66.406250
7330		-68.359375
7331		-62.500000
7332		-64.453125
7333		-58.593750
7334		-60.546875
7335		-56.640625
7336		-58.593750
7337		-50.781250
7338		-52.734375
7339		-46.875000
7340		-48.828125
7341		-42.968750
7342		-44.921875
7343		-39.062500
7344		-41.015625
7345		-35.156250
7346		-37.109375
7347		-31.250000
7348		-33.203125
7349		-27.343750
7350		-29.296875
7351		-23.437500
7352		-25.390625
7353		-19.531250
7354		-21.484375
7355		-15.625000
7356		-17.578125
7357		-11.718750
7358		-13.671875
7359		-7.812500
7360		-9.765625
7361		-3.906250
7362		-5.859375
7363		0.000000
7364		-1.953125
7365		5.859375
7366		3.906250
7367		7.812500
7368		5.859375
7369		11.718750
7370		9.765625
7371		15.625000
7372		13.671875
7373		19.531250
7374		17.578125
7375		23.437500
7376		21.484375
7377		27.343750
7378		25.390625
7379		31.250000
7380		29.296875
7381		35.156250
7382		33.203125
7383		39.062500
7384		37.109375
7385		42.968750
7386		41.015625
7387		44.921875
7388		42.968750
7389		50.781250
7390		46.875000
7391		52.734375
7392		50.781250
7393		56.640625
7394		54.687500
7395		58.593750
7396		56.640625
7397		62.500000
7398		58.593750
7399		64.453125
7400		62.500000
7401		68.359375
7402		66.406250
7403		72.265625
7404		68.359375
7405		76.171875
7406		72.265625
7407		78.125000
7408		76.171875
7409		80.078125
7410		78.125000
7411		83.984375
7412		82.031250
7413		85.937500
7414		83.984375
7415		87.890625
7416		85.937500
7417		91.796875
7418		89.843750
7419		93.750000
7420		91.796875
7421		97.656250
7422		93.750000
7423		99.609375
7424		97.656250
7425		103.515625
7426		99.609375
7427		103.515625
7428		101.562500
7429		105.468750
7430		103.515625
7431		109.375000
7432		105.468750
7433		109.375000
7434		107.421875
7435		111.328125
7436		109.375000
7437		115.234375
7438		109.375000
7439		117.187500
7440		113.281250
7441		117.187500
7442		113.281250
7443		119.140625
7444		117.187500
7445		121.093750
7446		119.140625
7447		121.093750
7448		117.187500
7449		125.000000
7450		119.140625
7451		126.953125
7452		121.093750
7453		126.953125
7454		121.093750
7455		128.906250
7456		123.046875
7457		128.906250
7458		123.046875
7459		130.859375
7460		125.000000
7461		130.859375
7462		128.906250
7463		130.859375
7464		126.953125
7465		132.812500
7466		128.906250
7467		134.765625
7468		128.906250
7469		136.718750
7470		128.906250
7471		136.718750
7472		128.906250
7473		136.718750
7474		130.859375
7475		136.718750
7476		130.859375
7477		136.718750
7478		132.812500
7479		136.718750
7480		132.812500
7481		136.718750
7482		130.859375
7483		138.671875
7484		130.859375
7485		138.671875
7486		130.859375
7487		138.671875
7488		130.859375
7489		138.671875
7490		130.859375
7491		138.671875
7492		130.859375
7493		138.671875
7494		132.812500
7495		136.718750
7496		132.812500
7497		134.765625
7498		128.906250
7499		136.718750
7500		128.906250
7501		136.718750
7502		128.906250
7503		134.765625
7504		126.953125
7505		134.765625
7506		126.953125
7507		134.765625
7508		125.000000
7509		132.812500
7510		125.000000
7511		132.812500
7512		126.953125
7513		128.906250
7514		125.000000
7515		128.906250
7516		121.093750
7517		128.906250
7518		119.140625
7519		126.953125
7520		117.187500
7521		125.000000
7522		117.187500
7523		125.000000
7524		115.234375
7525		123.046875
7526		115.234375
7527		121.093750
7528		115.234375
7529		117.187500
7530		113.281250
7531		115.234375
7532		109.375000
7533		115.234375
7534		105.468750
7535		115.234375
7536		105.468750
7537		111.328125
7538		101.562500
7539		109.375000
7540		99.609375
7541		109.375000
7542		97.656250
7543		105.468750
7544		97.656250
7545		105.468750
7546		95.703125
7547		99.609375
7548		89.843750
7549		97.656250
7550		87.890625
7551		97.656250
7552		85.937500
7553		93.750000
7554		82.031250
7555		91.796875
7556		80.078125
7557		87.890625
7558		76.171875
7559		85.937500
7560		74.218750
7561		83.984375
7562		72.265625
7563		78.125000
7564		70.312500
7565		74.218750
7566		64.453125
7567		72.265625
7568		62.500000
7569		70.312500
7570		58.593750
7571		68.359375
7572		54.687500
7573		62.500000
7574		52.734375
7575		58.593750
7576		48.828125
7577		56.640625
7578		46.875000
7579		52.734375
7580		42.968750
7581		48.828125
7582		39.062500
7583		44.921875
7584		33.203125
7585		42.968750
7586		31.250000
7587		39.062500
7588		25.390625
7589		35.156250
7590		23.437500
7591		31.250000
7592		19.531250
7593		27.343750
7594		17.578125
7595		23.437500
7596		13.671875
7597		17.578125
7598		7.812500
7599		13.671875
7600		3.906250
7601		13.671875
7602		-1.953125
7603		9.765625
7604		-3.906250
7605		3.906250
7606		-7.812500
7607		1.953125
7608		-13.671875
7609		-1.953125
7610		-15.625000
7611		-7.812500
7612		-17.578125
7613		-13.671875
7614		-21.484375
7615		-17.578125
7616		-27.343750
7617		-19.531250
7618		-33.203125
7619		-23.437500
7620		-35.156250
7621		-27.343750
7622		-41.015625
7623		-31.250000
7624		-44.921875
7625		-35.156250
7626		-46.875000
7627		-39.062500
7628		-50.781250
7629		-41.015625
7630		-54.687500
7631		-48.828125
7632		-60.546875
7633		-52.734375
7634		-62.500000
7635		-54.687500
7636		-68.359375
7637		-56.640625
7638		-72.265625
7639		-60.546875
7640		-76.171875
7641		-66.406250
7642		-78.125000
7643		-70.312500
7644		-80.078125
7645		-72.265625
7646		-83.984375
7647		-78.125000
7648		-87.890625
7649		-82.031250
7650		-91.796875
7651		-83.984375
7652		-95.703125
7653		-85.937500
7654		-99.609375
7655		-89.843750
7656		-103.515625
7657		-93.750000
7658		-105.468750
7659		-97.656250
7660		-109.375000
7661		-99.609375
7662		-109.375000
7663		-103.515625
7664		-113.281250
7665		-109.375000
7666		-119.140625
7667		-111.328125
7668		-121.093750
7669		-111.328125
7670		-125.000000
7671		-115.234375
7672		-126.953125
7673		-119.140625
7674		-128.906250
7675		-121.093750
7676		-132.812500
7677		-123.046875
7678		-132.812500
7679		-126.953125
7680		-134.765625
7681		-130.859375
7682		-136.718750
7683		-132.812500
7684		-140.625000
7685		-132.812500
7686		-142.578125
7687		-134.765625
7688		-144.531250
7689		-136.718750
7690		-148.437500
7691		-138.671875
7692		-148.437500
7693		-140.625000
7694		-150.390625
7695		-142.578125
7696		-148.437500
7697		-146.484375
7698		-150.390625
7699		-146.484375
7700		-154.296875
7701		-146.484375
7702		-156.250000
7703		-148.437500
7704		-156.250000
7705		-148.437500
7706		-158.203125
7707		-150.390625
7708		-158.203125
7709		-150.390625
7710		-160.156250
7711		-152.343750
7712		-158.203125
7713		-152.343750
7714		-158.203125
7715		-154.296875
7716		-160.156250
7717		-154.296875
7718		-160.156250
7719		-152.343750
7720		-160.156250
7721		-152.343750
7722		-160.156250
7723		-154.296875
7724		-160.156250
7725		-154.296875
7726		-160.156250
7727		-152.343750
7728		-160.156250
7729		-152.343750
7730		-156.250000
7731		-154.296875
7732		-156.250000
7733		-154.296875
7734		-158.203125
7735		-150.390625
7736		-158.203125
7737		-150.390625
7738		-156.250000
7739		-148.437500
7740		-156.250000
7741		-148.437500
7742		-154.296875
7743		-146.484375
7744		-154.296875
7745		-144.531250
7746		-150.390625
7747		-146.484375
7748		-146.484375
7749		-144.531250
7750		-146.484375
7751		-140.625000
7752		-146.484375
7753		-138.671875
7754		-144.531250
7755		-136.718750
7756		-142.578125
7757		-134.765625
7758		-140.625000
7759		-132.812500
7760		-138.671875
7761		-130.859375
7762		-136.718750
7763		-128.906250
7764		-130.859375
7765		-126.953125
7766		-128.906250
7767		-125.000000
7768		-128.906250
7769		-119.140625
7770		-125.000000
7771		-117.187500
7772		-123.046875
7773		-115.234375
7774		-121.093750
7775		-111.328125
7776		-117.187500
7777		-109.375000
7778		-115.234375
7779		-105.468750
7780		-109.375000
7781		-103.515625
7782		-105.468750
7783		-101.562500
7784		-103.515625
7785		-95.703125
7786		-101.562500
7787		-91.796875
7788		-97.656250
7789		-89.843750
7790		-95.703125
7791		-85.937500
7792		-91.796875
7793		-82.031250
7794		-87.890625
7795		-78.125000
7796		-83.984375
7797		-76.171875
7798		-78.125000
7799		-72.265625
7800		-74.218750
7801		-66.406250
7802		-72.265625
7803		-64.453125
7804		-68.359375
7805		-58.593750
7806		-66.406250
7807		-54.687500
7808		-60.546875
7809		-50.781250
7810		-56.640625
7811		-46.875000
7812		-52.734375
7813		-44.921875
7814		-46.875000
7815		-41.015625
7816		-42.968750
7817		-37.109375
7818		-39.062500
7819		-31.250000
7820		-37.109375
7821		-27.343750
7822		-33.203125
7823		-23.437500
7824		-29.296875
7825		-21.484375
7826		-25.390625
7827		-15.625000
7828		-19.531250
7829		-11.718750
7830		-15.625000
7831		-9.765625
7832		-11.718750
7833		-5.859375
7834		-7.812500
7835		0.000000
7836		-5.859375
7837		3.906250
7838		0.000000
7839		7.812500
7840		1.953125
7841		11.718750
7842		5.859375
7843		15.625000
7844		9.765625
7845		19.531250
7846		15.625000
7847		21.484375
7848		19.531250
7849		25.390625
7850		23.437500
7851		29.296875
7852		25.390625
7853		33.203125
7854		29.296875
7855		39.062500
7856		31.250000
7857		41.015625
7858		37.109375
7859		44.921875
7860		39.062500
7861		48.828125
7862		42.968750
7863		50.781250
7864		46.875000
7865		52.734375
7866		52.734375
7867		56.640625
7868		54.687500
7869		62.500000
7870		56.640625
7871		66.406250
7872		58.593750
7873		68.359375
7874		64.453125
7875		72.265625
7876		66.406250
7877		74.218750
7878		70.312500
7879		78.125000
7880		72.265625
7881		80.078125
7882		78.125000
7883		82.031250
7884		80.078125
7885		87.890625
7886		82.031250
7887		89.843750
7888		83.984375
7889		91.796875
7890		85.937500
7891		95.703125
7892		89.843750
7893		97.656250
7894		91.796875
7895		99.609375
7896		93.750000
7897		101.562500
7898		97.656250
7899		101.562500
7900		101.562500
7901		105.468750
7902		101.562500
7903		109.375000
7904		103.515625
7905		111.328125
7906		105.468750
7907		113.281250
7908		107.421875
7909		113.281250
7910		109.375000
7911		117.187500
7912		111.328125
7913		119.140625
7914		113.281250
7915		117.187500
7916		117.187500
7917		121.093750
7918		117.187500
7919		123.046875
7920		117.187500
7921		125.000000
7922		119.140625
7923		126.953125
7924		121.093750
7925		126.953125
7926		121.093750
7927		128.906250
7928		123.046875
7929		130.859375
7930		125.000000
7931		130.859375
7932		126.953125
7933		130.859375
7934		128.906250
7935		130.859375
7936		126.953125
7937		134.765625
7938		126.953125
7939		134.765625
7940		128.906250
7941		136.718750
7942		128.906250
7943		136.718750
7944		128.906250
7945		136.718750
7946		130.859375
7947		136.718750
7948		130.859375
7949		136.718750
7950		132.812500
7951		136.718750
7952		130.859375
7953		138.671875
7954		132.812500
7955		138.671875
7956		130.859375
7957		138.671875
7958		132.812500
7959		138.671875
7960		130.859375
7961		138.671875
7962		130.859375
7963		138.671875
7964		132.812500
7965		138.671875
7966		132.812500
7967		136.718750
7968		130.859375
7969		136.718750
7970		130.859375
7971		136.718750
7972		128.906250
7973		136.718750
7974		128.906250
7975		136.718750
7976		128.906250
7977		136.718750
7978		126.953125
7979		134.765625
7980		126.953125
7981		134.765625
7982		128.906250
7983		130.859375
7984		126.953125
7985		130.859375
7986		123.046875
7987		130.859375
7988		123.046875
7989		130.859375
7990		121.093750
7991		128.906250
7992		119.140625
7993		128.906250
7994		119.140625
7995		126.953125
7996		117.187500
7997		125.000000
7998		117.187500
7999		123.046875
8000		117.187500
8001		119.140625
8002		111.328125
8003		119.140625
8004		109.375000
8005		119.140625
8006		107.421875
8007		115.234375
8008		107.421875
8009		115.234375
8010		103.515625
8011		113.281250
8012		103.515625
8013		111.328125
8014		99.609375
8015		109.375000
8016		99.609375
8017		103.515625
8018		97.656250
8019		101.562500
8020		93.750000
8021		101.562500
8022		91.796875
8023		99.609375
8024		89.843750
8025		95.703125
8026		83.984375
8027		93.750000
8028		82.031250
8029		91.796875
8030		80.078125
8031		89.843750
8032		80.078125
8033		85.937500
8034		76.171875
8035		80.078125
8036		70.312500
8037		80.078125
8038		68.359375
8039		78.125000
8040		64.453125
8041		74.218750
8042		62.500000
8043		70.312500
8044		60.546875
8045		66.406250
8046		54.687500
8047		64.453125
8048		54.687500
8049		60.546875
8050		50.781250
8051		54.687500
8052		44.921875
8053		52.734375
8054		41.015625
8055		50.781250
8056		37.109375
8057		46.875000
8058		35.156250
8059		42.968750
8060		31.250000
8061		39.062500
8062		27.343750
8063		35.156250
8064		23.437500
8065		33.203125
8066		21.484375
8067		27.343750
8068		17.578125
8069		23.437500
8070		13.671875
8071		19.531250
8072		7.812500
8073		15.625000
8074		3.906250
8075		11.718750
8076		0.000000
8077		7.812500
8078		-1.953125
8079		3.906250
8080		-7.812500
8081		0.000000
8082		-9.765625
8083		-3.906250
8084		-13.671875
8085		-7.812500
8086		-19.531250
8087		-11.718750
8088		-23.437500
8089		-15.625000
8090		-27.343750
8091		-19.531250
8092		-31.250000
8093		-21.484375
8094		-35.156250
8095		-25.390625
8096		-39.062500
8097		-31.250000
8098		-42.968750
8099		-35.156250
8100		-44.921875
8101		-41.015625
8102		-48.828125
8103		-44.921875
8104		-56.640625
8105		-46.875000
8106		-58.593750
8107		-48.828125
8108		-62.500000
8109		-52.734375
8110		-68.359375
8111		-58.593750
8112		-70.312500
8113		-60.546875
8114		-74.218750
8115		-64.453125
8116		-76.171875
8117		-70.312500
8118		-80.078125
8119		-74.218750
8120		-85.937500
8121		-78.125000
8122		-89.843750
8123		-80.078125
8124		-91.796875
8125		-82.031250
8126		-95.703125
8127		-85.937500
8128		-99.609375
8129		-89.843750
8130		-101.562500
8131		-93.750000
8132		-103.515625
8133		-97.656250
8134		-107.421875
8135		-101.562500
8136		-111.328125
8137		-105.468750
8138		-115.234375
8139		-107.421875
8140		-117.187500
8141		-109.375000
8142		-121.093750
8143		-113.281250
8144		-123.046875
8145		-115.234375
8146		-126.953125
8147		-117.187500
8148		-128.906250
8149		-121.093750
8150		-128.906250
8151		-125.000000
8152		-132.812500
8153		-126.953125
8154		-136.718750
8155		-128.906250
8156		-138.671875
8157		-130.859375
8158		-140.625000
8159		-132.812500
8160		-144.531250
8161		-130.859375
8162		-144.531250
8163		-136.718750
8164		-146.484375
8165		-138.671875
8166		-148.437500
8167		-140.625000
8168		-148.437500
8169		-144.531250
8170		-152.343750
8171		-144.531250
8172		-154.296875
8173		-146.484375
8174		-154.296875
8175		-146.484375
8176		-156.250000
8177		-148.437500
8178		-156.250000
8179		-148.437500
8180		-158.203125
8181		-150.390625
8182		-158.203125
8183		-150.390625
8184		-156.250000
8185		-154.296875
8186		-158.203125
8187		-154.296875
8188		-160.156250
8189		-152.343750
8190		-160.156250
8191		-154.296875
8192		-162.109375
8193		-154.296875
8194		-162.109375
8195		-154.296875
8196		-162.109375
8197		-154.296875
8198		-162.109375
8199		-154.296875
8200		-158.203125
8201		-156.250000
8202		-158.203125
8203		-156.250000
8204		-160.156250
8205		-152.343750
8206		-160.156250
8207		-152.343750
8208		-160.156250
8209		-150.390625
8210		-158.203125
8211		-150.390625
8212		-158.203125
8213		-150.390625
8214		-156.250000
8215		-148.437500
8216		-154.296875
8217		-148.437500
8218		-152.343750
8219		-148.437500
8220		-150.390625
8221		-146.484375
8222		-152.343750
8223		-142.578125
8224		-148.437500
8225		-142.578125
8226		-148.437500
8227		-140.625000
8228		-146.484375
8229		-138.671875
8230		-144.531250
8231		-134.765625
8232		-140.625000
8233		-132.812500
8234		-136.718750
8235		-132.812500
8236		-134.765625
8237		-130.859375
8238		-134.765625
8239		-126.953125
8240		-132.812500
8241		-123.046875
8242		-128.906250
8243		-121.093750
8244		-126.953125
8245		-119.140625
8246		-125.000000
8247		-115.234375
8248		-121.093750
8249		-113.281250
8250		-119.140625
8251		-111.328125
8252		-113.281250
8253		-109.375000
8254		-111.328125
8255		-103.515625
8256		-109.375000
8257		-101.562500
8258		-105.468750
8259		-97.656250
8260		-103.515625
8261		-93.750000
8262		-99.609375
8263		-89.843750
8264		-95.703125
8265		-87.890625
8266		-93.750000
8267		-83.984375
8268		-85.937500
8269		-82.031250
8270		-82.031250
8271		-78.125000
8272		-80.078125
8273		-72.265625
8274		-78.125000
8275		-68.359375
8276		-74.218750
8277		-64.453125
8278		-68.359375
8279		-60.546875
8280		-64.453125
8281		-56.640625
8282		-62.500000
8283		-52.734375
8284		-56.640625
8285		-50.781250
8286		-50.781250
8287		-46.875000
8288		-48.828125
8289		-41.015625
8290		-46.875000
8291		-37.109375
8292		-41.015625
8293		-31.250000
8294		-37.109375
8295		-27.343750
8296		-33.203125
8297		-25.390625
8298		-29.296875
8299		-19.531250
8300		-25.390625
8301		-19.531250
8302		-19.531250
8303		-13.671875
8304		-15.625000
8305		-9.765625
8306		-13.671875
8307		-3.906250
8308		-9.765625
8309		0.000000
8310		-5.859375
8311		1.953125
8312		-1.953125
8313		5.859375
8314		1.953125
8315		11.718750
8316		5.859375
8317		15.625000
8318		11.718750
8319		17.578125
8320		15.625000
8321		21.484375
8322		19.531250
8323		27.343750
8324		21.484375
8325		31.250000
8326		25.390625
8327		33.203125
8328		27.343750
8329		37.109375
8330		31.250000
8331		41.015625
8332		35.156250
8333		42.968750
8334		39.062500
8335		46.875000
8336		44.921875
8337		48.828125
8338		48.828125
8339		56.640625
8340		48.828125
8341		58.593750
8342		52.734375
8343		62.500000
8344		56.640625
8345		64.453125
8346		58.593750
8347		68.359375
8348		62.500000
8349		70.312500
8350		64.453125
8351		72.265625
8352		70.312500
8353		76.171875
8354		74.218750
8355		78.125000
8356		74.218750
8357		82.031250
8358		76.171875
8359		85.937500
8360		80.078125
8361		89.843750
8362		83.984375
8363		91.796875
8364		83.984375
8365		93.750000
8366		87.890625
8367		97.656250
8368		91.796875
8369		97.656250
8370		95.703125
8371		99.609375
8372		95.703125
8373		103.515625
8374		97.656250
8375		105.468750
8376		99.609375
8377		107.421875
8378		101.562500
8379		109.375000
8380		103.515625
8381		113.281250
8382		105.468750
8383		115.234375
8384		107.421875
8385		115.234375
8386		111.328125
8387		115.234375
8388		115.234375
8389		117.187500
8390		113.281250
8391		121.093750
8392		115.234375
8393		123.046875
8394		115.234375
8395		125.000000
8396		117.187500
8397		125.000000
8398		119.140625
8399		126.953125
8400		121.093750
8401		128.906250
8402		125.000000
8403		126.953125
8404		125.000000
8405		128.906250
8406		125.000000
8407		130.859375
8408		125.000000
8409		132.812500
8410		125.000000
8411		132.812500
8412		126.953125
8413		134.765625
8414		126.953125
8415		134.765625
8416		128.906250
8417		134.765625
8418		128.906250
8419		136.718750
8420		130.859375
8421		134.765625
8422		130.859375
8423		138.671875
8424		130.859375
8425		136.718750
8426		130.859375
8427		136.718750
8428		130.859375
8429		138.671875
8430		130.859375
8431		138.671875
8432		130.859375
8433		138.671875
8434		130.859375
8435		138.671875
8436		132.812500
8437		136.718750
8438		132.812500
8439		136.718750
8440		130.859375
8441		136.718750
8442		128.906250
8443		136.718750
8444		128.906250
8445		136.718750
8446		128.906250
8447		136.718750
8448		128.906250
8449		134.765625
8450		126.953125
8451		134.765625
8452		128.906250
8453		132.812500
8454		128.906250
8455		130.859375
8456		125.000000
8457		132.812500
8458		125.000000
8459		130.859375
8460		123.046875
8461		130.859375
8462		121.093750
8463		128.906250
8464		121.093750
8465		128.906250
8466		119.140625
8467		126.953125
8468		119.140625
8469		125.000000
8470		119.140625
8471		123.046875
8472		117.187500
8473		121.093750
8474		113.281250
8475		121.093750
8476		111.328125
8477		119.140625
8478		109.375000
8479		117.187500
8480		107.421875
8481		115.234375
8482		105.468750
8483		113.281250
8484		103.515625
8485		111.328125
8486		103.515625
8487		109.375000
8488		101.562500
8489		105.468750
8490		97.656250
8491		103.515625
8492		95.703125
8493		103.515625
8494		91.796875
8495		101.562500
8496		89.843750
8497		97.656250
8498		85.937500
8499		95.703125
8500		85.937500
8501		91.796875
8502		83.984375
8503		89.843750
8504		82.031250
8505		85.937500
8506		76.171875
8507		82.031250
8508		72.265625
8509		82.031250
8510		70.312500
8511		80.078125
8512		68.359375
8513		74.218750
8514		62.500000
8515		74.218750
8516		60.546875
8517		68.359375
8518		56.640625
8519		66.406250
8520		56.640625
8521		60.546875
8522		52.734375
8523		58.593750
8524		46.875000
8525		54.687500
8526		42.968750
8527		52.734375
8528		41.015625
8529		48.828125
8530		35.156250
8531		44.921875
8532		31.250000
8533		41.015625
8534		29.296875
8535		37.109375
8536		27.343750
8537		33.203125
8538		23.437500
8539		29.296875
8540		17.578125
8541		25.390625
8542		13.671875
8543		23.437500
8544		9.765625
8545		19.531250
8546		5.859375
8547		15.625000
8548		1.953125
8549		11.718750
8550		-1.953125
8551		7.812500
8552		-3.906250
8553		3.906250
8554		-7.812500
8555		-1.953125
8556		-11.718750
8557		-5.859375
8558		-17.578125
8559		-7.812500
8560		-21.484375
8561		-11.718750
8562		-25.390625
8563		-15.625000
8564		-31.250000
8565		-19.531250
8566		-31.250000
8567		-25.390625
8568		-37.109375
8569		-27.343750
8570		-39.062500
8571		-33.203125
8572		-42.968750
8573		-37.109375
8574		-48.828125
8575		-41.015625
8576		-52.734375
8577		-44.921875
8578		-56.640625
8579		-46.875000
8580		-60.546875
8581		-50.781250
8582		-64.453125
8583		-56.640625
8584		-68.359375
8585		-58.593750
8586		-70.312500
8587		-64.453125
8588		-74.218750
8589		-68.359375
8590		-80.078125
8591		-72.265625
8592		-83.984375
8593		-76.171875
8594		-87.890625
8595		-78.125000
8596		-91.796875
8597		-82.031250
8598		-93.750000
8599		-83.984375
8600		-97.656250
8601		-87.890625
8602		-99.609375
8603		-91.796875
8604		-101.562500
8605		-97.656250
8606		-105.468750
8607		-101.562500
8608		-111.328125
8609		-101.562500
8610		-115.234375
8611		-105.468750
8612		-115.234375
8613		-107.421875
8614		-119.140625
8615		-111.328125
8616		-121.093750
8617		-113.281250
8618		-125.000000
8619		-117.187500
8620		-125.000000
8621		-119.140625
8622		-126.953125
8623		-123.046875
8624		-132.812500
8625		-125.000000
8626		-136.718750
8627		-126.953125
8628		-138.671875
8629		-128.906250
8630		-138.671875
8631		-132.812500
8632		-142.578125
8633		-134.765625
8634		-144.531250
8635		-136.718750
8636		-146.484375
8637		-138.671875
8638		-146.484375
8639		-142.578125
8640		-146.484375
8641		-144.531250
8642		-150.390625
8643		-142.578125
8644		-152.343750
8645		-144.531250
8646		-154.296875
8647		-146.484375
8648		-156.250000
8649		-146.484375
8650		-156.250000
8651		-148.437500
8652		-156.250000
8653		-150.390625
8654		-156.250000
8655		-152.343750
8656		-156.250000
8657		-154.296875
8658		-160.156250
8659		-152.343750
8660		-160.156250
8661		-152.343750
8662		-160.156250
8663		-152.343750
8664		-162.109375
8665		-152.343750
8666		-162.109375
8667		-154.296875
8668		-162.109375
8669		-154.296875
8670		-162.109375
8671		-154.296875
8672		-160.156250
8673		-156.250000
8674		-160.156250
8675		-154.296875
8676		-160.156250
8677		-154.296875
8678		-160.156250
8679		-152.343750
8680		-160.156250
8681		-152.343750
8682		-158.203125
8683		-150.390625
8684		-158.203125
8685		-150.390625
8686		-156.250000
8687		-150.390625
8688		-154.296875
8689		-150.390625
8690		-152.343750
8691		-148.437500
8692		-154.296875
8693		-146.484375
8694		-152.343750
8695		-142.578125
8696		-150.390625
8697		-142.578125
8698		-148.437500
8699		-140.625000
8700		-148.437500
8701		-138.671875
8702		-144.531250
8703		-136.718750
8704		-142.578125
8705		-136.718750
8706		-138.671875
8707		-134.765625
8708		-136.718750
8709		-130.859375
8710		-136.718750
8711		-128.906250
8712		-134.765625
8713		-126.953125
8714		-132.812500
8715		-123.046875
8716		-128.906250
8717		-121.093750
8718		-126.953125
8719		-117.187500
8720		-123.046875
8721		-115.234375
8722		-119.140625
8723		-113.281250
8724		-115.234375
8725		-111.328125
8726		-115.234375
8727		-105.468750
8728		-111.328125
8729		-101.562500
8730		-107.421875
8731		-99.609375
8732		-105.468750
8733		-95.703125
8734		-101.562500
8735		-91.796875
8736		-97.656250
8737		-89.843750
8738		-93.750000
8739		-87.890625
8740		-87.890625
8741		-83.984375
8742		-85.937500
8743		-78.125000
8744		-83.984375
8745		-74.218750
8746		-80.078125
8747		-70.312500
8748		-76.171875
8749		-66.406250
8750		-72.265625
8751		-64.453125
8752		-70.312500
8753		-58.593750
8754		-64.453125
8755		-56.640625
8756		-58.593750
8757		-52.734375
8758		-54.687500
8759		-46.875000
8760		-52.734375
8761		-42.968750
8762		-48.828125
8763		-39.062500
8764		-44.921875
8765		-35.156250
8766		-41.015625
8767		-31.250000
8768		-37.109375
8769		-27.343750
8770		-33.203125
8771		-23.437500
8772		-27.343750
8773		-21.484375
8774		-23.437500
8775		-17.578125
8776		-19.531250
8777		-11.718750
8778		-15.625000
8779		-5.859375
8780		-13.671875
8781		-3.906250
8782		-9.765625
8783		0.000000
8784		-3.906250
8785		3.906250
8786		0.000000
8787		7.812500
8788		1.953125
8789		9.765625
8790		9.765625
8791		13.671875
8792		13.671875
8793		19.531250
8794		15.625000
8795		23.437500
8796		17.578125
8797		27.343750
8798		21.484375
8799		33.203125
8800		25.390625
8801		35.156250
8802		29.296875
8803		39.062500
8804		33.203125
8805		41.015625
8806		39.062500
8807		42.968750
8808		42.968750
8809		46.875000
8810		44.921875
8811		52.734375
8812		46.875000
8813		54.687500
8814		50.781250
8815		60.546875
8816		54.687500
8817		62.500000
8818		56.640625
8819		66.406250
8820		58.593750
8821		68.359375
8822		66.406250
8823		70.312500
8824		68.359375
8825		72.265625
8826		70.312500
8827		78.125000
8828		74.218750
8829		82.031250
8830		74.218750
8831		83.984375
8832		80.078125
8833		85.937500
8834		80.078125
8835		89.843750
8836		83.984375
8837		91.796875
8838		87.890625
8839		93.750000
8840		91.796875
8841		95.703125
8842		93.750000
8843		99.609375
8844		93.750000
8845		101.562500
8846		95.703125
8847		105.468750
8848		97.656250
8849		107.421875
8850		99.609375
8851		109.375000
8852		103.515625
8853		111.328125
8854		105.468750
8855		111.328125
8856		109.375000
8857		113.281250
8858		111.328125
8859		115.234375
8860		111.328125
8861		119.140625
8862		113.281250
8863		119.140625
8864		113.281250
8865		121.093750
8866		115.234375
8867		123.046875
8868		117.187500
8869		125.000000
8870		117.187500
8871		125.000000
8872		121.093750
8873		126.953125
8874		123.046875
8875		126.953125
8876		123.046875
8877		128.906250
8878		123.046875
8879		130.859375
8880		123.046875
8881		132.812500
8882		125.000000
8883		132.812500
8884		126.953125
8885		132.812500
8886		126.953125
8887		132.812500
8888		126.953125
8889		134.765625
8890		130.859375
8891		132.812500
8892		130.859375
8893		134.765625
8894		128.906250
8895		136.718750
8896		128.906250
8897		136.718750
8898		130.859375
8899		138.671875
8900		130.859375
8901		136.718750
8902		130.859375
8903		138.671875
8904		130.859375
8905		138.671875
8906		132.812500
8907		134.765625
8908		132.812500
8909		134.765625
8910		132.812500
8911		136.718750
8912		130.859375
8913		136.718750
8914		130.859375
8915		136.718750
8916		130.859375
8917		136.718750
8918		130.859375
8919		136.718750
8920		128.906250
8921		134.765625
8922		128.906250
8923		134.765625
8924		128.906250
8925		132.812500
8926		128.906250
8927		130.859375
8928		126.953125
8929		132.812500
8930		125.000000
8931		132.812500
8932		123.046875
8933		130.859375
8934		123.046875
8935		130.859375
8936		121.093750
8937		128.906250
8938		121.093750
8939		128.906250
8940		121.093750
8941		125.000000
8942		119.140625
8943		123.046875
8944		115.234375
8945		123.046875
8946		113.281250
8947		123.046875
8948		113.281250
8949		121.093750
8950		111.328125
8951		119.140625
8952		109.375000
8953		117.187500
8954		107.421875
8955		115.234375
8956		105.468750
8957		113.281250
8958		105.468750
8959		109.375000
8960		101.562500
8961		107.421875
8962		97.656250
8963		105.468750
8964		95.703125
8965		103.515625
8966		93.750000
8967		103.515625
8968		91.796875
8969		99.609375
8970		87.890625
8971		97.656250
8972		87.890625
8973		95.703125
8974		85.937500
8975		89.843750
8976		82.031250
8977		87.890625
8978		78.125000
8979		85.937500
8980		76.171875
8981		83.984375
8982		72.265625
8983		80.078125
8984		68.359375
8985		76.171875
8986		64.453125
8987		74.218750
8988		60.546875
8989		70.312500
8990		60.546875
8991		66.406250
8992		58.593750
8993		62.500000
8994		54.687500
8995		60.546875
8996		48.828125
8997		58.593750
8998		44.921875
8999		54.687500
9000		42.968750
9001		52.734375
9002		39.062500
9003		48.828125
9004		33.203125
9005		44.921875
9006		33.203125
9007		41.015625
9008		29.296875
9009		35.156250
9010		25.390625
9011		31.250000
9012		19.531250
9013		29.296875
9014		15.625000
9015		25.390625
9016		11.718750
9017		21.484375
9018		7.812500
9019		17.578125
9020		3.906250
9021		13.671875
9022		1.953125
9023		9.765625
9024		-1.953125
9025		3.906250
9026		-5.859375
9027		0.000000
9028		-11.718750
9029		-3.906250
9030		-15.625000
9031		-5.859375
9032		-19.531250
9033		-9.765625
9034		-23.437500
9035		-13.671875
9036		-27.343750
9037		-19.531250
9038		-29.296875
9039		-21.484375
9040		-33.203125
9041		-25.390625
9042		-37.109375
9043		-31.250000
9044		-42.968750
9045		-35.156250
9046		-46.875000
9047		-37.109375
9048		-50.781250
9049		-42.968750
9050		-56.640625
9051		-44.921875
9052		-58.593750
9053		-48.828125
9054		-62.500000
9055		-52.734375
9056		-64.453125
9057		-58.593750
9058		-68.359375
9059		-62.500000
9060		-72.265625
9061		-66.406250
9062		-78.125000
9063		-70.312500
9064		-82.031250
9065		-72.265625
9066		-85.937500
9067		-76.171875
9068		-87.890625
9069		-80.078125
9070		-91.796875
9071		-82.031250
9072		-95.703125
9073		-85.937500
9074		-97.656250
9075		-89.843750
9076		-99.609375
9077		-95.703125
9078		-105.468750
9079		-97.656250
9080		-109.375000
9081		-99.609375
9082		-111.328125
9083		-103.515625
9084		-115.234375
9085		-105.468750
9086		-117.187500
9087		-109.375000
9088		-121.093750
9089		-113.281250
9090		-123.046875
9091		-115.234375
9092		-125.000000
9093		-119.140625
9094		-126.953125
9095		-123.046875
9096		-130.859375
9097		-123.046875
9098		-134.765625
9099		-125.000000
9100		-136.718750
9101		-128.906250
9102		-138.671875
9103		-130.859375
9104		-142.578125
9105		-132.812500
9106		-142.578125
9107		-134.765625
9108		-142.578125
9109		-138.671875
9110		-144.531250
9111		-140.625000
9112		-148.437500
9113		-142.578125
9114		-152.343750
9115		-142.578125
9116		-152.343750
9117		-144.531250
9118		-154.296875
9119		-144.531250
9120		-154.296875
9121		-148.437500
9122		-156.250000
9123		-148.437500
9124		-156.250000
9125		-148.437500
9126		-156.250000
9127		-154.296875
9128		-158.203125
9129		-154.296875
9130		-160.156250
9131		-152.343750
9132		-160.156250
9133		-154.296875
9134		-162.109375
9135		-154.296875
9136		-162.109375
9137		-154.296875
9138		-162.109375
9139		-156.250000
9140		-162.109375
9141		-156.250000
9142		-160.156250
9143		-158.203125
9144		-160.156250
9145		-158.203125
9146		-162.109375
9147		-156.250000
9148		-162.109375
9149		-154.296875
9150		-162.109375
9151		-154.296875
9152		-160.156250
9153		-154.296875
9154		-160.156250
9155		-152.343750
9156		-160.156250
9157		-152.343750
9158		-158.203125
9159		-152.343750
9160		-156.250000
9161		-152.343750
9162		-156.250000
9163		-148.437500
9164		-154.296875
9165		-148.437500
9166		-154.296875
9167		-146.484375
9168		-152.343750
9169		-144.531250
9170		-150.390625
9171		-142.578125
9172		-148.437500
9173		-142.578125
9174		-148.437500
9175		-140.625000
9176		-142.578125
9177		-140.625000
9178		-142.578125
9179		-136.718750
9180		-140.625000
9181		-132.812500
9182		-138.671875
9183		-130.859375
9184		-136.718750
9185		-128.906250
9186		-134.765625
9187		-126.953125
9188		-130.859375
9189		-123.046875
9190		-130.859375
9191		-121.093750
9192		-125.000000
9193		-119.140625
9194		-121.093750
9195		-117.187500
9196		-119.140625
9197		-111.328125
9198		-117.187500
9199		-109.375000
9200		-115.234375
9201		-105.468750
9202		-111.328125
9203		-103.515625
9204		-109.375000
9205		-99.609375
9206		-105.468750
9207		-95.703125
9208		-101.562500
9209		-93.750000
9210		-95.703125
9211		-89.843750
9212		-91.796875
9213		-85.937500
9214		-89.843750
9215		-82.031250
9216		-87.890625
9217		-78.125000
9218		-82.031250
9219		-74.218750
9220		-80.078125
9221		-70.312500
9222		-76.171875
9223		-68.359375
9224		-72.265625
9225		-62.500000
9226		-66.406250
9227		-60.546875
9228		-62.500000
9229		-56.640625
9230		-60.546875
9231		-50.781250
9232		-56.640625
9233		-46.875000
9234		-52.734375
9235		-42.968750
9236		-48.828125
9237		-39.062500
9238		-44.921875
9239		-35.156250
9240		-41.015625
9241		-31.250000
9242		-37.109375
9243		-29.296875
9244		-31.250000
9245		-25.390625
9246		-27.343750
9247		-19.531250
9248		-23.437500
9249		-13.671875
9250		-19.531250
9251		-11.718750
9252		-17.578125
9253		-7.812500
9254		-11.718750
9255		-1.953125
9256		-7.812500
9257		1.953125
9258		-3.906250
9259		3.906250
9260		0.000000
9261		7.812500
9262		5.859375
9263		11.718750
9264		7.812500
9265		17.578125
9266		11.718750
9267		19.531250
9268		15.625000
9269		23.437500
9270		17.578125
9271		29.296875
9272		23.437500
9273		31.250000
9274		27.343750
9275		35.156250
9276		29.296875
9277		37.109375
9278		35.156250
9279		41.015625
9280		39.062500
9281		46.875000
9282		39.062500
9283		50.781250
9284		44.921875
9285		52.734375
9286		46.875000
9287		56.640625
9288		50.781250
9289		60.546875
9290		54.687500
9291		62.500000
9292		58.593750
9293		64.453125
9294		62.500000
9295		66.406250
9296		66.406250
9297		72.265625
9298		68.359375
9299		74.218750
9300		70.312500
9301		78.125000
9302		74.218750
9303		82.031250
9304		76.171875
9305		83.984375
9306		78.125000
9307		85.937500
9308		82.031250
9309		89.843750
9310		83.984375
9311		89.843750
9312		87.890625
9313		93.750000
9314		89.843750
9315		95.703125
9316		91.796875
9317		99.609375
9318		93.750000
9319		103.515625
9320		95.703125
9321		105.468750
9322		99.609375
9323		105.468750
9324		99.609375
9325		109.375000
9326		103.515625
9327		109.375000
9328		107.421875
9329		111.328125
9330		109.375000
9331		115.234375
9332		107.421875
9333		117.187500
9334		111.328125
9335		119.140625
9336		113.281250
9337		121.093750
9338		113.281250
9339		121.093750
9340		115.234375
9341		123.046875
9342		117.187500
9343		123.046875
9344		121.093750
9345		123.046875
9346		121.093750
9347		125.000000
9348		121.093750
9349		128.906250
9350		123.046875
9351		130.859375
9352		123.046875
9353		130.859375
9354		125.000000
9355		130.859375
9356		125.000000
9357		132.812500
9358		125.000000
9359		132.812500
9360		126.953125
9361		132.812500
9362		130.859375
9363		132.812500
9364		128.906250
9365		136.718750
9366		128.906250
9367		136.718750
9368		128.906250
9369		136.718750
9370		128.906250
9371		136.718750
9372		128.906250
9373		136.718750
9374		130.859375
9375		138.671875
9376		130.859375
9377		136.718750
9378		132.812500
9379		134.765625
9380		130.859375
9381		136.718750
9382		130.859375
9383		136.718750
9384		128.906250
9385		138.671875
9386		128.906250
9387		136.718750
9388		128.906250
9389		136.718750
9390		128.906250
9391		136.718750
9392		128.906250
9393		136.718750
9394		128.906250
9395		134.765625
9396		130.859375
9397		132.812500
9398		126.953125
9399		134.765625
9400		126.953125
9401		132.812500
9402		125.000000
9403		132.812500
9404		125.000000
9405		130.859375
9406		123.046875
9407		130.859375
9408		123.046875
9409		128.906250
9410		123.046875
9411		128.906250
9412		121.093750
9413		125.000000
9414		119.140625
9415		125.000000
9416		117.187500
9417		125.000000
9418		115.234375
9419		123.046875
9420		113.281250
9421		123.046875
9422		111.328125
9423		119.140625
9424		109.375000
9425		117.187500
9426		109.375000
9427		115.234375
9428		109.375000
9429		111.328125
9430		107.421875
9431		109.375000
9432		101.562500
9433		109.375000
9434		99.609375
9435		107.421875
9436		97.656250
9437		107.421875
9438		95.703125
9439		103.515625
9440		93.750000
9441		101.562500
9442		89.843750
9443		97.656250
9444		89.843750
9445		97.656250
9446		87.890625
9447		91.796875
9448		82.031250
9449		89.843750
9450		80.078125
9451		87.890625
9452		76.171875
9453		83.984375
9454		74.218750
9455		82.031250
9456		70.312500
9457		80.078125
9458		68.359375
9459		78.125000
9460		64.453125
9461		72.265625
9462		62.500000
9463		68.359375
9464		58.593750
9465		64.453125
9466		54.687500
9467		64.453125
9468		50.781250
9469		60.546875
9470		46.875000
9471		56.640625
9472		42.968750
9473		52.734375
9474		41.015625
9475		50.781250
9476		37.109375
9477		44.921875
9478		35.156250
9479		41.015625
9480		31.250000
9481		37.109375
9482		25.390625
9483		33.203125
9484		21.484375
9485		31.250000
9486		19.531250
9487		29.296875
9488		15.625000
9489		23.437500
9490		11.718750
9491		21.484375
9492		7.812500
9493		17.578125
9494		5.859375
9495		11.718750
9496		1.953125
9497		5.859375
9498		-5.859375
9499		1.953125
9500		-9.765625
9501		0.000000
9502		-13.671875
9503		-3.906250
9504		-15.625000
9505		-5.859375
9506		-19.531250
9507		-11.718750
9508		-23.437500
9509		-15.625000
9510		-27.343750
9511		-19.531250
9512		-31.250000
9513		-25.390625
9514		-35.156250
9515		-29.296875
9516		-41.015625
9517		-33.203125
9518		-44.921875
9519		-35.156250
9520		-50.781250
9521		-39.062500
9522		-52.734375
9523		-42.968750
9524		-54.687500
9525		-48.828125
9526		-60.546875
9527		-50.781250
9528		-62.500000
9529		-54.687500
9530		-66.406250
9531		-60.546875
9532		-72.265625
9533		-64.453125
9534		-74.218750
9535		-66.406250
9536		-78.125000
9537		-70.312500
9538		-83.984375
9539		-74.218750
9540		-85.937500
9541		-78.125000
9542		-89.843750
9543		-82.031250
9544		-91.796875
9545		-83.984375
9546		-93.750000
9547		-89.843750
9548		-97.656250
9549		-93.750000
9550		-103.515625
9551		-93.750000
9552		-105.468750
9553		-99.609375
9554		-109.375000
9555		-101.562500
9556		-113.281250
9557		-103.515625
9558		-117.187500
9559		-107.421875
9560		-119.140625
9561		-109.375000
9562		-119.140625
9563		-115.234375
9564		-123.046875
9565		-119.140625
9566		-128.906250
9567		-121.093750
9568		-130.859375
9569		-123.046875
9570		-132.812500
9571		-125.000000
9572		-134.765625
9573		-126.953125
9574		-136.718750
9575		-128.906250
9576		-140.625000
9577		-130.859375
9578		-142.578125
9579		-134.765625
9580		-142.578125
9581		-138.671875
9582		-146.484375
9583		-140.625000
9584		-148.437500
9585		-140.625000
9586		-150.390625
9587		-142.578125
9588		-150.390625
9589		-142.578125
9590		-152.343750
9591		-146.484375
9592		-154.296875
9593		-146.484375
9594		-156.250000
9595		-148.437500
9596		-154.296875
9597		-152.343750
9598		-156.250000
9599		-152.343750
9600		-160.156250
9601		-152.343750
9602		-160.156250
9603		-152.343750
9604		-162.109375
9605		-154.296875
9606		-162.109375
9607		-154.296875
9608		-162.109375
9609		-154.296875
9610		-162.109375
9611		-154.296875
9612		-162.109375
9613		-154.296875
9614		-160.156250
9615		-158.203125
9616		-162.109375
9617		-156.250000
9618		-162.109375
9619		-156.250000
9620		-162.109375
9621		-156.250000
9622		-162.109375
9623		-154.296875
9624		-162.109375
9625		-154.296875
9626		-162.109375
9627		-154.296875
9628		-160.156250
9629		-154.296875
9630		-158.203125
9631		-154.296875
9632		-156.250000
9633		-154.296875
9634		-158.203125
9635		-150.390625
9636		-156.250000
9637		-150.390625
9638		-156.250000
9639		-148.437500
9640		-154.296875
9641		-146.484375
9642		-152.343750
9643		-146.484375
9644		-152.343750
9645		-144.531250
9646		-148.437500
9647		-144.531250
9648		-144.531250
9649		-142.578125
9650		-144.531250
9651		-136.718750
9652		-142.578125
9653		-136.718750
9654		-142.578125
9655		-132.812500
9656		-138.671875
9657		-130.859375
9658		-136.718750
9659		-128.906250
9660		-134.765625
9661		-126.953125
9662		-132.812500
9663		-125.000000
9664		-126.953125
9665		-123.046875
9666		-125.000000
9667		-117.187500
9668		-123.046875
9669		-113.281250
9670		-121.093750
9671		-111.328125
9672		-117.187500
9673		-109.375000
9674		-115.234375
9675		-105.468750
9676		-111.328125
9677		-101.562500
9678		-107.421875
9679		-97.656250
9680		-101.562500
9681		-97.656250
9682		-99.609375
9683		-93.750000
9684		-97.656250
9685		-87.890625
9686		-93.750000
9687		-83.984375
9688		-89.843750
9689		-82.031250
9690		-85.937500
9691		-78.125000
9692		-83.984375
9693		-74.218750
9694		-80.078125
9695		-70.312500
9696		-74.218750
9697		-68.359375
9698		-70.312500
9699		-64.453125
9700		-66.406250
9701		-58.593750
9702		-64.453125
9703		-54.687500
9704		-58.593750
9705		-50.781250
9706		-54.687500
9707		-46.875000
9708		-50.781250
9709		-42.968750
9710		-48.828125
9711		-39.062500
9712		-44.921875
9713		-35.156250
9714		-37.109375
9715		-33.203125
9716		-33.203125
9717		-27.343750
9718		-31.250000
9719		-23.437500
9720		-29.296875
9721		-17.578125
9722		-23.437500
9723		-13.671875
9724		-19.531250
9725		-9.765625
9726		-15.625000
9727		-5.859375
9728		-11.718750
9729		-1.953125
9730		-5.859375
9731		0.000000
9732		-1.953125
9733		3.906250
9734		1.953125
9735		9.765625
9736		3.906250
9737		13.671875
9738		7.812500
9739		17.578125
9740		11.718750
9741		21.484375
9742		15.625000
9743		25.390625
9744		19.531250
9745		27.343750
9746		21.484375
9747		31.250000
9748		29.296875
9749		35.156250
9750		33.203125
9751		39.062500
9752		35.156250
9753		42.968750
9754		37.109375
9755		46.875000
9756		41.015625
9757		50.781250
9758		44.921875
9759		52.734375
9760		48.828125
9761		56.640625
9762		50.781250
9763		60.546875
9764		56.640625
9765		62.500000
9766		60.546875
9767		64.453125
9768		62.500000
9769		70.312500
9770		64.453125
9771		74.218750
9772		66.406250
9773		76.171875
9774		70.312500
9775		78.125000
9776		72.265625
9777		82.031250
9778		76.171875
9779		83.984375
9780		80.078125
9781		85.937500
9782		83.984375
9783		87.890625
9784		85.937500
9785		91.796875
9786		85.937500
9787		95.703125
9788		89.843750
9789		97.656250
9790		91.796875
9791		99.609375
9792		93.750000
9793		103.515625
9794		95.703125
9795		105.468750
9796		99.609375
9797		105.468750
9798		103.515625
9799		107.421875
9800		105.468750
9801		109.375000
9802		105.468750
9803		113.281250
9804		107.421875
9805		115.234375
9806		109.375000
9807		117.187500
9808		111.328125
9809		119.140625
9810		111.328125
9811		121.093750
9812		113.281250
9813		121.093750
9814		115.234375
9815		123.046875
9816		119.140625
9817		123.046875
9818		119.140625
9819		126.953125
9820		119.140625
9821		128.906250
9822		121.093750
9823		128.906250
9824		123.046875
9825		130.859375
9826		123.046875
9827		130.859375
9828		125.000000
9829		132.812500
9830		125.000000
9831		132.812500
9832		128.906250
9833		130.859375
9834		128.906250
9835		132.812500
9836		126.953125
9837		134.765625
9838		126.953125
9839		134.765625
9840		128.906250
9841		134.765625
9842		128.906250
9843		136.718750
9844		128.906250
9845		136.718750
9846		130.859375
9847		136.718750
9848		132.812500
9849		134.765625
9850		132.812500
9851		136.718750
9852		130.859375
9853		136.718750
9854		130.859375
9855		136.718750
9856		130.859375
9857		138.671875
9858		130.859375
9859		136.718750
9860		130.859375
9861		136.718750
9862		128.906250
9863		136.718750
9864		130.859375
9865		134.765625
9866		130.859375
9867		132.812500
9868		128.906250
9869		134.765625
9870		126.953125
9871		134.765625
9872		126.953125
9873		134.765625
9874		125.000000
9875		132.812500
9876		125.000000
9877		132.812500
9878		123.046875
9879		130.859375
9880		123.046875
9881		130.859375
9882		125.000000
9883		126.953125
9884		123.046875
9885		126.953125
9886		119.140625
9887		126.953125
9888		117.187500
9889		125.000000
9890		117.187500
9891		123.046875
9892		115.234375
9893		123.046875
9894		111.328125
9895		121.093750
9896		111.328125
9897		119.140625
9898		111.328125
9899		117.187500
9900		109.375000
9901		113.281250
9902		105.468750
9903		111.328125
9904		103.515625
9905		111.328125
9906		101.562500
9907		109.375000
9908		99.609375
9909		107.421875
9910		95.703125
9911		103.515625
9912		93.750000
9913		103.515625
9914		93.750000
9915		99.609375
9916		91.796875
9917		95.703125
9918		85.937500
9919		93.750000
9920		83.984375
9921		91.796875
9922		80.078125
9923		89.843750
9924		78.125000
9925		87.890625
9926		76.171875
9927		83.984375
9928		72.265625
9929		82.031250
9930		70.312500
9931		78.125000
9932		68.359375
9933		74.218750
9934		66.406250
9935		70.312500
9936		60.546875
9937		68.359375
9938		58.593750
9939		66.406250
9940		52.734375
9941		62.500000
9942		50.781250
9943		58.593750
9944		46.875000
9945		56.640625
9946		44.921875
9947		50.781250
9948		41.015625
9949		48.828125
9950		39.062500
9951		42.968750
9952		31.250000
9953		39.062500
9954		29.296875
9955		39.062500
9956		25.390625
9957		33.203125
9958		21.484375
9959		31.250000
9960		17.578125
9961		27.343750
9962		13.671875
9963		23.437500
9964		9.765625
9965		17.578125
9966		7.812500
9967		13.671875
9968		3.906250
9969		9.765625
9970		-1.953125
9971		5.859375
9972		-5.859375
9973		1.953125
9974		-11.718750
9975		-1.953125
9976		-13.671875
9977		-5.859375
9978		-17.578125
9979		-7.812500
9980		-21.484375
9981		-13.671875
9982		-23.437500
9983		-15.625000
9984		-27.343750
9985		-21.484375
9986		-35.156250
9987		-27.343750
9988		-37.109375
9989		-27.343750
9990		-41.015625
9991		-31.250000
9992		-44.921875
9993		-37.109375
9994		-50.781250
9995		-41.015625
9996		-52.734375
9997		-44.921875
9998		-54.687500
9999		-48.828125
10000		-58.593750
