Channel              :		CH1
Frequency            :		1.055kHz
Period               :		0.948ms
PK-PK                :		259.8mV
Probe attenuation    :		1X
Voltage per ADC value:		0.122070mV
Time interval        :		2.00000us

index		CH1_Voltage(mV)
1		33.203125
2		33.203125
3		25.390625
4		31.250000
5		23.437500
6		27.343750
7		19.531250
8		23.437500
9		15.625000
10		21.484375
11		13.671875
12		17.578125
13		9.765625
14		13.671875
15		5.859375
16		11.718750
17		3.906250
18		7.812500
19		0.000000
20		5.859375
21		-3.906250
22		1.953125
23		-7.812500
24		-1.953125
25		-9.765625
26		-3.906250
27		-13.671875
28		-7.812500
29		-17.578125
30		-11.718750
31		-19.531250
32		-15.625000
33		-23.437500
34		-19.531250
35		-27.343750
36		-21.484375
37		-29.296875
38		-25.390625
39		-33.203125
40		-27.343750
41		-37.109375
42		-33.203125
43		-41.015625
44		-35.156250
45		-42.968750
46		-39.062500
47		-46.875000
48		-42.968750
49		-50.781250
50		-44.921875
51		-52.734375
52		-48.828125
53		-56.640625
54		-52.734375
55		-60.546875
56		-54.687500
57		-62.500000
58		-58.593750
59		-66.406250
60		-60.546875
61		-70.312500
62		-64.453125
63		-72.265625
64		-68.359375
65		-74.218750
66		-70.312500
67		-78.125000
68		-74.218750
69		-80.078125
70		-76.171875
71		-83.984375
72		-78.125000
73		-85.937500
74		-82.031250
75		-89.843750
76		-83.984375
77		-91.796875
78		-87.890625
79		-93.750000
80		-89.843750
81		-97.656250
82		-91.796875
83		-99.609375
84		-95.703125
85		-101.562500
86		-97.656250
87		-105.468750
88		-99.609375
89		-105.468750
90		-101.562500
91		-109.375000
92		-103.515625
93		-111.328125
94		-107.421875
95		-113.281250
96		-109.375000
97		-115.234375
98		-111.328125
99		-117.187500
100		-113.281250
101		-119.140625
102		-113.281250
103		-121.093750
104		-117.187500
105		-123.046875
106		-119.140625
107		-123.046875
108		-121.093750
109		-125.000000
110		-121.093750
111		-126.953125
112		-123.046875
113		-126.953125
114		-123.046875
115		-128.906250
116		-126.953125
117		-130.859375
118		-126.953125
119		-130.859375
120		-126.953125
121		-132.812500
122		-128.906250
123		-132.812500
124		-128.906250
125		-134.765625
126		-130.859375
127		-134.765625
128		-130.859375
129		-136.718750
130		-130.859375
131		-134.765625
132		-132.812500
133		-134.765625
134		-132.812500
135		-136.718750
136		-132.812500
137		-136.718750
138		-132.812500
139		-136.718750
140		-132.812500
141		-136.718750
142		-132.812500
143		-136.718750
144		-132.812500
145		-136.718750
146		-130.859375
147		-134.765625
148		-132.812500
149		-134.765625
150		-130.859375
151		-134.765625
152		-130.859375
153		-132.812500
154		-130.859375
155		-132.812500
156		-128.906250
157		-130.859375
158		-128.906250
159		-130.859375
160		-126.953125
161		-130.859375
162		-126.953125
163		-128.906250
164		-125.000000
165		-126.953125
166		-125.000000
167		-126.953125
168		-123.046875
169		-125.000000
170		-121.093750
171		-123.046875
172		-119.140625
173		-123.046875
174		-117.187500
175		-119.140625
176		-115.234375
177		-119.140625
178		-115.234375
179		-117.187500
180		-111.328125
181		-113.281250
182		-111.328125
183		-111.328125
184		-107.421875
185		-111.328125
186		-105.468750
187		-109.375000
188		-103.515625
189		-105.468750
190		-101.562500
191		-103.515625
192		-99.609375
193		-101.562500
194		-97.656250
195		-99.609375
196		-95.703125
197		-97.656250
198		-91.796875
199		-93.750000
200		-89.843750
201		-91.796875
202		-85.937500
203		-87.890625
204		-83.984375
205		-85.937500
206		-80.078125
207		-83.984375
208		-78.125000
209		-80.078125
210		-76.171875
211		-78.125000
212		-72.265625
213		-74.218750
214		-70.312500
215		-70.312500
216		-66.406250
217		-68.359375
218		-62.500000
219		-64.453125
220		-58.593750
221		-60.546875
222		-56.640625
223		-58.593750
224		-52.734375
225		-54.687500
226		-50.781250
227		-52.734375
228		-46.875000
229		-48.828125
230		-42.968750
231		-44.921875
232		-41.015625
233		-41.015625
234		-37.109375
235		-39.062500
236		-33.203125
237		-35.156250
238		-29.296875
239		-31.250000
240		-27.343750
241		-29.296875
242		-23.437500
243		-25.390625
244		-19.531250
245		-21.484375
246		-17.578125
247		-19.531250
248		-13.671875
249		-15.625000
250		-9.765625
251		-11.718750
252		-5.859375
253		-7.812500
254		-3.906250
255		-5.859375
256		0.000000
257		-1.953125
258		3.906250
259		0.000000
260		5.859375
261		5.859375
262		9.765625
263		7.812500
264		13.671875
265		11.718750
266		15.625000
267		13.671875
268		19.531250
269		17.578125
270		23.437500
271		19.531250
272		25.390625
273		23.437500
274		29.296875
275		27.343750
276		31.250000
277		31.250000
278		35.156250
279		33.203125
280		39.062500
281		35.156250
282		41.015625
283		39.062500
284		42.968750
285		42.968750
286		46.875000
287		44.921875
288		50.781250
289		48.828125
290		52.734375
291		48.828125
292		56.640625
293		52.734375
294		56.640625
295		56.640625
296		60.546875
297		58.593750
298		62.500000
299		60.546875
300		64.453125
301		64.453125
302		68.359375
303		64.453125
304		70.312500
305		68.359375
306		72.265625
307		70.312500
308		74.218750
309		74.218750
310		76.171875
311		74.218750
312		80.078125
313		78.125000
314		82.031250
315		80.078125
316		83.984375
317		82.031250
318		85.937500
319		82.031250
320		87.890625
321		85.937500
322		89.843750
323		87.890625
324		91.796875
325		89.843750
326		93.750000
327		91.796875
328		95.703125
329		91.796875
330		97.656250
331		93.750000
332		97.656250
333		95.703125
334		99.609375
335		97.656250
336		101.562500
337		97.656250
338		101.562500
339		99.609375
340		103.515625
341		101.562500
342		105.468750
343		101.562500
344		107.421875
345		103.515625
346		107.421875
347		103.515625
348		107.421875
349		105.468750
350		109.375000
351		107.421875
352		109.375000
353		107.421875
354		111.328125
355		107.421875
356		111.328125
357		109.375000
358		111.328125
359		109.375000
360		113.281250
361		109.375000
362		113.281250
363		111.328125
364		113.281250
365		111.328125
366		115.234375
367		111.328125
368		115.234375
369		111.328125
370		115.234375
371		111.328125
372		117.187500
373		111.328125
374		115.234375
375		113.281250
376		115.234375
377		111.328125
378		115.234375
379		111.328125
380		115.234375
381		113.281250
382		115.234375
383		111.328125
384		115.234375
385		111.328125
386		115.234375
387		111.328125
388		115.234375
389		111.328125
390		115.234375
391		111.328125
392		113.281250
393		109.375000
394		113.281250
395		109.375000
396		113.281250
397		107.421875
398		111.328125
399		109.375000
400		111.328125
401		107.421875
402		109.375000
403		105.468750
404		111.328125
405		105.468750
406		109.375000
407		103.515625
408		107.421875
409		101.562500
410		105.468750
411		101.562500
412		105.468750
413		101.562500
414		103.515625
415		99.609375
416		103.515625
417		97.656250
418		101.562500
419		95.703125
420		99.609375
421		93.750000
422		99.609375
423		93.750000
424		97.656250
425		91.796875
426		95.703125
427		89.843750
428		95.703125
429		87.890625
430		91.796875
431		85.937500
432		89.843750
433		83.984375
434		87.890625
435		82.031250
436		85.937500
437		80.078125
438		83.984375
439		78.125000
440		82.031250
441		74.218750
442		80.078125
443		72.265625
444		78.125000
445		72.265625
446		74.218750
447		68.359375
448		72.265625
449		66.406250
450		72.265625
451		64.453125
452		68.359375
453		60.546875
454		66.406250
455		58.593750
456		62.500000
457		56.640625
458		60.546875
459		52.734375
460		58.593750
461		50.781250
462		54.687500
463		46.875000
464		52.734375
465		44.921875
466		48.828125
467		42.968750
468		46.875000
469		37.109375
470		42.968750
471		35.156250
472		41.015625
473		29.296875
474		37.109375
475		29.296875
476		35.156250
477		25.390625
478		31.250000
479		23.437500
480		29.296875
481		19.531250
482		25.390625
483		17.578125
484		21.484375
485		13.671875
486		19.531250
487		9.765625
488		15.625000
489		7.812500
490		13.671875
491		1.953125
492		9.765625
493		0.000000
494		7.812500
495		-3.906250
496		3.906250
497		-7.812500
498		0.000000
499		-9.765625
500		-3.906250
501		-11.718750
502		-7.812500
503		-19.531250
504		-11.718750
505		-21.484375
506		-11.718750
507		-25.390625
508		-15.625000
509		-27.343750
510		-17.578125
511		-31.250000
512		-23.437500
513		-33.203125
514		-25.390625
515		-37.109375
516		-27.343750
517		-39.062500
518		-35.156250
519		-42.968750
520		-37.109375
521		-46.875000
522		-39.062500
523		-50.781250
524		-42.968750
525		-54.687500
526		-44.921875
527		-56.640625
528		-48.828125
529		-60.546875
530		-50.781250
531		-62.500000
532		-56.640625
533		-64.453125
534		-60.546875
535		-68.359375
536		-64.453125
537		-72.265625
538		-66.406250
539		-76.171875
540		-66.406250
541		-80.078125
542		-70.312500
543		-82.031250
544		-74.218750
545		-83.984375
546		-76.171875
547		-87.890625
548		-78.125000
549		-89.843750
550		-82.031250
551		-91.796875
552		-87.890625
553		-93.750000
554		-89.843750
555		-97.656250
556		-89.843750
557		-101.562500
558		-93.750000
559		-103.515625
560		-95.703125
561		-105.468750
562		-97.656250
563		-107.421875
564		-99.609375
565		-109.375000
566		-103.515625
567		-109.375000
568		-105.468750
569		-113.281250
570		-109.375000
571		-117.187500
572		-109.375000
573		-119.140625
574		-109.375000
575		-121.093750
576		-111.328125
577		-123.046875
578		-115.234375
579		-125.000000
580		-115.234375
581		-125.000000
582		-117.187500
583		-125.000000
584		-119.140625
585		-125.000000
586		-123.046875
587		-128.906250
588		-123.046875
589		-130.859375
590		-123.046875
591		-132.812500
592		-123.046875
593		-132.812500
594		-125.000000
595		-132.812500
596		-125.000000
597		-134.765625
598		-126.953125
599		-134.765625
600		-126.953125
601		-132.812500
602		-130.859375
603		-134.765625
604		-130.859375
605		-136.718750
606		-128.906250
607		-138.671875
608		-130.859375
609		-138.671875
610		-130.859375
611		-136.718750
612		-130.859375
613		-136.718750
614		-130.859375
615		-138.671875
616		-130.859375
617		-136.718750
618		-130.859375
619		-134.765625
620		-132.812500
621		-136.718750
622		-130.859375
623		-136.718750
624		-128.906250
625		-136.718750
626		-128.906250
627		-134.765625
628		-128.906250
629		-134.765625
630		-126.953125
631		-134.765625
632		-126.953125
633		-132.812500
634		-126.953125
635		-128.906250
636		-126.953125
637		-128.906250
638		-125.000000
639		-128.906250
640		-121.093750
641		-128.906250
642		-121.093750
643		-126.953125
644		-119.140625
645		-126.953125
646		-117.187500
647		-125.000000
648		-117.187500
649		-121.093750
650		-115.234375
651		-119.140625
652		-115.234375
653		-117.187500
654		-113.281250
655		-117.187500
656		-109.375000
657		-115.234375
658		-107.421875
659		-113.281250
660		-103.515625
661		-111.328125
662		-101.562500
663		-107.421875
664		-99.609375
665		-107.421875
666		-97.656250
667		-103.515625
668		-97.656250
669		-99.609375
670		-95.703125
671		-97.656250
672		-89.843750
673		-95.703125
674		-87.890625
675		-93.750000
676		-83.984375
677		-89.843750
678		-82.031250
679		-87.890625
680		-80.078125
681		-85.937500
682		-76.171875
683		-82.031250
684		-74.218750
685		-76.171875
686		-72.265625
687		-74.218750
688		-70.312500
689		-72.265625
690		-64.453125
691		-72.265625
692		-60.546875
693		-68.359375
694		-56.640625
695		-64.453125
696		-54.687500
697		-62.500000
698		-52.734375
699		-58.593750
700		-46.875000
701		-52.734375
702		-46.875000
703		-48.828125
704		-44.921875
705		-44.921875
706		-39.062500
707		-44.921875
708		-35.156250
709		-41.015625
710		-31.250000
711		-39.062500
712		-29.296875
713		-33.203125
714		-25.390625
715		-31.250000
716		-21.484375
717		-27.343750
718		-19.531250
719		-21.484375
720		-17.578125
721		-17.578125
722		-13.671875
723		-17.578125
724		-7.812500
725		-13.671875
726		-3.906250
727		-11.718750
728		-1.953125
729		-7.812500
730		1.953125
731		-3.906250
732		3.906250
733		0.000000
734		7.812500
735		3.906250
736		9.765625
737		7.812500
738		13.671875
739		9.765625
740		17.578125
741		11.718750
742		21.484375
743		15.625000
744		23.437500
745		17.578125
746		27.343750
747		21.484375
748		31.250000
749		25.390625
750		33.203125
751		27.343750
752		35.156250
753		33.203125
754		37.109375
755		35.156250
756		42.968750
757		37.109375
758		44.921875
759		39.062500
760		48.828125
761		42.968750
762		50.781250
763		44.921875
764		54.687500
765		46.875000
766		56.640625
767		50.781250
768		58.593750
769		54.687500
770		60.546875
771		58.593750
772		62.500000
773		58.593750
774		66.406250
775		60.546875
776		70.312500
777		62.500000
778		72.265625
779		66.406250
780		74.218750
781		68.359375
782		76.171875
783		70.312500
784		80.078125
785		74.218750
786		78.125000
787		78.125000
788		80.078125
789		78.125000
790		85.937500
791		78.125000
792		87.890625
793		82.031250
794		89.843750
795		82.031250
796		91.796875
797		83.984375
798		93.750000
799		85.937500
800		95.703125
801		87.890625
802		95.703125
803		91.796875
804		95.703125
805		93.750000
806		97.656250
807		91.796875
808		101.562500
809		95.703125
810		101.562500
811		95.703125
812		103.515625
813		97.656250
814		105.468750
815		97.656250
816		105.468750
817		99.609375
818		107.421875
819		101.562500
820		105.468750
821		103.515625
822		107.421875
823		103.515625
824		109.375000
825		103.515625
826		111.328125
827		103.515625
828		113.281250
829		105.468750
830		113.281250
831		105.468750
832		113.281250
833		107.421875
834		115.234375
835		107.421875
836		113.281250
837		109.375000
838		113.281250
839		111.328125
840		115.234375
841		109.375000
842		115.234375
843		109.375000
844		115.234375
845		109.375000
846		115.234375
847		109.375000
848		115.234375
849		109.375000
850		115.234375
851		109.375000
852		115.234375
853		111.328125
854		113.281250
855		111.328125
856		113.281250
857		109.375000
858		117.187500
859		107.421875
860		115.234375
861		107.421875
862		115.234375
863		107.421875
864		115.234375
865		107.421875
866		115.234375
867		107.421875
868		113.281250
869		107.421875
870		113.281250
871		107.421875
872		111.328125
873		105.468750
874		111.328125
875		103.515625
876		111.328125
877		103.515625
878		111.328125
879		101.562500
880		109.375000
881		101.562500
882		107.421875
883		99.609375
884		107.421875
885		99.609375
886		105.468750
887		99.609375
888		101.562500
889		97.656250
890		101.562500
891		93.750000
892		101.562500
893		91.796875
894		101.562500
895		91.796875
896		99.609375
897		89.843750
898		97.656250
899		87.890625
900		95.703125
901		85.937500
902		93.750000
903		85.937500
904		91.796875
905		83.984375
906		87.890625
907		80.078125
908		87.890625
909		78.125000
910		85.937500
911		76.171875
912		85.937500
913		74.218750
914		82.031250
915		72.265625
916		80.078125
917		70.312500
918		78.125000
919		68.359375
920		76.171875
921		68.359375
922		70.312500
923		62.500000
924		68.359375
925		60.546875
926		68.359375
927		56.640625
928		66.406250
929		54.687500
930		62.500000
931		52.734375
932		60.546875
933		48.828125
934		58.593750
935		46.875000
936		54.687500
937		44.921875
938		50.781250
939		42.968750
940		46.875000
941		37.109375
942		44.921875
943		35.156250
944		44.921875
945		31.250000
946		41.015625
947		29.296875
948		37.109375
949		23.437500
950		35.156250
951		23.437500
952		29.296875
953		21.484375
954		27.343750
955		17.578125
956		23.437500
957		11.718750
958		19.531250
959		9.765625
960		17.578125
961		7.812500
962		15.625000
963		3.906250
964		11.718750
965		0.000000
966		9.765625
967		-3.906250
968		3.906250
969		-5.859375
970		1.953125
971		-7.812500
972		-3.906250
973		-11.718750
974		-5.859375
975		-17.578125
976		-7.812500
977		-19.531250
978		-9.765625
979		-23.437500
980		-13.671875
981		-27.343750
982		-19.531250
983		-29.296875
984		-21.484375
985		-33.203125
986		-25.390625
987		-35.156250
988		-29.296875
989		-39.062500
990		-33.203125
991		-42.968750
992		-35.156250
993		-46.875000
994		-37.109375
995		-50.781250
996		-41.015625
997		-52.734375
998		-44.921875
999		-56.640625
1000		-48.828125
1001		-60.546875
1002		-50.781250
1003		-62.500000
1004		-54.687500
1005		-64.453125
1006		-58.593750
1007		-68.359375
1008		-62.500000
1009		-72.265625
1010		-62.500000
1011		-76.171875
1012		-66.406250
1013		-78.125000
1014		-70.312500
1015		-82.031250
1016		-72.265625
1017		-83.984375
1018		-76.171875
1019		-85.937500
1020		-78.125000
1021		-87.890625
1022		-83.984375
1023		-89.843750
1024		-85.937500
1025		-95.703125
1026		-87.890625
1027		-97.656250
1028		-89.843750
1029		-99.609375
1030		-91.796875
1031		-103.515625
1032		-93.750000
1033		-105.468750
1034		-97.656250
1035		-107.421875
1036		-99.609375
1037		-107.421875
1038		-101.562500
1039		-109.375000
1040		-105.468750
1041		-115.234375
1042		-107.421875
1043		-115.234375
1044		-107.421875
1045		-117.187500
1046		-109.375000
1047		-119.140625
1048		-111.328125
1049		-121.093750
1050		-113.281250
1051		-123.046875
1052		-115.234375
1053		-125.000000
1054		-117.187500
1055		-125.000000
1056		-121.093750
1057		-126.953125
1058		-123.046875
1059		-130.859375
1060		-121.093750
1061		-130.859375
1062		-123.046875
1063		-132.812500
1064		-125.000000
1065		-132.812500
1066		-125.000000
1067		-134.765625
1068		-126.953125
1069		-136.718750
1070		-126.953125
1071		-134.765625
1072		-130.859375
1073		-134.765625
1074		-132.812500
1075		-136.718750
1076		-130.859375
1077		-134.765625
1078		-132.812500
1079		-136.718750
1080		-132.812500
1081		-136.718750
1082		-132.812500
1083		-136.718750
1084		-134.765625
1085		-138.671875
1086		-130.859375
1087		-138.671875
1088		-132.812500
1089		-136.718750
1090		-132.812500
1091		-136.718750
1092		-132.812500
1093		-138.671875
1094		-130.859375
1095		-134.765625
1096		-132.812500
1097		-134.765625
1098		-132.812500
1099		-134.765625
1100		-132.812500
1101		-136.718750
1102		-128.906250
1103		-136.718750
1104		-128.906250
1105		-132.812500
1106		-130.859375
1107		-130.859375
1108		-128.906250
1109		-132.812500
1110		-125.000000
1111		-128.906250
1112		-126.953125
1113		-128.906250
1114		-125.000000
1115		-126.953125
1116		-123.046875
1117		-125.000000
1118		-121.093750
1119		-126.953125
1120		-119.140625
1121		-125.000000
1122		-119.140625
1123		-121.093750
1124		-117.187500
1125		-119.140625
1126		-113.281250
1127		-117.187500
1128		-113.281250
1129		-115.234375
1130		-111.328125
1131		-113.281250
1132		-109.375000
1133		-111.328125
1134		-105.468750
1135		-109.375000
1136		-103.515625
1137		-109.375000
1138		-101.562500
1139		-103.515625
1140		-99.609375
1141		-101.562500
1142		-97.656250
1143		-99.609375
1144		-95.703125
1145		-95.703125
1146		-91.796875
1147		-93.750000
1148		-89.843750
1149		-91.796875
1150		-87.890625
1151		-87.890625
1152		-82.031250
1153		-87.890625
1154		-78.125000
1155		-82.031250
1156		-78.125000
1157		-80.078125
1158		-76.171875
1159		-78.125000
1160		-70.312500
1161		-74.218750
1162		-70.312500
1163		-70.312500
1164		-66.406250
1165		-68.359375
1166		-62.500000
1167		-64.453125
1168		-60.546875
1169		-62.500000
1170		-54.687500
1171		-60.546875
1172		-52.734375
1173		-54.687500
1174		-50.781250
1175		-50.781250
1176		-46.875000
1177		-50.781250
1178		-42.968750
1179		-44.921875
1180		-41.015625
1181		-41.015625
1182		-37.109375
1183		-39.062500
1184		-33.203125
1185		-35.156250
1186		-27.343750
1187		-33.203125
1188		-25.390625
1189		-29.296875
1190		-23.437500
1191		-25.390625
1192		-19.531250
1193		-23.437500
1194		-15.625000
1195		-17.578125
1196		-13.671875
1197		-15.625000
1198		-9.765625
1199		-11.718750
1200		-7.812500
1201		-7.812500
1202		-3.906250
1203		-7.812500
1204		0.000000
1205		-3.906250
1206		1.953125
1207		1.953125
1208		5.859375
1209		5.859375
1210		11.718750
1211		7.812500
1212		13.671875
1213		11.718750
1214		15.625000
1215		15.625000
1216		19.531250
1217		17.578125
1218		21.484375
1219		19.531250
1220		27.343750
1221		21.484375
1222		29.296875
1223		27.343750
1224		31.250000
1225		31.250000
1226		35.156250
1227		31.250000
1228		37.109375
1229		37.109375
1230		41.015625
1231		39.062500
1232		42.968750
1233		42.968750
1234		46.875000
1235		44.921875
1236		48.828125
1237		44.921875
1238		54.687500
1239		50.781250
1240		54.687500
1241		52.734375
1242		56.640625
1243		54.687500
1244		62.500000
1245		58.593750
1246		62.500000
1247		60.546875
1248		64.453125
1249		62.500000
1250		66.406250
1251		66.406250
1252		70.312500
1253		66.406250
1254		74.218750
1255		68.359375
1256		76.171875
1257		72.265625
1258		76.171875
1259		76.171875
1260		78.125000
1261		74.218750
1262		82.031250
1263		80.078125
1264		82.031250
1265		82.031250
1266		83.984375
1267		83.984375
1268		85.937500
1269		83.984375
1270		91.796875
1271		83.984375
1272		91.796875
1273		87.890625
1274		91.796875
1275		89.843750
1276		93.750000
1277		89.843750
1278		97.656250
1279		93.750000
1280		97.656250
1281		95.703125
1282		97.656250
1283		95.703125
1284		99.609375
1285		97.656250
1286		101.562500
1287		97.656250
1288		103.515625
1289		97.656250
1290		105.468750
1291		101.562500
1292		103.515625
1293		101.562500
1294		107.421875
1295		101.562500
1296		107.421875
1297		105.468750
1298		107.421875
1299		105.468750
1300		109.375000
1301		105.468750
1302		109.375000
1303		105.468750
1304		111.328125
1305		105.468750
1306		113.281250
1307		109.375000
1308		111.328125
1309		109.375000
1310		111.328125
1311		107.421875
1312		113.281250
1313		109.375000
1314		113.281250
1315		111.328125
1316		113.281250
1317		111.328125
1318		113.281250
1319		111.328125
1320		115.234375
1321		107.421875
1322		115.234375
1323		109.375000
1324		115.234375
1325		111.328125
1326		113.281250
1327		109.375000
1328		115.234375
1329		111.328125
1330		113.281250
1331		111.328125
1332		113.281250
1333		111.328125
1334		113.281250
1335		111.328125
1336		113.281250
1337		107.421875
1338		115.234375
1339		107.421875
1340		113.281250
1341		109.375000
1342		111.328125
1343		107.421875
1344		111.328125
1345		105.468750
1346		111.328125
1347		107.421875
1348		109.375000
1349		105.468750
1350		107.421875
1351		105.468750
1352		107.421875
1353		101.562500
1354		107.421875
1355		99.609375
1356		107.421875
1357		101.562500
1358		105.468750
1359		99.609375
1360		103.515625
1361		95.703125
1362		103.515625
1363		97.656250
1364		101.562500
1365		95.703125
1366		99.609375
1367		93.750000
1368		97.656250
1369		93.750000
1370		95.703125
1371		89.843750
1372		97.656250
1373		87.890625
1374		95.703125
1375		87.890625
1376		91.796875
1377		83.984375
1378		89.843750
1379		82.031250
1380		89.843750
1381		82.031250
1382		85.937500
1383		80.078125
1384		83.984375
1385		78.125000
1386		82.031250
1387		72.265625
1388		80.078125
1389		72.265625
1390		80.078125
1391		72.265625
1392		74.218750
1393		68.359375
1394		72.265625
1395		64.453125
1396		72.265625
1397		64.453125
1398		68.359375
1399		60.546875
1400		64.453125
1401		58.593750
1402		62.500000
1403		54.687500
1404		60.546875
1405		50.781250
1406		58.593750
1407		50.781250
1408		56.640625
1409		46.875000
1410		50.781250
1411		42.968750
1412		48.828125
1413		41.015625
1414		48.828125
1415		39.062500
1416		42.968750
1417		37.109375
1418		41.015625
1419		33.203125
1420		37.109375
1421		27.343750
1422		35.156250
1423		25.390625
1424		33.203125
1425		23.437500
1426		27.343750
1427		21.484375
1428		25.390625
1429		15.625000
1430		23.437500
1431		13.671875
1432		19.531250
1433		11.718750
1434		15.625000
1435		7.812500
1436		11.718750
1437		1.953125
1438		7.812500
1439		-1.953125
1440		7.812500
1441		-1.953125
1442		3.906250
1443		-5.859375
1444		0.000000
1445		-11.718750
1446		-3.906250
1447		-13.671875
1448		-7.812500
1449		-15.625000
1450		-11.718750
1451		-19.531250
1452		-13.671875
1453		-23.437500
1454		-17.578125
1455		-27.343750
1456		-19.531250
1457		-29.296875
1458		-21.484375
1459		-33.203125
1460		-27.343750
1461		-39.062500
1462		-31.250000
1463		-39.062500
1464		-31.250000
1465		-42.968750
1466		-37.109375
1467		-44.921875
1468		-41.015625
1469		-48.828125
1470		-44.921875
1471		-54.687500
1472		-46.875000
1473		-56.640625
1474		-48.828125
1475		-58.593750
1476		-52.734375
1477		-62.500000
1478		-56.640625
1479		-66.406250
1480		-60.546875
1481		-70.312500
1482		-64.453125
1483		-70.312500
1484		-66.406250
1485		-74.218750
1486		-70.312500
1487		-78.125000
1488		-72.265625
1489		-83.984375
1490		-72.265625
1491		-83.984375
1492		-76.171875
1493		-85.937500
1494		-82.031250
1495		-91.796875
1496		-83.984375
1497		-93.750000
1498		-85.937500
1499		-95.703125
1500		-87.890625
1501		-97.656250
1502		-91.796875
1503		-99.609375
1504		-95.703125
1505		-103.515625
1506		-97.656250
1507		-105.468750
1508		-97.656250
1509		-107.421875
1510		-103.515625
1511		-109.375000
1512		-105.468750
1513		-113.281250
1514		-105.468750
1515		-115.234375
1516		-107.421875
1517		-115.234375
1518		-111.328125
1519		-117.187500
1520		-113.281250
1521		-121.093750
1522		-115.234375
1523		-123.046875
1524		-115.234375
1525		-123.046875
1526		-117.187500
1527		-125.000000
1528		-121.093750
1529		-128.906250
1530		-121.093750
1531		-130.859375
1532		-121.093750
1533		-128.906250
1534		-123.046875
1535		-128.906250
1536		-126.953125
1537		-130.859375
1538		-128.906250
1539		-134.765625
1540		-126.953125
1541		-134.765625
1542		-128.906250
1543		-134.765625
1544		-130.859375
1545		-138.671875
1546		-130.859375
1547		-138.671875
1548		-130.859375
1549		-138.671875
1550		-130.859375
1551		-136.718750
1552		-134.765625
1553		-136.718750
1554		-134.765625
1555		-140.625000
1556		-132.812500
1557		-140.625000
1558		-132.812500
1559		-136.718750
1560		-134.765625
1561		-136.718750
1562		-134.765625
1563		-140.625000
1564		-132.812500
1565		-140.625000
1566		-132.812500
1567		-136.718750
1568		-134.765625
1569		-136.718750
1570		-134.765625
1571		-136.718750
1572		-132.812500
1573		-138.671875
1574		-130.859375
1575		-134.765625
1576		-130.859375
1577		-134.765625
1578		-130.859375
1579		-134.765625
1580		-128.906250
1581		-134.765625
1582		-126.953125
1583		-134.765625
1584		-126.953125
1585		-130.859375
1586		-126.953125
1587		-128.906250
1588		-125.000000
1589		-128.906250
1590		-121.093750
1591		-126.953125
1592		-121.093750
1593		-125.000000
1594		-121.093750
1595		-123.046875
1596		-119.140625
1597		-123.046875
1598		-115.234375
1599		-121.093750
1600		-113.281250
1601		-117.187500
1602		-113.281250
1603		-115.234375
1604		-111.328125
1605		-113.281250
1606		-107.421875
1607		-113.281250
1608		-105.468750
1609		-109.375000
1610		-105.468750
1611		-105.468750
1612		-103.515625
1613		-105.468750
1614		-97.656250
1615		-103.515625
1616		-95.703125
1617		-101.562500
1618		-95.703125
1619		-95.703125
1620		-91.796875
1621		-93.750000
1622		-89.843750
1623		-93.750000
1624		-83.984375
1625		-89.843750
1626		-83.984375
1627		-85.937500
1628		-80.078125
1629		-82.031250
1630		-78.125000
1631		-82.031250
1632		-72.265625
1633		-80.078125
1634		-72.265625
1635		-74.218750
1636		-68.359375
1637		-70.312500
1638		-66.406250
1639		-68.359375
1640		-60.546875
1641		-66.406250
1642		-58.593750
1643		-60.546875
1644		-56.640625
1645		-58.593750
1646		-52.734375
1647		-54.687500
1648		-46.875000
1649		-54.687500
1650		-44.921875
1651		-48.828125
1652		-42.968750
1653		-44.921875
1654		-39.062500
1655		-41.015625
1656		-37.109375
1657		-41.015625
1658		-31.250000
1659		-37.109375
1660		-29.296875
1661		-31.250000
1662		-27.343750
1663		-27.343750
1664		-19.531250
1665		-25.390625
1666		-17.578125
1667		-23.437500
1668		-15.625000
1669		-17.578125
1670		-13.671875
1671		-13.671875
1672		-9.765625
1673		-11.718750
1674		-3.906250
1675		-9.765625
1676		-1.953125
1677		-3.906250
1678		0.000000
1679		-1.953125
1680		3.906250
1681		1.953125
1682		9.765625
1683		3.906250
1684		11.718750
1685		7.812500
1686		13.671875
1687		11.718750
1688		15.625000
1689		15.625000
1690		19.531250
1691		15.625000
1692		23.437500
1693		19.531250
1694		25.390625
1695		25.390625
1696		29.296875
1697		27.343750
1698		33.203125
1699		29.296875
1700		37.109375
1701		31.250000
1702		37.109375
1703		37.109375
1704		41.015625
1705		39.062500
1706		44.921875
1707		41.015625
1708		48.828125
1709		42.968750
1710		50.781250
1711		48.828125
1712		52.734375
1713		50.781250
1714		56.640625
1715		50.781250
1716		60.546875
1717		52.734375
1718		60.546875
1719		58.593750
1720		62.500000
1721		60.546875
1722		66.406250
1723		62.500000
1724		70.312500
1725		64.453125
1726		72.265625
1727		68.359375
1728		72.265625
1729		70.312500
1730		74.218750
1731		72.265625
1732		78.125000
1733		72.265625
1734		80.078125
1735		78.125000
1736		82.031250
1737		80.078125
1738		82.031250
1739		82.031250
1740		83.984375
1741		82.031250
1742		89.843750
1743		83.984375
1744		87.890625
1745		87.890625
1746		89.843750
1747		87.890625
1748		93.750000
1749		87.890625
1750		93.750000
1751		91.796875
1752		95.703125
1753		93.750000
1754		97.656250
1755		95.703125
1756		97.656250
1757		95.703125
1758		101.562500
1759		95.703125
1760		103.515625
1761		99.609375
1762		101.562500
1763		101.562500
1764		103.515625
1765		99.609375
1766		107.421875
1767		103.515625
1768		105.468750
1769		103.515625
1770		107.421875
1771		105.468750
1772		107.421875
1773		103.515625
1774		109.375000
1775		103.515625
1776		111.328125
1777		105.468750
1778		111.328125
1779		107.421875
1780		111.328125
1781		107.421875
1782		113.281250
1783		107.421875
1784		115.234375
1785		109.375000
1786		111.328125
1787		109.375000
1788		113.281250
1789		109.375000
1790		113.281250
1791		107.421875
1792		115.234375
1793		107.421875
1794		115.234375
1795		111.328125
1796		113.281250
1797		111.328125
1798		113.281250
1799		109.375000
1800		115.234375
1801		111.328125
1802		113.281250
1803		111.328125
1804		113.281250
1805		111.328125
1806		113.281250
1807		109.375000
1808		115.234375
1809		107.421875
1810		115.234375
1811		109.375000
1812		111.328125
1813		109.375000
1814		111.328125
1815		105.468750
1816		113.281250
1817		107.421875
1818		109.375000
1819		107.421875
1820		109.375000
1821		105.468750
1822		109.375000
1823		105.468750
1824		107.421875
1825		101.562500
1826		109.375000
1827		101.562500
1828		107.421875
1829		101.562500
1830		105.468750
1831		99.609375
1832		105.468750
1833		97.656250
1834		105.468750
1835		97.656250
1836		101.562500
1837		95.703125
1838		99.609375
1839		95.703125
1840		97.656250
1841		89.843750
1842		97.656250
1843		89.843750
1844		97.656250
1845		89.843750
1846		93.750000
1847		87.890625
1848		91.796875
1849		85.937500
1850		91.796875
1851		83.984375
1852		87.890625
1853		82.031250
1854		85.937500
1855		80.078125
1856		83.984375
1857		76.171875
1858		82.031250
1859		74.218750
1860		82.031250
1861		74.218750
1862		80.078125
1863		72.265625
1864		76.171875
1865		68.359375
1866		74.218750
1867		68.359375
1868		72.265625
1869		64.453125
1870		68.359375
1871		62.500000
1872		66.406250
1873		60.546875
1874		64.453125
1875		54.687500
1876		62.500000
1877		52.734375
1878		60.546875
1879		52.734375
1880		56.640625
1881		48.828125
1882		52.734375
1883		46.875000
1884		52.734375
1885		42.968750
1886		46.875000
1887		41.015625
1888		44.921875
1889		37.109375
1890		41.015625
1891		33.203125
1892		39.062500
1893		29.296875
1894		39.062500
1895		29.296875
1896		35.156250
1897		25.390625
1898		29.296875
1899		19.531250
1900		27.343750
1901		19.531250
1902		23.437500
1903		15.625000
1904		19.531250
1905		11.718750
1906		17.578125
1907		9.765625
1908		13.671875
1909		3.906250
1910		11.718750
1911		1.953125
1912		7.812500
1913		0.000000
1914		3.906250
1915		-7.812500
1916		0.000000
1917		-7.812500
1918		0.000000
1919		-9.765625
1920		-5.859375
1921		-13.671875
1922		-9.765625
1923		-17.578125
1924		-13.671875
1925		-23.437500
1926		-15.625000
1927		-25.390625
1928		-17.578125
1929		-27.343750
1930		-23.437500
1931		-31.250000
1932		-25.390625
1933		-35.156250
1934		-27.343750
1935		-37.109375
1936		-33.203125
1937		-41.015625
1938		-37.109375
1939		-44.921875
1940		-39.062500
1941		-48.828125
1942		-42.968750
1943		-52.734375
1944		-44.921875
1945		-54.687500
1946		-46.875000
1947		-56.640625
1948		-52.734375
1949		-62.500000
1950		-56.640625
1951		-62.500000
1952		-58.593750
1953		-66.406250
1954		-62.500000
1955		-70.312500
1956		-64.453125
1957		-72.265625
1958		-68.359375
1959		-78.125000
1960		-70.312500
1961		-80.078125
1962		-72.265625
1963		-82.031250
1964		-76.171875
1965		-83.984375
1966		-80.078125
1967		-87.890625
1968		-82.031250
1969		-89.843750
1970		-85.937500
1971		-93.750000
1972		-87.890625
1973		-95.703125
1974		-91.796875
1975		-99.609375
1976		-93.750000
1977		-101.562500
1978		-93.750000
1979		-103.515625
1980		-97.656250
1981		-105.468750
1982		-101.562500
1983		-109.375000
1984		-103.515625
1985		-109.375000
1986		-105.468750
1987		-111.328125
1988		-107.421875
1989		-113.281250
1990		-109.375000
1991		-117.187500
1992		-113.281250
1993		-121.093750
1994		-113.281250
1995		-121.093750
1996		-115.234375
1997		-121.093750
1998		-119.140625
1999		-125.000000
2000		-119.140625
2001		-126.953125
2002		-119.140625
2003		-126.953125
2004		-123.046875
2005		-128.906250
2006		-125.000000
2007		-128.906250
2008		-126.953125
2009		-132.812500
2010		-125.000000
2011		-134.765625
2012		-126.953125
2013		-132.812500
2014		-130.859375
2015		-134.765625
2016		-130.859375
2017		-136.718750
2018		-130.859375
2019		-134.765625
2020		-132.812500
2021		-136.718750
2022		-134.765625
2023		-136.718750
2024		-134.765625
2025		-138.671875
2026		-134.765625
2027		-140.625000
2028		-132.812500
2029		-140.625000
2030		-134.765625
2031		-138.671875
2032		-136.718750
2033		-140.625000
2034		-134.765625
2035		-138.671875
2036		-134.765625
2037		-138.671875
2038		-134.765625
2039		-136.718750
2040		-134.765625
2041		-136.718750
2042		-134.765625
2043		-140.625000
2044		-130.859375
2045		-138.671875
2046		-130.859375
2047		-134.765625
2048		-132.812500
2049		-134.765625
2050		-130.859375
2051		-136.718750
2052		-128.906250
2053		-132.812500
2054		-130.859375
2055		-132.812500
2056		-128.906250
2057		-130.859375
2058		-128.906250
2059		-132.812500
2060		-125.000000
2061		-130.859375
2062		-123.046875
2063		-128.906250
2064		-123.046875
2065		-125.000000
2066		-123.046875
2067		-126.953125
2068		-119.140625
2069		-123.046875
2070		-119.140625
2071		-121.093750
2072		-117.187500
2073		-119.140625
2074		-115.234375
2075		-117.187500
2076		-113.281250
2077		-117.187500
2078		-109.375000
2079		-115.234375
2080		-107.421875
2081		-111.328125
2082		-107.421875
2083		-109.375000
2084		-103.515625
2085		-107.421875
2086		-101.562500
2087		-105.468750
2088		-99.609375
2089		-103.515625
2090		-97.656250
2091		-99.609375
2092		-93.750000
2093		-97.656250
2094		-89.843750
2095		-95.703125
2096		-87.890625
2097		-93.750000
2098		-87.890625
2099		-87.890625
2100		-83.984375
2101		-85.937500
2102		-80.078125
2103		-83.984375
2104		-78.125000
2105		-80.078125
2106		-74.218750
2107		-76.171875
2108		-72.265625
2109		-74.218750
2110		-68.359375
2111		-72.265625
2112		-64.453125
2113		-70.312500
2114		-62.500000
2115		-64.453125
2116		-58.593750
2117		-62.500000
2118		-54.687500
2119		-58.593750
2120		-52.734375
2121		-56.640625
2122		-48.828125
2123		-50.781250
2124		-46.875000
2125		-48.828125
2126		-42.968750
2127		-46.875000
2128		-37.109375
2129		-44.921875
2130		-35.156250
2131		-39.062500
2132		-33.203125
2133		-35.156250
2134		-29.296875
2135		-33.203125
2136		-25.390625
2137		-27.343750
2138		-23.437500
2139		-25.390625
2140		-19.531250
2141		-23.437500
2142		-15.625000
2143		-17.578125
2144		-9.765625
2145		-15.625000
2146		-7.812500
2147		-13.671875
2148		-5.859375
2149		-7.812500
2150		-1.953125
2151		-3.906250
2152		1.953125
2153		-1.953125
2154		3.906250
2155		0.000000
2156		7.812500
2157		3.906250
2158		9.765625
2159		7.812500
2160		13.671875
2161		11.718750
2162		17.578125
2163		11.718750
2164		19.531250
2165		17.578125
2166		23.437500
2167		21.484375
2168		27.343750
2169		23.437500
2170		29.296875
2171		25.390625
2172		33.203125
2173		29.296875
2174		35.156250
2175		33.203125
2176		39.062500
2177		35.156250
2178		42.968750
2179		37.109375
2180		46.875000
2181		41.015625
2182		46.875000
2183		44.921875
2184		48.828125
2185		46.875000
2186		54.687500
2187		48.828125
2188		54.687500
2189		52.734375
2190		58.593750
2191		54.687500
2192		60.546875
2193		56.640625
2194		62.500000
2195		58.593750
2196		68.359375
2197		62.500000
2198		68.359375
2199		66.406250
2200		70.312500
2201		66.406250
2202		74.218750
2203		70.312500
2204		76.171875
2205		72.265625
2206		78.125000
2207		74.218750
2208		78.125000
2209		76.171875
2210		80.078125
2211		78.125000
2212		85.937500
2213		78.125000
2214		85.937500
2215		83.984375
2216		85.937500
2217		83.984375
2218		87.890625
2219		83.984375
2220		91.796875
2221		87.890625
2222		93.750000
2223		89.843750
2224		93.750000
2225		89.843750
2226		95.703125
2227		91.796875
2228		99.609375
2229		91.796875
2230		99.609375
2231		95.703125
2232		99.609375
2233		97.656250
2234		101.562500
2235		99.609375
2236		103.515625
2237		99.609375
2238		103.515625
2239		99.609375
2240		105.468750
2241		101.562500
2242		105.468750
2243		103.515625
2244		107.421875
2245		103.515625
2246		109.375000
2247		103.515625
2248		111.328125
2249		107.421875
2250		109.375000
2251		105.468750
2252		109.375000
2253		105.468750
2254		111.328125
2255		107.421875
2256		111.328125
2257		107.421875
2258		113.281250
2259		109.375000
2260		113.281250
2261		109.375000
2262		113.281250
2263		107.421875
2264		115.234375
2265		111.328125
2266		113.281250
2267		111.328125
2268		113.281250
2269		107.421875
2270		115.234375
2271		109.375000
2272		115.234375
2273		109.375000
2274		113.281250
2275		109.375000
2276		115.234375
2277		109.375000
2278		113.281250
2279		107.421875
2280		115.234375
2281		107.421875
2282		115.234375
2283		109.375000
2284		111.328125
2285		105.468750
2286		113.281250
2287		107.421875
2288		111.328125
2289		105.468750
2290		113.281250
2291		105.468750
2292		109.375000
2293		105.468750
2294		109.375000
2295		103.515625
2296		109.375000
2297		101.562500
2298		109.375000
2299		103.515625
2300		105.468750
2301		103.515625
2302		105.468750
2303		99.609375
2304		105.468750
2305		97.656250
2306		105.468750
2307		95.703125
2308		103.515625
2309		95.703125
2310		103.515625
2311		93.750000
2312		103.515625
2313		93.750000
2314		99.609375
2315		91.796875
2316		97.656250
2317		91.796875
2318		95.703125
2319		85.937500
2320		93.750000
2321		85.937500
2322		95.703125
2323		83.984375
2324		91.796875
2325		82.031250
2326		89.843750
2327		80.078125
2328		87.890625
2329		78.125000
2330		85.937500
2331		76.171875
2332		83.984375
2333		76.171875
2334		80.078125
2335		74.218750
2336		78.125000
2337		68.359375
2338		78.125000
2339		66.406250
2340		74.218750
2341		64.453125
2342		74.218750
2343		62.500000
2344		70.312500
2345		60.546875
2346		68.359375
2347		56.640625
2348		66.406250
2349		56.640625
2350		60.546875
2351		54.687500
2352		58.593750
2353		48.828125
2354		56.640625
2355		46.875000
2356		54.687500
2357		42.968750
2358		52.734375
2359		41.015625
2360		48.828125
2361		37.109375
2362		46.875000
2363		35.156250
2364		42.968750
2365		33.203125
2366		41.015625
2367		31.250000
2368		35.156250
2369		25.390625
2370		33.203125
2371		21.484375
2372		31.250000
2373		19.531250
2374		29.296875
2375		15.625000
2376		25.390625
2377		13.671875
2378		21.484375
2379		11.718750
2380		19.531250
2381		7.812500
2382		15.625000
2383		5.859375
2384		9.765625
2385		1.953125
2386		5.859375
2387		-1.953125
2388		5.859375
2389		-7.812500
2390		1.953125
2391		-9.765625
2392		0.000000
2393		-13.671875
2394		-3.906250
2395		-17.578125
2396		-7.812500
2397		-19.531250
2398		-11.718750
2399		-21.484375
2400		-15.625000
2401		-25.390625
2402		-19.531250
2403		-29.296875
2404		-23.437500
2405		-33.203125
2406		-25.390625
2407		-37.109375
2408		-27.343750
2409		-41.015625
2410		-31.250000
2411		-42.968750
2412		-35.156250
2413		-46.875000
2414		-37.109375
2415		-48.828125
2416		-41.015625
2417		-50.781250
2418		-46.875000
2419		-54.687500
2420		-48.828125
2421		-60.546875
2422		-50.781250
2423		-62.500000
2424		-54.687500
2425		-66.406250
2426		-56.640625
2427		-70.312500
2428		-60.546875
2429		-72.265625
2430		-64.453125
2431		-76.171875
2432		-66.406250
2433		-76.171875
2434		-72.265625
2435		-78.125000
2436		-74.218750
2437		-83.984375
2438		-76.171875
2439		-85.937500
2440		-78.125000
2441		-89.843750
2442		-80.078125
2443		-93.750000
2444		-83.984375
2445		-95.703125
2446		-85.937500
2447		-99.609375
2448		-89.843750
2449		-99.609375
2450		-91.796875
2451		-101.562500
2452		-97.656250
2453		-103.515625
2454		-99.609375
2455		-107.421875
2456		-99.609375
2457		-109.375000
2458		-101.562500
2459		-113.281250
2460		-103.515625
2461		-115.234375
2462		-105.468750
2463		-115.234375
2464		-109.375000
2465		-119.140625
2466		-109.375000
2467		-117.187500
2468		-115.234375
2469		-119.140625
2470		-117.187500
2471		-123.046875
2472		-117.187500
2473		-126.953125
2474		-117.187500
2475		-126.953125
2476		-119.140625
2477		-128.906250
2478		-119.140625
2479		-128.906250
2480		-121.093750
2481		-130.859375
2482		-123.046875
2483		-130.859375
2484		-125.000000
2485		-130.859375
2486		-128.906250
2487		-134.765625
2488		-126.953125
2489		-136.718750
2490		-126.953125
2491		-134.765625
2492		-128.906250
2493		-136.718750
2494		-128.906250
2495		-138.671875
2496		-130.859375
2497		-138.671875
2498		-130.859375
2499		-138.671875
2500		-130.859375
2501		-136.718750
2502		-134.765625
2503		-136.718750
2504		-132.812500
2505		-140.625000
2506		-132.812500
2507		-138.671875
2508		-132.812500
2509		-140.625000
2510		-132.812500
2511		-138.671875
2512		-130.859375
2513		-138.671875
2514		-130.859375
2515		-138.671875
2516		-130.859375
2517		-136.718750
2518		-132.812500
2519		-134.765625
2520		-132.812500
2521		-136.718750
2522		-128.906250
2523		-136.718750
2524		-128.906250
2525		-136.718750
2526		-126.953125
2527		-134.765625
2528		-126.953125
2529		-132.812500
2530		-125.000000
2531		-132.812500
2532		-125.000000
2533		-130.859375
2534		-125.000000
2535		-126.953125
2536		-123.046875
2537		-126.953125
2538		-121.093750
2539		-126.953125
2540		-119.140625
2541		-125.000000
2542		-117.187500
2543		-123.046875
2544		-115.234375
2545		-121.093750
2546		-113.281250
2547		-119.140625
2548		-111.328125
2549		-117.187500
2550		-109.375000
2551		-113.281250
2552		-109.375000
2553		-111.328125
2554		-107.421875
2555		-111.328125
2556		-103.515625
2557		-107.421875
2558		-103.515625
2559		-105.468750
2560		-99.609375
2561		-101.562500
2562		-97.656250
2563		-101.562500
2564		-93.750000
2565		-99.609375
2566		-91.796875
2567		-97.656250
2568		-89.843750
2569		-91.796875
2570		-87.890625
2571		-89.843750
2572		-82.031250
2573		-85.937500
2574		-82.031250
2575		-83.984375
2576		-78.125000
2577		-80.078125
2578		-74.218750
2579		-78.125000
2580		-72.265625
2581		-76.171875
2582		-68.359375
2583		-74.218750
2584		-64.453125
2585		-68.359375
2586		-64.453125
2587		-64.453125
2588		-60.546875
2589		-64.453125
2590		-56.640625
2591		-60.546875
2592		-52.734375
2593		-54.687500
2594		-50.781250
2595		-52.734375
2596		-46.875000
2597		-50.781250
2598		-41.015625
2599		-46.875000
2600		-39.062500
2601		-42.968750
2602		-37.109375
2603		-39.062500
2604		-35.156250
2605		-35.156250
2606		-29.296875
2607		-33.203125
2608		-27.343750
2609		-29.296875
2610		-23.437500
2611		-25.390625
2612		-19.531250
2613		-23.437500
2614		-17.578125
2615		-19.531250
2616		-11.718750
2617		-17.578125
2618		-9.765625
2619		-11.718750
2620		-7.812500
2621		-7.812500
2622		-1.953125
2623		-7.812500
2624		0.000000
2625		-3.906250
2626		3.906250
2627		0.000000
2628		5.859375
2629		3.906250
2630		9.765625
2631		5.859375
2632		15.625000
2633		9.765625
2634		17.578125
2635		13.671875
2636		19.531250
2637		17.578125
2638		21.484375
2639		19.531250
2640		25.390625
2641		23.437500
2642		27.343750
2643		25.390625
2644		31.250000
2645		29.296875
2646		35.156250
2647		31.250000
2648		39.062500
2649		33.203125
2650		42.968750
2651		37.109375
2652		44.921875
2653		41.015625
2654		46.875000
2655		44.921875
2656		50.781250
2657		44.921875
2658		52.734375
2659		48.828125
2660		54.687500
2661		50.781250
2662		56.640625
2663		54.687500
2664		58.593750
2665		56.640625
2666		64.453125
2667		58.593750
2668		66.406250
2669		62.500000
2670		66.406250
2671		66.406250
2672		70.312500
2673		64.453125
2674		72.265625
2675		68.359375
2676		74.218750
2677		72.265625
2678		76.171875
2679		74.218750
2680		78.125000
2681		76.171875
2682		83.984375
2683		76.171875
2684		83.984375
2685		78.125000
2686		83.984375
2687		83.984375
2688		85.937500
2689		83.984375
2690		89.843750
2691		85.937500
2692		91.796875
2693		87.890625
2694		91.796875
2695		89.843750
2696		95.703125
2697		91.796875
2698		95.703125
2699		91.796875
2700		99.609375
2701		91.796875
2702		99.609375
2703		97.656250
2704		99.609375
2705		97.656250
2706		103.515625
2707		97.656250
2708		103.515625
2709		99.609375
2710		103.515625
2711		101.562500
2712		105.468750
2713		101.562500
2714		105.468750
2715		101.562500
2716		109.375000
2717		103.515625
2718		109.375000
2719		105.468750
2720		109.375000
2721		105.468750
2722		109.375000
2723		105.468750
2724		111.328125
2725		107.421875
2726		111.328125
2727		107.421875
2728		113.281250
2729		109.375000
2730		113.281250
2731		109.375000
2732		113.281250
2733		107.421875
2734		115.234375
2735		109.375000
2736		115.234375
2737		111.328125
2738		113.281250
2739		109.375000
2740		115.234375
2741		109.375000
2742		115.234375
2743		111.328125
2744		115.234375
2745		111.328125
2746		115.234375
2747		109.375000
2748		115.234375
2749		109.375000
2750		115.234375
2751		109.375000
2752		117.187500
2753		111.328125
2754		113.281250
2755		111.328125
2756		113.281250
2757		107.421875
2758		115.234375
2759		109.375000
2760		113.281250
2761		109.375000
2762		111.328125
2763		109.375000
2764		111.328125
2765		105.468750
2766		113.281250
2767		103.515625
2768		111.328125
2769		103.515625
2770		111.328125
2771		105.468750
2772		107.421875
2773		103.515625
2774		109.375000
2775		103.515625
2776		105.468750
2777		101.562500
2778		105.468750
2779		101.562500
2780		103.515625
2781		99.609375
2782		101.562500
2783		95.703125
2784		103.515625
2785		93.750000
2786		101.562500
2787		95.703125
2788		97.656250
2789		91.796875
2790		97.656250
2791		91.796875
2792		97.656250
2793		89.843750
2794		93.750000
2795		87.890625
2796		91.796875
2797		87.890625
2798		89.843750
2799		82.031250
2800		89.843750
2801		82.031250
2802		87.890625
2803		80.078125
2804		83.984375
2805		78.125000
2806		82.031250
2807		74.218750
2808		82.031250
2809		74.218750
2810		78.125000
2811		72.265625
2812		76.171875
2813		70.312500
2814		74.218750
2815		68.359375
2816		70.312500
2817		62.500000
2818		70.312500
2819		62.500000
2820		68.359375
2821		60.546875
2822		64.453125
2823		54.687500
2824		60.546875
2825		54.687500
2826		60.546875
2827		50.781250
2828		56.640625
2829		48.828125
2830		52.734375
2831		46.875000
2832		50.781250
2833		41.015625
2834		48.828125
2835		39.062500
2836		44.921875
2837		37.109375
2838		41.015625
2839		35.156250
2840		39.062500
2841		31.250000
2842		37.109375
2843		27.343750
2844		33.203125
2845		25.390625
2846		29.296875
2847		21.484375
2848		25.390625
2849		15.625000
2850		23.437500
2851		11.718750
2852		21.484375
2853		11.718750
2854		19.531250
2855		9.765625
2856		13.671875
2857		3.906250
2858		11.718750
2859		1.953125
2860		7.812500
2861		-1.953125
2862		3.906250
2863		-3.906250
2864		0.000000
2865		-7.812500
2866		-3.906250
2867		-13.671875
2868		-5.859375
2869		-15.625000
2870		-7.812500
2871		-17.578125
2872		-13.671875
2873		-23.437500
2874		-15.625000
2875		-25.390625
2876		-17.578125
2877		-29.296875
2878		-23.437500
2879		-31.250000
2880		-27.343750
2881		-35.156250
2882		-29.296875
2883		-41.015625
2884		-33.203125
2885		-42.968750
2886		-33.203125
2887		-44.921875
2888		-39.062500
2889		-46.875000
2890		-42.968750
2891		-52.734375
2892		-46.875000
2893		-54.687500
2894		-48.828125
2895		-60.546875
2896		-52.734375
2897		-62.500000
2898		-54.687500
2899		-64.453125
2900		-58.593750
2901		-68.359375
2902		-60.546875
2903		-70.312500
2904		-64.453125
2905		-72.265625
2906		-68.359375
2907		-76.171875
2908		-70.312500
2909		-80.078125
2910		-72.265625
2911		-82.031250
2912		-78.125000
2913		-85.937500
2914		-80.078125
2915		-87.890625
2916		-82.031250
2917		-93.750000
2918		-85.937500
2919		-95.703125
2920		-87.890625
2921		-95.703125
2922		-91.796875
2923		-97.656250
2924		-93.750000
2925		-101.562500
2926		-95.703125
2927		-103.515625
2928		-97.656250
2929		-107.421875
2930		-99.609375
2931		-109.375000
2932		-103.515625
2933		-111.328125
2934		-105.468750
2935		-115.234375
2936		-105.468750
2937		-115.234375
2938		-107.421875
2939		-115.234375
2940		-113.281250
2941		-121.093750
2942		-113.281250
2943		-121.093750
2944		-115.234375
2945		-121.093750
2946		-117.187500
2947		-125.000000
2948		-119.140625
2949		-125.000000
2950		-121.093750
2951		-128.906250
2952		-121.093750
2953		-128.906250
2954		-121.093750
2955		-128.906250
2956		-126.953125
2957		-130.859375
2958		-126.953125
2959		-132.812500
2960		-126.953125
2961		-132.812500
2962		-128.906250
2963		-134.765625
2964		-128.906250
2965		-134.765625
2966		-130.859375
2967		-136.718750
2968		-130.859375
2969		-138.671875
2970		-130.859375
2971		-136.718750
2972		-132.812500
2973		-136.718750
2974		-132.812500
2975		-138.671875
2976		-132.812500
2977		-138.671875
2978		-134.765625
2979		-138.671875
2980		-132.812500
2981		-138.671875
2982		-134.765625
2983		-138.671875
2984		-134.765625
2985		-140.625000
2986		-130.859375
2987		-140.625000
2988		-130.859375
2989		-136.718750
2990		-134.765625
2991		-136.718750
2992		-132.812500
2993		-136.718750
2994		-132.812500
2995		-134.765625
2996		-130.859375
2997		-134.765625
2998		-130.859375
2999		-134.765625
3000		-128.906250
3001		-134.765625
3002		-126.953125
3003		-134.765625
3004		-125.000000
3005		-130.859375
3006		-126.953125
3007		-128.906250
3008		-126.953125
3009		-128.906250
3010		-123.046875
3011		-126.953125
3012		-123.046875
3013		-125.000000
3014		-121.093750
3015		-123.046875
3016		-119.140625
3017		-123.046875
3018		-117.187500
3019		-123.046875
3020		-115.234375
3021		-119.140625
3022		-113.281250
3023		-115.234375
3024		-111.328125
3025		-115.234375
3026		-107.421875
3027		-113.281250
3028		-107.421875
3029		-109.375000
3030		-105.468750
3031		-107.421875
3032		-103.515625
3033		-105.468750
3034		-101.562500
3035		-103.515625
3036		-95.703125
3037		-101.562500
3038		-95.703125
3039		-97.656250
3040		-93.750000
3041		-93.750000
3042		-87.890625
3043		-93.750000
3044		-87.890625
3045		-89.843750
3046		-83.984375
3047		-87.890625
3048		-80.078125
3049		-83.984375
3050		-78.125000
3051		-82.031250
3052		-72.265625
3053		-80.078125
3054		-70.312500
3055		-74.218750
3056		-70.312500
3057		-72.265625
3058		-66.406250
3059		-70.312500
3060		-62.500000
3061		-66.406250
3062		-60.546875
3063		-62.500000
3064		-56.640625
3065		-60.546875
3066		-52.734375
3067		-56.640625
3068		-48.828125
3069		-54.687500
3070		-46.875000
3071		-50.781250
3072		-44.921875
3073		-44.921875
3074		-41.015625
3075		-42.968750
3076		-37.109375
3077		-41.015625
3078		-33.203125
3079		-35.156250
3080		-31.250000
3081		-33.203125
3082		-27.343750
3083		-29.296875
3084		-23.437500
3085		-27.343750
3086		-19.531250
3087		-23.437500
3088		-15.625000
3089		-19.531250
3090		-13.671875
3091		-15.625000
3092		-9.765625
3093		-13.671875
3094		-5.859375
3095		-9.765625
3096		-3.906250
3097		-5.859375
3098		0.000000
3099		-1.953125
3100		3.906250
3101		0.000000
3102		7.812500
3103		1.953125
3104		11.718750
3105		3.906250
3106		11.718750
3107		11.718750
3108		15.625000
3109		13.671875
3110		21.484375
3111		15.625000
3112		21.484375
3113		19.531250
3114		25.390625
3115		23.437500
3116		29.296875
3117		25.390625
3118		33.203125
3119		27.343750
3120		37.109375
3121		31.250000
3122		39.062500
3123		35.156250
3124		41.015625
3125		39.062500
3126		44.921875
3127		39.062500
3128		46.875000
3129		44.921875
3130		50.781250
3131		42.968750
3132		52.734375
3133		48.828125
3134		54.687500
3135		50.781250
3136		58.593750
3137		52.734375
3138		62.500000
3139		56.640625
3140		62.500000
3141		60.546875
3142		64.453125
3143		62.500000
3144		68.359375
3145		64.453125
3146		70.312500
3147		66.406250
3148		72.265625
3149		68.359375
3150		74.218750
3151		72.265625
3152		80.078125
3153		72.265625
3154		80.078125
3155		74.218750
3156		82.031250
3157		80.078125
3158		82.031250
3159		80.078125
3160		85.937500
3161		80.078125
3162		87.890625
3163		83.984375
3164		89.843750
3165		85.937500
3166		91.796875
3167		87.890625
3168		93.750000
3169		87.890625
3170		95.703125
3171		89.843750
3172		97.656250
3173		93.750000
3174		97.656250
3175		95.703125
3176		97.656250
3177		93.750000
3178		101.562500
3179		97.656250
3180		101.562500
3181		97.656250
3182		103.515625
3183		99.609375
3184		105.468750
3185		99.609375
3186		107.421875
3187		99.609375
3188		109.375000
3189		101.562500
3190		109.375000
3191		105.468750
3192		107.421875
3193		105.468750
3194		111.328125
3195		103.515625
3196		111.328125
3197		105.468750
3198		113.281250
3199		105.468750
3200		113.281250
3201		105.468750
3202		115.234375
3203		107.421875
3204		115.234375
3205		107.421875
3206		115.234375
3207		111.328125
3208		113.281250
3209		109.375000
3210		117.187500
3211		109.375000
3212		117.187500
3213		109.375000
3214		117.187500
3215		109.375000
3216		117.187500
3217		109.375000
3218		117.187500
3219		109.375000
3220		117.187500
3221		109.375000
3222		117.187500
3223		109.375000
3224		115.234375
3225		111.328125
3226		113.281250
3227		109.375000
3228		115.234375
3229		107.421875
3230		115.234375
3231		107.421875
3232		115.234375
3233		107.421875
3234		115.234375
3235		105.468750
3236		113.281250
3237		105.468750
3238		113.281250
3239		105.468750
3240		111.328125
3241		107.421875
3242		109.375000
3243		105.468750
3244		109.375000
3245		101.562500
3246		109.375000
3247		101.562500
3248		109.375000
3249		101.562500
3250		107.421875
3251		99.609375
3252		107.421875
3253		97.656250
3254		105.468750
3255		97.656250
3256		105.468750
3257		97.656250
3258		101.562500
3259		97.656250
3260		99.609375
3261		91.796875
3262		99.609375
3263		91.796875
3264		99.609375
3265		89.843750
3266		97.656250
3267		87.890625
3268		95.703125
3269		85.937500
3270		93.750000
3271		83.984375
3272		91.796875
3273		83.984375
3274		91.796875
3275		82.031250
3276		85.937500
3277		78.125000
3278		83.984375
3279		76.171875
3280		83.984375
3281		74.218750
3282		82.031250
3283		72.265625
3284		80.078125
3285		70.312500
3286		78.125000
3287		66.406250
3288		76.171875
3289		64.453125
3290		72.265625
3291		64.453125
3292		68.359375
3293		62.500000
3294		66.406250
3295		56.640625
3296		64.453125
3297		54.687500
3298		62.500000
3299		50.781250
3300		60.546875
3301		48.828125
3302		58.593750
3303		44.921875
3304		56.640625
3305		42.968750
3306		50.781250
3307		42.968750
3308		48.828125
3309		41.015625
3310		44.921875
3311		35.156250
3312		41.015625
3313		31.250000
3314		41.015625
3315		27.343750
3316		37.109375
3317		25.390625
3318		33.203125
3319		21.484375
3320		31.250000
3321		19.531250
3322		27.343750
3323		17.578125
3324		25.390625
3325		15.625000
3326		19.531250
3327		9.765625
3328		15.625000
3329		5.859375
3330		15.625000
3331		1.953125
3332		11.718750
3333		0.000000
3334		7.812500
3335		-3.906250
3336		5.859375
3337		-7.812500
3338		1.953125
3339		-9.765625
3340		-1.953125
3341		-11.718750
3342		-5.859375
3343		-15.625000
3344		-9.765625
3345		-21.484375
3346		-13.671875
3347		-25.390625
3348		-15.625000
3349		-27.343750
3350		-17.578125
3351		-31.250000
3352		-21.484375
3353		-33.203125
3354		-23.437500
3355		-37.109375
3356		-29.296875
3357		-39.062500
3358		-31.250000
3359		-41.015625
3360		-37.109375
3361		-46.875000
3362		-41.015625
3363		-48.828125
3364		-41.015625
3365		-52.734375
3366		-46.875000
3367		-54.687500
3368		-48.828125
3369		-60.546875
3370		-52.734375
3371		-62.500000
3372		-54.687500
3373		-64.453125
3374		-58.593750
3375		-66.406250
3376		-62.500000
3377		-70.312500
3378		-66.406250
3379		-76.171875
3380		-68.359375
3381		-78.125000
3382		-72.265625
3383		-82.031250
3384		-74.218750
3385		-83.984375
3386		-78.125000
3387		-87.890625
3388		-78.125000
3389		-89.843750
3390		-82.031250
3391		-89.843750
3392		-83.984375
3393		-93.750000
3394		-89.843750
3395		-97.656250
3396		-89.843750
3397		-99.609375
3398		-91.796875
3399		-103.515625
3400		-95.703125
3401		-103.515625
3402		-97.656250
3403		-109.375000
3404		-99.609375
3405		-111.328125
3406		-101.562500
3407		-111.328125
3408		-103.515625
3409		-113.281250
3410		-109.375000
3411		-115.234375
3412		-111.328125
3413		-117.187500
3414		-111.328125
3415		-119.140625
3416		-113.281250
3417		-121.093750
3418		-115.234375
3419		-123.046875
3420		-117.187500
3421		-125.000000
3422		-119.140625
3423		-126.953125
3424		-119.140625
3425		-126.953125
3426		-123.046875
3427		-126.953125
3428		-125.000000
3429		-130.859375
3430		-125.000000
3431		-130.859375
3432		-126.953125
3433		-132.812500
3434		-126.953125
3435		-132.812500
3436		-128.906250
3437		-134.765625
3438		-130.859375
3439		-136.718750
3440		-128.906250
3441		-136.718750
3442		-128.906250
3443		-134.765625
3444		-132.812500
3445		-138.671875
3446		-130.859375
3447		-136.718750
3448		-132.812500
3449		-138.671875
3450		-132.812500
3451		-136.718750
3452		-132.812500
3453		-138.671875
3454		-132.812500
3455		-140.625000
3456		-132.812500
3457		-140.625000
3458		-132.812500
3459		-136.718750
3460		-134.765625
3461		-136.718750
3462		-134.765625
3463		-138.671875
3464		-130.859375
3465		-136.718750
3466		-132.812500
3467		-136.718750
3468		-130.859375
3469		-134.765625
3470		-130.859375
3471		-134.765625
3472		-128.906250
3473		-134.765625
3474		-126.953125
3475		-134.765625
3476		-128.906250
3477		-130.859375
3478		-128.906250
3479		-130.859375
3480		-125.000000
3481		-128.906250
3482		-125.000000
3483		-128.906250
3484		-123.046875
3485		-126.953125
3486		-121.093750
3487		-125.000000
3488		-121.093750
3489		-125.000000
3490		-117.187500
3491		-123.046875
3492		-115.234375
3493		-119.140625
3494		-115.234375
3495		-117.187500
3496		-111.328125
3497		-117.187500
3498		-111.328125
3499		-115.234375
3500		-109.375000
3501		-111.328125
3502		-105.468750
3503		-109.375000
3504		-103.515625
3505		-107.421875
3506		-101.562500
3507		-107.421875
3508		-97.656250
3509		-101.562500
3510		-97.656250
3511		-99.609375
3512		-95.703125
3513		-97.656250
3514		-89.843750
3515		-95.703125
3516		-89.843750
3517		-91.796875
3518		-85.937500
3519		-89.843750
3520		-83.984375
3521		-85.937500
3522		-82.031250
3523		-85.937500
3524		-76.171875
3525		-82.031250
3526		-74.218750
3527		-76.171875
3528		-72.265625
3529		-74.218750
3530		-68.359375
3531		-72.265625
3532		-64.453125
3533		-68.359375
3534		-62.500000
3535		-64.453125
3536		-58.593750
3537		-60.546875
3538		-56.640625
3539		-58.593750
3540		-50.781250
3541		-56.640625
3542		-48.828125
3543		-50.781250
3544		-46.875000
3545		-48.828125
3546		-42.968750
3547		-44.921875
3548		-39.062500
3549		-41.015625
3550		-37.109375
3551		-39.062500
3552		-33.203125
3553		-35.156250
3554		-29.296875
3555		-31.250000
3556		-25.390625
3557		-29.296875
3558		-21.484375
3559		-27.343750
3560		-19.531250
3561		-21.484375
3562		-15.625000
3563		-17.578125
3564		-11.718750
3565		-13.671875
3566		-9.765625
3567		-11.718750
3568		-5.859375
3569		-7.812500
3570		-1.953125
3571		-3.906250
3572		0.000000
3573		-1.953125
3574		5.859375
3575		0.000000
3576		7.812500
3577		5.859375
3578		9.765625
3579		7.812500
3580		13.671875
3581		9.765625
3582		17.578125
3583		15.625000
3584		19.531250
3585		17.578125
3586		23.437500
3587		21.484375
3588		25.390625
3589		23.437500
3590		31.250000
3591		25.390625
3592		35.156250
3593		31.250000
3594		35.156250
3595		33.203125
3596		37.109375
3597		35.156250
3598		42.968750
3599		39.062500
3600		42.968750
3601		42.968750
3602		46.875000
3603		44.921875
3604		48.828125
3605		48.828125
3606		52.734375
3607		48.828125
3608		56.640625
3609		50.781250
3610		58.593750
3611		56.640625
3612		60.546875
3613		58.593750
3614		62.500000
3615		60.546875
3616		64.453125
3617		64.453125
3618		68.359375
3619		66.406250
3620		70.312500
3621		68.359375
3622		72.265625
3623		70.312500
3624		76.171875
3625		70.312500
3626		78.125000
3627		76.171875
3628		78.125000
3629		78.125000
3630		82.031250
3631		78.125000
3632		83.984375
3633		82.031250
3634		85.937500
3635		83.984375
3636		87.890625
3637		85.937500
3638		89.843750
3639		87.890625
3640		91.796875
3641		85.937500
3642		93.750000
3643		87.890625
3644		95.703125
3645		91.796875
3646		95.703125
3647		93.750000
3648		99.609375
3649		95.703125
3650		99.609375
3651		97.656250
3652		99.609375
3653		97.656250
3654		101.562500
3655		99.609375
3656		103.515625
3657		99.609375
3658		105.468750
3659		99.609375
3660		107.421875
3661		103.515625
3662		105.468750
3663		103.515625
3664		107.421875
3665		103.515625
3666		109.375000
3667		105.468750
3668		109.375000
3669		107.421875
3670		109.375000
3671		107.421875
3672		109.375000
3673		105.468750
3674		113.281250
3675		105.468750
3676		115.234375
3677		107.421875
3678		111.328125
3679		109.375000
3680		113.281250
3681		109.375000
3682		115.234375
3683		111.328125
3684		113.281250
3685		111.328125
3686		113.281250
3687		111.328125
3688		113.281250
3689		111.328125
3690		113.281250
3691		109.375000
3692		117.187500
3693		109.375000
3694		115.234375
3695		111.328125
3696		113.281250
3697		109.375000
3698		115.234375
3699		107.421875
3700		115.234375
3701		109.375000
3702		115.234375
3703		109.375000
3704		113.281250
3705		107.421875
3706		113.281250
3707		105.468750
3708		113.281250
3709		105.468750
3710		113.281250
3711		107.421875
3712		109.375000
3713		107.421875
3714		109.375000
3715		103.515625
3716		111.328125
3717		105.468750
3718		109.375000
3719		103.515625
3720		107.421875
3721		101.562500
3722		107.421875
3723		101.562500
3724		105.468750
3725		99.609375
3726		105.468750
3727		97.656250
3728		105.468750
3729		97.656250
3730		101.562500
3731		93.750000
3732		101.562500
3733		95.703125
3734		97.656250
3735		93.750000
3736		97.656250
3737		91.796875
3738		95.703125
3739		89.843750
3740		93.750000
3741		85.937500
3742		93.750000
3743		85.937500
3744		93.750000
3745		85.937500
3746		87.890625
3747		82.031250
3748		85.937500
3749		80.078125
3750		85.937500
3751		78.125000
3752		83.984375
3753		76.171875
3754		82.031250
3755		74.218750
3756		78.125000
3757		70.312500
3758		78.125000
3759		68.359375
3760		76.171875
3761		68.359375
3762		72.265625
3763		66.406250
3764		70.312500
3765		60.546875
3766		68.359375
3767		58.593750
3768		64.453125
3769		56.640625
3770		62.500000
3771		52.734375
3772		58.593750
3773		52.734375
3774		56.640625
3775		46.875000
3776		54.687500
3777		44.921875
3778		54.687500
3779		42.968750
3780		48.828125
3781		39.062500
3782		44.921875
3783		37.109375
3784		44.921875
3785		33.203125
3786		41.015625
3787		31.250000
3788		37.109375
3789		29.296875
3790		35.156250
3791		23.437500
3792		31.250000
3793		19.531250
3794		29.296875
3795		19.531250
3796		23.437500
3797		15.625000
3798		21.484375
3799		11.718750
3800		17.578125
3801		9.765625
3802		13.671875
3803		5.859375
3804		11.718750
3805		1.953125
3806		7.812500
3807		-1.953125
3808		3.906250
3809		-5.859375
3810		3.906250
3811		-5.859375
3812		0.000000
3813		-9.765625
3814		-5.859375
3815		-15.625000
3816		-9.765625
3817		-17.578125
3818		-11.718750
3819		-21.484375
3820		-15.625000
3821		-23.437500
3822		-17.578125
3823		-27.343750
3824		-21.484375
3825		-31.250000
3826		-23.437500
3827		-35.156250
3828		-27.343750
3829		-37.109375
3830		-33.203125
3831		-41.015625
3832		-35.156250
3833		-44.921875
3834		-37.109375
3835		-48.828125
3836		-41.015625
3837		-50.781250
3838		-44.921875
3839		-54.687500
3840		-48.828125
3841		-58.593750
3842		-50.781250
3843		-62.500000
3844		-54.687500
3845		-62.500000
3846		-56.640625
3847		-66.406250
3848		-62.500000
3849		-72.265625
3850		-64.453125
3851		-74.218750
3852		-68.359375
3853		-76.171875
3854		-70.312500
3855		-78.125000
3856		-74.218750
3857		-82.031250
3858		-76.171875
3859		-85.937500
3860		-78.125000
3861		-89.843750
3862		-80.078125
3863		-89.843750
3864		-85.937500
3865		-93.750000
3866		-87.890625
3867		-95.703125
3868		-87.890625
3869		-97.656250
3870		-93.750000
3871		-99.609375
3872		-95.703125
3873		-103.515625
3874		-97.656250
3875		-107.421875
3876		-99.609375
3877		-109.375000
3878		-101.562500
3879		-109.375000
3880		-105.468750
3881		-111.328125
3882		-107.421875
3883		-113.281250
3884		-109.375000
3885		-117.187500
3886		-111.328125
3887		-119.140625
3888		-113.281250
3889		-121.093750
3890		-115.234375
3891		-123.046875
3892		-117.187500
3893		-126.953125
3894		-117.187500
3895		-125.000000
3896		-119.140625
3897		-125.000000
3898		-123.046875
3899		-128.906250
3900		-125.000000
3901		-130.859375
3902		-125.000000
3903		-130.859375
3904		-126.953125
3905		-132.812500
3906		-126.953125
3907		-132.812500
3908		-128.906250
3909		-136.718750
3910		-128.906250
3911		-136.718750
3912		-128.906250
3913		-134.765625
3914		-132.812500
3915		-134.765625
3916		-132.812500
3917		-138.671875
3918		-132.812500
3919		-138.671875
3920		-132.812500
3921		-138.671875
3922		-130.859375
3923		-140.625000
3924		-132.812500
3925		-138.671875
3926		-132.812500
3927		-140.625000
3928		-132.812500
3929		-138.671875
3930		-132.812500
3931		-138.671875
3932		-134.765625
3933		-138.671875
3934		-132.812500
3935		-138.671875
3936		-132.812500
3937		-138.671875
3938		-130.859375
3939		-138.671875
3940		-130.859375
3941		-136.718750
3942		-130.859375
3943		-136.718750
3944		-128.906250
3945		-136.718750
3946		-128.906250
3947		-132.812500
3948		-128.906250
3949		-130.859375
3950		-128.906250
3951		-130.859375
3952		-125.000000
3953		-130.859375
3954		-125.000000
3955		-130.859375
3956		-123.046875
3957		-128.906250
3958		-121.093750
3959		-126.953125
3960		-119.140625
3961		-126.953125
3962		-119.140625
3963		-121.093750
3964		-119.140625
3965		-121.093750
3966		-117.187500
3967		-121.093750
3968		-111.328125
3969		-119.140625
3970		-113.281250
3971		-117.187500
3972		-109.375000
3973		-115.234375
3974		-107.421875
3975		-113.281250
3976		-105.468750
3977		-109.375000
3978		-101.562500
3979		-107.421875
3980		-101.562500
3981		-103.515625
3982		-99.609375
3983		-101.562500
3984		-95.703125
3985		-101.562500
3986		-93.750000
3987		-97.656250
3988		-91.796875
3989		-93.750000
3990		-87.890625
3991		-91.796875
3992		-83.984375
3993		-87.890625
3994		-82.031250
3995		-85.937500
3996		-80.078125
3997		-82.031250
3998		-78.125000
3999		-80.078125
4000		-74.218750
4001		-78.125000
4002		-68.359375
4003		-76.171875
4004		-66.406250
4005		-72.265625
4006		-62.500000
4007		-68.359375
4008		-60.546875
4009		-66.406250
4010		-56.640625
4011		-62.500000
4012		-52.734375
4013		-60.546875
4014		-52.734375
4015		-54.687500
4016		-48.828125
4017		-50.781250
4018		-44.921875
4019		-48.828125
4020		-41.015625
4021		-46.875000
4022		-37.109375
4023		-44.921875
4024		-33.203125
4025		-41.015625
4026		-31.250000
4027		-35.156250
4028		-27.343750
4029		-33.203125
4030		-25.390625
4031		-27.343750
4032		-21.484375
4033		-23.437500
4034		-17.578125
4035		-21.484375
4036		-13.671875
4037		-19.531250
4038		-9.765625
4039		-15.625000
4040		-5.859375
4041		-13.671875
4042		-3.906250
4043		-9.765625
4044		0.000000
4045		-5.859375
4046		1.953125
4047		0.000000
4048		3.906250
4049		1.953125
4050		7.812500
4051		5.859375
4052		13.671875
4053		5.859375
4054		15.625000
4055		11.718750
4056		19.531250
4057		13.671875
4058		21.484375
4059		15.625000
4060		25.390625
4061		19.531250
4062		29.296875
4063		21.484375
4064		29.296875
4065		27.343750
4066		33.203125
4067		31.250000
4068		37.109375
4069		31.250000
4070		41.015625
4071		35.156250
4072		44.921875
4073		37.109375
4074		46.875000
4075		41.015625
4076		48.828125
4077		44.921875
4078		52.734375
4079		46.875000
4080		54.687500
4081		50.781250
4082		54.687500
4083		54.687500
4084		58.593750
4085		54.687500
4086		62.500000
4087		56.640625
4088		64.453125
4089		58.593750
4090		68.359375
4091		62.500000
4092		70.312500
4093		64.453125
4094		72.265625
4095		66.406250
4096		76.171875
4097		70.312500
4098		76.171875
4099		74.218750
4100		78.125000
4101		76.171875
4102		80.078125
4103		76.171875
4104		83.984375
4105		78.125000
4106		85.937500
4107		80.078125
4108		87.890625
4109		82.031250
4110		87.890625
4111		83.984375
4112		91.796875
4113		83.984375
4114		93.750000
4115		89.843750
4116		93.750000
4117		91.796875
4118		95.703125
4119		89.843750
4120		97.656250
4121		91.796875
4122		99.609375
4123		93.750000
4124		101.562500
4125		93.750000
4126		103.515625
4127		95.703125
4128		105.468750
4129		97.656250
4130		105.468750
4131		101.562500
4132		103.515625
4133		103.515625
4134		105.468750
4135		101.562500
4136		109.375000
4137		101.562500
4138		109.375000
4139		103.515625
4140		111.328125
4141		103.515625
4142		111.328125
4143		103.515625
4144		113.281250
4145		105.468750
4146		113.281250
4147		105.468750
4148		113.281250
4149		109.375000
4150		111.328125
4151		109.375000
4152		113.281250
4153		107.421875
4154		115.234375
4155		109.375000
4156		117.187500
4157		107.421875
4158		117.187500
4159		107.421875
4160		117.187500
4161		109.375000
4162		117.187500
4163		109.375000
4164		117.187500
4165		111.328125
4166		113.281250
4167		111.328125
4168		115.234375
4169		111.328125
4170		115.234375
4171		109.375000
4172		115.234375
4173		109.375000
4174		115.234375
4175		107.421875
4176		115.234375
4177		107.421875
4178		115.234375
4179		107.421875
4180		115.234375
4181		109.375000
4182		113.281250
4183		109.375000
4184		111.328125
4185		105.468750
4186		113.281250
4187		107.421875
4188		111.328125
4189		105.468750
4190		109.375000
4191		103.515625
4192		111.328125
4193		103.515625
4194		107.421875
4195		101.562500
4196		109.375000
4197		99.609375
4198		107.421875
4199		99.609375
4200		103.515625
4201		99.609375
4202		103.515625
4203		97.656250
4204		103.515625
4205		97.656250
4206		99.609375
4207		93.750000
4208		99.609375
4209		91.796875
4210		99.609375
4211		91.796875
4212		95.703125
4213		89.843750
4214		95.703125
4215		89.843750
4216		91.796875
4217		87.890625
4218		89.843750
4219		83.984375
4220		89.843750
4221		82.031250
4222		87.890625
4223		80.078125
4224		85.937500
4225		78.125000
4226		83.984375
4227		78.125000
4228		82.031250
4229		72.265625
4230		80.078125
4231		72.265625
4232		80.078125
4233		70.312500
4234		74.218750
4235		66.406250
4236		72.265625
4237		64.453125
4238		70.312500
4239		62.500000
4240		68.359375
4241		58.593750
4242		64.453125
4243		56.640625
4244		62.500000
4245		52.734375
4246		60.546875
4247		50.781250
4248		58.593750
4249		48.828125
4250		54.687500
4251		46.875000
4252		50.781250
4253		42.968750
4254		48.828125
4255		39.062500
4256		44.921875
4257		37.109375
4258		42.968750
4259		35.156250
4260		41.015625
4261		29.296875
4262		37.109375
4263		27.343750
4264		35.156250
4265		25.390625
4266		33.203125
4267		23.437500
4268		27.343750
4269		17.578125
4270		23.437500
4271		15.625000
4272		21.484375
4273		13.671875
4274		17.578125
4275		9.765625
4276		15.625000
4277		5.859375
4278		11.718750
4279		0.000000
4280		9.765625
4281		-1.953125
4282		5.859375
4283		-3.906250
4284		1.953125
4285		-7.812500
4286		-1.953125
4287		-9.765625
4288		-3.906250
4289		-13.671875
4290		-7.812500
4291		-17.578125
4292		-11.718750
4293		-21.484375
4294		-15.625000
4295		-25.390625
4296		-17.578125
4297		-29.296875
4298		-19.531250
4299		-31.250000
4300		-25.390625
4301		-33.203125
4302		-29.296875
4303		-39.062500
4304		-31.250000
4305		-41.015625
4306		-35.156250
4307		-44.921875
4308		-37.109375
4309		-46.875000
4310		-41.015625
4311		-50.781250
4312		-44.921875
4313		-56.640625
4314		-46.875000
4315		-56.640625
4316		-50.781250
4317		-60.546875
4318		-54.687500
4319		-64.453125
4320		-58.593750
4321		-66.406250
4322		-58.593750
4323		-70.312500
4324		-64.453125
4325		-72.265625
4326		-68.359375
4327		-76.171875
4328		-70.312500
4329		-80.078125
4330		-72.265625
4331		-82.031250
4332		-74.218750
4333		-83.984375
4334		-80.078125
4335		-85.937500
4336		-82.031250
4337		-91.796875
4338		-83.984375
4339		-91.796875
4340		-87.890625
4341		-93.750000
4342		-89.843750
4343		-97.656250
4344		-91.796875
4345		-101.562500
4346		-95.703125
4347		-103.515625
4348		-95.703125
4349		-105.468750
4350		-99.609375
4351		-107.421875
4352		-103.515625
4353		-111.328125
4354		-105.468750
4355		-113.281250
4356		-107.421875
4357		-115.234375
4358		-109.375000
4359		-117.187500
4360		-111.328125
4361		-119.140625
4362		-113.281250
4363		-121.093750
4364		-115.234375
4365		-123.046875
4366		-115.234375
4367		-123.046875
4368		-119.140625
4369		-125.000000
4370		-121.093750
4371		-126.953125
4372		-121.093750
4373		-126.953125
4374		-123.046875
4375		-128.906250
4376		-125.000000
4377		-130.859375
4378		-126.953125
4379		-132.812500
4380		-125.000000
4381		-134.765625
4382		-126.953125
4383		-132.812500
4384		-128.906250
4385		-132.812500
4386		-130.859375
4387		-136.718750
4388		-128.906250
4389		-134.765625
4390		-132.812500
4391		-134.765625
4392		-132.812500
4393		-134.765625
4394		-132.812500
4395		-136.718750
4396		-132.812500
4397		-138.671875
4398		-130.859375
4399		-138.671875
4400		-132.812500
4401		-136.718750
4402		-134.765625
4403		-136.718750
4404		-132.812500
4405		-138.671875
4406		-132.812500
4407		-136.718750
4408		-132.812500
4409		-134.765625
4410		-132.812500
4411		-136.718750
4412		-132.812500
4413		-136.718750
4414		-128.906250
4415		-136.718750
4416		-128.906250
4417		-132.812500
4418		-130.859375
4419		-132.812500
4420		-130.859375
4421		-132.812500
4422		-126.953125
4423		-130.859375
4424		-126.953125
4425		-128.906250
4426		-126.953125
4427		-128.906250
4428		-125.000000
4429		-126.953125
4430		-123.046875
4431		-128.906250
4432		-119.140625
4433		-126.953125
4434		-119.140625
4435		-123.046875
4436		-119.140625
4437		-121.093750
4438		-115.234375
4439		-119.140625
4440		-115.234375
4441		-117.187500
4442		-113.281250
4443		-115.234375
4444		-111.328125
4445		-113.281250
4446		-109.375000
4447		-113.281250
4448		-105.468750
4449		-111.328125
4450		-103.515625
4451		-107.421875
4452		-103.515625
4453		-103.515625
4454		-99.609375
4455		-103.515625
4456		-97.656250
4457		-99.609375
4458		-95.703125
4459		-97.656250
4460		-93.750000
4461		-93.750000
4462		-89.843750
4463		-91.796875
4464		-85.937500
4465		-91.796875
4466		-82.031250
4467		-87.890625
4468		-82.031250
4469		-83.984375
4470		-80.078125
4471		-82.031250
4472		-74.218750
4473		-78.125000
4474		-72.265625
4475		-74.218750
4476		-70.312500
4477		-72.265625
4478		-66.406250
4479		-68.359375
4480		-64.453125
4481		-68.359375
4482		-58.593750
4483		-66.406250
4484		-56.640625
4485		-58.593750
4486		-54.687500
4487		-56.640625
4488		-48.828125
4489		-54.687500
4490		-46.875000
4491		-50.781250
4492		-44.921875
4493		-44.921875
4494		-41.015625
4495		-42.968750
4496		-37.109375
4497		-39.062500
4498		-31.250000
4499		-39.062500
4500		-29.296875
4501		-33.203125
4502		-27.343750
4503		-29.296875
4504		-23.437500
4505		-25.390625
4506		-19.531250
4507		-21.484375
4508		-17.578125
4509		-19.531250
4510		-13.671875
4511		-15.625000
4512		-9.765625
4513		-13.671875
4514		-7.812500
4515		-11.718750
4516		-1.953125
4517		-7.812500
4518		0.000000
4519		-1.953125
4520		1.953125
4521		0.000000
4522		5.859375
4523		3.906250
4524		9.765625
4525		7.812500
4526		11.718750
4527		11.718750
4528		15.625000
4529		13.671875
4530		19.531250
4531		15.625000
4532		23.437500
4533		17.578125
4534		25.390625
4535		23.437500
4536		27.343750
4537		27.343750
4538		31.250000
4539		27.343750
4540		33.203125
4541		33.203125
4542		37.109375
4543		35.156250
4544		41.015625
4545		37.109375
4546		42.968750
4547		41.015625
4548		48.828125
4549		42.968750
4550		50.781250
4551		44.921875
4552		50.781250
4553		50.781250
4554		54.687500
4555		52.734375
4556		58.593750
4557		54.687500
4558		60.546875
4559		56.640625
4560		62.500000
4561		58.593750
4562		64.453125
4563		62.500000
4564		66.406250
4565		62.500000
4566		72.265625
4567		64.453125
4568		72.265625
4569		70.312500
4570		74.218750
4571		72.265625
4572		78.125000
4573		74.218750
4574		78.125000
4575		76.171875
4576		80.078125
4577		78.125000
4578		83.984375
4579		80.078125
4580		85.937500
4581		82.031250
4582		89.843750
4583		82.031250
4584		91.796875
4585		85.937500
4586		89.843750
4587		87.890625
4588		91.796875
4589		87.890625
4590		95.703125
4591		91.796875
4592		95.703125
4593		93.750000
4594		97.656250
4595		93.750000
4596		99.609375
4597		95.703125
4598		101.562500
4599		95.703125
4600		103.515625
4601		97.656250
4602		103.515625
4603		101.562500
4604		103.515625
4605		101.562500
4606		105.468750
4607		99.609375
4608		107.421875
4609		103.515625
4610		107.421875
4611		103.515625
4612		109.375000
4613		105.468750
4614		109.375000
4615		103.515625
4616		111.328125
4617		105.468750
4618		113.281250
4619		109.375000
4620		111.328125
4621		109.375000
4622		111.328125
4623		109.375000
4624		115.234375
4625		109.375000
4626		113.281250
4627		109.375000
4628		113.281250
4629		109.375000
4630		115.234375
4631		109.375000
4632		115.234375
4633		109.375000
4634		117.187500
4635		109.375000
4636		115.234375
4637		111.328125
4638		113.281250
4639		111.328125
4640		117.187500
4641		111.328125
4642		113.281250
4643		111.328125
4644		115.234375
4645		111.328125
4646		115.234375
4647		111.328125
4648		115.234375
4649		109.375000
4650		115.234375
4651		109.375000
4652		115.234375
4653		109.375000
4654		113.281250
4655		109.375000
4656		113.281250
4657		105.468750
4658		113.281250
4659		107.421875
4660		111.328125
4661		105.468750
4662		111.328125
4663		105.468750
4664		109.375000
4665		103.515625
4666		111.328125
4667		101.562500
4668		109.375000
4669		103.515625
4670		107.421875
4671		103.515625
4672		105.468750
4673		99.609375
4674		105.468750
4675		99.609375
4676		103.515625
4677		97.656250
4678		103.515625
4679		97.656250
4680		101.562500
4681		93.750000
4682		99.609375
4683		91.796875
4684		99.609375
4685		91.796875
4686		97.656250
4687		91.796875
4688		93.750000
4689		87.890625
4690		93.750000
4691		85.937500
4692		93.750000
4693		83.984375
4694		87.890625
4695		82.031250
4696		87.890625
4697		82.031250
4698		85.937500
4699		78.125000
4700		85.937500
4701		76.171875
4702		82.031250
4703		74.218750
4704		78.125000
4705		72.265625
4706		76.171875
4707		70.312500
4708		76.171875
4709		66.406250
4710		72.265625
4711		64.453125
4712		70.312500
4713		62.500000
4714		68.359375
4715		56.640625
4716		66.406250
4717		54.687500
4718		62.500000
4719		54.687500
4720		62.500000
4721		52.734375
4722		56.640625
4723		46.875000
4724		54.687500
4725		46.875000
4726		50.781250
4727		42.968750
4728		48.828125
4729		39.062500
4730		46.875000
4731		37.109375
4732		42.968750
4733		33.203125
4734		42.968750
4735		31.250000
4736		39.062500
4737		29.296875
4738		33.203125
4739		23.437500
4740		29.296875
4741		19.531250
4742		29.296875
4743		17.578125
4744		25.390625
4745		13.671875
4746		21.484375
4747		11.718750
4748		17.578125
4749		7.812500
4750		15.625000
4751		3.906250
4752		13.671875
4753		3.906250
4754		7.812500
4755		0.000000
4756		3.906250
4757		-5.859375
4758		1.953125
4759		-7.812500
4760		0.000000
4761		-11.718750
4762		-3.906250
4763		-15.625000
4764		-5.859375
4765		-17.578125
4766		-11.718750
4767		-23.437500
4768		-13.671875
4769		-23.437500
4770		-17.578125
4771		-27.343750
4772		-23.437500
4773		-31.250000
4774		-25.390625
4775		-37.109375
4776		-27.343750
4777		-37.109375
4778		-31.250000
4779		-42.968750
4780		-35.156250
4781		-42.968750
4782		-39.062500
4783		-48.828125
4784		-41.015625
4785		-52.734375
4786		-44.921875
4787		-54.687500
4788		-48.828125
4789		-56.640625
4790		-52.734375
4791		-62.500000
4792		-54.687500
4793		-64.453125
4794		-56.640625
4795		-68.359375
4796		-60.546875
4797		-70.312500
4798		-64.453125
4799		-74.218750
4800		-66.406250
4801		-76.171875
4802		-70.312500
4803		-78.125000
4804		-72.265625
4805		-82.031250
4806		-76.171875
4807		-85.937500
4808		-80.078125
4809		-87.890625
4810		-80.078125
4811		-93.750000
4812		-83.984375
4813		-95.703125
4814		-85.937500
4815		-97.656250
4816		-89.843750
4817		-99.609375
4818		-91.796875
4819		-101.562500
4820		-95.703125
4821		-103.515625
4822		-99.609375
4823		-105.468750
4824		-101.562500
4825		-111.328125
4826		-101.562500
4827		-111.328125
4828		-103.515625
4829		-115.234375
4830		-105.468750
4831		-115.234375
4832		-107.421875
4833		-117.187500
4834		-111.328125
4835		-119.140625
4836		-113.281250
4837		-119.140625
4838		-115.234375
4839		-121.093750
4840		-119.140625
4841		-126.953125
4842		-119.140625
4843		-126.953125
4844		-119.140625
4845		-128.906250
4846		-121.093750
4847		-130.859375
4848		-121.093750
4849		-130.859375
4850		-125.000000
4851		-130.859375
4852		-126.953125
4853		-132.812500
4854		-126.953125
4855		-132.812500
4856		-130.859375
4857		-134.765625
4858		-130.859375
4859		-136.718750
4860		-128.906250
4861		-138.671875
4862		-130.859375
4863		-138.671875
4864		-130.859375
4865		-138.671875
4866		-130.859375
4867		-138.671875
4868		-132.812500
4869		-138.671875
4870		-134.765625
4871		-136.718750
4872		-134.765625
4873		-136.718750
4874		-134.765625
4875		-140.625000
4876		-132.812500
4877		-140.625000
4878		-132.812500
4879		-140.625000
4880		-132.812500
4881		-140.625000
4882		-132.812500
4883		-138.671875
4884		-132.812500
4885		-136.718750
4886		-132.812500
4887		-136.718750
4888		-132.812500
4889		-134.765625
4890		-132.812500
4891		-134.765625
4892		-130.859375
4893		-136.718750
4894		-128.906250
4895		-136.718750
4896		-126.953125
4897		-134.765625
4898		-126.953125
4899		-132.812500
4900		-126.953125
4901		-130.859375
4902		-125.000000
4903		-128.906250
4904		-125.000000
4905		-126.953125
4906		-123.046875
4907		-125.000000
4908		-121.093750
4909		-125.000000
4910		-117.187500
4911		-125.000000
4912		-117.187500
4913		-123.046875
4914		-115.234375
4915		-121.093750
4916		-113.281250
4917		-119.140625
4918		-113.281250
4919		-115.234375
4920		-109.375000
4921		-113.281250
4922		-109.375000
4923		-109.375000
4924		-107.421875
4925		-107.421875
4926		-103.515625
4927		-107.421875
4928		-99.609375
4929		-107.421875
4930		-97.656250
4931		-103.515625
4932		-93.750000
4933		-101.562500
4934		-93.750000
4935		-97.656250
4936		-91.796875
4937		-93.750000
4938		-87.890625
4939		-89.843750
4940		-85.937500
4941		-87.890625
4942		-83.984375
4943		-85.937500
4944		-80.078125
4945		-83.984375
4946		-76.171875
4947		-80.078125
4948		-72.265625
4949		-80.078125
4950		-70.312500
4951		-74.218750
4952		-68.359375
4953		-70.312500
4954		-64.453125
4955		-66.406250
4956		-62.500000
4957		-62.500000
4958		-58.593750
4959		-60.546875
4960		-56.640625
4961		-58.593750
4962		-48.828125
4963		-56.640625
4964		-48.828125
4965		-52.734375
4966		-42.968750
4967		-48.828125
4968		-41.015625
4969		-42.968750
4970		-37.109375
4971		-41.015625
4972		-35.156250
4973		-37.109375
4974		-31.250000
4975		-33.203125
4976		-27.343750
4977		-31.250000
4978		-25.390625
4979		-27.343750
4980		-21.484375
4981		-23.437500
4982		-17.578125
4983		-21.484375
4984		-15.625000
4985		-17.578125
4986		-11.718750
4987		-13.671875
4988		-7.812500
4989		-9.765625
4990		-5.859375
4991		-7.812500
4992		-1.953125
4993		-3.906250
4994		1.953125
4995		0.000000
4996		5.859375
4997		3.906250
4998		7.812500
4999		5.859375
5000		11.718750
5001		9.765625
5002		15.625000
5003		11.718750
5004		17.578125
5005		13.671875
5006		21.484375
5007		19.531250
5008		23.437500
5009		23.437500
5010		27.343750
5011		25.390625
5012		31.250000
5013		27.343750
5014		33.203125
5015		31.250000
5016		37.109375
5017		33.203125
5018		39.062500
5019		35.156250
5020		42.968750
5021		41.015625
5022		44.921875
5023		42.968750
5024		46.875000
5025		46.875000
5026		50.781250
5027		48.828125
5028		52.734375
5029		50.781250
5030		56.640625
5031		52.734375
5032		58.593750
5033		56.640625
5034		62.500000
5035		58.593750
5036		64.453125
5037		62.500000
5038		66.406250
5039		64.453125
5040		68.359375
5041		66.406250
5042		70.312500
5043		68.359375
5044		72.265625
5045		70.312500
5046		76.171875
5047		72.265625
5048		78.125000
5049		76.171875
5050		80.078125
5051		78.125000
5052		82.031250
5053		80.078125
5054		83.984375
5055		82.031250
5056		85.937500
5057		83.984375
5058		87.890625
5059		85.937500
5060		89.843750
5061		85.937500
5062		91.796875
5063		87.890625
5064		93.750000
5065		89.843750
5066		95.703125
5067		91.796875
5068		95.703125
5069		93.750000
5070		97.656250
5071		95.703125
5072		99.609375
5073		97.656250
5074		99.609375
5075		97.656250
5076		101.562500
5077		99.609375
5078		103.515625
5079		99.609375
5080		105.468750
5081		101.562500
5082		105.468750
5083		101.562500
5084		107.421875
5085		101.562500
5086		109.375000
5087		103.515625
5088		109.375000
5089		105.468750
5090		109.375000
5091		107.421875
5092		109.375000
5093		107.421875
5094		111.328125
5095		107.421875
5096		111.328125
5097		109.375000
5098		113.281250
5099		107.421875
5100		113.281250
5101		109.375000
5102		113.281250
5103		109.375000
5104		113.281250
5105		109.375000
5106		115.234375
5107		111.328125
5108		113.281250
5109		109.375000
5110		115.234375
5111		109.375000
5112		115.234375
5113		109.375000
5114		113.281250
5115		109.375000
5116		113.281250
5117		109.375000
5118		113.281250
5119		109.375000
5120		113.281250
5121		109.375000
5122		113.281250
5123		109.375000
5124		111.328125
5125		109.375000
5126		111.328125
5127		107.421875
5128		113.281250
5129		107.421875
5130		111.328125
5131		107.421875
5132		111.328125
5133		105.468750
5134		109.375000
5135		105.468750
5136		109.375000
5137		105.468750
5138		109.375000
5139		103.515625
5140		107.421875
5141		103.515625
5142		105.468750
5143		101.562500
5144		105.468750
5145		101.562500
5146		105.468750
5147		99.609375
5148		103.515625
5149		97.656250
5150		101.562500
5151		97.656250
5152		101.562500
5153		95.703125
5154		99.609375
5155		93.750000
5156		97.656250
5157		93.750000
5158		95.703125
5159		91.796875
5160		93.750000
5161		89.843750
5162		93.750000
5163		85.937500
5164		91.796875
5165		85.937500
5166		89.843750
5167		82.031250
5168		87.890625
5169		80.078125
5170		85.937500
5171		80.078125
5172		83.984375
5173		78.125000
5174		82.031250
5175		76.171875
5176		80.078125
5177		72.265625
5178		78.125000
5179		70.312500
5180		74.218750
5181		68.359375
5182		72.265625
5183		66.406250
5184		70.312500
5185		64.453125
5186		68.359375
5187		60.546875
5188		66.406250
5189		58.593750
5190		62.500000
5191		56.640625
5192		60.546875
5193		52.734375
5194		56.640625
5195		50.781250
5196		56.640625
5197		48.828125
5198		52.734375
5199		44.921875
5200		48.828125
5201		41.015625
5202		46.875000
5203		39.062500
5204		42.968750
5205		35.156250
5206		41.015625
5207		33.203125
5208		37.109375
5209		29.296875
5210		35.156250
5211		25.390625
5212		33.203125
5213		23.437500
5214		27.343750
5215		21.484375
5216		25.390625
5217		17.578125
5218		21.484375
5219		13.671875
5220		19.531250
5221		11.718750
5222		17.578125
5223		7.812500
5224		13.671875
5225		3.906250
5226		9.765625
5227		0.000000
5228		5.859375
5229		-1.953125
5230		3.906250
5231		-5.859375
5232		-1.953125
5233		-9.765625
5234		-3.906250
5235		-11.718750
5236		-7.812500
5237		-15.625000
5238		-9.765625
5239		-19.531250
5240		-13.671875
5241		-23.437500
5242		-17.578125
5243		-25.390625
5244		-21.484375
5245		-29.296875
5246		-23.437500
5247		-33.203125
5248		-27.343750
5249		-35.156250
5250		-31.250000
5251		-39.062500
5252		-35.156250
5253		-42.968750
5254		-37.109375
5255		-46.875000
5256		-41.015625
5257		-48.828125
5258		-44.921875
5259		-52.734375
5260		-46.875000
5261		-56.640625
5262		-50.781250
5263		-58.593750
5264		-54.687500
5265		-62.500000
5266		-56.640625
5267		-64.453125
5268		-60.546875
5269		-68.359375
5270		-64.453125
5271		-72.265625
5272		-66.406250
5273		-74.218750
5274		-70.312500
5275		-78.125000
5276		-72.265625
5277		-82.031250
5278		-76.171875
5279		-83.984375
5280		-78.125000
5281		-85.937500
5282		-82.031250
5283		-87.890625
5284		-83.984375
5285		-91.796875
5286		-87.890625
5287		-95.703125
5288		-89.843750
5289		-97.656250
5290		-93.750000
5291		-99.609375
5292		-95.703125
5293		-101.562500
5294		-97.656250
5295		-105.468750
5296		-99.609375
5297		-107.421875
5298		-103.515625
5299		-109.375000
5300		-105.468750
5301		-111.328125
5302		-107.421875
5303		-113.281250
5304		-109.375000
5305		-115.234375
5306		-109.375000
5307		-117.187500
5308		-113.281250
5309		-119.140625
5310		-115.234375
5311		-123.046875
5312		-117.187500
5313		-123.046875
5314		-119.140625
5315		-125.000000
5316		-121.093750
5317		-125.000000
5318		-123.046875
5319		-128.906250
5320		-123.046875
5321		-128.906250
5322		-125.000000
5323		-130.859375
5324		-126.953125
5325		-130.859375
5326		-128.906250
5327		-132.812500
5328		-128.906250
5329		-134.765625
5330		-128.906250
5331		-134.765625
5332		-130.859375
5333		-134.765625
5334		-132.812500
5335		-136.718750
5336		-132.812500
5337		-136.718750
5338		-132.812500
5339		-138.671875
5340		-132.812500
5341		-138.671875
5342		-134.765625
5343		-136.718750
5344		-134.765625
5345		-138.671875
5346		-134.765625
5347		-138.671875
5348		-134.765625
5349		-138.671875
5350		-134.765625
5351		-136.718750
5352		-134.765625
5353		-136.718750
5354		-134.765625
5355		-138.671875
5356		-134.765625
5357		-136.718750
5358		-132.812500
5359		-136.718750
5360		-132.812500
5361		-136.718750
5362		-130.859375
5363		-134.765625
5364		-130.859375
5365		-134.765625
5366		-130.859375
5367		-132.812500
5368		-128.906250
5369		-132.812500
5370		-128.906250
5371		-130.859375
5372		-126.953125
5373		-130.859375
5374		-125.000000
5375		-128.906250
5376		-125.000000
5377		-126.953125
5378		-123.046875
5379		-126.953125
5380		-123.046875
5381		-125.000000
5382		-121.093750
5383		-123.046875
5384		-119.140625
5385		-123.046875
5386		-117.187500
5387		-119.140625
5388		-115.234375
5389		-117.187500
5390		-113.281250
5391		-115.234375
5392		-111.328125
5393		-113.281250
5394		-109.375000
5395		-111.328125
5396		-105.468750
5397		-109.375000
5398		-105.468750
5399		-107.421875
5400		-103.515625
5401		-103.515625
5402		-99.609375
5403		-101.562500
5404		-97.656250
5405		-99.609375
5406		-95.703125
5407		-97.656250
5408		-91.796875
5409		-93.750000
5410		-89.843750
5411		-91.796875
5412		-87.890625
5413		-89.843750
5414		-83.984375
5415		-85.937500
5416		-82.031250
5417		-83.984375
5418		-78.125000
5419		-80.078125
5420		-76.171875
5421		-76.171875
5422		-72.265625
5423		-74.218750
5424		-68.359375
5425		-72.265625
5426		-66.406250
5427		-68.359375
5428		-64.453125
5429		-64.453125
5430		-60.546875
5431		-62.500000
5432		-56.640625
5433		-58.593750
5434		-52.734375
5435		-56.640625
5436		-48.828125
5437		-52.734375
5438		-46.875000
5439		-48.828125
5440		-42.968750
5441		-44.921875
5442		-41.015625
5443		-42.968750
5444		-37.109375
5445		-39.062500
5446		-35.156250
5447		-37.109375
5448		-31.250000
5449		-33.203125
5450		-27.343750
5451		-29.296875
5452		-23.437500
5453		-25.390625
5454		-19.531250
5455		-21.484375
5456		-15.625000
5457		-19.531250
5458		-11.718750
5459		-15.625000
5460		-9.765625
5461		-11.718750
5462		-7.812500
5463		-9.765625
5464		-3.906250
5465		-5.859375
5466		0.000000
5467		-1.953125
5468		1.953125
5469		0.000000
5470		5.859375
5471		5.859375
5472		9.765625
5473		7.812500
5474		13.671875
5475		9.765625
5476		15.625000
5477		15.625000
5478		19.531250
5479		17.578125
5480		23.437500
5481		19.531250
5482		25.390625
5483		23.437500
5484		29.296875
5485		25.390625
5486		31.250000
5487		29.296875
5488		35.156250
5489		33.203125
5490		37.109375
5491		37.109375
5492		41.015625
5493		39.062500
5494		42.968750
5495		41.015625
5496		46.875000
5497		44.921875
5498		50.781250
5499		46.875000
5500		50.781250
5501		50.781250
5502		54.687500
5503		52.734375
5504		56.640625
5505		54.687500
5506		60.546875
5507		56.640625
5508		62.500000
5509		58.593750
5510		64.453125
5511		62.500000
5512		66.406250
5513		66.406250
5514		70.312500
5515		68.359375
5516		72.265625
5517		70.312500
5518		74.218750
5519		72.265625
5520		76.171875
5521		74.218750
5522		80.078125
5523		76.171875
5524		82.031250
5525		78.125000
5526		83.984375
5527		80.078125
5528		83.984375
5529		83.984375
5530		85.937500
5531		83.984375
5532		87.890625
5533		85.937500
5534		89.843750
5535		87.890625
5536		91.796875
5537		89.843750
5538		93.750000
5539		91.796875
5540		95.703125
5541		93.750000
5542		97.656250
5543		93.750000
5544		97.656250
5545		95.703125
5546		99.609375
5547		97.656250
5548		101.562500
5549		97.656250
5550		103.515625
5551		99.609375
5552		103.515625
5553		99.609375
5554		105.468750
5555		103.515625
5556		105.468750
5557		101.562500
5558		107.421875
5559		103.515625
5560		109.375000
5561		105.468750
5562		109.375000
5563		105.468750
5564		109.375000
5565		107.421875
5566		109.375000
5567		107.421875
5568		111.328125
5569		107.421875
5570		111.328125
5571		107.421875
5572		111.328125
5573		109.375000
5574		113.281250
5575		109.375000
5576		113.281250
5577		111.328125
5578		113.281250
5579		111.328125
5580		113.281250
5581		111.328125
5582		113.281250
5583		111.328125
5584		113.281250
5585		109.375000
5586		113.281250
5587		111.328125
5588		113.281250
5589		109.375000
5590		113.281250
5591		109.375000
5592		113.281250
5593		109.375000
5594		115.234375
5595		109.375000
5596		113.281250
5597		107.421875
5598		113.281250
5599		109.375000
5600		111.328125
5601		107.421875
5602		111.328125
5603		107.421875
5604		111.328125
5605		107.421875
5606		109.375000
5607		107.421875
5608		109.375000
5609		105.468750
5610		109.375000
5611		105.468750
5612		107.421875
5613		103.515625
5614		107.421875
5615		101.562500
5616		107.421875
5617		101.562500
5618		105.468750
5619		101.562500
5620		103.515625
5621		99.609375
5622		101.562500
5623		97.656250
5624		101.562500
5625		95.703125
5626		99.609375
5627		95.703125
5628		99.609375
5629		93.750000
5630		97.656250
5631		91.796875
5632		95.703125
5633		89.843750
5634		95.703125
5635		87.890625
5636		91.796875
5637		85.937500
5638		89.843750
5639		85.937500
5640		87.890625
5641		83.984375
5642		87.890625
5643		80.078125
5644		85.937500
5645		78.125000
5646		82.031250
5647		76.171875
5648		80.078125
5649		74.218750
5650		78.125000
5651		72.265625
5652		76.171875
5653		70.312500
5654		74.218750
5655		68.359375
5656		72.265625
5657		64.453125
5658		70.312500
5659		60.546875
5660		68.359375
5661		60.546875
5662		64.453125
5663		56.640625
5664		62.500000
5665		54.687500
5666		58.593750
5667		52.734375
5668		56.640625
5669		48.828125
5670		54.687500
5671		46.875000
5672		50.781250
5673		44.921875
5674		48.828125
5675		41.015625
5676		44.921875
5677		37.109375
5678		42.968750
5679		35.156250
5680		39.062500
5681		31.250000
5682		35.156250
5683		29.296875
5684		33.203125
5685		25.390625
5686		31.250000
5687		23.437500
5688		27.343750
5689		19.531250
5690		23.437500
5691		15.625000
5692		21.484375
5693		11.718750
5694		19.531250
5695		9.765625
5696		13.671875
5697		5.859375
5698		11.718750
5699		1.953125
5700		9.765625
5701		0.000000
5702		3.906250
5703		-3.906250
5704		0.000000
5705		-7.812500
5706		-1.953125
5707		-9.765625
5708		-5.859375
5709		-13.671875
5710		-7.812500
5711		-17.578125
5712		-9.765625
5713		-19.531250
5714		-15.625000
5715		-25.390625
5716		-19.531250
5717		-27.343750
5718		-21.484375
5719		-31.250000
5720		-25.390625
5721		-35.156250
5722		-29.296875
5723		-37.109375
5724		-33.203125
5725		-41.015625
5726		-35.156250
5727		-44.921875
5728		-39.062500
5729		-46.875000
5730		-42.968750
5731		-52.734375
5732		-44.921875
5733		-54.687500
5734		-48.828125
5735		-56.640625
5736		-52.734375
5737		-60.546875
5738		-54.687500
5739		-64.453125
5740		-58.593750
5741		-66.406250
5742		-62.500000
5743		-70.312500
5744		-64.453125
5745		-72.265625
5746		-68.359375
5747		-76.171875
5748		-72.265625
5749		-80.078125
5750		-74.218750
5751		-82.031250
5752		-78.125000
5753		-83.984375
5754		-80.078125
5755		-87.890625
5756		-83.984375
5757		-91.796875
5758		-85.937500
5759		-93.750000
5760		-89.843750
5761		-95.703125
5762		-89.843750
5763		-97.656250
5764		-93.750000
5765		-101.562500
5766		-97.656250
5767		-103.515625
5768		-99.609375
5769		-107.421875
5770		-101.562500
5771		-109.375000
5772		-103.515625
5773		-111.328125
5774		-105.468750
5775		-113.281250
5776		-107.421875
5777		-115.234375
5778		-109.375000
5779		-117.187500
5780		-113.281250
5781		-119.140625
5782		-115.234375
5783		-121.093750
5784		-117.187500
5785		-123.046875
5786		-117.187500
5787		-125.000000
5788		-119.140625
5789		-126.953125
5790		-121.093750
5791		-128.906250
5792		-123.046875
5793		-128.906250
5794		-123.046875
5795		-130.859375
5796		-126.953125
5797		-130.859375
5798		-128.906250
5799		-134.765625
5800		-128.906250
5801		-134.765625
5802		-130.859375
5803		-136.718750
5804		-130.859375
5805		-136.718750
5806		-130.859375
5807		-138.671875
5808		-132.812500
5809		-138.671875
5810		-132.812500
5811		-138.671875
5812		-134.765625
5813		-138.671875
5814		-136.718750
5815		-140.625000
5816		-136.718750
5817		-140.625000
5818		-134.765625
5819		-140.625000
5820		-134.765625
5821		-140.625000
5822		-134.765625
5823		-140.625000
5824		-134.765625
5825		-140.625000
5826		-134.765625
5827		-140.625000
5828		-134.765625
5829		-138.671875
5830		-136.718750
5831		-138.671875
5832		-136.718750
5833		-140.625000
5834		-134.765625
5835		-138.671875
5836		-132.812500
5837		-138.671875
5838		-132.812500
5839		-136.718750
5840		-130.859375
5841		-136.718750
5842		-130.859375
5843		-134.765625
5844		-128.906250
5845		-134.765625
5846		-128.906250
5847		-132.812500
5848		-128.906250
5849		-130.859375
5850		-126.953125
5851		-130.859375
5852		-125.000000
5853		-128.906250
5854		-123.046875
5855		-126.953125
5856		-121.093750
5857		-126.953125
5858		-121.093750
5859		-125.000000
5860		-119.140625
5861		-123.046875
5862		-117.187500
5863		-119.140625
5864		-115.234375
5865		-117.187500
5866		-113.281250
5867		-117.187500
5868		-109.375000
5869		-115.234375
5870		-109.375000
5871		-111.328125
5872		-105.468750
5873		-111.328125
5874		-103.515625
5875		-107.421875
5876		-101.562500
5877		-105.468750
5878		-99.609375
5879		-101.562500
5880		-97.656250
5881		-99.609375
5882		-95.703125
5883		-97.656250
5884		-91.796875
5885		-93.750000
5886		-89.843750
5887		-89.843750
5888		-85.937500
5889		-87.890625
5890		-83.984375
5891		-85.937500
5892		-80.078125
5893		-82.031250
5894		-78.125000
5895		-80.078125
5896		-74.218750
5897		-76.171875
5898		-72.265625
5899		-74.218750
5900		-66.406250
5901		-70.312500
5902		-66.406250
5903		-66.406250
5904		-62.500000
5905		-64.453125
5906		-58.593750
5907		-60.546875
5908		-56.640625
5909		-56.640625
5910		-52.734375
5911		-54.687500
5912		-48.828125
5913		-50.781250
5914		-46.875000
5915		-46.875000
5916		-42.968750
5917		-44.921875
5918		-39.062500
5919		-41.015625
5920		-35.156250
5921		-37.109375
5922		-33.203125
5923		-35.156250
5924		-29.296875
5925		-31.250000
5926		-25.390625
5927		-27.343750
5928		-21.484375
5929		-23.437500
5930		-19.531250
5931		-19.531250
5932		-15.625000
5933		-17.578125
5934		-11.718750
5935		-13.671875
5936		-9.765625
5937		-9.765625
5938		-5.859375
5939		-5.859375
5940		-1.953125
5941		-3.906250
5942		1.953125
5943		0.000000
5944		3.906250
5945		3.906250
5946		7.812500
5947		5.859375
5948		11.718750
5949		9.765625
5950		13.671875
5951		11.718750
5952		17.578125
5953		15.625000
5954		19.531250
5955		19.531250
5956		23.437500
5957		21.484375
5958		27.343750
5959		25.390625
5960		29.296875
5961		29.296875
5962		33.203125
5963		31.250000
5964		35.156250
5965		35.156250
5966		39.062500
5967		37.109375
5968		41.015625
5969		41.015625
5970		44.921875
5971		42.968750
5972		46.875000
5973		46.875000
5974		50.781250
5975		48.828125
5976		52.734375
5977		50.781250
5978		54.687500
5979		54.687500
5980		58.593750
5981		56.640625
5982		60.546875
5983		58.593750
5984		62.500000
5985		58.593750
5986		68.359375
5987		60.546875
5988		72.265625
5989		64.453125
5990		72.265625
5991		68.359375
5992		72.265625
5993		70.312500
5994		74.218750
5995		74.218750
5996		76.171875
5997		76.171875
5998		80.078125
5999		78.125000
6000		82.031250
6001		78.125000
6002		85.937500
6003		80.078125
6004		87.890625
6005		80.078125
6006		89.843750
6007		85.937500
6008		87.890625
6009		87.890625
6010		89.843750
6011		89.843750
6012		91.796875
6013		89.843750
6014		93.750000
6015		91.796875
6016		95.703125
6017		91.796875
6018		99.609375
6019		91.796875
6020		101.562500
6021		93.750000
6022		103.515625
6023		93.750000
6024		103.515625
6025		99.609375
6026		101.562500
6027		99.609375
6028		103.515625
6029		101.562500
6030		103.515625
6031		103.515625
6032		105.468750
6033		103.515625
6034		105.468750
6035		101.562500
6036		111.328125
6037		101.562500
6038		111.328125
6039		101.562500
6040		111.328125
6041		105.468750
6042		109.375000
6043		107.421875
6044		109.375000
6045		107.421875
6046		109.375000
6047		107.421875
6048		111.328125
6049		107.421875
6050		111.328125
6051		105.468750
6052		115.234375
6053		105.468750
6054		115.234375
6055		105.468750
6056		115.234375
6057		107.421875
6058		115.234375
6059		109.375000
6060		111.328125
6061		109.375000
6062		111.328125
6063		109.375000
6064		111.328125
6065		109.375000
6066		111.328125
6067		109.375000
6068		111.328125
6069		105.468750
6070		115.234375
6071		105.468750
6072		115.234375
6073		105.468750
6074		113.281250
6075		107.421875
6076		109.375000
6077		107.421875
6078		109.375000
6079		105.468750
6080		109.375000
6081		105.468750
6082		107.421875
6083		105.468750
6084		107.421875
6085		101.562500
6086		109.375000
6087		99.609375
6088		109.375000
6089		97.656250
6090		107.421875
6091		99.609375
6092		103.515625
6093		99.609375
6094		101.562500
6095		97.656250
6096		101.562500
6097		97.656250
6098		99.609375
6099		95.703125
6100		97.656250
6101		89.843750
6102		99.609375
6103		89.843750
6104		99.609375
6105		87.890625
6106		97.656250
6107		85.937500
6108		95.703125
6109		87.890625
6110		91.796875
6111		85.937500
6112		87.890625
6113		83.984375
6114		87.890625
6115		82.031250
6116		85.937500
6117		80.078125
6118		83.984375
6119		74.218750
6120		83.984375
6121		72.265625
6122		82.031250
6123		70.312500
6124		80.078125
6125		70.312500
6126		74.218750
6127		68.359375
6128		72.265625
6129		66.406250
6130		70.312500
6131		64.453125
6132		68.359375
6133		60.546875
6134		64.453125
6135		56.640625
6136		64.453125
6137		52.734375
6138		64.453125
6139		50.781250
6140		60.546875
6141		50.781250
6142		56.640625
6143		46.875000
6144		52.734375
6145		44.921875
6146		48.828125
6147		42.968750
6148		46.875000
6149		39.062500
6150		42.968750
6151		35.156250
6152		41.015625
6153		31.250000
6154		41.015625
6155		25.390625
6156		39.062500
6157		25.390625
6158		35.156250
6159		23.437500
6160		29.296875
6161		21.484375
6162		25.390625
6163		17.578125
6164		21.484375
6165		13.671875
6166		19.531250
6167		11.718750
6168		15.625000
6169		7.812500
6170		11.718750
6171		1.953125
6172		9.765625
6173		0.000000
6174		5.859375
6175		-1.953125
6176		1.953125
6177		-5.859375
6178		0.000000
6179		-9.765625
6180		-3.906250
6181		-11.718750
6182		-7.812500
6183		-15.625000
6184		-11.718750
6185		-19.531250
6186		-13.671875
6187		-23.437500
6188		-17.578125
6189		-29.296875
6190		-17.578125
6191		-29.296875
6192		-23.437500
6193		-31.250000
6194		-27.343750
6195		-35.156250
6196		-31.250000
6197		-39.062500
6198		-35.156250
6199		-42.968750
6200		-37.109375
6201		-46.875000
6202		-41.015625
6203		-48.828125
6204		-44.921875
6205		-52.734375
6206		-46.875000
6207		-56.640625
6208		-50.781250
6209		-58.593750
6210		-54.687500
6211		-62.500000
6212		-56.640625
6213		-66.406250
6214		-60.546875
6215		-68.359375
6216		-64.453125
6217		-72.265625
6218		-66.406250
6219		-74.218750
6220		-70.312500
6221		-78.125000
6222		-72.265625
6223		-80.078125
6224		-76.171875
6225		-83.984375
6226		-78.125000
6227		-85.937500
6228		-82.031250
6229		-89.843750
6230		-83.984375
6231		-91.796875
6232		-87.890625
6233		-93.750000
6234		-89.843750
6235		-97.656250
6236		-93.750000
6237		-99.609375
6238		-95.703125
6239		-101.562500
6240		-97.656250
6241		-105.468750
6242		-101.562500
6243		-107.421875
6244		-103.515625
6245		-109.375000
6246		-105.468750
6247		-111.328125
6248		-107.421875
6249		-113.281250
6250		-109.375000
6251		-115.234375
6252		-111.328125
6253		-117.187500
6254		-113.281250
6255		-119.140625
6256		-117.187500
6257		-121.093750
6258		-119.140625
6259		-123.046875
6260		-119.140625
6261		-125.000000
6262		-121.093750
6263		-126.953125
6264		-123.046875
6265		-128.906250
6266		-125.000000
6267		-128.906250
6268		-126.953125
6269		-132.812500
6270		-126.953125
6271		-132.812500
6272		-128.906250
6273		-132.812500
6274		-130.859375
6275		-134.765625
6276		-132.812500
6277		-136.718750
6278		-132.812500
6279		-136.718750
6280		-132.812500
6281		-136.718750
6282		-134.765625
6283		-138.671875
6284		-134.765625
6285		-138.671875
6286		-136.718750
6287		-140.625000
6288		-134.765625
6289		-140.625000
6290		-136.718750
6291		-138.671875
6292		-136.718750
6293		-140.625000
6294		-136.718750
6295		-140.625000
6296		-136.718750
6297		-138.671875
6298		-136.718750
6299		-138.671875
6300		-136.718750
6301		-138.671875
6302		-136.718750
6303		-140.625000
6304		-134.765625
6305		-140.625000
6306		-134.765625
6307		-136.718750
6308		-134.765625
6309		-136.718750
6310		-132.812500
6311		-136.718750
6312		-132.812500
6313		-136.718750
6314		-132.812500
6315		-134.765625
6316		-132.812500
6317		-134.765625
6318		-130.859375
6319		-132.812500
6320		-128.906250
6321		-132.812500
6322		-126.953125
6323		-130.859375
6324		-126.953125
6325		-128.906250
6326		-125.000000
6327		-128.906250
6328		-123.046875
6329		-126.953125
6330		-123.046875
6331		-125.000000
6332		-121.093750
6333		-123.046875
6334		-119.140625
6335		-121.093750
6336		-117.187500
6337		-121.093750
6338		-113.281250
6339		-117.187500
6340		-113.281250
6341		-115.234375
6342		-111.328125
6343		-113.281250
6344		-107.421875
6345		-111.328125
6346		-105.468750
6347		-107.421875
6348		-103.515625
6349		-105.468750
6350		-101.562500
6351		-103.515625
6352		-99.609375
6353		-99.609375
6354		-95.703125
6355		-99.609375
6356		-93.750000
6357		-95.703125
6358		-91.796875
6359		-93.750000
6360		-87.890625
6361		-89.843750
6362		-83.984375
6363		-87.890625
6364		-82.031250
6365		-83.984375
6366		-80.078125
6367		-82.031250
6368		-76.171875
6369		-78.125000
6370		-74.218750
6371		-76.171875
6372		-70.312500
6373		-72.265625
6374		-68.359375
6375		-68.359375
6376		-64.453125
6377		-66.406250
6378		-60.546875
6379		-64.453125
6380		-56.640625
6381		-58.593750
6382		-54.687500
6383		-56.640625
6384		-50.781250
6385		-52.734375
6386		-48.828125
6387		-50.781250
6388		-42.968750
6389		-46.875000
6390		-41.015625
6391		-42.968750
6392		-37.109375
6393		-39.062500
6394		-33.203125
6395		-37.109375
6396		-31.250000
6397		-33.203125
6398		-27.343750
6399		-29.296875
6400		-25.390625
6401		-25.390625
6402		-21.484375
6403		-23.437500
6404		-17.578125
6405		-21.484375
6406		-13.671875
6407		-15.625000
6408		-11.718750
6409		-11.718750
6410		-7.812500
6411		-9.765625
6412		-3.906250
6413		-5.859375
6414		-1.953125
6415		-1.953125
6416		1.953125
6417		1.953125
6418		5.859375
6419		3.906250
6420		9.765625
6421		5.859375
6422		13.671875
6423		9.765625
6424		15.625000
6425		13.671875
6426		19.531250
6427		17.578125
6428		21.484375
6429		19.531250
6430		25.390625
6431		23.437500
6432		27.343750
6433		25.390625
6434		31.250000
6435		29.296875
6436		33.203125
6437		33.203125
6438		39.062500
6439		35.156250
6440		41.015625
6441		37.109375
6442		42.968750
6443		41.015625
6444		44.921875
6445		42.968750
6446		48.828125
6447		44.921875
6448		50.781250
6449		48.828125
6450		54.687500
6451		52.734375
6452		56.640625
6453		54.687500
6454		58.593750
6455		56.640625
6456		62.500000
6457		60.546875
6458		64.453125
6459		62.500000
6460		66.406250
6461		64.453125
6462		68.359375
6463		66.406250
6464		70.312500
6465		70.312500
6466		74.218750
6467		72.265625
6468		76.171875
6469		74.218750
6470		78.125000
6471		76.171875
6472		80.078125
6473		78.125000
6474		82.031250
6475		80.078125
6476		83.984375
6477		82.031250
6478		85.937500
6479		83.984375
6480		87.890625
6481		85.937500
6482		89.843750
6483		87.890625
6484		91.796875
6485		89.843750
6486		93.750000
6487		91.796875
6488		93.750000
6489		91.796875
6490		95.703125
6491		93.750000
6492		97.656250
6493		95.703125
6494		99.609375
6495		97.656250
6496		99.609375
6497		97.656250
6498		101.562500
6499		99.609375
6500		103.515625
6501		101.562500
6502		103.515625
6503		101.562500
6504		105.468750
6505		103.515625
6506		105.468750
6507		103.515625
6508		107.421875
6509		105.468750
6510		107.421875
6511		105.468750
6512		109.375000
6513		107.421875
6514		109.375000
6515		107.421875
6516		109.375000
6517		107.421875
6518		109.375000
6519		109.375000
6520		111.328125
6521		107.421875
6522		111.328125
6523		109.375000
6524		111.328125
6525		109.375000
6526		111.328125
6527		109.375000
6528		111.328125
6529		109.375000
6530		111.328125
6531		109.375000
6532		111.328125
6533		109.375000
6534		111.328125
6535		109.375000
6536		111.328125
6537		109.375000
6538		111.328125
6539		109.375000
6540		111.328125
6541		109.375000
6542		111.328125
6543		109.375000
6544		111.328125
6545		109.375000
6546		111.328125
6547		107.421875
6548		111.328125
6549		107.421875
6550		109.375000
6551		107.421875
6552		109.375000
6553		105.468750
6554		109.375000
6555		105.468750
6556		107.421875
6557		105.468750
6558		107.421875
6559		103.515625
6560		105.468750
6561		103.515625
6562		105.468750
6563		101.562500
6564		105.468750
6565		101.562500
6566		103.515625
6567		99.609375
6568		103.515625
6569		97.656250
6570		101.562500
6571		97.656250
6572		99.609375
6573		95.703125
6574		99.609375
6575		93.750000
6576		97.656250
6577		91.796875
6578		95.703125
6579		89.843750
6580		93.750000
6581		89.843750
6582		91.796875
6583		87.890625
6584		89.843750
6585		85.937500
6586		87.890625
6587		83.984375
6588		85.937500
6589		80.078125
6590		85.937500
6591		80.078125
6592		82.031250
6593		78.125000
6594		80.078125
6595		74.218750
6596		78.125000
6597		72.265625
6598		76.171875
6599		70.312500
6600		74.218750
6601		68.359375
6602		72.265625
6603		66.406250
6604		70.312500
6605		60.546875
6606		66.406250
6607		58.593750
6608		66.406250
6609		58.593750
6610		64.453125
6611		54.687500
6612		60.546875
6613		52.734375
6614		56.640625
6615		50.781250
6616		54.687500
6617		46.875000
6618		50.781250
6619		44.921875
6620		48.828125
6621		41.015625
6622		44.921875
6623		37.109375
6624		44.921875
6625		35.156250
6626		42.968750
6627		33.203125
6628		37.109375
6629		29.296875
6630		35.156250
6631		25.390625
6632		31.250000
6633		23.437500
6634		27.343750
6635		19.531250
6636		25.390625
6637		17.578125
6638		21.484375
6639		11.718750
6640		17.578125
6641		9.765625
6642		17.578125
6643		7.812500
6644		11.718750
6645		3.906250
6646		7.812500
6647		0.000000
6648		5.859375
6649		-1.953125
6650		1.953125
6651		-5.859375
6652		-1.953125
6653		-9.765625
6654		-3.906250
6655		-11.718750
6656		-7.812500
6657		-17.578125
6658		-9.765625
6659		-19.531250
6660		-11.718750
6661		-23.437500
6662		-17.578125
6663		-25.390625
6664		-21.484375
6665		-29.296875
6666		-25.390625
6667		-33.203125
6668		-27.343750
6669		-37.109375
6670		-31.250000
6671		-39.062500
6672		-35.156250
6673		-44.921875
6674		-39.062500
6675		-46.875000
6676		-41.015625
6677		-48.828125
6678		-44.921875
6679		-52.734375
6680		-48.828125
6681		-56.640625
6682		-50.781250
6683		-58.593750
6684		-54.687500
6685		-62.500000
6686		-58.593750
6687		-66.406250
6688		-60.546875
6689		-70.312500
6690		-64.453125
6691		-74.218750
6692		-66.406250
6693		-74.218750
6694		-68.359375
6695		-78.125000
6696		-74.218750
6697		-80.078125
6698		-76.171875
6699		-83.984375
6700		-80.078125
6701		-85.937500
6702		-82.031250
6703		-89.843750
6704		-85.937500
6705		-91.796875
6706		-87.890625
6707		-95.703125
6708		-89.843750
6709		-97.656250
6710		-91.796875
6711		-99.609375
6712		-95.703125
6713		-103.515625
6714		-97.656250
6715		-105.468750
6716		-101.562500
6717		-107.421875
6718		-103.515625
6719		-109.375000
6720		-105.468750
6721		-113.281250
6722		-109.375000
6723		-115.234375
6724		-109.375000
6725		-119.140625
6726		-111.328125
6727		-119.140625
6728		-115.234375
6729		-121.093750
6730		-117.187500
6731		-123.046875
6732		-119.140625
6733		-125.000000
6734		-121.093750
6735		-125.000000
6736		-123.046875
6737		-128.906250
6738		-125.000000
6739		-128.906250
6740		-125.000000
6741		-132.812500
6742		-125.000000
6743		-132.812500
6744		-126.953125
6745		-132.812500
6746		-130.859375
6747		-134.765625
6748		-130.859375
6749		-134.765625
6750		-132.812500
6751		-136.718750
6752		-132.812500
6753		-136.718750
6754		-134.765625
6755		-136.718750
6756		-134.765625
6757		-140.625000
6758		-134.765625
6759		-140.625000
6760		-134.765625
6761		-138.671875
6762		-136.718750
6763		-138.671875
6764		-136.718750
6765		-140.625000
6766		-136.718750
6767		-140.625000
6768		-136.718750
6769		-140.625000
6770		-138.671875
6771		-140.625000
6772		-136.718750
6773		-142.578125
6774		-136.718750
6775		-142.578125
6776		-134.765625
6777		-140.625000
6778		-134.765625
6779		-138.671875
6780		-136.718750
6781		-138.671875
6782		-134.765625
6783		-136.718750
6784		-134.765625
6785		-136.718750
6786		-134.765625
6787		-136.718750
6788		-132.812500
6789		-134.765625
6790		-132.812500
6791		-134.765625
6792		-130.859375
6793		-132.812500
6794		-130.859375
6795		-132.812500
6796		-128.906250
6797		-130.859375
6798		-126.953125
6799		-128.906250
6800		-126.953125
6801		-128.906250
6802		-125.000000
6803		-126.953125
6804		-123.046875
6805		-125.000000
6806		-121.093750
6807		-123.046875
6808		-117.187500
6809		-121.093750
6810		-117.187500
6811		-119.140625
6812		-115.234375
6813		-117.187500
6814		-113.281250
6815		-115.234375
6816		-111.328125
6817		-113.281250
6818		-109.375000
6819		-111.328125
6820		-107.421875
6821		-107.421875
6822		-103.515625
6823		-105.468750
6824		-101.562500
6825		-105.468750
6826		-99.609375
6827		-101.562500
6828		-95.703125
6829		-97.656250
6830		-93.750000
6831		-95.703125
6832		-91.796875
6833		-91.796875
6834		-87.890625
6835		-89.843750
6836		-85.937500
6837		-87.890625
6838		-82.031250
6839		-83.984375
6840		-80.078125
6841		-82.031250
6842		-76.171875
6843		-78.125000
6844		-74.218750
6845		-74.218750
6846		-70.312500
6847		-72.265625
6848		-68.359375
6849		-68.359375
6850		-64.453125
6851		-66.406250
6852		-60.546875
6853		-62.500000
6854		-58.593750
6855		-58.593750
6856		-54.687500
6857		-56.640625
6858		-50.781250
6859		-52.734375
6860		-48.828125
6861		-48.828125
6862		-44.921875
6863		-46.875000
6864		-41.015625
6865		-42.968750
6866		-37.109375
6867		-39.062500
6868		-35.156250
6869		-35.156250
6870		-31.250000
6871		-33.203125
6872		-27.343750
6873		-29.296875
6874		-25.390625
6875		-25.390625
6876		-21.484375
6877		-21.484375
6878		-17.578125
6879		-19.531250
6880		-13.671875
6881		-15.625000
6882		-9.765625
6883		-11.718750
6884		-7.812500
6885		-9.765625
6886		-3.906250
6887		-5.859375
6888		-1.953125
6889		-1.953125
6890		1.953125
6891		1.953125
6892		5.859375
6893		3.906250
6894		9.765625
6895		7.812500
6896		11.718750
6897		11.718750
6898		15.625000
6899		13.671875
6900		17.578125
6901		17.578125
6902		21.484375
6903		19.531250
6904		25.390625
6905		23.437500
6906		29.296875
6907		27.343750
6908		31.250000
6909		29.296875
6910		33.203125
6911		33.203125
6912		37.109375
6913		35.156250
6914		39.062500
6915		39.062500
6916		42.968750
6917		41.015625
6918		46.875000
6919		44.921875
6920		48.828125
6921		46.875000
6922		50.781250
6923		48.828125
6924		54.687500
6925		52.734375
6926		56.640625
6927		54.687500
6928		58.593750
6929		56.640625
6930		62.500000
6931		60.546875
6932		64.453125
6933		62.500000
6934		66.406250
6935		64.453125
6936		68.359375
6937		68.359375
6938		70.312500
6939		70.312500
6940		74.218750
6941		72.265625
6942		76.171875
6943		74.218750
6944		78.125000
6945		76.171875
6946		80.078125
6947		78.125000
6948		82.031250
6949		80.078125
6950		83.984375
6951		82.031250
6952		85.937500
6953		83.984375
6954		87.890625
6955		85.937500
6956		89.843750
6957		87.890625
6958		91.796875
6959		89.843750
6960		91.796875
6961		91.796875
6962		93.750000
6963		91.796875
6964		95.703125
6965		93.750000
6966		97.656250
6967		95.703125
6968		97.656250
6969		97.656250
6970		99.609375
6971		97.656250
6972		101.562500
6973		99.609375
6974		103.515625
6975		99.609375
6976		103.515625
6977		101.562500
6978		103.515625
6979		103.515625
6980		105.468750
6981		103.515625
6982		105.468750
6983		105.468750
6984		107.421875
6985		105.468750
6986		107.421875
6987		105.468750
6988		107.421875
6989		107.421875
6990		109.375000
6991		107.421875
6992		109.375000
6993		107.421875
6994		109.375000
6995		109.375000
6996		111.328125
6997		109.375000
6998		111.328125
6999		109.375000
7000		111.328125
7001		109.375000
7002		111.328125
7003		109.375000
7004		111.328125
7005		109.375000
7006		111.328125
7007		109.375000
7008		111.328125
7009		109.375000
7010		111.328125
7011		109.375000
7012		111.328125
7013		109.375000
7014		111.328125
7015		107.421875
7016		111.328125
7017		107.421875
7018		111.328125
7019		107.421875
7020		111.328125
7021		107.421875
7022		109.375000
7023		107.421875
7024		109.375000
7025		105.468750
7026		109.375000
7027		105.468750
7028		107.421875
7029		105.468750
7030		107.421875
7031		103.515625
7032		107.421875
7033		103.515625
7034		105.468750
7035		101.562500
7036		103.515625
7037		101.562500
7038		103.515625
7039		99.609375
7040		101.562500
7041		97.656250
7042		101.562500
7043		97.656250
7044		99.609375
7045		95.703125
7046		99.609375
7047		93.750000
7048		97.656250
7049		93.750000
7050		95.703125
7051		91.796875
7052		93.750000
7053		89.843750
7054		93.750000
7055		87.890625
7056		91.796875
7057		85.937500
7058		89.843750
7059		83.984375
7060		87.890625
7061		82.031250
7062		85.937500
7063		80.078125
7064		83.984375
7065		78.125000
7066		82.031250
7067		76.171875
7068		80.078125
7069		74.218750
7070		78.125000
7071		72.265625
7072		76.171875
7073		68.359375
7074		74.218750
7075		66.406250
7076		72.265625
7077		64.453125
7078		68.359375
7079		62.500000
7080		66.406250
7081		60.546875
7082		64.453125
7083		56.640625
7084		60.546875
7085		54.687500
7086		58.593750
7087		52.734375
7088		56.640625
7089		48.828125
7090		52.734375
7091		46.875000
7092		50.781250
7093		42.968750
7094		48.828125
7095		41.015625
7096		44.921875
7097		37.109375
7098		42.968750
7099		35.156250
7100		39.062500
7101		31.250000
7102		35.156250
7103		29.296875
7104		33.203125
7105		25.390625
7106		29.296875
7107		21.484375
7108		27.343750
7109		19.531250
7110		23.437500
7111		15.625000
7112		19.531250
7113		11.718750
7114		17.578125
7115		9.765625
7116		13.671875
7117		5.859375
7118		11.718750
7119		1.953125
7120		7.812500
7121		0.000000
7122		3.906250
7123		-3.906250
7124		0.000000
7125		-7.812500
7126		-1.953125
7127		-9.765625
7128		-5.859375
7129		-13.671875
7130		-9.765625
7131		-17.578125
7132		-11.718750
7133		-21.484375
7134		-15.625000
7135		-23.437500
7136		-19.531250
7137		-27.343750
7138		-23.437500
7139		-31.250000
7140		-25.390625
7141		-33.203125
7142		-29.296875
7143		-37.109375
7144		-33.203125
7145		-41.015625
7146		-35.156250
7147		-44.921875
7148		-39.062500
7149		-46.875000
7150		-42.968750
7151		-50.781250
7152		-46.875000
7153		-54.687500
7154		-48.828125
7155		-56.640625
7156		-52.734375
7157		-60.546875
7158		-56.640625
7159		-64.453125
7160		-58.593750
7161		-66.406250
7162		-62.500000
7163		-70.312500
7164		-64.453125
7165		-72.265625
7166		-68.359375
7167		-76.171875
7168		-72.265625
7169		-78.125000
7170		-74.218750
7171		-82.031250
7172		-78.125000
7173		-83.984375
7174		-80.078125
7175		-87.890625
7176		-83.984375
7177		-89.843750
7178		-85.937500
7179		-93.750000
7180		-89.843750
7181		-95.703125
7182		-91.796875
7183		-97.656250
7184		-93.750000
7185		-101.562500
7186		-95.703125
7187		-103.515625
7188		-99.609375
7189		-105.468750
7190		-101.562500
7191		-107.421875
7192		-103.515625
7193		-111.328125
7194		-107.421875
7195		-113.281250
7196		-109.375000
7197		-115.234375
7198		-111.328125
7199		-117.187500
7200		-113.281250
7201		-119.140625
7202		-115.234375
7203		-121.093750
7204		-117.187500
7205		-123.046875
7206		-119.140625
7207		-125.000000
7208		-121.093750
7209		-126.953125
7210		-123.046875
7211		-126.953125
7212		-125.000000
7213		-128.906250
7214		-126.953125
7215		-130.859375
7216		-126.953125
7217		-132.812500
7218		-128.906250
7219		-132.812500
7220		-130.859375
7221		-134.765625
7222		-130.859375
7223		-134.765625
7224		-132.812500
7225		-136.718750
7226		-132.812500
7227		-136.718750
7228		-134.765625
7229		-136.718750
7230		-134.765625
7231		-138.671875
7232		-136.718750
7233		-138.671875
7234		-136.718750
7235		-138.671875
7236		-136.718750
7237		-138.671875
7238		-136.718750
7239		-140.625000
7240		-136.718750
7241		-140.625000
7242		-136.718750
7243		-140.625000
7244		-136.718750
7245		-140.625000
7246		-136.718750
7247		-138.671875
7248		-136.718750
7249		-138.671875
7250		-136.718750
7251		-138.671875
7252		-136.718750
7253		-138.671875
7254		-136.718750
7255		-138.671875
7256		-134.765625
7257		-136.718750
7258		-134.765625
7259		-136.718750
7260		-134.765625
7261		-136.718750
7262		-132.812500
7263		-134.765625
7264		-132.812500
7265		-132.812500
7266		-130.859375
7267		-132.812500
7268		-128.906250
7269		-130.859375
7270		-128.906250
7271		-130.859375
7272		-126.953125
7273		-128.906250
7274		-125.000000
7275		-126.953125
7276		-123.046875
7277		-125.000000
7278		-123.046875
7279		-125.000000
7280		-121.093750
7281		-121.093750
7282		-119.140625
7283		-119.140625
7284		-117.187500
7285		-117.187500
7286		-115.234375
7287		-115.234375
7288		-113.281250
7289		-113.281250
7290		-111.328125
7291		-111.328125
7292		-107.421875
7293		-109.375000
7294		-105.468750
7295		-107.421875
7296		-103.515625
7297		-105.468750
7298		-101.562500
7299		-101.562500
7300		-97.656250
7301		-99.609375
7302		-95.703125
7303		-97.656250
7304		-91.796875
7305		-93.750000
7306		-89.843750
7307		-91.796875
7308		-87.890625
7309		-89.843750
7310		-83.984375
7311		-85.937500
7312		-82.031250
7313		-83.984375
7314		-78.125000
7315		-80.078125
7316		-76.171875
7317		-78.125000
7318		-72.265625
7319		-74.218750
7320		-70.312500
7321		-70.312500
7322		-66.406250
7323		-68.359375
7324		-62.500000
7325		-64.453125
7326		-60.546875
7327		-60.546875
7328		-56.640625
7329		-58.593750
7330		-52.734375
7331		-54.687500
7332		-50.781250
7333		-52.734375
7334		-46.875000
7335		-48.828125
7336		-42.968750
7337		-44.921875
7338		-41.015625
7339		-41.015625
7340		-37.109375
7341		-37.109375
7342		-33.203125
7343		-35.156250
7344		-29.296875
7345		-31.250000
7346		-27.343750
7347		-27.343750
7348		-23.437500
7349		-25.390625
7350		-19.531250
7351		-21.484375
7352		-15.625000
7353		-17.578125
7354		-13.671875
7355		-13.671875
7356		-9.765625
7357		-11.718750
7358		-5.859375
7359		-7.812500
7360		-3.906250
7361		-3.906250
7362		0.000000
7363		-1.953125
7364		3.906250
7365		1.953125
7366		7.812500
7367		5.859375
7368		9.765625
7369		9.765625
7370		13.671875
7371		11.718750
7372		17.578125
7373		15.625000
7374		19.531250
7375		17.578125
7376		23.437500
7377		21.484375
7378		25.390625
7379		25.390625
7380		29.296875
7381		27.343750
7382		33.203125
7383		31.250000
7384		35.156250
7385		33.203125
7386		39.062500
7387		37.109375
7388		41.015625
7389		39.062500
7390		44.921875
7391		42.968750
7392		46.875000
7393		44.921875
7394		50.781250
7395		48.828125
7396		52.734375
7397		50.781250
7398		54.687500
7399		52.734375
7400		56.640625
7401		56.640625
7402		60.546875
7403		58.593750
7404		62.500000
7405		60.546875
7406		64.453125
7407		62.500000
7408		68.359375
7409		66.406250
7410		70.312500
7411		68.359375
7412		72.265625
7413		70.312500
7414		74.218750
7415		72.265625
7416		76.171875
7417		76.171875
7418		78.125000
7419		78.125000
7420		80.078125
7421		80.078125
7422		83.984375
7423		82.031250
7424		85.937500
7425		83.984375
7426		87.890625
7427		85.937500
7428		87.890625
7429		87.890625
7430		89.843750
7431		89.843750
7432		91.796875
7433		89.843750
7434		93.750000
7435		91.796875
7436		95.703125
7437		93.750000
7438		97.656250
7439		95.703125
7440		97.656250
7441		97.656250
7442		99.609375
7443		97.656250
7444		101.562500
7445		99.609375
7446		101.562500
7447		99.609375
7448		103.515625
7449		101.562500
7450		105.468750
7451		103.515625
7452		105.468750
7453		103.515625
7454		107.421875
7455		105.468750
7456		107.421875
7457		105.468750
7458		107.421875
7459		107.421875
7460		109.375000
7461		107.421875
7462		109.375000
7463		107.421875
7464		109.375000
7465		107.421875
7466		111.328125
7467		109.375000
7468		111.328125
7469		109.375000
7470		111.328125
7471		109.375000
7472		111.328125
7473		109.375000
7474		113.281250
7475		111.328125
7476		113.281250
7477		111.328125
7478		113.281250
7479		111.328125
7480		113.281250
7481		111.328125
7482		113.281250
7483		111.328125
7484		113.281250
7485		109.375000
7486		113.281250
7487		109.375000
7488		113.281250
7489		109.375000
7490		113.281250
7491		109.375000
7492		111.328125
7493		109.375000
7494		111.328125
7495		109.375000
7496		111.328125
7497		107.421875
7498		111.328125
7499		107.421875
7500		109.375000
7501		107.421875
7502		109.375000
7503		105.468750
7504		107.421875
7505		105.468750
7506		107.421875
7507		103.515625
7508		107.421875
7509		103.515625
7510		105.468750
7511		101.562500
7512		105.468750
7513		99.609375
7514		103.515625
7515		99.609375
7516		101.562500
7517		97.656250
7518		101.562500
7519		97.656250
7520		99.609375
7521		95.703125
7522		97.656250
7523		93.750000
7524		97.656250
7525		91.796875
7526		95.703125
7527		89.843750
7528		93.750000
7529		87.890625
7530		91.796875
7531		87.890625
7532		89.843750
7533		85.937500
7534		87.890625
7535		83.984375
7536		85.937500
7537		82.031250
7538		83.984375
7539		78.125000
7540		82.031250
7541		76.171875
7542		80.078125
7543		74.218750
7544		78.125000
7545		72.265625
7546		76.171875
7547		70.312500
7548		74.218750
7549		68.359375
7550		72.265625
7551		66.406250
7552		68.359375
7553		62.500000
7554		66.406250
7555		60.546875
7556		64.453125
7557		58.593750
7558		62.500000
7559		54.687500
7560		58.593750
7561		52.734375
7562		56.640625
7563		48.828125
7564		54.687500
7565		46.875000
7566		50.781250
7567		42.968750
7568		48.828125
7569		41.015625
7570		44.921875
7571		37.109375
7572		42.968750
7573		35.156250
7574		39.062500
7575		31.250000
7576		37.109375
7577		29.296875
7578		33.203125
7579		25.390625
7580		31.250000
7581		23.437500
7582		27.343750
7583		19.531250
7584		23.437500
7585		15.625000
7586		21.484375
7587		13.671875
7588		17.578125
7589		9.765625
7590		13.671875
7591		5.859375
7592		11.718750
7593		3.906250
7594		7.812500
7595		0.000000
7596		3.906250
7597		-3.906250
7598		1.953125
7599		-5.859375
7600		-1.953125
7601		-9.765625
7602		-5.859375
7603		-13.671875
7604		-7.812500
7605		-17.578125
7606		-11.718750
7607		-19.531250
7608		-13.671875
7609		-23.437500
7610		-19.531250
7611		-27.343750
7612		-21.484375
7613		-29.296875
7614		-25.390625
7615		-33.203125
7616		-29.296875
7617		-37.109375
7618		-33.203125
7619		-39.062500
7620		-35.156250
7621		-42.968750
7622		-39.062500
7623		-46.875000
7624		-42.968750
7625		-50.781250
7626		-44.921875
7627		-52.734375
7628		-48.828125
7629		-56.640625
7630		-52.734375
7631		-60.546875
7632		-54.687500
7633		-62.500000
7634		-58.593750
7635		-68.359375
7636		-60.546875
7637		-70.312500
7638		-64.453125
7639		-74.218750
7640		-68.359375
7641		-76.171875
7642		-70.312500
7643		-78.125000
7644		-74.218750
7645		-82.031250
7646		-76.171875
7647		-83.984375
7648		-80.078125
7649		-87.890625
7650		-82.031250
7651		-91.796875
7652		-85.937500
7653		-91.796875
7654		-87.890625
7655		-95.703125
7656		-91.796875
7657		-97.656250
7658		-91.796875
7659		-103.515625
7660		-95.703125
7661		-103.515625
7662		-99.609375
7663		-105.468750
7664		-101.562500
7665		-109.375000
7666		-103.515625
7667		-109.375000
7668		-105.468750
7669		-113.281250
7670		-105.468750
7671		-115.234375
7672		-109.375000
7673		-117.187500
7674		-111.328125
7675		-117.187500
7676		-115.234375
7677		-123.046875
7678		-113.281250
7679		-121.093750
7680		-119.140625
7681		-123.046875
7682		-119.140625
7683		-126.953125
7684		-121.093750
7685		-128.906250
7686		-121.093750
7687		-128.906250
7688		-123.046875
7689		-128.906250
7690		-126.953125
7691		-130.859375
7692		-125.000000
7693		-134.765625
7694		-125.000000
7695		-132.812500
7696		-130.859375
7697		-132.812500
7698		-130.859375
7699		-136.718750
7700		-130.859375
7701		-138.671875
7702		-128.906250
7703		-136.718750
7704		-130.859375
7705		-136.718750
7706		-132.812500
7707		-138.671875
7708		-132.812500
7709		-136.718750
7710		-134.765625
7711		-138.671875
7712		-132.812500
7713		-136.718750
7714		-134.765625
7715		-138.671875
7716		-134.765625
7717		-140.625000
7718		-132.812500
7719		-140.625000
7720		-134.765625
7721		-138.671875
7722		-134.765625
7723		-138.671875
7724		-132.812500
7725		-140.625000
7726		-130.859375
7727		-140.625000
7728		-130.859375
7729		-136.718750
7730		-132.812500
7731		-134.765625
7732		-132.812500
7733		-136.718750
7734		-130.859375
7735		-134.765625
7736		-128.906250
7737		-134.765625
7738		-128.906250
7739		-132.812500
7740		-126.953125
7741		-132.812500
7742		-123.046875
7743		-130.859375
7744		-123.046875
7745		-130.859375
7746		-123.046875
7747		-125.000000
7748		-123.046875
7749		-125.000000
7750		-119.140625
7751		-125.000000
7752		-115.234375
7753		-123.046875
7754		-115.234375
7755		-119.140625
7756		-115.234375
7757		-119.140625
7758		-109.375000
7759		-119.140625
7760		-109.375000
7761		-115.234375
7762		-107.421875
7763		-111.328125
7764		-107.421875
7765		-109.375000
7766		-105.468750
7767		-109.375000
7768		-101.562500
7769		-107.421875
7770		-99.609375
7771		-103.515625
7772		-97.656250
7773		-99.609375
7774		-93.750000
7775		-99.609375
7776		-89.843750
7777		-95.703125
7778		-85.937500
7779		-91.796875
7780		-87.890625
7781		-87.890625
7782		-83.984375
7783		-85.937500
7784		-80.078125
7785		-85.937500
7786		-76.171875
7787		-82.031250
7788		-76.171875
7789		-78.125000
7790		-72.265625
7791		-74.218750
7792		-64.453125
7793		-74.218750
7794		-66.406250
7795		-72.265625
7796		-62.500000
7797		-64.453125
7798		-60.546875
7799		-62.500000
7800		-56.640625
7801		-60.546875
7802		-50.781250
7803		-56.640625
7804		-48.828125
7805		-50.781250
7806		-46.875000
7807		-48.828125
7808		-41.015625
7809		-48.828125
7810		-39.062500
7811		-42.968750
7812		-35.156250
7813		-39.062500
7814		-33.203125
7815		-35.156250
7816		-31.250000
7817		-33.203125
7818		-25.390625
7819		-31.250000
7820		-21.484375
7821		-27.343750
7822		-19.531250
7823		-21.484375
7824		-17.578125
7825		-19.531250
7826		-9.765625
7827		-15.625000
7828		-5.859375
7829		-15.625000
7830		-7.812500
7831		-7.812500
7832		-3.906250
7833		-5.859375
7834		1.953125
7835		-3.906250
7836		5.859375
7837		0.000000
7838		7.812500
7839		5.859375
7840		9.765625
7841		7.812500
7842		15.625000
7843		7.812500
7844		17.578125
7845		13.671875
7846		21.484375
7847		17.578125
7848		21.484375
7849		21.484375
7850		25.390625
7851		23.437500
7852		31.250000
7853		23.437500
7854		33.203125
7855		29.296875
7856		35.156250
7857		33.203125
7858		39.062500
7859		33.203125
7860		42.968750
7861		39.062500
7862		44.921875
7863		42.968750
7864		46.875000
7865		44.921875
7866		48.828125
7867		46.875000
7868		52.734375
7869		48.828125
7870		58.593750
7871		50.781250
7872		58.593750
7873		56.640625
7874		60.546875
7875		56.640625
7876		66.406250
7877		58.593750
7878		66.406250
7879		60.546875
7880		70.312500
7881		66.406250
7882		70.312500
7883		68.359375
7884		74.218750
7885		70.312500
7886		76.171875
7887		72.265625
7888		80.078125
7889		76.171875
7890		78.125000
7891		78.125000
7892		83.984375
7893		76.171875
7894		85.937500
7895		80.078125
7896		87.890625
7897		83.984375
7898		87.890625
7899		85.937500
7900		87.890625
7901		85.937500
7902		93.750000
7903		85.937500
7904		95.703125
7905		89.843750
7906		95.703125
7907		91.796875
7908		95.703125
7909		91.796875
7910		97.656250
7911		95.703125
7912		99.609375
7913		95.703125
7914		101.562500
7915		99.609375
7916		101.562500
7917		99.609375
7918		103.515625
7919		97.656250
7920		107.421875
7921		99.609375
7922		107.421875
7923		103.515625
7924		107.421875
7925		101.562500
7926		109.375000
7927		105.468750
7928		107.421875
7929		107.421875
7930		109.375000
7931		107.421875
7932		109.375000
7933		107.421875
7934		111.328125
7935		107.421875
7936		111.328125
7937		107.421875
7938		113.281250
7939		109.375000
7940		113.281250
7941		109.375000
7942		113.281250
7943		107.421875
7944		115.234375
7945		111.328125
7946		113.281250
7947		111.328125
7948		113.281250
7949		111.328125
7950		113.281250
7951		111.328125
7952		115.234375
7953		111.328125
7954		113.281250
7955		111.328125
7956		113.281250
7957		111.328125
7958		113.281250
7959		111.328125
7960		113.281250
7961		111.328125
7962		113.281250
7963		109.375000
7964		115.234375
7965		111.328125
7966		113.281250
7967		109.375000
7968		113.281250
7969		109.375000
7970		111.328125
7971		109.375000
7972		111.328125
7973		107.421875
7974		111.328125
7975		107.421875
7976		109.375000
7977		107.421875
7978		109.375000
7979		105.468750
7980		109.375000
7981		105.468750
7982		107.421875
7983		103.515625
7984		107.421875
7985		101.562500
7986		105.468750
7987		99.609375
7988		105.468750
7989		99.609375
7990		105.468750
7991		97.656250
7992		103.515625
7993		97.656250
7994		103.515625
7995		95.703125
7996		101.562500
7997		95.703125
7998		99.609375
7999		93.750000
8000		95.703125
8001		89.843750
8002		95.703125
8003		89.843750
8004		93.750000
8005		87.890625
8006		93.750000
8007		83.984375
8008		91.796875
8009		83.984375
8010		89.843750
8011		80.078125
8012		87.890625
8013		80.078125
8014		85.937500
8015		78.125000
8016		82.031250
8017		76.171875
8018		80.078125
8019		72.265625
8020		78.125000
8021		70.312500
8022		76.171875
8023		68.359375
8024		74.218750
8025		66.406250
8026		72.265625
8027		62.500000
8028		70.312500
8029		60.546875
8030		66.406250
8031		58.593750
8032		64.453125
8033		56.640625
8034		60.546875
8035		52.734375
8036		56.640625
8037		50.781250
8038		56.640625
8039		46.875000
8040		52.734375
8041		42.968750
8042		50.781250
8043		41.015625
8044		48.828125
8045		39.062500
8046		44.921875
8047		37.109375
8048		42.968750
8049		33.203125
8050		37.109375
8051		29.296875
8052		35.156250
8053		25.390625
8054		33.203125
8055		23.437500
8056		29.296875
8057		17.578125
8058		27.343750
8059		17.578125
8060		23.437500
8061		13.671875
8062		19.531250
8063		9.765625
8064		15.625000
8065		7.812500
8066		13.671875
8067		3.906250
8068		9.765625
8069		0.000000
8070		5.859375
8071		-1.953125
8072		3.906250
8073		-5.859375
8074		0.000000
8075		-9.765625
8076		-1.953125
8077		-13.671875
8078		-5.859375
8079		-15.625000
8080		-9.765625
8081		-19.531250
8082		-13.671875
8083		-23.437500
8084		-17.578125
8085		-27.343750
8086		-21.484375
8087		-29.296875
8088		-23.437500
8089		-33.203125
8090		-25.390625
8091		-37.109375
8092		-31.250000
8093		-39.062500
8094		-33.203125
8095		-42.968750
8096		-37.109375
8097		-46.875000
8098		-41.015625
8099		-48.828125
8100		-44.921875
8101		-52.734375
8102		-46.875000
8103		-54.687500
8104		-48.828125
8105		-58.593750
8106		-52.734375
8107		-62.500000
8108		-56.640625
8109		-66.406250
8110		-58.593750
8111		-68.359375
8112		-62.500000
8113		-72.265625
8114		-66.406250
8115		-74.218750
8116		-68.359375
8117		-78.125000
8118		-72.265625
8119		-80.078125
8120		-76.171875
8121		-83.984375
8122		-78.125000
8123		-85.937500
8124		-82.031250
8125		-89.843750
8126		-83.984375
8127		-91.796875
8128		-85.937500
8129		-93.750000
8130		-89.843750
8131		-97.656250
8132		-91.796875
8133		-99.609375
8134		-95.703125
8135		-103.515625
8136		-97.656250
8137		-105.468750
8138		-99.609375
8139		-107.421875
8140		-101.562500
8141		-111.328125
8142		-103.515625
8143		-111.328125
8144		-107.421875
8145		-113.281250
8146		-109.375000
8147		-115.234375
8148		-111.328125
8149		-117.187500
8150		-113.281250
8151		-119.140625
8152		-115.234375
8153		-121.093750
8154		-115.234375
8155		-123.046875
8156		-119.140625
8157		-125.000000
8158		-119.140625
8159		-126.953125
8160		-119.140625
8161		-126.953125
8162		-123.046875
8163		-128.906250
8164		-125.000000
8165		-130.859375
8166		-125.000000
8167		-130.859375
8168		-128.906250
8169		-132.812500
8170		-128.906250
8171		-134.765625
8172		-128.906250
8173		-134.765625
8174		-130.859375
8175		-136.718750
8176		-130.859375
8177		-136.718750
8178		-132.812500
8179		-136.718750
8180		-132.812500
8181		-138.671875
8182		-132.812500
8183		-138.671875
8184		-134.765625
8185		-138.671875
8186		-134.765625
8187		-138.671875
8188		-134.765625
8189		-138.671875
8190		-134.765625
8191		-138.671875
8192		-134.765625
8193		-138.671875
8194		-132.812500
8195		-138.671875
8196		-134.765625
8197		-138.671875
8198		-134.765625
8199		-136.718750
8200		-132.812500
8201		-136.718750
8202		-134.765625
8203		-136.718750
8204		-132.812500
8205		-134.765625
8206		-130.859375
8207		-134.765625
8208		-130.859375
8209		-134.765625
8210		-128.906250
8211		-132.812500
8212		-128.906250
8213		-130.859375
8214		-128.906250
8215		-130.859375
8216		-126.953125
8217		-128.906250
8218		-126.953125
8219		-128.906250
8220		-123.046875
8221		-126.953125
8222		-123.046875
8223		-125.000000
8224		-121.093750
8225		-123.046875
8226		-117.187500
8227		-121.093750
8228		-117.187500
8229		-121.093750
8230		-115.234375
8231		-117.187500
8232		-113.281250
8233		-115.234375
8234		-111.328125
8235		-113.281250
8236		-109.375000
8237		-111.328125
8238		-107.421875
8239		-109.375000
8240		-105.468750
8241		-107.421875
8242		-101.562500
8243		-103.515625
8244		-101.562500
8245		-101.562500
8246		-97.656250
8247		-99.609375
8248		-95.703125
8249		-97.656250
8250		-93.750000
8251		-93.750000
8252		-89.843750
8253		-91.796875
8254		-87.890625
8255		-89.843750
8256		-83.984375
8257		-85.937500
8258		-80.078125
8259		-83.984375
8260		-78.125000
8261		-80.078125
8262		-76.171875
8263		-78.125000
8264		-72.265625
8265		-76.171875
8266		-68.359375
8267		-72.265625
8268		-66.406250
8269		-68.359375
8270		-64.453125
8271		-66.406250
8272		-60.546875
8273		-62.500000
8274		-56.640625
8275		-58.593750
8276		-54.687500
8277		-54.687500
8278		-50.781250
8279		-52.734375
8280		-46.875000
8281		-48.828125
8282		-42.968750
8283		-46.875000
8284		-41.015625
8285		-42.968750
8286		-37.109375
8287		-39.062500
8288		-33.203125
8289		-35.156250
8290		-29.296875
8291		-31.250000
8292		-27.343750
8293		-29.296875
8294		-23.437500
8295		-25.390625
8296		-21.484375
8297		-23.437500
8298		-17.578125
8299		-19.531250
8300		-13.671875
8301		-15.625000
8302		-9.765625
8303		-11.718750
8304		-5.859375
8305		-7.812500
8306		-3.906250
8307		-5.859375
8308		0.000000
8309		-1.953125
8310		3.906250
8311		1.953125
8312		5.859375
8313		5.859375
8314		9.765625
8315		7.812500
8316		13.671875
8317		11.718750
8318		15.625000
8319		13.671875
8320		19.531250
8321		17.578125
8322		21.484375
8323		19.531250
8324		25.390625
8325		23.437500
8326		29.296875
8327		27.343750
8328		31.250000
8329		29.296875
8330		35.156250
8331		33.203125
8332		37.109375
8333		35.156250
8334		41.015625
8335		39.062500
8336		42.968750
8337		41.015625
8338		48.828125
8339		42.968750
8340		48.828125
8341		46.875000
8342		52.734375
8343		50.781250
8344		54.687500
8345		52.734375
8346		58.593750
8347		54.687500
8348		60.546875
8349		56.640625
8350		62.500000
8351		60.546875
8352		64.453125
8353		64.453125
8354		66.406250
8355		64.453125
8356		70.312500
8357		68.359375
8358		72.265625
8359		70.312500
8360		74.218750
8361		72.265625
8362		78.125000
8363		74.218750
8364		78.125000
8365		78.125000
8366		82.031250
8367		78.125000
8368		82.031250
8369		82.031250
8370		85.937500
8371		82.031250
8372		87.890625
8373		83.984375
8374		87.890625
8375		85.937500
8376		89.843750
8377		87.890625
8378		91.796875
8379		89.843750
8380		93.750000
8381		91.796875
8382		95.703125
8383		91.796875
8384		97.656250
8385		95.703125
8386		97.656250
8387		95.703125
8388		101.562500
8389		97.656250
8390		101.562500
8391		97.656250
8392		103.515625
8393		99.609375
8394		103.515625
8395		101.562500
8396		105.468750
8397		103.515625
8398		107.421875
8399		103.515625
8400		107.421875
8401		105.468750
8402		107.421875
8403		105.468750
8404		109.375000
8405		105.468750
8406		109.375000
8407		107.421875
8408		111.328125
8409		107.421875
8410		111.328125
8411		109.375000
8412		111.328125
8413		107.421875
8414		113.281250
8415		109.375000
8416		111.328125
8417		109.375000
8418		113.281250
8419		111.328125
8420		113.281250
8421		109.375000
8422		113.281250
8423		111.328125
8424		113.281250
8425		111.328125
8426		113.281250
8427		109.375000
8428		113.281250
8429		111.328125
8430		113.281250
8431		111.328125
8432		113.281250
8433		109.375000
8434		113.281250
8435		111.328125
8436		113.281250
8437		109.375000
8438		113.281250
8439		109.375000
8440		113.281250
8441		109.375000
8442		111.328125
8443		109.375000
8444		111.328125
8445		107.421875
8446		111.328125
8447		105.468750
8448		111.328125
8449		105.468750
8450		109.375000
8451		105.468750
8452		109.375000
8453		105.468750
8454		107.421875
8455		103.515625
8456		107.421875
8457		103.515625
8458		105.468750
8459		101.562500
8460		105.468750
8461		99.609375
8462		103.515625
8463		99.609375
8464		103.515625
8465		97.656250
8466		101.562500
8467		95.703125
8468		101.562500
8469		95.703125
8470		99.609375
8471		93.750000
8472		97.656250
8473		91.796875
8474		95.703125
8475		89.843750
8476		93.750000
8477		87.890625
8478		93.750000
8479		85.937500
8480		91.796875
8481		83.984375
8482		87.890625
8483		82.031250
8484		87.890625
8485		82.031250
8486		85.937500
8487		78.125000
8488		82.031250
8489		76.171875
8490		82.031250
8491		74.218750
8492		80.078125
8493		72.265625
8494		76.171875
8495		70.312500
8496		76.171875
8497		66.406250
8498		72.265625
8499		64.453125
8500		70.312500
8501		62.500000
8502		68.359375
8503		60.546875
8504		64.453125
8505		56.640625
8506		62.500000
8507		54.687500
8508		60.546875
8509		52.734375
8510		56.640625
8511		48.828125
8512		54.687500
8513		46.875000
8514		50.781250
8515		42.968750
8516		48.828125
8517		39.062500
8518		46.875000
8519		39.062500
8520		42.968750
8521		35.156250
8522		39.062500
8523		31.250000
8524		37.109375
8525		29.296875
8526		33.203125
8527		25.390625
8528		31.250000
8529		21.484375
8530		27.343750
8531		19.531250
8532		23.437500
8533		15.625000
8534		21.484375
8535		13.671875
8536		19.531250
8537		9.765625
8538		13.671875
8539		5.859375
8540		11.718750
8541		3.906250
8542		7.812500
8543		0.000000
8544		5.859375
8545		-3.906250
8546		1.953125
8547		-7.812500
8548		0.000000
8549		-11.718750
8550		-5.859375
8551		-13.671875
8552		-9.765625
8553		-17.578125
8554		-11.718750
8555		-19.531250
8556		-15.625000
8557		-23.437500
8558		-17.578125
8559		-27.343750
8560		-21.484375
8561		-31.250000
8562		-25.390625
8563		-33.203125
8564		-29.296875
8565		-37.109375
8566		-31.250000
8567		-41.015625
8568		-35.156250
8569		-44.921875
8570		-39.062500
8571		-46.875000
8572		-41.015625
8573		-50.781250
8574		-44.921875
8575		-54.687500
8576		-48.828125
8577		-56.640625
8578		-52.734375
8579		-60.546875
8580		-54.687500
8581		-64.453125
8582		-58.593750
8583		-66.406250
8584		-62.500000
8585		-70.312500
8586		-64.453125
8587		-72.265625
8588		-68.359375
8589		-78.125000
8590		-72.265625
8591		-78.125000
8592		-74.218750
8593		-82.031250
8594		-76.171875
8595		-83.984375
8596		-80.078125
8597		-87.890625
8598		-82.031250
8599		-89.843750
8600		-83.984375
8601		-93.750000
8602		-87.890625
8603		-95.703125
8604		-91.796875
8605		-97.656250
8606		-93.750000
8607		-101.562500
8608		-95.703125
8609		-103.515625
8610		-99.609375
8611		-105.468750
8612		-101.562500
8613		-107.421875
8614		-103.515625
8615		-109.375000
8616		-105.468750
8617		-113.281250
8618		-107.421875
8619		-115.234375
8620		-109.375000
8621		-117.187500
8622		-113.281250
8623		-119.140625
8624		-115.234375
8625		-121.093750
8626		-117.187500
8627		-123.046875
8628		-117.187500
8629		-123.046875
8630		-121.093750
8631		-126.953125
8632		-121.093750
8633		-128.906250
8634		-123.046875
8635		-128.906250
8636		-125.000000
8637		-130.859375
8638		-126.953125
8639		-130.859375
8640		-128.906250
8641		-132.812500
8642		-126.953125
8643		-134.765625
8644		-128.906250
8645		-134.765625
8646		-130.859375
8647		-134.765625
8648		-132.812500
8649		-136.718750
8650		-132.812500
8651		-136.718750
8652		-132.812500
8653		-136.718750
8654		-134.765625
8655		-136.718750
8656		-134.765625
8657		-138.671875
8658		-134.765625
8659		-138.671875
8660		-134.765625
8661		-138.671875
8662		-134.765625
8663		-138.671875
8664		-134.765625
8665		-138.671875
8666		-136.718750
8667		-138.671875
8668		-134.765625
8669		-140.625000
8670		-134.765625
8671		-138.671875
8672		-134.765625
8673		-136.718750
8674		-134.765625
8675		-136.718750
8676		-132.812500
8677		-136.718750
8678		-132.812500
8679		-136.718750
8680		-132.812500
8681		-136.718750
8682		-130.859375
8683		-134.765625
8684		-130.859375
8685		-134.765625
8686		-128.906250
8687		-130.859375
8688		-128.906250
8689		-130.859375
8690		-126.953125
8691		-130.859375
8692		-125.000000
8693		-128.906250
8694		-125.000000
8695		-126.953125
8696		-123.046875
8697		-125.000000
8698		-121.093750
8699		-125.000000
8700		-119.140625
8701		-121.093750
8702		-117.187500
8703		-121.093750
8704		-117.187500
8705		-117.187500
8706		-115.234375
8707		-115.234375
8708		-111.328125
8709		-113.281250
8710		-109.375000
8711		-111.328125
8712		-107.421875
8713		-109.375000
8714		-105.468750
8715		-107.421875
8716		-103.515625
8717		-105.468750
8718		-101.562500
8719		-103.515625
8720		-97.656250
8721		-99.609375
8722		-95.703125
8723		-97.656250
8724		-93.750000
8725		-95.703125
8726		-89.843750
8727		-91.796875
8728		-85.937500
8729		-89.843750
8730		-83.984375
8731		-85.937500
8732		-82.031250
8733		-82.031250
8734		-78.125000
8735		-82.031250
8736		-76.171875
8737		-78.125000
8738		-72.265625
8739		-74.218750
8740		-70.312500
8741		-70.312500
8742		-66.406250
8743		-68.359375
8744		-62.500000
8745		-64.453125
8746		-60.546875
8747		-62.500000
8748		-56.640625
8749		-58.593750
8750		-54.687500
8751		-56.640625
8752		-50.781250
8753		-50.781250
8754		-46.875000
8755		-48.828125
8756		-42.968750
8757		-44.921875
8758		-39.062500
8759		-42.968750
8760		-35.156250
8761		-39.062500
8762		-33.203125
8763		-35.156250
8764		-31.250000
8765		-31.250000
8766		-27.343750
8767		-29.296875
8768		-23.437500
8769		-25.390625
8770		-19.531250
8771		-21.484375
8772		-17.578125
8773		-17.578125
8774		-13.671875
8775		-15.625000
8776		-9.765625
8777		-11.718750
8778		-5.859375
8779		-9.765625
8780		-3.906250
8781		-3.906250
8782		0.000000
8783		-1.953125
8784		3.906250
8785		1.953125
8786		5.859375
8787		3.906250
8788		9.765625
8789		7.812500
8790		13.671875
8791		11.718750
8792		17.578125
8793		15.625000
8794		19.531250
8795		17.578125
8796		23.437500
8797		21.484375
8798		25.390625
8799		23.437500
8800		29.296875
8801		27.343750
8802		31.250000
8803		31.250000
8804		35.156250
8805		33.203125
8806		37.109375
8807		37.109375
8808		41.015625
8809		39.062500
8810		44.921875
8811		41.015625
8812		46.875000
8813		44.921875
8814		48.828125
8815		48.828125
8816		52.734375
8817		50.781250
8818		54.687500
8819		52.734375
8820		58.593750
8821		54.687500
8822		60.546875
8823		58.593750
8824		62.500000
8825		60.546875
8826		64.453125
8827		64.453125
8828		68.359375
8829		66.406250
8830		70.312500
8831		68.359375
8832		72.265625
8833		70.312500
8834		74.218750
8835		72.265625
8836		76.171875
8837		76.171875
8838		80.078125
8839		78.125000
8840		82.031250
8841		80.078125
8842		83.984375
8843		80.078125
8844		85.937500
8845		83.984375
8846		87.890625
8847		85.937500
8848		89.843750
8849		87.890625
8850		91.796875
8851		87.890625
8852		93.750000
8853		89.843750
8854		93.750000
8855		89.843750
8856		95.703125
8857		93.750000
8858		97.656250
8859		93.750000
8860		99.609375
8861		97.656250
8862		99.609375
8863		97.656250
8864		101.562500
8865		99.609375
8866		103.515625
8867		101.562500
8868		105.468750
8869		101.562500
8870		105.468750
8871		101.562500
8872		105.468750
8873		103.515625
8874		107.421875
8875		105.468750
8876		109.375000
8877		105.468750
8878		109.375000
8879		107.421875
8880		109.375000
8881		107.421875
8882		109.375000
8883		107.421875
8884		111.328125
8885		109.375000
8886		111.328125
8887		109.375000
8888		113.281250
8889		109.375000
8890		113.281250
8891		109.375000
8892		113.281250
8893		109.375000
8894		113.281250
8895		109.375000
8896		113.281250
8897		111.328125
8898		113.281250
8899		111.328125
8900		113.281250
8901		109.375000
8902		115.234375
8903		109.375000
8904		113.281250
8905		109.375000
8906		115.234375
8907		111.328125
8908		113.281250
8909		109.375000
8910		113.281250
8911		109.375000
8912		113.281250
8913		109.375000
8914		113.281250
8915		109.375000
8916		111.328125
8917		109.375000
8918		111.328125
8919		107.421875
8920		111.328125
8921		107.421875
8922		111.328125
8923		107.421875
8924		109.375000
8925		103.515625
8926		109.375000
8927		103.515625
8928		107.421875
8929		103.515625
8930		107.421875
8931		103.515625
8932		107.421875
8933		101.562500
8934		105.468750
8935		99.609375
8936		105.468750
8937		97.656250
8938		103.515625
8939		97.656250
8940		101.562500
8941		97.656250
8942		99.609375
8943		95.703125
8944		99.609375
8945		93.750000
8946		97.656250
8947		91.796875
8948		95.703125
8949		89.843750
8950		93.750000
8951		87.890625
8952		91.796875
8953		85.937500
8954		89.843750
8955		83.984375
8956		89.843750
8957		82.031250
8958		85.937500
8959		80.078125
8960		83.984375
8961		78.125000
8962		83.984375
8963		76.171875
8964		80.078125
8965		74.218750
8966		78.125000
8967		72.265625
8968		76.171875
8969		70.312500
8970		74.218750
8971		66.406250
8972		72.265625
8973		64.453125
8974		68.359375
8975		62.500000
8976		66.406250
8977		60.546875
8978		64.453125
8979		56.640625
8980		62.500000
8981		54.687500
8982		58.593750
8983		50.781250
8984		56.640625
8985		48.828125
8986		52.734375
8987		44.921875
8988		50.781250
8989		42.968750
8990		46.875000
8991		41.015625
8992		44.921875
8993		37.109375
8994		42.968750
8995		35.156250
8996		39.062500
8997		31.250000
8998		37.109375
8999		27.343750
9000		33.203125
9001		25.390625
9002		29.296875
9003		21.484375
9004		27.343750
9005		17.578125
9006		23.437500
9007		15.625000
9008		19.531250
9009		11.718750
9010		17.578125
9011		9.765625
9012		13.671875
9013		5.859375
9014		11.718750
9015		1.953125
9016		7.812500
9017		-1.953125
9018		3.906250
9019		-5.859375
9020		0.000000
9021		-9.765625
9022		-3.906250
9023		-11.718750
9024		-5.859375
9025		-13.671875
9026		-9.765625
9027		-17.578125
9028		-13.671875
9029		-21.484375
9030		-15.625000
9031		-25.390625
9032		-19.531250
9033		-27.343750
9034		-23.437500
9035		-31.250000
9036		-25.390625
9037		-35.156250
9038		-29.296875
9039		-37.109375
9040		-31.250000
9041		-41.015625
9042		-37.109375
9043		-44.921875
9044		-39.062500
9045		-48.828125
9046		-42.968750
9047		-50.781250
9048		-44.921875
9049		-54.687500
9050		-48.828125
9051		-58.593750
9052		-52.734375
9053		-60.546875
9054		-56.640625
9055		-64.453125
9056		-58.593750
9057		-66.406250
9058		-62.500000
9059		-70.312500
9060		-64.453125
9061		-74.218750
9062		-66.406250
9063		-76.171875
9064		-72.265625
9065		-80.078125
9066		-74.218750
9067		-82.031250
9068		-78.125000
9069		-83.984375
9070		-80.078125
9071		-87.890625
9072		-82.031250
9073		-89.843750
9074		-85.937500
9075		-91.796875
9076		-87.890625
9077		-97.656250
9078		-91.796875
9079		-97.656250
9080		-93.750000
9081		-101.562500
9082		-95.703125
9083		-103.515625
9084		-99.609375
9085		-105.468750
9086		-101.562500
9087		-107.421875
9088		-103.515625
9089		-111.328125
9090		-105.468750
9091		-111.328125
9092		-107.421875
9093		-113.281250
9094		-109.375000
9095		-117.187500
9096		-111.328125
9097		-117.187500
9098		-113.281250
9099		-119.140625
9100		-115.234375
9101		-121.093750
9102		-117.187500
9103		-123.046875
9104		-119.140625
9105		-126.953125
9106		-121.093750
9107		-125.000000
9108		-123.046875
9109		-126.953125
9110		-125.000000
9111		-128.906250
9112		-125.000000
9113		-130.859375
9114		-126.953125
9115		-130.859375
9116		-126.953125
9117		-132.812500
9118		-128.906250
9119		-132.812500
9120		-128.906250
9121		-134.765625
9122		-130.859375
9123		-134.765625
9124		-130.859375
9125		-134.765625
9126		-132.812500
9127		-136.718750
9128		-132.812500
9129		-136.718750
9130		-132.812500
9131		-136.718750
9132		-132.812500
9133		-136.718750
9134		-132.812500
9135		-136.718750
9136		-134.765625
9137		-136.718750
9138		-132.812500
9139		-136.718750
9140		-132.812500
9141		-136.718750
9142		-134.765625
9143		-136.718750
9144		-132.812500
9145		-136.718750
9146		-132.812500
9147		-134.765625
9148		-132.812500
9149		-134.765625
9150		-130.859375
9151		-134.765625
9152		-130.859375
9153		-134.765625
9154		-130.859375
9155		-132.812500
9156		-128.906250
9157		-132.812500
9158		-128.906250
9159		-130.859375
9160		-126.953125
9161		-130.859375
9162		-125.000000
9163		-128.906250
9164		-125.000000
9165		-126.953125
9166		-123.046875
9167		-125.000000
9168		-121.093750
9169		-125.000000
9170		-121.093750
9171		-123.046875
9172		-117.187500
9173		-121.093750
9174		-117.187500
9175		-119.140625
9176		-115.234375
9177		-117.187500
9178		-113.281250
9179		-115.234375
9180		-111.328125
9181		-113.281250
9182		-109.375000
9183		-111.328125
9184		-107.421875
9185		-109.375000
9186		-103.515625
9187		-107.421875
9188		-101.562500
9189		-105.468750
9190		-99.609375
9191		-101.562500
9192		-97.656250
9193		-99.609375
9194		-95.703125
9195		-97.656250
9196		-91.796875
9197		-93.750000
9198		-89.843750
9199		-91.796875
9200		-87.890625
9201		-89.843750
9202		-83.984375
9203		-85.937500
9204		-82.031250
9205		-83.984375
9206		-78.125000
9207		-80.078125
9208		-76.171875
9209		-76.171875
9210		-72.265625
9211		-74.218750
9212		-68.359375
9213		-72.265625
9214		-66.406250
9215		-68.359375
9216		-62.500000
9217		-66.406250
9218		-60.546875
9219		-62.500000
9220		-56.640625
9221		-58.593750
9222		-52.734375
9223		-54.687500
9224		-48.828125
9225		-50.781250
9226		-46.875000
9227		-48.828125
9228		-42.968750
9229		-44.921875
9230		-41.015625
9231		-41.015625
9232		-37.109375
9233		-39.062500
9234		-33.203125
9235		-35.156250
9236		-31.250000
9237		-33.203125
9238		-27.343750
9239		-29.296875
9240		-23.437500
9241		-25.390625
9242		-19.531250
9243		-21.484375
9244		-17.578125
9245		-19.531250
9246		-13.671875
9247		-15.625000
9248		-9.765625
9249		-11.718750
9250		-5.859375
9251		-7.812500
9252		-3.906250
9253		-5.859375
9254		0.000000
9255		-1.953125
9256		3.906250
9257		1.953125
9258		5.859375
9259		3.906250
9260		9.765625
9261		7.812500
9262		13.671875
9263		9.765625
9264		15.625000
9265		15.625000
9266		19.531250
9267		17.578125
9268		21.484375
9269		21.484375
9270		25.390625
9271		23.437500
9272		29.296875
9273		27.343750
9274		31.250000
9275		29.296875
9276		35.156250
9277		33.203125
9278		37.109375
9279		37.109375
9280		41.015625
9281		39.062500
9282		44.921875
9283		42.968750
9284		46.875000
9285		44.921875
9286		48.828125
9287		48.828125
9288		52.734375
9289		48.828125
9290		54.687500
9291		52.734375
9292		56.640625
9293		56.640625
9294		60.546875
9295		58.593750
9296		64.453125
9297		60.546875
9298		66.406250
9299		62.500000
9300		68.359375
9301		64.453125
9302		70.312500
9303		66.406250
9304		74.218750
9305		70.312500
9306		74.218750
9307		70.312500
9308		78.125000
9309		76.171875
9310		78.125000
9311		78.125000
9312		82.031250
9313		80.078125
9314		83.984375
9315		82.031250
9316		87.890625
9317		82.031250
9318		89.843750
9319		85.937500
9320		89.843750
9321		85.937500
9322		91.796875
9323		89.843750
9324		95.703125
9325		91.796875
9326		95.703125
9327		93.750000
9328		95.703125
9329		93.750000
9330		99.609375
9331		93.750000
9332		101.562500
9333		95.703125
9334		103.515625
9335		95.703125
9336		105.468750
9337		97.656250
9338		105.468750
9339		101.562500
9340		107.421875
9341		101.562500
9342		107.421875
9343		103.515625
9344		107.421875
9345		105.468750
9346		107.421875
9347		103.515625
9348		111.328125
9349		105.468750
9350		111.328125
9351		105.468750
9352		113.281250
9353		105.468750
9354		115.234375
9355		107.421875
9356		113.281250
9357		109.375000
9358		115.234375
9359		109.375000
9360		113.281250
9361		111.328125
9362		113.281250
9363		109.375000
9364		117.187500
9365		109.375000
9366		117.187500
9367		109.375000
9368		117.187500
9369		109.375000
9370		117.187500
9371		109.375000
9372		117.187500
9373		109.375000
9374		117.187500
9375		111.328125
9376		117.187500
9377		113.281250
9378		115.234375
9379		111.328125
9380		115.234375
9381		109.375000
9382		117.187500
9383		109.375000
9384		117.187500
9385		109.375000
9386		117.187500
9387		109.375000
9388		117.187500
9389		107.421875
9390		115.234375
9391		107.421875
9392		115.234375
9393		109.375000
9394		111.328125
9395		109.375000
9396		111.328125
9397		105.468750
9398		113.281250
9399		105.468750
9400		111.328125
9401		103.515625
9402		111.328125
9403		103.515625
9404		109.375000
9405		101.562500
9406		109.375000
9407		101.562500
9408		107.421875
9409		101.562500
9410		107.421875
9411		101.562500
9412		105.468750
9413		95.703125
9414		103.515625
9415		95.703125
9416		103.515625
9417		93.750000
9418		101.562500
9419		93.750000
9420		99.609375
9421		91.796875
9422		97.656250
9423		89.843750
9424		97.656250
9425		87.890625
9426		95.703125
9427		87.890625
9428		91.796875
9429		85.937500
9430		89.843750
9431		82.031250
9432		89.843750
9433		80.078125
9434		87.890625
9435		78.125000
9436		85.937500
9437		76.171875
9438		83.984375
9439		74.218750
9440		82.031250
9441		70.312500
9442		80.078125
9443		70.312500
9444		76.171875
9445		68.359375
9446		72.265625
9447		62.500000
9448		70.312500
9449		60.546875
9450		70.312500
9451		58.593750
9452		68.359375
9453		56.640625
9454		64.453125
9455		54.687500
9456		62.500000
9457		50.781250
9458		60.546875
9459		50.781250
9460		56.640625
9461		46.875000
9462		50.781250
9463		42.968750
9464		48.828125
9465		39.062500
9466		46.875000
9467		35.156250
9468		44.921875
9469		33.203125
9470		42.968750
9471		31.250000
9472		39.062500
9473		27.343750
9474		35.156250
9475		23.437500
9476		33.203125
9477		23.437500
9478		27.343750
9479		19.531250
9480		25.390625
9481		13.671875
9482		23.437500
9483		11.718750
9484		19.531250
9485		7.812500
9486		17.578125
9487		5.859375
9488		13.671875
9489		1.953125
9490		9.765625
9491		-1.953125
9492		5.859375
9493		-3.906250
9494		3.906250
9495		-5.859375
9496		-1.953125
9497		-11.718750
9498		-3.906250
9499		-15.625000
9500		-5.859375
9501		-19.531250
9502		-9.765625
9503		-21.484375
9504		-11.718750
9505		-25.390625
9506		-15.625000
9507		-27.343750
9508		-19.531250
9509		-31.250000
9510		-21.484375
9511		-33.203125
9512		-27.343750
9513		-37.109375
9514		-31.250000
9515		-41.015625
9516		-33.203125
9517		-44.921875
9518		-35.156250
9519		-48.828125
9520		-39.062500
9521		-52.734375
9522		-42.968750
9523		-54.687500
9524		-46.875000
9525		-58.593750
9526		-48.828125
9527		-58.593750
9528		-52.734375
9529		-62.500000
9530		-58.593750
9531		-68.359375
9532		-60.546875
9533		-70.312500
9534		-60.546875
9535		-74.218750
9536		-64.453125
9537		-78.125000
9538		-68.359375
9539		-80.078125
9540		-70.312500
9541		-83.984375
9542		-74.218750
9543		-83.984375
9544		-78.125000
9545		-85.937500
9546		-82.031250
9547		-89.843750
9548		-83.984375
9549		-93.750000
9550		-83.984375
9551		-97.656250
9552		-87.890625
9553		-99.609375
9554		-89.843750
9555		-101.562500
9556		-91.796875
9557		-103.515625
9558		-95.703125
9559		-105.468750
9560		-97.656250
9561		-105.468750
9562		-101.562500
9563		-109.375000
9564		-105.468750
9565		-113.281250
9566		-105.468750
9567		-115.234375
9568		-107.421875
9569		-117.187500
9570		-109.375000
9571		-119.140625
9572		-111.328125
9573		-121.093750
9574		-111.328125
9575		-123.046875
9576		-115.234375
9577		-123.046875
9578		-117.187500
9579		-123.046875
9580		-121.093750
9581		-128.906250
9582		-119.140625
9583		-128.906250
9584		-119.140625
9585		-128.906250
9586		-123.046875
9587		-130.859375
9588		-123.046875
9589		-132.812500
9590		-123.046875
9591		-132.812500
9592		-125.000000
9593		-132.812500
9594		-125.000000
9595		-132.812500
9596		-128.906250
9597		-132.812500
9598		-130.859375
9599		-136.718750
9600		-128.906250
9601		-136.718750
9602		-128.906250
9603		-136.718750
9604		-128.906250
9605		-136.718750
9606		-130.859375
9607		-138.671875
9608		-128.906250
9609		-136.718750
9610		-130.859375
9611		-134.765625
9612		-132.812500
9613		-134.765625
9614		-132.812500
9615		-136.718750
9616		-128.906250
9617		-136.718750
9618		-128.906250
9619		-136.718750
9620		-128.906250
9621		-136.718750
9622		-128.906250
9623		-134.765625
9624		-126.953125
9625		-134.765625
9626		-126.953125
9627		-132.812500
9628		-126.953125
9629		-130.859375
9630		-128.906250
9631		-130.859375
9632		-125.000000
9633		-132.812500
9634		-123.046875
9635		-128.906250
9636		-121.093750
9637		-128.906250
9638		-121.093750
9639		-126.953125
9640		-119.140625
9641		-126.953125
9642		-117.187500
9643		-125.000000
9644		-115.234375
9645		-119.140625
9646		-117.187500
9647		-119.140625
9648		-115.234375
9649		-119.140625
9650		-111.328125
9651		-117.187500
9652		-107.421875
9653		-115.234375
9654		-107.421875
9655		-113.281250
9656		-105.468750
9657		-111.328125
9658		-103.515625
9659		-109.375000
9660		-99.609375
9661		-107.421875
9662		-99.609375
9663		-101.562500
9664		-97.656250
9665		-99.609375
9666		-93.750000
9667		-97.656250
9668		-91.796875
9669		-95.703125
9670		-89.843750
9671		-93.750000
9672		-85.937500
9673		-89.843750
9674		-83.984375
9675		-87.890625
9676		-82.031250
9677		-85.937500
9678		-80.078125
9679		-80.078125
9680		-76.171875
9681		-78.125000
9682		-74.218750
9683		-76.171875
9684		-68.359375
9685		-74.218750
9686		-66.406250
9687		-72.265625
9688		-62.500000
9689		-68.359375
9690		-58.593750
9691		-66.406250
9692		-56.640625
9693		-60.546875
9694		-52.734375
9695		-56.640625
9696		-50.781250
9697		-52.734375
9698		-48.828125
9699		-50.781250
9700		-42.968750
9701		-48.828125
9702		-39.062500
9703		-44.921875
9704		-35.156250
9705		-42.968750
9706		-33.203125
9707		-39.062500
9708		-29.296875
9709		-35.156250
9710		-25.390625
9711		-33.203125
9712		-25.390625
9713		-27.343750
9714		-21.484375
9715		-23.437500
9716		-17.578125
9717		-21.484375
9718		-13.671875
9719		-17.578125
9720		-9.765625
9721		-15.625000
9722		-5.859375
9723		-11.718750
9724		-3.906250
9725		-7.812500
9726		1.953125
9727		-3.906250
9728		3.906250
9729		0.000000
9730		5.859375
9731		3.906250
9732		7.812500
9733		5.859375
9734		13.671875
9735		7.812500
9736		17.578125
9737		11.718750
9738		19.531250
9739		15.625000
9740		23.437500
9741		17.578125
9742		25.390625
9743		19.531250
9744		29.296875
9745		23.437500
9746		31.250000
9747		29.296875
9748		33.203125
9749		33.203125
9750		39.062500
9751		33.203125
9752		42.968750
9753		35.156250
9754		44.921875
9755		39.062500
9756		48.828125
9757		42.968750
9758		50.781250
9759		44.921875
9760		52.734375
9761		46.875000
9762		56.640625
9763		52.734375
9764		56.640625
9765		54.687500
9766		58.593750
9767		54.687500
9768		64.453125
9769		56.640625
9770		66.406250
9771		60.546875
9772		70.312500
9773		64.453125
9774		72.265625
9775		66.406250
9776		74.218750
9777		68.359375
9778		76.171875
9779		72.265625
9780		76.171875
9781		74.218750
9782		78.125000
9783		76.171875
9784		82.031250
9785		78.125000
9786		85.937500
9787		78.125000
9788		87.890625
9789		82.031250
9790		89.843750
9791		82.031250
9792		91.796875
9793		85.937500
9794		93.750000
9795		87.890625
9796		93.750000
9797		91.796875
9798		93.750000
9799		93.750000
9800		95.703125
9801		91.796875
9802		99.609375
9803		93.750000
9804		101.562500
9805		95.703125
9806		103.515625
9807		95.703125
9808		103.515625
9809		97.656250
9810		107.421875
9811		99.609375
9812		107.421875
9813		101.562500
9814		107.421875
9815		103.515625
9816		107.421875
9817		103.515625
9818		111.328125
9819		103.515625
9820		111.328125
9821		103.515625
9822		113.281250
9823		105.468750
9824		113.281250
9825		107.421875
9826		115.234375
9827		107.421875
9828		115.234375
9829		109.375000
9830		115.234375
9831		111.328125
9832		113.281250
9833		111.328125
9834		117.187500
9835		109.375000
9836		117.187500
9837		109.375000
9838		117.187500
9839		111.328125
9840		119.140625
9841		111.328125
9842		119.140625
9843		111.328125
9844		119.140625
9845		111.328125
9846		117.187500
9847		113.281250
9848		115.234375
9849		113.281250
9850		115.234375
9851		111.328125
9852		117.187500
9853		109.375000
9854		119.140625
9855		111.328125
9856		119.140625
9857		111.328125
9858		117.187500
9859		109.375000
9860		117.187500
9861		109.375000
9862		117.187500
9863		111.328125
9864		115.234375
9865		111.328125
9866		113.281250
9867		107.421875
9868		115.234375
9869		107.421875
9870		115.234375
9871		107.421875
9872		113.281250
9873		105.468750
9874		113.281250
9875		105.468750
9876		111.328125
9877		103.515625
9878		111.328125
9879		103.515625
9880		111.328125
9881		103.515625
9882		107.421875
9883		103.515625
9884		105.468750
9885		99.609375
9886		107.421875
9887		97.656250
9888		105.468750
9889		95.703125
9890		103.515625
9891		93.750000
9892		103.515625
9893		93.750000
9894		101.562500
9895		91.796875
9896		99.609375
9897		91.796875
9898		97.656250
9899		89.843750
9900		95.703125
9901		87.890625
9902		93.750000
9903		85.937500
9904		89.843750
9905		83.984375
9906		87.890625
9907		82.031250
9908		85.937500
9909		80.078125
9910		83.984375
9911		76.171875
9912		83.984375
9913		76.171875
9914		82.031250
9915		74.218750
9916		78.125000
9917		68.359375
9918		76.171875
9919		68.359375
9920		76.171875
9921		66.406250
9922		70.312500
9923		64.453125
9924		68.359375
9925		62.500000
9926		66.406250
9927		56.640625
9928		64.453125
9929		54.687500
9930		62.500000
9931		52.734375
9932		56.640625
9933		50.781250
9934		54.687500
9935		46.875000
9936		52.734375
9937		44.921875
9938		48.828125
9939		41.015625
9940		46.875000
9941		39.062500
9942		42.968750
9943		35.156250
9944		41.015625
9945		29.296875
9946		39.062500
9947		29.296875
9948		35.156250
9949		27.343750
9950		31.250000
9951		21.484375
9952		27.343750
9953		19.531250
9954		25.390625
9955		17.578125
9956		21.484375
9957		13.671875
9958		17.578125
9959		11.718750
9960		15.625000
9961		3.906250
9962		13.671875
9963		3.906250
9964		9.765625
9965		0.000000
9966		5.859375
9967		-1.953125
9968		1.953125
9969		-5.859375
9970		0.000000
9971		-9.765625
9972		-3.906250
9973		-11.718750
9974		-7.812500
9975		-15.625000
9976		-11.718750
9977		-21.484375
9978		-15.625000
9979		-23.437500
9980		-15.625000
9981		-25.390625
9982		-21.484375
9983		-29.296875
9984		-25.390625
9985		-35.156250
9986		-27.343750
9987		-35.156250
9988		-31.250000
9989		-39.062500
9990		-35.156250
9991		-42.968750
9992		-37.109375
9993		-46.875000
9994		-41.015625
9995		-50.781250
9996		-42.968750
9997		-52.734375
9998		-46.875000
9999		-54.687500
10000		-50.781250
