Channel              :		CH1
Frequency            :		1.043kHz
Period               :		0.959ms
PK-PK                :		316.4mV
Probe attenuation    :		1X
Voltage per ADC value:		0.122070mV
Time interval        :		2.00000us

index		CH1_Voltage(mV)
1		-76.171875
2		-76.171875
3		-68.359375
4		-78.125000
5		-74.218750
6		-82.031250
7		-76.171875
8		-87.890625
9		-82.031250
10		-91.796875
11		-83.984375
12		-93.750000
13		-89.843750
14		-97.656250
15		-93.750000
16		-101.562500
17		-97.656250
18		-105.468750
19		-99.609375
20		-109.375000
21		-105.468750
22		-113.281250
23		-109.375000
24		-117.187500
25		-111.328125
26		-119.140625
27		-115.234375
28		-123.046875
29		-117.187500
30		-126.953125
31		-121.093750
32		-130.859375
33		-125.000000
34		-134.765625
35		-128.906250
36		-136.718750
37		-130.859375
38		-138.671875
39		-134.765625
40		-142.578125
41		-136.718750
42		-144.531250
43		-140.625000
44		-148.437500
45		-142.578125
46		-150.390625
47		-146.484375
48		-154.296875
49		-148.437500
50		-156.250000
51		-150.390625
52		-156.250000
53		-152.343750
54		-158.203125
55		-154.296875
56		-160.156250
57		-156.250000
58		-162.109375
59		-158.203125
60		-166.015625
61		-160.156250
62		-166.015625
63		-162.109375
64		-167.968750
65		-164.062500
66		-167.968750
67		-166.015625
68		-169.921875
69		-167.968750
70		-171.875000
71		-167.968750
72		-171.875000
73		-169.921875
74		-173.828125
75		-169.921875
76		-173.828125
77		-171.875000
78		-175.781250
79		-171.875000
80		-175.781250
81		-171.875000
82		-175.781250
83		-171.875000
84		-175.781250
85		-171.875000
86		-175.781250
87		-171.875000
88		-175.781250
89		-171.875000
90		-175.781250
91		-171.875000
92		-175.781250
93		-171.875000
94		-175.781250
95		-169.921875
96		-173.828125
97		-171.875000
98		-173.828125
99		-169.921875
100		-173.828125
101		-169.921875
102		-171.875000
103		-167.968750
104		-171.875000
105		-167.968750
106		-169.921875
107		-166.015625
108		-167.968750
109		-164.062500
110		-166.015625
111		-162.109375
112		-166.015625
113		-162.109375
114		-164.062500
115		-160.156250
116		-162.109375
117		-158.203125
118		-160.156250
119		-154.296875
120		-158.203125
121		-154.296875
122		-154.296875
123		-150.390625
124		-152.343750
125		-148.437500
126		-150.390625
127		-146.484375
128		-148.437500
129		-144.531250
130		-144.531250
131		-140.625000
132		-142.578125
133		-136.718750
134		-138.671875
135		-134.765625
136		-136.718750
137		-132.812500
138		-134.765625
139		-128.906250
140		-130.859375
141		-125.000000
142		-126.953125
143		-121.093750
144		-123.046875
145		-117.187500
146		-121.093750
147		-115.234375
148		-117.187500
149		-111.328125
150		-113.281250
151		-107.421875
152		-109.375000
153		-103.515625
154		-105.468750
155		-99.609375
156		-101.562500
157		-97.656250
158		-99.609375
159		-91.796875
160		-93.750000
161		-87.890625
162		-89.843750
163		-83.984375
164		-85.937500
165		-80.078125
166		-82.031250
167		-76.171875
168		-78.125000
169		-72.265625
170		-74.218750
171		-68.359375
172		-70.312500
173		-64.453125
174		-66.406250
175		-60.546875
176		-62.500000
177		-56.640625
178		-58.593750
179		-52.734375
180		-52.734375
181		-46.875000
182		-48.828125
183		-42.968750
184		-46.875000
185		-39.062500
186		-41.015625
187		-35.156250
188		-37.109375
189		-31.250000
190		-31.250000
191		-25.390625
192		-27.343750
193		-23.437500
194		-23.437500
195		-17.578125
196		-21.484375
197		-13.671875
198		-15.625000
199		-9.765625
200		-11.718750
201		-5.859375
202		-7.812500
203		-1.953125
204		-3.906250
205		1.953125
206		0.000000
207		7.812500
208		3.906250
209		9.765625
210		7.812500
211		13.671875
212		11.718750
213		17.578125
214		15.625000
215		21.484375
216		19.531250
217		25.390625
218		23.437500
219		29.296875
220		27.343750
221		33.203125
222		31.250000
223		37.109375
224		35.156250
225		41.015625
226		39.062500
227		44.921875
228		42.968750
229		48.828125
230		44.921875
231		50.781250
232		48.828125
233		54.687500
234		52.734375
235		58.593750
236		54.687500
237		60.546875
238		58.593750
239		64.453125
240		60.546875
241		66.406250
242		64.453125
243		70.312500
244		68.359375
245		72.265625
246		70.312500
247		76.171875
248		74.218750
249		78.125000
250		76.171875
251		83.984375
252		78.125000
253		83.984375
254		82.031250
255		85.937500
256		83.984375
257		87.890625
258		85.937500
259		91.796875
260		89.843750
261		93.750000
262		91.796875
263		97.656250
264		93.750000
265		97.656250
266		95.703125
267		99.609375
268		97.656250
269		105.468750
270		101.562500
271		105.468750
272		103.515625
273		107.421875
274		105.468750
275		109.375000
276		107.421875
277		111.328125
278		107.421875
279		113.281250
280		109.375000
281		115.234375
282		113.281250
283		115.234375
284		113.281250
285		119.140625
286		113.281250
287		121.093750
288		115.234375
289		123.046875
290		115.234375
291		123.046875
292		117.187500
293		125.000000
294		121.093750
295		125.000000
296		119.140625
297		126.953125
298		123.046875
299		125.000000
300		123.046875
301		126.953125
302		123.046875
303		130.859375
304		123.046875
305		130.859375
306		125.000000
307		132.812500
308		125.000000
309		132.812500
310		126.953125
311		132.812500
312		126.953125
313		134.765625
314		128.906250
315		132.812500
316		130.859375
317		132.812500
318		128.906250
319		134.765625
320		126.953125
321		136.718750
322		128.906250
323		134.765625
324		128.906250
325		136.718750
326		128.906250
327		136.718750
328		126.953125
329		136.718750
330		128.906250
331		136.718750
332		130.859375
333		132.812500
334		128.906250
335		134.765625
336		128.906250
337		136.718750
338		126.953125
339		136.718750
340		126.953125
341		134.765625
342		125.000000
343		134.765625
344		125.000000
345		134.765625
346		125.000000
347		132.812500
348		126.953125
349		128.906250
350		126.953125
351		128.906250
352		123.046875
353		130.859375
354		121.093750
355		130.859375
356		121.093750
357		128.906250
358		119.140625
359		128.906250
360		119.140625
361		126.953125
362		117.187500
363		125.000000
364		117.187500
365		123.046875
366		117.187500
367		119.140625
368		113.281250
369		121.093750
370		111.328125
371		119.140625
372		109.375000
373		117.187500
374		107.421875
375		115.234375
376		105.468750
377		113.281250
378		103.515625
379		113.281250
380		103.515625
381		109.375000
382		101.562500
383		105.468750
384		99.609375
385		103.515625
386		95.703125
387		103.515625
388		93.750000
389		101.562500
390		91.796875
391		99.609375
392		87.890625
393		95.703125
394		85.937500
395		93.750000
396		83.984375
397		89.843750
398		82.031250
399		85.937500
400		80.078125
401		83.984375
402		74.218750
403		82.031250
404		72.265625
405		80.078125
406		68.359375
407		78.125000
408		66.406250
409		74.218750
410		62.500000
411		72.265625
412		60.546875
413		66.406250
414		58.593750
415		66.406250
416		54.687500
417		58.593750
418		48.828125
419		56.640625
420		46.875000
421		54.687500
422		42.968750
423		50.781250
424		39.062500
425		48.828125
426		35.156250
427		42.968750
428		31.250000
429		41.015625
430		29.296875
431		37.109375
432		25.390625
433		31.250000
434		21.484375
435		27.343750
436		17.578125
437		25.390625
438		11.718750
439		21.484375
440		7.812500
441		17.578125
442		3.906250
443		13.671875
444		0.000000
445		9.765625
446		-3.906250
447		5.859375
448		-5.859375
449		0.000000
450		-9.765625
451		-3.906250
452		-15.625000
453		-7.812500
454		-19.531250
455		-9.765625
456		-25.390625
457		-13.671875
458		-27.343750
459		-19.531250
460		-33.203125
461		-21.484375
462		-37.109375
463		-27.343750
464		-39.062500
465		-31.250000
466		-42.968750
467		-37.109375
468		-46.875000
469		-41.015625
470		-52.734375
471		-42.968750
472		-58.593750
473		-48.828125
474		-60.546875
475		-50.781250
476		-66.406250
477		-54.687500
478		-70.312500
479		-60.546875
480		-74.218750
481		-64.453125
482		-76.171875
483		-70.312500
484		-80.078125
485		-74.218750
486		-85.937500
487		-78.125000
488		-89.843750
489		-80.078125
490		-93.750000
491		-85.937500
492		-97.656250
493		-87.890625
494		-103.515625
495		-91.796875
496		-105.468750
497		-95.703125
498		-107.421875
499		-99.609375
500		-111.328125
501		-105.468750
502		-117.187500
503		-109.375000
504		-119.140625
505		-111.328125
506		-123.046875
507		-113.281250
508		-126.953125
509		-117.187500
510		-128.906250
511		-121.093750
512		-132.812500
513		-123.046875
514		-134.765625
515		-126.953125
516		-136.718750
517		-132.812500
518		-140.625000
519		-134.765625
520		-144.531250
521		-136.718750
522		-148.437500
523		-138.671875
524		-150.390625
525		-140.625000
526		-152.343750
527		-144.531250
528		-156.250000
529		-146.484375
530		-158.203125
531		-148.437500
532		-156.250000
533		-152.343750
534		-160.156250
535		-156.250000
536		-162.109375
537		-156.250000
538		-166.015625
539		-156.250000
540		-167.968750
541		-160.156250
542		-167.968750
543		-160.156250
544		-169.921875
545		-162.109375
546		-171.875000
547		-164.062500
548		-173.828125
549		-164.062500
550		-171.875000
551		-167.968750
552		-171.875000
553		-169.921875
554		-175.781250
555		-167.968750
556		-175.781250
557		-167.968750
558		-177.734375
559		-167.968750
560		-177.734375
561		-169.921875
562		-177.734375
563		-169.921875
564		-177.734375
565		-169.921875
566		-177.734375
567		-171.875000
568		-175.781250
569		-173.828125
570		-177.734375
571		-169.921875
572		-177.734375
573		-169.921875
574		-177.734375
575		-169.921875
576		-177.734375
577		-167.968750
578		-175.781250
579		-167.968750
580		-175.781250
581		-166.015625
582		-173.828125
583		-167.968750
584		-169.921875
585		-167.968750
586		-171.875000
587		-164.062500
588		-169.921875
589		-162.109375
590		-169.921875
591		-160.156250
592		-167.968750
593		-158.203125
594		-166.015625
595		-156.250000
596		-162.109375
597		-154.296875
598		-160.156250
599		-152.343750
600		-156.250000
601		-152.343750
602		-154.296875
603		-150.390625
604		-152.343750
605		-144.531250
606		-150.390625
607		-142.578125
608		-150.390625
609		-140.625000
610		-146.484375
611		-136.718750
612		-142.578125
613		-134.765625
614		-140.625000
615		-130.859375
616		-138.671875
617		-130.859375
618		-132.812500
619		-126.953125
620		-128.906250
621		-123.046875
622		-128.906250
623		-119.140625
624		-125.000000
625		-115.234375
626		-119.140625
627		-113.281250
628		-117.187500
629		-107.421875
630		-113.281250
631		-103.515625
632		-109.375000
633		-103.515625
634		-103.515625
635		-99.609375
636		-99.609375
637		-95.703125
638		-99.609375
639		-87.890625
640		-93.750000
641		-85.937500
642		-91.796875
643		-82.031250
644		-87.890625
645		-78.125000
646		-82.031250
647		-74.218750
648		-78.125000
649		-70.312500
650		-74.218750
651		-66.406250
652		-68.359375
653		-62.500000
654		-64.453125
655		-56.640625
656		-62.500000
657		-52.734375
658		-58.593750
659		-48.828125
660		-54.687500
661		-44.921875
662		-48.828125
663		-41.015625
664		-46.875000
665		-35.156250
666		-41.015625
667		-33.203125
668		-35.156250
669		-29.296875
670		-31.250000
671		-23.437500
672		-29.296875
673		-19.531250
674		-25.390625
675		-13.671875
676		-19.531250
677		-9.765625
678		-15.625000
679		-7.812500
680		-13.671875
681		-1.953125
682		-7.812500
683		0.000000
684		-1.953125
685		3.906250
686		1.953125
687		7.812500
688		3.906250
689		13.671875
690		7.812500
691		17.578125
692		11.718750
693		21.484375
694		15.625000
695		25.390625
696		19.531250
697		29.296875
698		23.437500
699		31.250000
700		27.343750
701		33.203125
702		33.203125
703		37.109375
704		35.156250
705		42.968750
706		37.109375
707		46.875000
708		41.015625
709		50.781250
710		44.921875
711		52.734375
712		48.828125
713		56.640625
714		50.781250
715		60.546875
716		54.687500
717		62.500000
718		60.546875
719		64.453125
720		62.500000
721		66.406250
722		64.453125
723		72.265625
724		66.406250
725		74.218750
726		68.359375
727		78.125000
728		72.265625
729		82.031250
730		74.218750
731		83.984375
732		78.125000
733		85.937500
734		82.031250
735		87.890625
736		85.937500
737		89.843750
738		87.890625
739		95.703125
740		87.890625
741		97.656250
742		91.796875
743		99.609375
744		91.796875
745		101.562500
746		93.750000
747		103.515625
748		97.656250
749		105.468750
750		99.609375
751		105.468750
752		103.515625
753		107.421875
754		105.468750
755		111.328125
756		105.468750
757		113.281250
758		107.421875
759		115.234375
760		109.375000
761		117.187500
762		111.328125
763		117.187500
764		111.328125
765		121.093750
766		113.281250
767		121.093750
768		117.187500
769		121.093750
770		119.140625
771		121.093750
772		117.187500
773		125.000000
774		119.140625
775		126.953125
776		121.093750
777		126.953125
778		121.093750
779		128.906250
780		121.093750
781		130.859375
782		123.046875
783		130.859375
784		125.000000
785		130.859375
786		126.953125
787		130.859375
788		125.000000
789		132.812500
790		126.953125
791		132.812500
792		126.953125
793		132.812500
794		126.953125
795		134.765625
796		126.953125
797		134.765625
798		126.953125
799		134.765625
800		126.953125
801		134.765625
802		130.859375
803		132.812500
804		130.859375
805		132.812500
806		126.953125
807		136.718750
808		128.906250
809		136.718750
810		128.906250
811		136.718750
812		126.953125
813		136.718750
814		126.953125
815		136.718750
816		126.953125
817		134.765625
818		128.906250
819		132.812500
820		128.906250
821		130.859375
822		125.000000
823		132.812500
824		125.000000
825		132.812500
826		125.000000
827		132.812500
828		123.046875
829		130.859375
830		123.046875
831		130.859375
832		121.093750
833		130.859375
834		123.046875
835		128.906250
836		123.046875
837		125.000000
838		117.187500
839		125.000000
840		117.187500
841		125.000000
842		117.187500
843		123.046875
844		115.234375
845		123.046875
846		113.281250
847		123.046875
848		113.281250
849		119.140625
850		111.328125
851		119.140625
852		111.328125
853		115.234375
854		109.375000
855		113.281250
856		105.468750
857		113.281250
858		103.515625
859		111.328125
860		101.562500
861		109.375000
862		99.609375
863		107.421875
864		95.703125
865		105.468750
866		95.703125
867		101.562500
868		93.750000
869		99.609375
870		91.796875
871		95.703125
872		87.890625
873		93.750000
874		83.984375
875		93.750000
876		82.031250
877		89.843750
878		80.078125
879		87.890625
880		76.171875
881		83.984375
882		74.218750
883		82.031250
884		72.265625
885		80.078125
886		70.312500
887		74.218750
888		66.406250
889		72.265625
890		60.546875
891		70.312500
892		58.593750
893		66.406250
894		54.687500
895		64.453125
896		52.734375
897		60.546875
898		46.875000
899		56.640625
900		44.921875
901		54.687500
902		42.968750
903		48.828125
904		39.062500
905		44.921875
906		33.203125
907		41.015625
908		31.250000
909		39.062500
910		25.390625
911		35.156250
912		23.437500
913		31.250000
914		21.484375
915		27.343750
916		15.625000
917		23.437500
918		13.671875
919		19.531250
920		7.812500
921		13.671875
922		1.953125
923		9.765625
924		-1.953125
925		7.812500
926		-5.859375
927		3.906250
928		-7.812500
929		0.000000
930		-13.671875
931		-1.953125
932		-19.531250
933		-9.765625
934		-21.484375
935		-13.671875
936		-23.437500
937		-19.531250
938		-27.343750
939		-21.484375
940		-35.156250
941		-25.390625
942		-39.062500
943		-29.296875
944		-42.968750
945		-33.203125
946		-48.828125
947		-37.109375
948		-50.781250
949		-42.968750
950		-54.687500
951		-44.921875
952		-56.640625
953		-48.828125
954		-60.546875
955		-56.640625
956		-68.359375
957		-60.546875
958		-72.265625
959		-62.500000
960		-76.171875
961		-66.406250
962		-80.078125
963		-70.312500
964		-83.984375
965		-74.218750
966		-87.890625
967		-78.125000
968		-89.843750
969		-82.031250
970		-93.750000
971		-87.890625
972		-97.656250
973		-91.796875
974		-101.562500
975		-93.750000
976		-107.421875
977		-97.656250
978		-111.328125
979		-101.562500
980		-113.281250
981		-105.468750
982		-117.187500
983		-109.375000
984		-121.093750
985		-111.328125
986		-121.093750
987		-115.234375
988		-125.000000
989		-121.093750
990		-130.859375
991		-123.046875
992		-132.812500
993		-125.000000
994		-136.718750
995		-128.906250
996		-138.671875
997		-132.812500
998		-142.578125
999		-134.765625
1000		-146.484375
1001		-136.718750
1002		-146.484375
1003		-140.625000
1004		-148.437500
1005		-144.531250
1006		-150.390625
1007		-146.484375
1008		-156.250000
1009		-146.484375
1010		-158.203125
1011		-150.390625
1012		-160.156250
1013		-152.343750
1014		-162.109375
1015		-154.296875
1016		-164.062500
1017		-156.250000
1018		-166.015625
1019		-158.203125
1020		-166.015625
1021		-162.109375
1022		-166.015625
1023		-164.062500
1024		-171.875000
1025		-164.062500
1026		-171.875000
1027		-164.062500
1028		-173.828125
1029		-166.015625
1030		-173.828125
1031		-166.015625
1032		-175.781250
1033		-167.968750
1034		-175.781250
1035		-167.968750
1036		-175.781250
1037		-167.968750
1038		-173.828125
1039		-171.875000
1040		-177.734375
1041		-169.921875
1042		-177.734375
1043		-169.921875
1044		-177.734375
1045		-169.921875
1046		-177.734375
1047		-169.921875
1048		-177.734375
1049		-169.921875
1050		-177.734375
1051		-169.921875
1052		-177.734375
1053		-169.921875
1054		-173.828125
1055		-171.875000
1056		-173.828125
1057		-169.921875
1058		-173.828125
1059		-167.968750
1060		-173.828125
1061		-166.015625
1062		-171.875000
1063		-164.062500
1064		-171.875000
1065		-164.062500
1066		-169.921875
1067		-162.109375
1068		-167.968750
1069		-160.156250
1070		-166.015625
1071		-160.156250
1072		-164.062500
1073		-158.203125
1074		-162.109375
1075		-156.250000
1076		-162.109375
1077		-154.296875
1078		-160.156250
1079		-150.390625
1080		-156.250000
1081		-148.437500
1082		-156.250000
1083		-146.484375
1084		-152.343750
1085		-144.531250
1086		-150.390625
1087		-142.578125
1088		-144.531250
1089		-140.625000
1090		-142.578125
1091		-138.671875
1092		-142.578125
1093		-132.812500
1094		-138.671875
1095		-128.906250
1096		-136.718750
1097		-126.953125
1098		-130.859375
1099		-123.046875
1100		-128.906250
1101		-119.140625
1102		-126.953125
1103		-117.187500
1104		-121.093750
1105		-115.234375
1106		-117.187500
1107		-111.328125
1108		-115.234375
1109		-105.468750
1110		-111.328125
1111		-101.562500
1112		-109.375000
1113		-99.609375
1114		-105.468750
1115		-93.750000
1116		-99.609375
1117		-91.796875
1118		-97.656250
1119		-87.890625
1120		-93.750000
1121		-85.937500
1122		-85.937500
1123		-80.078125
1124		-82.031250
1125		-74.218750
1126		-80.078125
1127		-70.312500
1128		-76.171875
1129		-66.406250
1130		-72.265625
1131		-62.500000
1132		-66.406250
1133		-56.640625
1134		-64.453125
1135		-54.687500
1136		-58.593750
1137		-50.781250
1138		-52.734375
1139		-48.828125
1140		-48.828125
1141		-42.968750
1142		-46.875000
1143		-39.062500
1144		-42.968750
1145		-33.203125
1146		-39.062500
1147		-29.296875
1148		-35.156250
1149		-25.390625
1150		-31.250000
1151		-21.484375
1152		-25.390625
1153		-15.625000
1154		-21.484375
1155		-13.671875
1156		-15.625000
1157		-9.765625
1158		-11.718750
1159		-3.906250
1160		-9.765625
1161		0.000000
1162		-5.859375
1163		3.906250
1164		-1.953125
1165		7.812500
1166		1.953125
1167		11.718750
1168		5.859375
1169		17.578125
1170		9.765625
1171		17.578125
1172		15.625000
1173		21.484375
1174		19.531250
1175		25.390625
1176		21.484375
1177		31.250000
1178		25.390625
1179		35.156250
1180		29.296875
1181		39.062500
1182		33.203125
1183		41.015625
1184		37.109375
1185		46.875000
1186		41.015625
1187		48.828125
1188		42.968750
1189		50.781250
1190		48.828125
1191		54.687500
1192		50.781250
1193		58.593750
1194		54.687500
1195		62.500000
1196		56.640625
1197		66.406250
1198		60.546875
1199		68.359375
1200		62.500000
1201		72.265625
1202		66.406250
1203		74.218750
1204		68.359375
1205		76.171875
1206		74.218750
1207		78.125000
1208		76.171875
1209		82.031250
1210		76.171875
1211		85.937500
1212		80.078125
1213		87.890625
1214		82.031250
1215		91.796875
1216		83.984375
1217		93.750000
1218		85.937500
1219		95.703125
1220		89.843750
1221		97.656250
1222		93.750000
1223		97.656250
1224		97.656250
1225		101.562500
1226		95.703125
1227		105.468750
1228		99.609375
1229		107.421875
1230		101.562500
1231		109.375000
1232		101.562500
1233		111.328125
1234		105.468750
1235		113.281250
1236		107.421875
1237		115.234375
1238		107.421875
1239		115.234375
1240		113.281250
1241		115.234375
1242		113.281250
1243		119.140625
1244		113.281250
1245		121.093750
1246		115.234375
1247		123.046875
1248		115.234375
1249		125.000000
1250		117.187500
1251		125.000000
1252		119.140625
1253		126.953125
1254		119.140625
1255		126.953125
1256		123.046875
1257		126.953125
1258		125.000000
1259		126.953125
1260		123.046875
1261		130.859375
1262		123.046875
1263		132.812500
1264		125.000000
1265		132.812500
1266		125.000000
1267		132.812500
1268		126.953125
1269		134.765625
1270		126.953125
1271		134.765625
1272		128.906250
1273		132.812500
1274		130.859375
1275		132.812500
1276		128.906250
1277		134.765625
1278		128.906250
1279		136.718750
1280		128.906250
1281		136.718750
1282		128.906250
1283		136.718750
1284		128.906250
1285		136.718750
1286		128.906250
1287		136.718750
1288		128.906250
1289		134.765625
1290		130.859375
1291		132.812500
1292		128.906250
1293		134.765625
1294		126.953125
1295		134.765625
1296		126.953125
1297		134.765625
1298		126.953125
1299		134.765625
1300		126.953125
1301		134.765625
1302		126.953125
1303		134.765625
1304		125.000000
1305		132.812500
1306		126.953125
1307		130.859375
1308		126.953125
1309		128.906250
1310		123.046875
1311		130.859375
1312		123.046875
1313		130.859375
1314		121.093750
1315		128.906250
1316		121.093750
1317		126.953125
1318		119.140625
1319		126.953125
1320		117.187500
1321		125.000000
1322		117.187500
1323		125.000000
1324		117.187500
1325		119.140625
1326		113.281250
1327		121.093750
1328		111.328125
1329		119.140625
1330		111.328125
1331		119.140625
1332		107.421875
1333		115.234375
1334		105.468750
1335		115.234375
1336		105.468750
1337		111.328125
1338		103.515625
1339		111.328125
1340		103.515625
1341		107.421875
1342		101.562500
1343		103.515625
1344		95.703125
1345		105.468750
1346		93.750000
1347		101.562500
1348		91.796875
1349		99.609375
1350		87.890625
1351		97.656250
1352		85.937500
1353		95.703125
1354		83.984375
1355		93.750000
1356		83.984375
1357		89.843750
1358		80.078125
1359		83.984375
1360		76.171875
1361		82.031250
1362		72.265625
1363		82.031250
1364		70.312500
1365		78.125000
1366		66.406250
1367		76.171875
1368		62.500000
1369		72.265625
1370		60.546875
1371		70.312500
1372		58.593750
1373		66.406250
1374		56.640625
1375		60.546875
1376		50.781250
1377		56.640625
1378		46.875000
1379		54.687500
1380		42.968750
1381		52.734375
1382		39.062500
1383		48.828125
1384		35.156250
1385		44.921875
1386		33.203125
1387		41.015625
1388		29.296875
1389		37.109375
1390		27.343750
1391		31.250000
1392		23.437500
1393		27.343750
1394		17.578125
1395		25.390625
1396		11.718750
1397		23.437500
1398		7.812500
1399		17.578125
1400		5.859375
1401		13.671875
1402		0.000000
1403		11.718750
1404		-3.906250
1405		5.859375
1406		-3.906250
1407		1.953125
1408		-9.765625
1409		-3.906250
1410		-15.625000
1411		-7.812500
1412		-19.531250
1413		-9.765625
1414		-23.437500
1415		-13.671875
1416		-27.343750
1417		-17.578125
1418		-33.203125
1419		-21.484375
1420		-37.109375
1421		-25.390625
1422		-39.062500
1423		-29.296875
1424		-42.968750
1425		-37.109375
1426		-46.875000
1427		-41.015625
1428		-52.734375
1429		-42.968750
1430		-56.640625
1431		-46.875000
1432		-60.546875
1433		-50.781250
1434		-64.453125
1435		-54.687500
1436		-68.359375
1437		-60.546875
1438		-74.218750
1439		-62.500000
1440		-74.218750
1441		-68.359375
1442		-80.078125
1443		-74.218750
1444		-83.984375
1445		-78.125000
1446		-89.843750
1447		-80.078125
1448		-93.750000
1449		-83.984375
1450		-95.703125
1451		-87.890625
1452		-99.609375
1453		-89.843750
1454		-105.468750
1455		-93.750000
1456		-105.468750
1457		-99.609375
1458		-109.375000
1459		-103.515625
1460		-115.234375
1461		-107.421875
1462		-119.140625
1463		-109.375000
1464		-123.046875
1465		-113.281250
1466		-125.000000
1467		-117.187500
1468		-128.906250
1469		-119.140625
1470		-132.812500
1471		-123.046875
1472		-134.765625
1473		-126.953125
1474		-136.718750
1475		-130.859375
1476		-138.671875
1477		-134.765625
1478		-144.531250
1479		-136.718750
1480		-146.484375
1481		-138.671875
1482		-150.390625
1483		-140.625000
1484		-152.343750
1485		-142.578125
1486		-154.296875
1487		-146.484375
1488		-156.250000
1489		-148.437500
1490		-158.203125
1491		-150.390625
1492		-158.203125
1493		-154.296875
1494		-162.109375
1495		-156.250000
1496		-164.062500
1497		-156.250000
1498		-166.015625
1499		-158.203125
1500		-167.968750
1501		-160.156250
1502		-169.921875
1503		-162.109375
1504		-171.875000
1505		-162.109375
1506		-171.875000
1507		-164.062500
1508		-171.875000
1509		-167.968750
1510		-171.875000
1511		-169.921875
1512		-175.781250
1513		-167.968750
1514		-175.781250
1515		-167.968750
1516		-175.781250
1517		-169.921875
1518		-177.734375
1519		-167.968750
1520		-177.734375
1521		-169.921875
1522		-177.734375
1523		-169.921875
1524		-175.781250
1525		-171.875000
1526		-175.781250
1527		-171.875000
1528		-177.734375
1529		-169.921875
1530		-177.734375
1531		-169.921875
1532		-177.734375
1533		-169.921875
1534		-175.781250
1535		-167.968750
1536		-175.781250
1537		-167.968750
1538		-175.781250
1539		-166.015625
1540		-173.828125
1541		-166.015625
1542		-169.921875
1543		-166.015625
1544		-167.968750
1545		-164.062500
1546		-169.921875
1547		-162.109375
1548		-167.968750
1549		-160.156250
1550		-166.015625
1551		-158.203125
1552		-164.062500
1553		-156.250000
1554		-164.062500
1555		-154.296875
1556		-162.109375
1557		-152.343750
1558		-156.250000
1559		-152.343750
1560		-154.296875
1561		-150.390625
1562		-152.343750
1563		-144.531250
1564		-152.343750
1565		-142.578125
1566		-148.437500
1567		-140.625000
1568		-146.484375
1569		-136.718750
1570		-144.531250
1571		-134.765625
1572		-140.625000
1573		-132.812500
1574		-138.671875
1575		-130.859375
1576		-132.812500
1577		-126.953125
1578		-128.906250
1579		-123.046875
1580		-128.906250
1581		-119.140625
1582		-125.000000
1583		-115.234375
1584		-123.046875
1585		-111.328125
1586		-117.187500
1587		-109.375000
1588		-115.234375
1589		-105.468750
1590		-111.328125
1591		-101.562500
1592		-105.468750
1593		-99.609375
1594		-101.562500
1595		-95.703125
1596		-99.609375
1597		-89.843750
1598		-95.703125
1599		-85.937500
1600		-91.796875
1601		-82.031250
1602		-87.890625
1603		-78.125000
1604		-83.984375
1605		-74.218750
1606		-80.078125
1607		-70.312500
1608		-74.218750
1609		-68.359375
1610		-68.359375
1611		-64.453125
1612		-64.453125
1613		-56.640625
1614		-62.500000
1615		-52.734375
1616		-58.593750
1617		-48.828125
1618		-54.687500
1619		-42.968750
1620		-50.781250
1621		-41.015625
1622		-44.921875
1623		-35.156250
1624		-41.015625
1625		-33.203125
1626		-35.156250
1627		-29.296875
1628		-31.250000
1629		-25.390625
1630		-29.296875
1631		-19.531250
1632		-25.390625
1633		-15.625000
1634		-21.484375
1635		-11.718750
1636		-17.578125
1637		-7.812500
1638		-11.718750
1639		-1.953125
1640		-9.765625
1641		1.953125
1642		-1.953125
1643		3.906250
1644		1.953125
1645		7.812500
1646		3.906250
1647		13.671875
1648		7.812500
1649		17.578125
1650		9.765625
1651		19.531250
1652		15.625000
1653		25.390625
1654		19.531250
1655		29.296875
1656		21.484375
1657		31.250000
1658		27.343750
1659		33.203125
1660		33.203125
1661		37.109375
1662		35.156250
1663		42.968750
1664		39.062500
1665		46.875000
1666		41.015625
1667		50.781250
1668		42.968750
1669		52.734375
1670		46.875000
1671		56.640625
1672		52.734375
1673		58.593750
1674		54.687500
1675		62.500000
1676		60.546875
1677		64.453125
1678		62.500000
1679		66.406250
1680		64.453125
1681		72.265625
1682		66.406250
1683		76.171875
1684		68.359375
1685		78.125000
1686		72.265625
1687		80.078125
1688		76.171875
1689		83.984375
1690		76.171875
1691		87.890625
1692		82.031250
1693		87.890625
1694		85.937500
1695		89.843750
1696		87.890625
1697		93.750000
1698		87.890625
1699		97.656250
1700		89.843750
1701		99.609375
1702		93.750000
1703		101.562500
1704		93.750000
1705		103.515625
1706		97.656250
1707		105.468750
1708		99.609375
1709		107.421875
1710		103.515625
1711		107.421875
1712		105.468750
1713		109.375000
1714		105.468750
1715		113.281250
1716		107.421875
1717		115.234375
1718		109.375000
1719		117.187500
1720		111.328125
1721		119.140625
1722		113.281250
1723		119.140625
1724		113.281250
1725		121.093750
1726		117.187500
1727		121.093750
1728		119.140625
1729		121.093750
1730		117.187500
1731		125.000000
1732		119.140625
1733		126.953125
1734		119.140625
1735		126.953125
1736		121.093750
1737		128.906250
1738		121.093750
1739		130.859375
1740		123.046875
1741		130.859375
1742		123.046875
1743		130.859375
1744		126.953125
1745		128.906250
1746		126.953125
1747		132.812500
1748		126.953125
1749		132.812500
1750		126.953125
1751		132.812500
1752		128.906250
1753		132.812500
1754		128.906250
1755		134.765625
1756		128.906250
1757		134.765625
1758		128.906250
1759		134.765625
1760		130.859375
1761		132.812500
1762		130.859375
1763		132.812500
1764		128.906250
1765		134.765625
1766		128.906250
1767		136.718750
1768		128.906250
1769		134.765625
1770		128.906250
1771		134.765625
1772		126.953125
1773		134.765625
1774		126.953125
1775		134.765625
1776		126.953125
1777		134.765625
1778		128.906250
1779		130.859375
1780		126.953125
1781		132.812500
1782		125.000000
1783		134.765625
1784		125.000000
1785		132.812500
1786		123.046875
1787		130.859375
1788		123.046875
1789		130.859375
1790		123.046875
1791		130.859375
1792		123.046875
1793		128.906250
1794		123.046875
1795		125.000000
1796		121.093750
1797		125.000000
1798		117.187500
1799		125.000000
1800		115.234375
1801		123.046875
1802		115.234375
1803		123.046875
1804		113.281250
1805		121.093750
1806		111.328125
1807		119.140625
1808		111.328125
1809		119.140625
1810		111.328125
1811		115.234375
1812		109.375000
1813		113.281250
1814		105.468750
1815		113.281250
1816		103.515625
1817		111.328125
1818		101.562500
1819		109.375000
1820		97.656250
1821		107.421875
1822		97.656250
1823		105.468750
1824		93.750000
1825		103.515625
1826		93.750000
1827		101.562500
1828		91.796875
1829		95.703125
1830		89.843750
1831		93.750000
1832		83.984375
1833		93.750000
1834		82.031250
1835		91.796875
1836		80.078125
1837		87.890625
1838		76.171875
1839		85.937500
1840		72.265625
1841		82.031250
1842		70.312500
1843		80.078125
1844		70.312500
1845		74.218750
1846		66.406250
1847		70.312500
1848		60.546875
1849		68.359375
1850		58.593750
1851		66.406250
1852		54.687500
1853		64.453125
1854		50.781250
1855		60.546875
1856		46.875000
1857		56.640625
1858		44.921875
1859		54.687500
1860		42.968750
1861		50.781250
1862		39.062500
1863		44.921875
1864		33.203125
1865		41.015625
1866		29.296875
1867		39.062500
1868		25.390625
1869		35.156250
1870		21.484375
1871		31.250000
1872		19.531250
1873		27.343750
1874		13.671875
1875		23.437500
1876		11.718750
1877		19.531250
1878		9.765625
1879		13.671875
1880		3.906250
1881		9.765625
1882		-1.953125
1883		7.812500
1884		-5.859375
1885		3.906250
1886		-9.765625
1887		0.000000
1888		-13.671875
1889		-3.906250
1890		-17.578125
1891		-7.812500
1892		-21.484375
1893		-11.718750
1894		-23.437500
1895		-17.578125
1896		-29.296875
1897		-23.437500
1898		-35.156250
1899		-27.343750
1900		-39.062500
1901		-29.296875
1902		-42.968750
1903		-33.203125
1904		-46.875000
1905		-37.109375
1906		-50.781250
1907		-41.015625
1908		-54.687500
1909		-44.921875
1910		-56.640625
1911		-48.828125
1912		-62.500000
1913		-54.687500
1914		-68.359375
1915		-58.593750
1916		-70.312500
1917		-62.500000
1918		-76.171875
1919		-66.406250
1920		-80.078125
1921		-72.265625
1922		-83.984375
1923		-74.218750
1924		-87.890625
1925		-78.125000
1926		-89.843750
1927		-82.031250
1928		-93.750000
1929		-87.890625
1930		-97.656250
1931		-91.796875
1932		-101.562500
1933		-95.703125
1934		-107.421875
1935		-97.656250
1936		-109.375000
1937		-101.562500
1938		-113.281250
1939		-103.515625
1940		-117.187500
1941		-107.421875
1942		-121.093750
1943		-113.281250
1944		-121.093750
1945		-115.234375
1946		-125.000000
1947		-121.093750
1948		-130.859375
1949		-123.046875
1950		-134.765625
1951		-125.000000
1952		-136.718750
1953		-128.906250
1954		-140.625000
1955		-130.859375
1956		-142.578125
1957		-134.765625
1958		-146.484375
1959		-136.718750
1960		-146.484375
1961		-138.671875
1962		-148.437500
1963		-144.531250
1964		-150.390625
1965		-146.484375
1966		-156.250000
1967		-148.437500
1968		-158.203125
1969		-148.437500
1970		-160.156250
1971		-152.343750
1972		-162.109375
1973		-154.296875
1974		-164.062500
1975		-156.250000
1976		-166.015625
1977		-158.203125
1978		-166.015625
1979		-160.156250
1980		-166.015625
1981		-164.062500
1982		-171.875000
1983		-164.062500
1984		-171.875000
1985		-164.062500
1986		-173.828125
1987		-166.015625
1988		-173.828125
1989		-166.015625
1990		-175.781250
1991		-167.968750
1992		-175.781250
1993		-167.968750
1994		-175.781250
1995		-169.921875
1996		-175.781250
1997		-171.875000
1998		-175.781250
1999		-171.875000
2000		-177.734375
2001		-169.921875
2002		-177.734375
2003		-171.875000
2004		-177.734375
2005		-169.921875
2006		-177.734375
2007		-171.875000
2008		-177.734375
2009		-169.921875
2010		-177.734375
2011		-169.921875
2012		-173.828125
2013		-171.875000
2014		-173.828125
2015		-171.875000
2016		-175.781250
2017		-167.968750
2018		-175.781250
2019		-166.015625
2020		-173.828125
2021		-166.015625
2022		-173.828125
2023		-164.062500
2024		-171.875000
2025		-164.062500
2026		-169.921875
2027		-162.109375
2028		-167.968750
2029		-162.109375
2030		-164.062500
2031		-160.156250
2032		-162.109375
2033		-156.250000
2034		-162.109375
2035		-154.296875
2036		-160.156250
2037		-152.343750
2038		-158.203125
2039		-150.390625
2040		-156.250000
2041		-146.484375
2042		-154.296875
2043		-144.531250
2044		-152.343750
2045		-142.578125
2046		-146.484375
2047		-142.578125
2048		-142.578125
2049		-138.671875
2050		-142.578125
2051		-134.765625
2052		-140.625000
2053		-130.859375
2054		-138.671875
2055		-126.953125
2056		-132.812500
2057		-125.000000
2058		-130.859375
2059		-123.046875
2060		-126.953125
2061		-117.187500
2062		-121.093750
2063		-117.187500
2064		-119.140625
2065		-113.281250
2066		-115.234375
2067		-107.421875
2068		-113.281250
2069		-103.515625
2070		-109.375000
2071		-99.609375
2072		-105.468750
2073		-95.703125
2074		-101.562500
2075		-91.796875
2076		-97.656250
2077		-87.890625
2078		-91.796875
2079		-85.937500
2080		-87.890625
2081		-82.031250
2082		-83.984375
2083		-76.171875
2084		-82.031250
2085		-72.265625
2086		-78.125000
2087		-68.359375
2088		-74.218750
2089		-64.453125
2090		-70.312500
2091		-60.546875
2092		-64.453125
2093		-56.640625
2094		-62.500000
2095		-52.734375
2096		-56.640625
2097		-48.828125
2098		-50.781250
2099		-44.921875
2100		-46.875000
2101		-39.062500
2102		-42.968750
2103		-35.156250
2104		-41.015625
2105		-29.296875
2106		-37.109375
2107		-25.390625
2108		-31.250000
2109		-23.437500
2110		-27.343750
2111		-17.578125
2112		-23.437500
2113		-15.625000
2114		-17.578125
2115		-11.718750
2116		-13.671875
2117		-5.859375
2118		-11.718750
2119		-1.953125
2120		-7.812500
2121		1.953125
2122		-1.953125
2123		5.859375
2124		1.953125
2125		9.765625
2126		3.906250
2127		13.671875
2128		9.765625
2129		17.578125
2130		15.625000
2131		19.531250
2132		19.531250
2133		23.437500
2134		21.484375
2135		29.296875
2136		23.437500
2137		33.203125
2138		27.343750
2139		37.109375
2140		31.250000
2141		41.015625
2142		35.156250
2143		42.968750
2144		39.062500
2145		48.828125
2146		42.968750
2147		48.828125
2148		48.828125
2149		52.734375
2150		50.781250
2151		58.593750
2152		52.734375
2153		60.546875
2154		54.687500
2155		64.453125
2156		60.546875
2157		66.406250
2158		62.500000
2159		70.312500
2160		64.453125
2161		74.218750
2162		68.359375
2163		74.218750
2164		72.265625
2165		78.125000
2166		76.171875
2167		82.031250
2168		76.171875
2169		85.937500
2170		78.125000
2171		87.890625
2172		80.078125
2173		91.796875
2174		83.984375
2175		93.750000
2176		85.937500
2177		95.703125
2178		87.890625
2179		97.656250
2180		91.796875
2181		97.656250
2182		95.703125
2183		99.609375
2184		97.656250
2185		103.515625
2186		97.656250
2187		107.421875
2188		99.609375
2189		107.421875
2190		101.562500
2191		111.328125
2192		103.515625
2193		111.328125
2194		105.468750
2195		113.281250
2196		107.421875
2197		113.281250
2198		111.328125
2199		115.234375
2200		111.328125
2201		119.140625
2202		111.328125
2203		121.093750
2204		113.281250
2205		121.093750
2206		115.234375
2207		123.046875
2208		117.187500
2209		125.000000
2210		117.187500
2211		126.953125
2212		119.140625
2213		126.953125
2214		123.046875
2215		125.000000
2216		123.046875
2217		126.953125
2218		121.093750
2219		130.859375
2220		123.046875
2221		130.859375
2222		123.046875
2223		130.859375
2224		125.000000
2225		132.812500
2226		125.000000
2227		132.812500
2228		126.953125
2229		132.812500
2230		126.953125
2231		132.812500
2232		128.906250
2233		132.812500
2234		128.906250
2235		134.765625
2236		126.953125
2237		134.765625
2238		126.953125
2239		134.765625
2240		126.953125
2241		134.765625
2242		126.953125
2243		136.718750
2244		126.953125
2245		134.765625
2246		126.953125
2247		134.765625
2248		130.859375
2249		132.812500
2250		130.859375
2251		132.812500
2252		126.953125
2253		134.765625
2254		126.953125
2255		134.765625
2256		126.953125
2257		134.765625
2258		126.953125
2259		132.812500
2260		125.000000
2261		132.812500
2262		125.000000
2263		132.812500
2264		126.953125
2265		130.859375
2266		125.000000
2267		128.906250
2268		123.046875
2269		130.859375
2270		121.093750
2271		128.906250
2272		121.093750
2273		128.906250
2274		119.140625
2275		126.953125
2276		117.187500
2277		125.000000
2278		117.187500
2279		125.000000
2280		117.187500
2281		123.046875
2282		115.234375
2283		119.140625
2284		111.328125
2285		119.140625
2286		111.328125
2287		119.140625
2288		109.375000
2289		117.187500
2290		107.421875
2291		115.234375
2292		105.468750
2293		113.281250
2294		103.515625
2295		111.328125
2296		103.515625
2297		109.375000
2298		101.562500
2299		105.468750
2300		99.609375
2301		103.515625
2302		95.703125
2303		103.515625
2304		93.750000
2305		101.562500
2306		89.843750
2307		99.609375
2308		87.890625
2309		97.656250
2310		85.937500
2311		93.750000
2312		83.984375
2313		91.796875
2314		82.031250
2315		89.843750
2316		80.078125
2317		83.984375
2318		74.218750
2319		82.031250
2320		72.265625
2321		80.078125
2322		70.312500
2323		78.125000
2324		66.406250
2325		76.171875
2326		62.500000
2327		72.265625
2328		60.546875
2329		70.312500
2330		56.640625
2331		64.453125
2332		54.687500
2333		60.546875
2334		52.734375
2335		56.640625
2336		44.921875
2337		54.687500
2338		42.968750
2339		52.734375
2340		39.062500
2341		48.828125
2342		35.156250
2343		44.921875
2344		31.250000
2345		41.015625
2346		29.296875
2347		37.109375
2348		25.390625
2349		33.203125
2350		23.437500
2351		27.343750
2352		17.578125
2353		25.390625
2354		11.718750
2355		21.484375
2356		7.812500
2357		19.531250
2358		5.859375
2359		13.671875
2360		0.000000
2361		9.765625
2362		-3.906250
2363		5.859375
2364		-5.859375
2365		3.906250
2366		-9.765625
2367		-3.906250
2368		-15.625000
2369		-7.812500
2370		-19.531250
2371		-9.765625
2372		-23.437500
2373		-15.625000
2374		-29.296875
2375		-17.578125
2376		-31.250000
2377		-21.484375
2378		-37.109375
2379		-27.343750
2380		-41.015625
2381		-31.250000
2382		-42.968750
2383		-37.109375
2384		-46.875000
2385		-41.015625
2386		-52.734375
2387		-44.921875
2388		-56.640625
2389		-48.828125
2390		-60.546875
2391		-50.781250
2392		-66.406250
2393		-54.687500
2394		-68.359375
2395		-60.546875
2396		-74.218750
2397		-64.453125
2398		-76.171875
2399		-66.406250
2400		-80.078125
2401		-74.218750
2402		-83.984375
2403		-78.125000
2404		-89.843750
2405		-80.078125
2406		-93.750000
2407		-83.984375
2408		-95.703125
2409		-87.890625
2410		-101.562500
2411		-89.843750
2412		-103.515625
2413		-95.703125
2414		-107.421875
2415		-99.609375
2416		-109.375000
2417		-105.468750
2418		-113.281250
2419		-109.375000
2420		-119.140625
2421		-111.328125
2422		-123.046875
2423		-113.281250
2424		-125.000000
2425		-117.187500
2426		-128.906250
2427		-119.140625
2428		-132.812500
2429		-123.046875
2430		-134.765625
2431		-126.953125
2432		-136.718750
2433		-130.859375
2434		-138.671875
2435		-134.765625
2436		-144.531250
2437		-136.718750
2438		-148.437500
2439		-138.671875
2440		-150.390625
2441		-140.625000
2442		-152.343750
2443		-142.578125
2444		-154.296875
2445		-146.484375
2446		-158.203125
2447		-148.437500
2448		-156.250000
2449		-150.390625
2450		-158.203125
2451		-154.296875
2452		-160.156250
2453		-156.250000
2454		-166.015625
2455		-156.250000
2456		-167.968750
2457		-158.203125
2458		-167.968750
2459		-160.156250
2460		-169.921875
2461		-162.109375
2462		-171.875000
2463		-164.062500
2464		-171.875000
2465		-164.062500
2466		-171.875000
2467		-167.968750
2468		-171.875000
2469		-169.921875
2470		-175.781250
2471		-167.968750
2472		-175.781250
2473		-167.968750
2474		-175.781250
2475		-169.921875
2476		-177.734375
2477		-169.921875
2478		-177.734375
2479		-169.921875
2480		-177.734375
2481		-169.921875
2482		-177.734375
2483		-169.921875
2484		-175.781250
2485		-171.875000
2486		-177.734375
2487		-169.921875
2488		-177.734375
2489		-169.921875
2490		-177.734375
2491		-169.921875
2492		-175.781250
2493		-169.921875
2494		-175.781250
2495		-167.968750
2496		-175.781250
2497		-167.968750
2498		-173.828125
2499		-166.015625
2500		-169.921875
2501		-167.968750
2502		-169.921875
2503		-166.015625
2504		-169.921875
2505		-162.109375
2506		-169.921875
2507		-160.156250
2508		-167.968750
2509		-158.203125
2510		-166.015625
2511		-156.250000
2512		-164.062500
2513		-154.296875
2514		-162.109375
2515		-152.343750
2516		-158.203125
2517		-152.343750
2518		-154.296875
2519		-150.390625
2520		-152.343750
2521		-146.484375
2522		-152.343750
2523		-142.578125
2524		-148.437500
2525		-140.625000
2526		-146.484375
2527		-138.671875
2528		-144.531250
2529		-134.765625
2530		-140.625000
2531		-132.812500
2532		-136.718750
2533		-130.859375
2534		-132.812500
2535		-126.953125
2536		-128.906250
2537		-123.046875
2538		-126.953125
2539		-119.140625
2540		-125.000000
2541		-115.234375
2542		-121.093750
2543		-111.328125
2544		-119.140625
2545		-109.375000
2546		-115.234375
2547		-105.468750
2548		-109.375000
2549		-101.562500
2550		-105.468750
2551		-99.609375
2552		-101.562500
2553		-95.703125
2554		-97.656250
2555		-89.843750
2556		-95.703125
2557		-85.937500
2558		-91.796875
2559		-82.031250
2560		-85.937500
2561		-78.125000
2562		-83.984375
2563		-74.218750
2564		-80.078125
2565		-70.312500
2566		-74.218750
2567		-68.359375
2568		-68.359375
2569		-64.453125
2570		-64.453125
2571		-56.640625
2572		-62.500000
2573		-52.734375
2574		-58.593750
2575		-48.828125
2576		-54.687500
2577		-44.921875
2578		-50.781250
2579		-41.015625
2580		-46.875000
2581		-35.156250
2582		-41.015625
2583		-33.203125
2584		-35.156250
2585		-29.296875
2586		-31.250000
2587		-25.390625
2588		-27.343750
2589		-19.531250
2590		-25.390625
2591		-15.625000
2592		-21.484375
2593		-11.718750
2594		-17.578125
2595		-7.812500
2596		-11.718750
2597		-3.906250
2598		-7.812500
2599		1.953125
2600		-3.906250
2601		1.953125
2602		1.953125
2603		7.812500
2604		5.859375
2605		11.718750
2606		7.812500
2607		17.578125
2608		9.765625
2609		21.484375
2610		15.625000
2611		25.390625
2612		19.531250
2613		27.343750
2614		23.437500
2615		31.250000
2616		25.390625
2617		33.203125
2618		31.250000
2619		37.109375
2620		35.156250
2621		41.015625
2622		37.109375
2623		46.875000
2624		41.015625
2625		50.781250
2626		44.921875
2627		52.734375
2628		46.875000
2629		56.640625
2630		50.781250
2631		60.546875
2632		54.687500
2633		62.500000
2634		60.546875
2635		64.453125
2636		62.500000
2637		66.406250
2638		64.453125
2639		72.265625
2640		66.406250
2641		76.171875
2642		68.359375
2643		78.125000
2644		72.265625
2645		80.078125
2646		74.218750
2647		82.031250
2648		78.125000
2649		85.937500
2650		80.078125
2651		87.890625
2652		85.937500
2653		89.843750
2654		87.890625
2655		95.703125
2656		87.890625
2657		95.703125
2658		89.843750
2659		99.609375
2660		93.750000
2661		101.562500
2662		95.703125
2663		103.515625
2664		95.703125
2665		105.468750
2666		99.609375
2667		107.421875
2668		103.515625
2669		107.421875
2670		105.468750
2671		109.375000
2672		105.468750
2673		113.281250
2674		107.421875
2675		115.234375
2676		107.421875
2677		117.187500
2678		111.328125
2679		119.140625
2680		111.328125
2681		119.140625
2682		113.281250
2683		121.093750
2684		117.187500
2685		121.093750
2686		119.140625
2687		121.093750
2688		119.140625
2689		125.000000
2690		119.140625
2691		126.953125
2692		119.140625
2693		128.906250
2694		121.093750
2695		128.906250
2696		121.093750
2697		128.906250
2698		123.046875
2699		130.859375
2700		123.046875
2701		130.859375
2702		126.953125
2703		130.859375
2704		126.953125
2705		132.812500
2706		125.000000
2707		132.812500
2708		126.953125
2709		134.765625
2710		126.953125
2711		134.765625
2712		126.953125
2713		134.765625
2714		126.953125
2715		134.765625
2716		128.906250
2717		136.718750
2718		130.859375
2719		132.812500
2720		130.859375
2721		132.812500
2722		128.906250
2723		136.718750
2724		128.906250
2725		136.718750
2726		128.906250
2727		136.718750
2728		128.906250
2729		136.718750
2730		126.953125
2731		134.765625
2732		126.953125
2733		134.765625
2734		126.953125
2735		134.765625
2736		128.906250
2737		130.859375
2738		126.953125
2739		132.812500
2740		125.000000
2741		132.812500
2742		125.000000
2743		132.812500
2744		125.000000
2745		132.812500
2746		123.046875
2747		130.859375
2748		123.046875
2749		130.859375
2750		121.093750
2751		128.906250
2752		123.046875
2753		125.000000
2754		121.093750
2755		125.000000
2756		117.187500
2757		125.000000
2758		117.187500
2759		125.000000
2760		115.234375
2761		123.046875
2762		113.281250
2763		121.093750
2764		113.281250
2765		121.093750
2766		111.328125
2767		119.140625
2768		111.328125
2769		115.234375
2770		109.375000
2771		113.281250
2772		105.468750
2773		113.281250
2774		103.515625
2775		111.328125
2776		101.562500
2777		109.375000
2778		99.609375
2779		107.421875
2780		97.656250
2781		105.468750
2782		95.703125
2783		103.515625
2784		93.750000
2785		101.562500
2786		91.796875
2787		95.703125
2788		89.843750
2789		93.750000
2790		83.984375
2791		93.750000
2792		82.031250
2793		91.796875
2794		80.078125
2795		87.890625
2796		78.125000
2797		85.937500
2798		74.218750
2799		82.031250
2800		70.312500
2801		80.078125
2802		70.312500
2803		74.218750
2804		66.406250
2805		72.265625
2806		62.500000
2807		68.359375
2808		58.593750
2809		68.359375
2810		54.687500
2811		64.453125
2812		50.781250
2813		60.546875
2814		48.828125
2815		58.593750
2816		44.921875
2817		54.687500
2818		42.968750
2819		50.781250
2820		41.015625
2821		44.921875
2822		35.156250
2823		41.015625
2824		29.296875
2825		41.015625
2826		27.343750
2827		37.109375
2828		23.437500
2829		33.203125
2830		19.531250
2831		29.296875
2832		15.625000
2833		25.390625
2834		13.671875
2835		21.484375
2836		9.765625
2837		15.625000
2838		5.859375
2839		11.718750
2840		0.000000
2841		7.812500
2842		-5.859375
2843		3.906250
2844		-7.812500
2845		1.953125
2846		-11.718750
2847		-1.953125
2848		-17.578125
2849		-7.812500
2850		-19.531250
2851		-9.765625
2852		-23.437500
2853		-15.625000
2854		-27.343750
2855		-21.484375
2856		-33.203125
2857		-25.390625
2858		-37.109375
2859		-29.296875
2860		-42.968750
2861		-31.250000
2862		-44.921875
2863		-35.156250
2864		-50.781250
2865		-41.015625
2866		-54.687500
2867		-44.921875
2868		-56.640625
2869		-48.828125
2870		-60.546875
2871		-54.687500
2872		-64.453125
2873		-58.593750
2874		-70.312500
2875		-62.500000
2876		-74.218750
2877		-66.406250
2878		-80.078125
2879		-68.359375
2880		-82.031250
2881		-74.218750
2882		-87.890625
2883		-78.125000
2884		-89.843750
2885		-80.078125
2886		-91.796875
2887		-85.937500
2888		-95.703125
2889		-89.843750
2890		-101.562500
2891		-93.750000
2892		-105.468750
2893		-95.703125
2894		-109.375000
2895		-99.609375
2896		-113.281250
2897		-103.515625
2898		-115.234375
2899		-107.421875
2900		-119.140625
2901		-109.375000
2902		-121.093750
2903		-113.281250
2904		-125.000000
2905		-119.140625
2906		-128.906250
2907		-123.046875
2908		-132.812500
2909		-123.046875
2910		-134.765625
2911		-126.953125
2912		-138.671875
2913		-128.906250
2914		-142.578125
2915		-132.812500
2916		-144.531250
2917		-136.718750
2918		-146.484375
2919		-138.671875
2920		-148.437500
2921		-142.578125
2922		-150.390625
2923		-146.484375
2924		-154.296875
2925		-146.484375
2926		-156.250000
2927		-148.437500
2928		-158.203125
2929		-150.390625
2930		-162.109375
2931		-152.343750
2932		-162.109375
2933		-154.296875
2934		-164.062500
2935		-156.250000
2936		-166.015625
2937		-158.203125
2938		-166.015625
2939		-162.109375
2940		-167.968750
2941		-164.062500
2942		-171.875000
2943		-162.109375
2944		-171.875000
2945		-164.062500
2946		-173.828125
2947		-166.015625
2948		-173.828125
2949		-166.015625
2950		-175.781250
2951		-167.968750
2952		-175.781250
2953		-167.968750
2954		-173.828125
2955		-171.875000
2956		-173.828125
2957		-171.875000
2958		-177.734375
2959		-169.921875
2960		-177.734375
2961		-169.921875
2962		-177.734375
2963		-169.921875
2964		-177.734375
2965		-169.921875
2966		-177.734375
2967		-169.921875
2968		-177.734375
2969		-167.968750
2970		-173.828125
2971		-171.875000
2972		-173.828125
2973		-169.921875
2974		-173.828125
2975		-166.015625
2976		-173.828125
2977		-166.015625
2978		-171.875000
2979		-166.015625
2980		-171.875000
2981		-164.062500
2982		-169.921875
2983		-162.109375
2984		-167.968750
2985		-160.156250
2986		-167.968750
2987		-160.156250
2988		-164.062500
2989		-160.156250
2990		-162.109375
2991		-156.250000
2992		-162.109375
2993		-152.343750
2994		-160.156250
2995		-152.343750
2996		-158.203125
2997		-150.390625
2998		-156.250000
2999		-146.484375
3000		-152.343750
3001		-144.531250
3002		-150.390625
3003		-142.578125
3004		-144.531250
3005		-140.625000
3006		-142.578125
3007		-138.671875
3008		-140.625000
3009		-132.812500
3010		-138.671875
3011		-130.859375
3012		-136.718750
3013		-126.953125
3014		-134.765625
3015		-123.046875
3016		-128.906250
3017		-121.093750
3018		-125.000000
3019		-119.140625
3020		-125.000000
3021		-115.234375
3022		-117.187500
3023		-113.281250
3024		-115.234375
3025		-107.421875
3026		-113.281250
3027		-103.515625
3028		-109.375000
3029		-99.609375
3030		-105.468750
3031		-95.703125
3032		-103.515625
3033		-91.796875
3034		-97.656250
3035		-87.890625
3036		-93.750000
3037		-85.937500
3038		-87.890625
3039		-82.031250
3040		-83.984375
3041		-78.125000
3042		-82.031250
3043		-72.265625
3044		-78.125000
3045		-68.359375
3046		-72.265625
3047		-64.453125
3048		-68.359375
3049		-58.593750
3050		-66.406250
3051		-54.687500
3052		-60.546875
3053		-52.734375
3054		-54.687500
3055		-48.828125
3056		-50.781250
3057		-44.921875
3058		-46.875000
3059		-39.062500
3060		-44.921875
3061		-35.156250
3062		-41.015625
3063		-29.296875
3064		-35.156250
3065		-27.343750
3066		-31.250000
3067		-23.437500
3068		-27.343750
3069		-17.578125
3070		-23.437500
3071		-15.625000
3072		-17.578125
3073		-11.718750
3074		-13.671875
3075		-5.859375
3076		-11.718750
3077		0.000000
3078		-5.859375
3079		3.906250
3080		-3.906250
3081		7.812500
3082		1.953125
3083		11.718750
3084		3.906250
3085		15.625000
3086		7.812500
3087		17.578125
3088		15.625000
3089		21.484375
3090		19.531250
3091		23.437500
3092		21.484375
3093		29.296875
3094		23.437500
3095		33.203125
3096		29.296875
3097		37.109375
3098		31.250000
3099		41.015625
3100		35.156250
3101		44.921875
3102		39.062500
3103		46.875000
3104		42.968750
3105		48.828125
3106		48.828125
3107		52.734375
3108		50.781250
3109		58.593750
3110		50.781250
3111		60.546875
3112		56.640625
3113		64.453125
3114		58.593750
3115		66.406250
3116		60.546875
3117		70.312500
3118		64.453125
3119		74.218750
3120		68.359375
3121		76.171875
3122		72.265625
3123		78.125000
3124		76.171875
3125		82.031250
3126		76.171875
3127		83.984375
3128		80.078125
3129		87.890625
3130		80.078125
3131		91.796875
3132		83.984375
3133		93.750000
3134		85.937500
3135		95.703125
3136		87.890625
3137		97.656250
3138		91.796875
3139		97.656250
3140		95.703125
3141		99.609375
3142		97.656250
3143		105.468750
3144		97.656250
3145		107.421875
3146		101.562500
3147		109.375000
3148		101.562500
3149		111.328125
3150		103.515625
3151		113.281250
3152		105.468750
3153		113.281250
3154		107.421875
3155		115.234375
3156		111.328125
3157		115.234375
3158		113.281250
3159		119.140625
3160		113.281250
3161		121.093750
3162		113.281250
3163		123.046875
3164		115.234375
3165		123.046875
3166		117.187500
3167		125.000000
3168		119.140625
3169		126.953125
3170		119.140625
3171		126.953125
3172		123.046875
3173		125.000000
3174		125.000000
3175		126.953125
3176		123.046875
3177		130.859375
3178		123.046875
3179		132.812500
3180		125.000000
3181		130.859375
3182		125.000000
3183		132.812500
3184		125.000000
3185		134.765625
3186		126.953125
3187		134.765625
3188		128.906250
3189		132.812500
3190		128.906250
3191		132.812500
3192		126.953125
3193		134.765625
3194		126.953125
3195		134.765625
3196		128.906250
3197		134.765625
3198		128.906250
3199		134.765625
3200		128.906250
3201		136.718750
3202		128.906250
3203		136.718750
3204		128.906250
3205		136.718750
3206		130.859375
3207		132.812500
3208		130.859375
3209		132.812500
3210		126.953125
3211		134.765625
3212		126.953125
3213		134.765625
3214		126.953125
3215		134.765625
3216		126.953125
3217		134.765625
3218		125.000000
3219		132.812500
3220		125.000000
3221		132.812500
3222		125.000000
3223		130.859375
3224		126.953125
3225		128.906250
3226		123.046875
3227		130.859375
3228		121.093750
3229		128.906250
3230		121.093750
3231		128.906250
3232		119.140625
3233		126.953125
3234		117.187500
3235		126.953125
3236		117.187500
3237		125.000000
3238		117.187500
3239		123.046875
3240		117.187500
3241		119.140625
3242		113.281250
3243		119.140625
3244		111.328125
3245		119.140625
3246		109.375000
3247		117.187500
3248		107.421875
3249		115.234375
3250		105.468750
3251		115.234375
3252		103.515625
3253		113.281250
3254		103.515625
3255		111.328125
3256		103.515625
3257		107.421875
3258		101.562500
3259		103.515625
3260		95.703125
3261		105.468750
3262		93.750000
3263		103.515625
3264		91.796875
3265		99.609375
3266		87.890625
3267		97.656250
3268		87.890625
3269		95.703125
3270		83.984375
3271		91.796875
3272		83.984375
3273		89.843750
3274		80.078125
3275		83.984375
3276		76.171875
3277		82.031250
3278		72.265625
3279		82.031250
3280		70.312500
3281		78.125000
3282		66.406250
3283		76.171875
3284		64.453125
3285		74.218750
3286		58.593750
3287		70.312500
3288		58.593750
3289		66.406250
3290		56.640625
3291		60.546875
3292		52.734375
3293		58.593750
3294		46.875000
3295		54.687500
3296		42.968750
3297		52.734375
3298		39.062500
3299		48.828125
3300		37.109375
3301		44.921875
3302		33.203125
3303		41.015625
3304		29.296875
3305		37.109375
3306		27.343750
3307		33.203125
3308		23.437500
3309		29.296875
3310		17.578125
3311		25.390625
3312		13.671875
3313		23.437500
3314		7.812500
3315		19.531250
3316		3.906250
3317		15.625000
3318		1.953125
3319		11.718750
3320		-3.906250
3321		7.812500
3322		-3.906250
3323		3.906250
3324		-9.765625
3325		-1.953125
3326		-13.671875
3327		-7.812500
3328		-19.531250
3329		-9.765625
3330		-23.437500
3331		-13.671875
3332		-25.390625
3333		-17.578125
3334		-31.250000
3335		-21.484375
3336		-35.156250
3337		-25.390625
3338		-39.062500
3339		-29.296875
3340		-41.015625
3341		-35.156250
3342		-44.921875
3343		-41.015625
3344		-52.734375
3345		-42.968750
3346		-56.640625
3347		-46.875000
3348		-60.546875
3349		-50.781250
3350		-64.453125
3351		-54.687500
3352		-68.359375
3353		-58.593750
3354		-72.265625
3355		-62.500000
3356		-74.218750
3357		-66.406250
3358		-78.125000
3359		-72.265625
3360		-83.984375
3361		-78.125000
3362		-87.890625
3363		-78.125000
3364		-91.796875
3365		-82.031250
3366		-95.703125
3367		-85.937500
3368		-97.656250
3369		-89.843750
3370		-105.468750
3371		-93.750000
3372		-107.421875
3373		-99.609375
3374		-109.375000
3375		-103.515625
3376		-111.328125
3377		-107.421875
3378		-119.140625
3379		-111.328125
3380		-121.093750
3381		-113.281250
3382		-125.000000
3383		-115.234375
3384		-128.906250
3385		-119.140625
3386		-132.812500
3387		-123.046875
3388		-134.765625
3389		-125.000000
3390		-134.765625
3391		-128.906250
3392		-138.671875
3393		-132.812500
3394		-144.531250
3395		-136.718750
3396		-146.484375
3397		-138.671875
3398		-148.437500
3399		-140.625000
3400		-152.343750
3401		-142.578125
3402		-154.296875
3403		-144.531250
3404		-156.250000
3405		-148.437500
3406		-156.250000
3407		-148.437500
3408		-158.203125
3409		-154.296875
3410		-160.156250
3411		-156.250000
3412		-164.062500
3413		-156.250000
3414		-166.015625
3415		-158.203125
3416		-167.968750
3417		-160.156250
3418		-167.968750
3419		-160.156250
3420		-171.875000
3421		-162.109375
3422		-171.875000
3423		-164.062500
3424		-169.921875
3425		-167.968750
3426		-171.875000
3427		-167.968750
3428		-173.828125
3429		-167.968750
3430		-173.828125
3431		-169.921875
3432		-175.781250
3433		-169.921875
3434		-175.781250
3435		-169.921875
3436		-175.781250
3437		-169.921875
3438		-175.781250
3439		-169.921875
3440		-175.781250
3441		-169.921875
3442		-175.781250
3443		-171.875000
3444		-175.781250
3445		-169.921875
3446		-177.734375
3447		-169.921875
3448		-175.781250
3449		-169.921875
3450		-175.781250
3451		-167.968750
3452		-175.781250
3453		-167.968750
3454		-173.828125
3455		-166.015625
3456		-173.828125
3457		-166.015625
3458		-169.921875
3459		-166.015625
3460		-167.968750
3461		-166.015625
3462		-169.921875
3463		-162.109375
3464		-167.968750
3465		-160.156250
3466		-166.015625
3467		-158.203125
3468		-164.062500
3469		-156.250000
3470		-164.062500
3471		-154.296875
3472		-162.109375
3473		-152.343750
3474		-158.203125
3475		-152.343750
3476		-154.296875
3477		-150.390625
3478		-152.343750
3479		-144.531250
3480		-152.343750
3481		-142.578125
3482		-148.437500
3483		-140.625000
3484		-146.484375
3485		-136.718750
3486		-144.531250
3487		-134.765625
3488		-140.625000
3489		-132.812500
3490		-138.671875
3491		-130.859375
3492		-132.812500
3493		-128.906250
3494		-128.906250
3495		-125.000000
3496		-128.906250
3497		-119.140625
3498		-125.000000
3499		-117.187500
3500		-123.046875
3501		-113.281250
3502		-117.187500
3503		-109.375000
3504		-115.234375
3505		-105.468750
3506		-113.281250
3507		-101.562500
3508		-105.468750
3509		-99.609375
3510		-101.562500
3511		-95.703125
3512		-97.656250
3513		-89.843750
3514		-97.656250
3515		-85.937500
3516		-93.750000
3517		-82.031250
3518		-87.890625
3519		-78.125000
3520		-83.984375
3521		-74.218750
3522		-82.031250
3523		-70.312500
3524		-76.171875
3525		-68.359375
3526		-70.312500
3527		-64.453125
3528		-66.406250
3529		-58.593750
3530		-64.453125
3531		-54.687500
3532		-58.593750
3533		-50.781250
3534		-54.687500
3535		-46.875000
3536		-52.734375
3537		-41.015625
3538		-46.875000
3539		-37.109375
3540		-42.968750
3541		-33.203125
3542		-37.109375
3543		-31.250000
3544		-31.250000
3545		-25.390625
3546		-29.296875
3547		-21.484375
3548		-25.390625
3549		-15.625000
3550		-23.437500
3551		-11.718750
3552		-17.578125
3553		-7.812500
3554		-13.671875
3555		-3.906250
3556		-9.765625
3557		0.000000
3558		-5.859375
3559		1.953125
3560		0.000000
3561		5.859375
3562		3.906250
3563		11.718750
3564		5.859375
3565		15.625000
3566		11.718750
3567		19.531250
3568		13.671875
3569		23.437500
3570		17.578125
3571		29.296875
3572		21.484375
3573		31.250000
3574		25.390625
3575		33.203125
3576		31.250000
3577		37.109375
3578		35.156250
3579		41.015625
3580		37.109375
3581		44.921875
3582		41.015625
3583		48.828125
3584		42.968750
3585		52.734375
3586		46.875000
3587		54.687500
3588		50.781250
3589		58.593750
3590		54.687500
3591		62.500000
3592		56.640625
3593		62.500000
3594		62.500000
3595		66.406250
3596		62.500000
3597		72.265625
3598		66.406250
3599		74.218750
3600		68.359375
3601		78.125000
3602		72.265625
3603		80.078125
3604		74.218750
3605		83.984375
3606		78.125000
3607		85.937500
3608		80.078125
3609		87.890625
3610		85.937500
3611		89.843750
3612		87.890625
3613		93.750000
3614		87.890625
3615		95.703125
3616		89.843750
3617		97.656250
3618		93.750000
3619		99.609375
3620		93.750000
3621		103.515625
3622		95.703125
3623		105.468750
3624		99.609375
3625		107.421875
3626		103.515625
3627		107.421875
3628		105.468750
3629		109.375000
3630		105.468750
3631		113.281250
3632		107.421875
3633		115.234375
3634		109.375000
3635		117.187500
3636		109.375000
3637		119.140625
3638		111.328125
3639		119.140625
3640		113.281250
3641		121.093750
3642		115.234375
3643		121.093750
3644		119.140625
3645		121.093750
3646		119.140625
3647		125.000000
3648		119.140625
3649		126.953125
3650		119.140625
3651		126.953125
3652		121.093750
3653		128.906250
3654		121.093750
3655		130.859375
3656		123.046875
3657		130.859375
3658		123.046875
3659		130.859375
3660		126.953125
3661		130.859375
3662		128.906250
3663		130.859375
3664		126.953125
3665		132.812500
3666		126.953125
3667		134.765625
3668		126.953125
3669		134.765625
3670		126.953125
3671		134.765625
3672		128.906250
3673		136.718750
3674		128.906250
3675		136.718750
3676		128.906250
3677		136.718750
3678		130.859375
3679		132.812500
3680		128.906250
3681		136.718750
3682		128.906250
3683		136.718750
3684		128.906250
3685		136.718750
3686		128.906250
3687		136.718750
3688		128.906250
3689		136.718750
3690		126.953125
3691		136.718750
3692		126.953125
3693		134.765625
3694		130.859375
3695		132.812500
3696		126.953125
3697		132.812500
3698		126.953125
3699		134.765625
3700		125.000000
3701		132.812500
3702		125.000000
3703		132.812500
3704		123.046875
3705		130.859375
3706		123.046875
3707		130.859375
3708		123.046875
3709		128.906250
3710		123.046875
3711		126.953125
3712		123.046875
3713		125.000000
3714		117.187500
3715		125.000000
3716		117.187500
3717		125.000000
3718		117.187500
3719		123.046875
3720		113.281250
3721		123.046875
3722		113.281250
3723		121.093750
3724		111.328125
3725		119.140625
3726		111.328125
3727		117.187500
3728		111.328125
3729		113.281250
3730		105.468750
3731		113.281250
3732		103.515625
3733		113.281250
3734		101.562500
3735		109.375000
3736		99.609375
3737		107.421875
3738		97.656250
3739		105.468750
3740		95.703125
3741		103.515625
3742		93.750000
3743		101.562500
3744		93.750000
3745		97.656250
3746		91.796875
3747		95.703125
3748		85.937500
3749		93.750000
3750		82.031250
3751		91.796875
3752		80.078125
3753		89.843750
3754		78.125000
3755		87.890625
3756		74.218750
3757		83.984375
3758		72.265625
3759		80.078125
3760		72.265625
3761		78.125000
3762		68.359375
3763		72.265625
3764		62.500000
3765		72.265625
3766		58.593750
3767		68.359375
3768		56.640625
3769		64.453125
3770		52.734375
3771		62.500000
3772		48.828125
3773		58.593750
3774		46.875000
3775		56.640625
3776		44.921875
3777		52.734375
3778		41.015625
3779		46.875000
3780		37.109375
3781		42.968750
3782		31.250000
3783		41.015625
3784		27.343750
3785		37.109375
3786		23.437500
3787		33.203125
3788		19.531250
3789		31.250000
3790		15.625000
3791		25.390625
3792		13.671875
3793		21.484375
3794		11.718750
3795		17.578125
3796		7.812500
3797		13.671875
3798		1.953125
3799		9.765625
3800		-1.953125
3801		7.812500
3802		-5.859375
3803		3.906250
3804		-9.765625
3805		-1.953125
3806		-15.625000
3807		-5.859375
3808		-19.531250
3809		-9.765625
3810		-21.484375
3811		-13.671875
3812		-25.390625
3813		-19.531250
3814		-33.203125
3815		-23.437500
3816		-35.156250
3817		-27.343750
3818		-41.015625
3819		-31.250000
3820		-42.968750
3821		-35.156250
3822		-48.828125
3823		-37.109375
3824		-52.734375
3825		-42.968750
3826		-54.687500
3827		-46.875000
3828		-58.593750
3829		-52.734375
3830		-62.500000
3831		-56.640625
3832		-68.359375
3833		-60.546875
3834		-74.218750
3835		-62.500000
3836		-78.125000
3837		-68.359375
3838		-82.031250
3839		-72.265625
3840		-85.937500
3841		-74.218750
3842		-89.843750
3843		-80.078125
3844		-89.843750
3845		-83.984375
3846		-93.750000
3847		-89.843750
3848		-101.562500
3849		-93.750000
3850		-105.468750
3851		-95.703125
3852		-107.421875
3853		-99.609375
3854		-111.328125
3855		-101.562500
3856		-115.234375
3857		-105.468750
3858		-119.140625
3859		-109.375000
3860		-121.093750
3861		-111.328125
3862		-123.046875
3863		-119.140625
3864		-126.953125
3865		-121.093750
3866		-132.812500
3867		-123.046875
3868		-134.765625
3869		-125.000000
3870		-138.671875
3871		-128.906250
3872		-140.625000
3873		-130.859375
3874		-144.531250
3875		-134.765625
3876		-146.484375
3877		-136.718750
3878		-146.484375
3879		-142.578125
3880		-148.437500
3881		-144.531250
3882		-154.296875
3883		-144.531250
3884		-156.250000
3885		-148.437500
3886		-158.203125
3887		-150.390625
3888		-160.156250
3889		-152.343750
3890		-162.109375
3891		-154.296875
3892		-164.062500
3893		-156.250000
3894		-164.062500
3895		-158.203125
3896		-164.062500
3897		-162.109375
3898		-167.968750
3899		-162.109375
3900		-169.921875
3901		-162.109375
3902		-171.875000
3903		-164.062500
3904		-171.875000
3905		-164.062500
3906		-173.828125
3907		-166.015625
3908		-173.828125
3909		-166.015625
3910		-175.781250
3911		-167.968750
3912		-173.828125
3913		-169.921875
3914		-173.828125
3915		-171.875000
3916		-177.734375
3917		-167.968750
3918		-177.734375
3919		-167.968750
3920		-177.734375
3921		-169.921875
3922		-177.734375
3923		-169.921875
3924		-175.781250
3925		-169.921875
3926		-175.781250
3927		-167.968750
3928		-175.781250
3929		-169.921875
3930		-173.828125
3931		-169.921875
3932		-173.828125
3933		-166.015625
3934		-173.828125
3935		-166.015625
3936		-171.875000
3937		-166.015625
3938		-171.875000
3939		-164.062500
3940		-169.921875
3941		-162.109375
3942		-169.921875
3943		-162.109375
3944		-167.968750
3945		-160.156250
3946		-164.062500
3947		-160.156250
3948		-162.109375
3949		-158.203125
3950		-162.109375
3951		-154.296875
3952		-160.156250
3953		-152.343750
3954		-158.203125
3955		-148.437500
3956		-156.250000
3957		-146.484375
3958		-154.296875
3959		-144.531250
3960		-152.343750
3961		-142.578125
3962		-146.484375
3963		-142.578125
3964		-142.578125
3965		-138.671875
3966		-140.625000
3967		-134.765625
3968		-140.625000
3969		-130.859375
3970		-136.718750
3971		-128.906250
3972		-134.765625
3973		-125.000000
3974		-130.859375
3975		-121.093750
3976		-126.953125
3977		-117.187500
3978		-123.046875
3979		-117.187500
3980		-119.140625
3981		-113.281250
3982		-115.234375
3983		-107.421875
3984		-113.281250
3985		-103.515625
3986		-109.375000
3987		-101.562500
3988		-105.468750
3989		-97.656250
3990		-103.515625
3991		-93.750000
3992		-99.609375
3993		-87.890625
3994		-93.750000
3995		-85.937500
3996		-87.890625
3997		-83.984375
3998		-83.984375
3999		-80.078125
4000		-82.031250
4001		-72.265625
4002		-78.125000
4003		-68.359375
4004		-74.218750
4005		-66.406250
4006		-72.265625
4007		-60.546875
4008		-66.406250
4009		-56.640625
4010		-62.500000
4011		-52.734375
4012		-58.593750
4013		-50.781250
4014		-52.734375
4015		-46.875000
4016		-46.875000
4017		-39.062500
4018		-44.921875
4019		-37.109375
4020		-41.015625
4021		-31.250000
4022		-37.109375
4023		-27.343750
4024		-33.203125
4025		-23.437500
4026		-29.296875
4027		-19.531250
4028		-25.390625
4029		-15.625000
4030		-17.578125
4031		-13.671875
4032		-13.671875
4033		-7.812500
4034		-11.718750
4035		-1.953125
4036		-7.812500
4037		0.000000
4038		-3.906250
4039		5.859375
4040		0.000000
4041		9.765625
4042		3.906250
4043		13.671875
4044		7.812500
4045		17.578125
4046		13.671875
4047		19.531250
4048		17.578125
4049		23.437500
4050		21.484375
4051		29.296875
4052		23.437500
4053		31.250000
4054		27.343750
4055		37.109375
4056		31.250000
4057		41.015625
4058		35.156250
4059		42.968750
4060		37.109375
4061		46.875000
4062		41.015625
4063		48.828125
4064		46.875000
4065		50.781250
4066		50.781250
4067		54.687500
4068		50.781250
4069		60.546875
4070		54.687500
4071		62.500000
4072		56.640625
4073		66.406250
4074		60.546875
4075		70.312500
4076		64.453125
4077		74.218750
4078		66.406250
4079		76.171875
4080		72.265625
4081		76.171875
4082		74.218750
4083		80.078125
4084		76.171875
4085		83.984375
4086		78.125000
4087		85.937500
4088		82.031250
4089		87.890625
4090		82.031250
4091		93.750000
4092		85.937500
4093		93.750000
4094		89.843750
4095		95.703125
4096		89.843750
4097		97.656250
4098		95.703125
4099		99.609375
4100		97.656250
4101		103.515625
4102		97.656250
4103		105.468750
4104		99.609375
4105		107.421875
4106		101.562500
4107		109.375000
4108		103.515625
4109		111.328125
4110		105.468750
4111		113.281250
4112		107.421875
4113		115.234375
4114		111.328125
4115		115.234375
4116		113.281250
4117		117.187500
4118		113.281250
4119		121.093750
4120		113.281250
4121		123.046875
4122		115.234375
4123		123.046875
4124		117.187500
4125		125.000000
4126		117.187500
4127		125.000000
4128		119.140625
4129		126.953125
4130		123.046875
4131		125.000000
4132		123.046875
4133		126.953125
4134		123.046875
4135		128.906250
4136		123.046875
4137		130.859375
4138		123.046875
4139		130.859375
4140		125.000000
4141		132.812500
4142		125.000000
4143		132.812500
4144		126.953125
4145		134.765625
4146		126.953125
4147		134.765625
4148		130.859375
4149		132.812500
4150		130.859375
4151		132.812500
4152		128.906250
4153		136.718750
4154		128.906250
4155		134.765625
4156		128.906250
4157		136.718750
4158		128.906250
4159		136.718750
4160		128.906250
4161		136.718750
4162		128.906250
4163		136.718750
4164		130.859375
4165		132.812500
4166		130.859375
4167		132.812500
4168		128.906250
4169		136.718750
4170		128.906250
4171		134.765625
4172		126.953125
4173		134.765625
4174		126.953125
4175		134.765625
4176		126.953125
4177		134.765625
4178		126.953125
4179		134.765625
4180		125.000000
4181		132.812500
4182		126.953125
4183		130.859375
4184		123.046875
4185		130.859375
4186		121.093750
4187		130.859375
4188		121.093750
4189		130.859375
4190		121.093750
4191		128.906250
4192		119.140625
4193		126.953125
4194		119.140625
4195		125.000000
4196		117.187500
4197		125.000000
4198		119.140625
4199		121.093750
4200		117.187500
4201		119.140625
4202		113.281250
4203		121.093750
4204		111.328125
4205		119.140625
4206		109.375000
4207		117.187500
4208		107.421875
4209		115.234375
4210		105.468750
4211		113.281250
4212		103.515625
4213		113.281250
4214		103.515625
4215		109.375000
4216		101.562500
4217		105.468750
4218		97.656250
4219		105.468750
4220		95.703125
4221		103.515625
4222		91.796875
4223		101.562500
4224		89.843750
4225		99.609375
4226		87.890625
4227		97.656250
4228		85.937500
4229		93.750000
4230		83.984375
4231		91.796875
4232		82.031250
4233		85.937500
4234		78.125000
4235		83.984375
4236		74.218750
4237		83.984375
4238		70.312500
4239		80.078125
4240		68.359375
4241		78.125000
4242		64.453125
4243		74.218750
4244		62.500000
4245		72.265625
4246		58.593750
4247		68.359375
4248		58.593750
4249		62.500000
4250		54.687500
4251		58.593750
4252		48.828125
4253		56.640625
4254		46.875000
4255		54.687500
4256		41.015625
4257		50.781250
4258		39.062500
4259		48.828125
4260		35.156250
4261		42.968750
4262		31.250000
4263		39.062500
4264		29.296875
4265		37.109375
4266		25.390625
4267		31.250000
4268		19.531250
4269		27.343750
4270		17.578125
4271		23.437500
4272		11.718750
4273		21.484375
4274		7.812500
4275		15.625000
4276		5.859375
4277		11.718750
4278		1.953125
4279		7.812500
4280		-1.953125
4281		3.906250
4282		-5.859375
4283		0.000000
4284		-9.765625
4285		-5.859375
4286		-15.625000
4287		-7.812500
4288		-21.484375
4289		-9.765625
4290		-23.437500
4291		-15.625000
4292		-29.296875
4293		-19.531250
4294		-33.203125
4295		-23.437500
4296		-37.109375
4297		-29.296875
4298		-39.062500
4299		-31.250000
4300		-42.968750
4301		-37.109375
4302		-48.828125
4303		-42.968750
4304		-54.687500
4305		-42.968750
4306		-58.593750
4307		-48.828125
4308		-62.500000
4309		-52.734375
4310		-66.406250
4311		-56.640625
4312		-70.312500
4313		-60.546875
4314		-72.265625
4315		-64.453125
4316		-76.171875
4317		-72.265625
4318		-82.031250
4319		-74.218750
4320		-87.890625
4321		-78.125000
4322		-91.796875
4323		-82.031250
4324		-93.750000
4325		-83.984375
4326		-99.609375
4327		-89.843750
4328		-103.515625
4329		-93.750000
4330		-105.468750
4331		-95.703125
4332		-107.421875
4333		-101.562500
4334		-111.328125
4335		-105.468750
4336		-117.187500
4337		-107.421875
4338		-119.140625
4339		-111.328125
4340		-123.046875
4341		-113.281250
4342		-125.000000
4343		-117.187500
4344		-128.906250
4345		-121.093750
4346		-132.812500
4347		-123.046875
4348		-132.812500
4349		-126.953125
4350		-136.718750
4351		-132.812500
4352		-142.578125
4353		-134.765625
4354		-144.531250
4355		-134.765625
4356		-148.437500
4357		-138.671875
4358		-150.390625
4359		-140.625000
4360		-152.343750
4361		-142.578125
4362		-154.296875
4363		-146.484375
4364		-156.250000
4365		-148.437500
4366		-156.250000
4367		-152.343750
4368		-158.203125
4369		-154.296875
4370		-164.062500
4371		-154.296875
4372		-166.015625
4373		-156.250000
4374		-166.015625
4375		-158.203125
4376		-169.921875
4377		-160.156250
4378		-169.921875
4379		-162.109375
4380		-171.875000
4381		-164.062500
4382		-171.875000
4383		-164.062500
4384		-171.875000
4385		-167.968750
4386		-173.828125
4387		-167.968750
4388		-175.781250
4389		-167.968750
4390		-175.781250
4391		-167.968750
4392		-175.781250
4393		-167.968750
4394		-177.734375
4395		-167.968750
4396		-177.734375
4397		-169.921875
4398		-177.734375
4399		-169.921875
4400		-173.828125
4401		-171.875000
4402		-175.781250
4403		-171.875000
4404		-177.734375
4405		-169.921875
4406		-177.734375
4407		-169.921875
4408		-175.781250
4409		-167.968750
4410		-175.781250
4411		-167.968750
4412		-173.828125
4413		-166.015625
4414		-173.828125
4415		-166.015625
4416		-169.921875
4417		-167.968750
4418		-167.968750
4419		-166.015625
4420		-169.921875
4421		-162.109375
4422		-167.968750
4423		-162.109375
4424		-167.968750
4425		-158.203125
4426		-166.015625
4427		-158.203125
4428		-164.062500
4429		-156.250000
4430		-162.109375
4431		-154.296875
4432		-160.156250
4433		-152.343750
4434		-154.296875
4435		-150.390625
4436		-154.296875
4437		-146.484375
4438		-152.343750
4439		-144.531250
4440		-150.390625
4441		-142.578125
4442		-146.484375
4443		-138.671875
4444		-144.531250
4445		-136.718750
4446		-142.578125
4447		-132.812500
4448		-138.671875
4449		-130.859375
4450		-132.812500
4451		-128.906250
4452		-130.859375
4453		-125.000000
4454		-128.906250
4455		-119.140625
4456		-126.953125
4457		-117.187500
4458		-123.046875
4459		-113.281250
4460		-119.140625
4461		-111.328125
4462		-115.234375
4463		-107.421875
4464		-111.328125
4465		-103.515625
4466		-107.421875
4467		-101.562500
4468		-101.562500
4469		-97.656250
4470		-99.609375
4471		-91.796875
4472		-97.656250
4473		-87.890625
4474		-93.750000
4475		-83.984375
4476		-89.843750
4477		-80.078125
4478		-83.984375
4479		-76.171875
4480		-80.078125
4481		-72.265625
4482		-78.125000
4483		-70.312500
4484		-70.312500
4485		-64.453125
4486		-66.406250
4487		-58.593750
4488		-64.453125
4489		-54.687500
4490		-60.546875
4491		-50.781250
4492		-56.640625
4493		-46.875000
4494		-52.734375
4495		-42.968750
4496		-48.828125
4497		-39.062500
4498		-42.968750
4499		-35.156250
4500		-37.109375
4501		-31.250000
4502		-33.203125
4503		-27.343750
4504		-29.296875
4505		-21.484375
4506		-27.343750
4507		-19.531250
4508		-23.437500
4509		-13.671875
4510		-19.531250
4511		-9.765625
4512		-15.625000
4513		-5.859375
4514		-11.718750
4515		0.000000
4516		-5.859375
4517		1.953125
4518		0.000000
4519		5.859375
4520		3.906250
4521		11.718750
4522		5.859375
4523		15.625000
4524		7.812500
4525		19.531250
4526		15.625000
4527		21.484375
4528		17.578125
4529		25.390625
4530		19.531250
4531		29.296875
4532		25.390625
4533		33.203125
4534		29.296875
4535		35.156250
4536		35.156250
4537		39.062500
4538		37.109375
4539		44.921875
4540		39.062500
4541		48.828125
4542		42.968750
4543		50.781250
4544		44.921875
4545		54.687500
4546		48.828125
4547		58.593750
4548		52.734375
4549		60.546875
4550		56.640625
4551		62.500000
4552		60.546875
4553		66.406250
4554		64.453125
4555		70.312500
4556		66.406250
4557		74.218750
4558		68.359375
4559		78.125000
4560		70.312500
4561		80.078125
4562		76.171875
4563		82.031250
4564		76.171875
4565		83.984375
4566		78.125000
4567		85.937500
4568		83.984375
4569		87.890625
4570		85.937500
4571		91.796875
4572		87.890625
4573		95.703125
4574		89.843750
4575		97.656250
4576		91.796875
4577		99.609375
4578		93.750000
4579		103.515625
4580		95.703125
4581		105.468750
4582		97.656250
4583		107.421875
4584		103.515625
4585		105.468750
4586		105.468750
4587		109.375000
4588		105.468750
4589		113.281250
4590		105.468750
4591		113.281250
4592		107.421875
4593		117.187500
4594		109.375000
4595		119.140625
4596		111.328125
4597		119.140625
4598		113.281250
4599		121.093750
4600		113.281250
4601		121.093750
4602		119.140625
4603		121.093750
4604		119.140625
4605		125.000000
4606		119.140625
4607		125.000000
4608		119.140625
4609		126.953125
4610		121.093750
4611		128.906250
4612		121.093750
4613		128.906250
4614		123.046875
4615		130.859375
4616		123.046875
4617		130.859375
4618		126.953125
4619		128.906250
4620		126.953125
4621		130.859375
4622		125.000000
4623		132.812500
4624		126.953125
4625		134.765625
4626		126.953125
4627		134.765625
4628		126.953125
4629		134.765625
4630		128.906250
4631		136.718750
4632		128.906250
4633		134.765625
4634		128.906250
4635		136.718750
4636		130.859375
4637		134.765625
4638		128.906250
4639		136.718750
4640		128.906250
4641		136.718750
4642		128.906250
4643		136.718750
4644		128.906250
4645		136.718750
4646		128.906250
4647		136.718750
4648		126.953125
4649		136.718750
4650		128.906250
4651		136.718750
4652		130.859375
4653		132.812500
4654		128.906250
4655		132.812500
4656		126.953125
4657		134.765625
4658		125.000000
4659		134.765625
4660		125.000000
4661		132.812500
4662		123.046875
4663		132.812500
4664		123.046875
4665		130.859375
4666		121.093750
4667		130.859375
4668		125.000000
4669		126.953125
4670		123.046875
4671		125.000000
4672		121.093750
4673		125.000000
4674		117.187500
4675		125.000000
4676		117.187500
4677		125.000000
4678		115.234375
4679		123.046875
4680		113.281250
4681		121.093750
4682		111.328125
4683		119.140625
4684		111.328125
4685		119.140625
4686		111.328125
4687		115.234375
4688		107.421875
4689		113.281250
4690		103.515625
4691		113.281250
4692		103.515625
4693		111.328125
4694		101.562500
4695		109.375000
4696		97.656250
4697		107.421875
4698		95.703125
4699		105.468750
4700		93.750000
4701		101.562500
4702		93.750000
4703		97.656250
4704		91.796875
4705		95.703125
4706		87.890625
4707		95.703125
4708		83.984375
4709		93.750000
4710		82.031250
4711		89.843750
4712		80.078125
4713		87.890625
4714		76.171875
4715		83.984375
4716		72.265625
4717		82.031250
4718		72.265625
4719		78.125000
4720		68.359375
4721		74.218750
4722		64.453125
4723		70.312500
4724		60.546875
4725		70.312500
4726		58.593750
4727		66.406250
4728		54.687500
4729		62.500000
4730		50.781250
4731		60.546875
4732		46.875000
4733		56.640625
4734		44.921875
4735		52.734375
4736		42.968750
4737		46.875000
4738		39.062500
4739		44.921875
4740		33.203125
4741		42.968750
4742		29.296875
4743		39.062500
4744		25.390625
4745		35.156250
4746		21.484375
4747		29.296875
4748		19.531250
4749		27.343750
4750		13.671875
4751		23.437500
4752		11.718750
4753		17.578125
4754		7.812500
4755		13.671875
4756		1.953125
4757		9.765625
4758		-1.953125
4759		7.812500
4760		-5.859375
4761		3.906250
4762		-9.765625
4763		0.000000
4764		-13.671875
4765		-3.906250
4766		-19.531250
4767		-9.765625
4768		-19.531250
4769		-13.671875
4770		-25.390625
4771		-19.531250
4772		-31.250000
4773		-23.437500
4774		-35.156250
4775		-25.390625
4776		-39.062500
4777		-29.296875
4778		-41.015625
4779		-33.203125
4780		-48.828125
4781		-37.109375
4782		-50.781250
4783		-42.968750
4784		-54.687500
4785		-46.875000
4786		-58.593750
4787		-52.734375
4788		-62.500000
4789		-56.640625
4790		-68.359375
4791		-60.546875
4792		-72.265625
4793		-62.500000
4794		-76.171875
4795		-66.406250
4796		-80.078125
4797		-70.312500
4798		-83.984375
4799		-74.218750
4800		-87.890625
4801		-78.125000
4802		-89.843750
4803		-82.031250
4804		-93.750000
4805		-87.890625
4806		-99.609375
4807		-91.796875
4808		-103.515625
4809		-93.750000
4810		-107.421875
4811		-97.656250
4812		-111.328125
4813		-101.562500
4814		-115.234375
4815		-105.468750
4816		-117.187500
4817		-109.375000
4818		-121.093750
4819		-113.281250
4820		-123.046875
4821		-117.187500
4822		-125.000000
4823		-121.093750
4824		-130.859375
4825		-123.046875
4826		-134.765625
4827		-125.000000
4828		-136.718750
4829		-128.906250
4830		-138.671875
4831		-132.812500
4832		-144.531250
4833		-132.812500
4834		-146.484375
4835		-136.718750
4836		-146.484375
4837		-140.625000
4838		-148.437500
4839		-144.531250
4840		-154.296875
4841		-146.484375
4842		-156.250000
4843		-146.484375
4844		-160.156250
4845		-148.437500
4846		-160.156250
4847		-152.343750
4848		-162.109375
4849		-154.296875
4850		-164.062500
4851		-156.250000
4852		-164.062500
4853		-158.203125
4854		-166.015625
4855		-162.109375
4856		-167.968750
4857		-164.062500
4858		-171.875000
4859		-162.109375
4860		-171.875000
4861		-164.062500
4862		-173.828125
4863		-166.015625
4864		-173.828125
4865		-166.015625
4866		-175.781250
4867		-167.968750
4868		-175.781250
4869		-167.968750
4870		-173.828125
4871		-171.875000
4872		-173.828125
4873		-171.875000
4874		-177.734375
4875		-169.921875
4876		-177.734375
4877		-169.921875
4878		-177.734375
4879		-169.921875
4880		-177.734375
4881		-169.921875
4882		-177.734375
4883		-169.921875
4884		-177.734375
4885		-169.921875
4886		-177.734375
4887		-169.921875
4888		-173.828125
4889		-171.875000
4890		-173.828125
4891		-167.968750
4892		-175.781250
4893		-167.968750
4894		-173.828125
4895		-166.015625
4896		-171.875000
4897		-164.062500
4898		-171.875000
4899		-164.062500
4900		-169.921875
4901		-162.109375
4902		-169.921875
4903		-160.156250
4904		-164.062500
4905		-162.109375
4906		-162.109375
4907		-158.203125
4908		-164.062500
4909		-156.250000
4910		-162.109375
4911		-152.343750
4912		-158.203125
4913		-150.390625
4914		-156.250000
4915		-148.437500
4916		-156.250000
4917		-146.484375
4918		-152.343750
4919		-144.531250
4920		-150.390625
4921		-142.578125
4922		-144.531250
4923		-140.625000
4924		-142.578125
4925		-134.765625
4926		-140.625000
4927		-132.812500
4928		-138.671875
4929		-128.906250
4930		-136.718750
4931		-126.953125
4932		-132.812500
4933		-123.046875
4934		-128.906250
4935		-119.140625
4936		-126.953125
4937		-119.140625
4938		-119.140625
4939		-115.234375
4940		-117.187500
4941		-111.328125
4942		-115.234375
4943		-105.468750
4944		-111.328125
4945		-101.562500
4946		-109.375000
4947		-97.656250
4948		-103.515625
4949		-93.750000
4950		-99.609375
4951		-89.843750
4952		-97.656250
4953		-85.937500
4954		-89.843750
4955		-85.937500
4956		-85.937500
4957		-80.078125
4958		-83.984375
4959		-74.218750
4960		-80.078125
4961		-70.312500
4962		-76.171875
4963		-68.359375
4964		-72.265625
4965		-60.546875
4966		-68.359375
4967		-58.593750
4968		-64.453125
4969		-54.687500
4970		-58.593750
4971		-52.734375
4972		-52.734375
4973		-48.828125
4974		-48.828125
4975		-41.015625
4976		-48.828125
4977		-37.109375
4978		-42.968750
4979		-33.203125
4980		-39.062500
4981		-29.296875
4982		-33.203125
4983		-25.390625
4984		-29.296875
4985		-19.531250
4986		-25.390625
4987		-17.578125
4988		-19.531250
4989		-13.671875
4990		-15.625000
4991		-9.765625
4992		-11.718750
4993		-3.906250
4994		-9.765625
4995		0.000000
4996		-5.859375
4997		3.906250
4998		-1.953125
4999		7.812500
5000		1.953125
5001		11.718750
5002		5.859375
5003		15.625000
5004		9.765625
5005		17.578125
5006		15.625000
5007		21.484375
5008		19.531250
5009		27.343750
5010		21.484375
5011		31.250000
5012		27.343750
5013		35.156250
5014		29.296875
5015		39.062500
5016		31.250000
5017		42.968750
5018		37.109375
5019		44.921875
5020		39.062500
5021		46.875000
5022		44.921875
5023		50.781250
5024		48.828125
5025		54.687500
5026		50.781250
5027		58.593750
5028		52.734375
5029		62.500000
5030		54.687500
5031		66.406250
5032		58.593750
5033		68.359375
5034		62.500000
5035		70.312500
5036		64.453125
5037		74.218750
5038		70.312500
5039		76.171875
5040		74.218750
5041		78.125000
5042		76.171875
5043		83.984375
5044		76.171875
5045		85.937500
5046		80.078125
5047		87.890625
5048		83.984375
5049		91.796875
5050		83.984375
5051		93.750000
5052		87.890625
5053		95.703125
5054		91.796875
5055		97.656250
5056		95.703125
5057		97.656250
5058		95.703125
5059		103.515625
5060		95.703125
5061		105.468750
5062		99.609375
5063		107.421875
5064		101.562500
5065		109.375000
5066		101.562500
5067		111.328125
5068		103.515625
5069		113.281250
5070		107.421875
5071		115.234375
5072		111.328125
5073		113.281250
5074		111.328125
5075		115.234375
5076		111.328125
5077		119.140625
5078		113.281250
5079		121.093750
5080		115.234375
5081		123.046875
5082		115.234375
5083		123.046875
5084		117.187500
5085		125.000000
5086		119.140625
5087		126.953125
5088		119.140625
5089		126.953125
5090		123.046875
5091		126.953125
5092		123.046875
5093		130.859375
5094		123.046875
5095		130.859375
5096		123.046875
5097		130.859375
5098		123.046875
5099		132.812500
5100		125.000000
5101		132.812500
5102		125.000000
5103		134.765625
5104		126.953125
5105		134.765625
5106		128.906250
5107		132.812500
5108		128.906250
5109		134.765625
5110		128.906250
5111		134.765625
5112		128.906250
5113		134.765625
5114		128.906250
5115		134.765625
5116		128.906250
5117		134.765625
5118		128.906250
5119		134.765625
5120		128.906250
5121		134.765625
5122		130.859375
5123		132.812500
5124		130.859375
5125		132.812500
5126		128.906250
5127		134.765625
5128		128.906250
5129		136.718750
5130		126.953125
5131		134.765625
5132		126.953125
5133		134.765625
5134		126.953125
5135		132.812500
5136		125.000000
5137		134.765625
5138		125.000000
5139		132.812500
5140		126.953125
5141		128.906250
5142		125.000000
5143		130.859375
5144		123.046875
5145		130.859375
5146		121.093750
5147		128.906250
5148		121.093750
5149		128.906250
5150		119.140625
5151		126.953125
5152		117.187500
5153		126.953125
5154		117.187500
5155		125.000000
5156		119.140625
5157		121.093750
5158		117.187500
5159		119.140625
5160		113.281250
5161		119.140625
5162		111.328125
5163		119.140625
5164		109.375000
5165		117.187500
5166		107.421875
5167		117.187500
5168		105.468750
5169		113.281250
5170		103.515625
5171		111.328125
5172		103.515625
5173		109.375000
5174		101.562500
5175		105.468750
5176		97.656250
5177		105.468750
5178		95.703125
5179		103.515625
5180		93.750000
5181		101.562500
5182		91.796875
5183		99.609375
5184		87.890625
5185		95.703125
5186		85.937500
5187		93.750000
5188		83.984375
5189		91.796875
5190		82.031250
5191		87.890625
5192		78.125000
5193		83.984375
5194		74.218750
5195		83.984375
5196		72.265625
5197		80.078125
5198		68.359375
5199		78.125000
5200		66.406250
5201		74.218750
5202		62.500000
5203		72.265625
5204		58.593750
5205		68.359375
5206		58.593750
5207		62.500000
5208		54.687500
5209		58.593750
5210		48.828125
5211		56.640625
5212		44.921875
5213		56.640625
5214		41.015625
5215		50.781250
5216		37.109375
5217		46.875000
5218		35.156250
5219		42.968750
5220		31.250000
5221		41.015625
5222		29.296875
5223		37.109375
5224		25.390625
5225		31.250000
5226		21.484375
5227		27.343750
5228		15.625000
5229		25.390625
5230		11.718750
5231		21.484375
5232		7.812500
5233		17.578125
5234		3.906250
5235		13.671875
5236		0.000000
5237		9.765625
5238		-3.906250
5239		5.859375
5240		-5.859375
5241		0.000000
5242		-9.765625
5243		-3.906250
5244		-17.578125
5245		-7.812500
5246		-21.484375
5247		-11.718750
5248		-23.437500
5249		-15.625000
5250		-29.296875
5251		-17.578125
5252		-33.203125
5253		-23.437500
5254		-37.109375
5255		-27.343750
5256		-39.062500
5257		-31.250000
5258		-42.968750
5259		-37.109375
5260		-50.781250
5261		-41.015625
5262		-54.687500
5263		-44.921875
5264		-58.593750
5265		-46.875000
5266		-62.500000
5267		-52.734375
5268		-66.406250
5269		-56.640625
5270		-70.312500
5271		-60.546875
5272		-72.265625
5273		-64.453125
5274		-76.171875
5275		-70.312500
5276		-80.078125
5277		-74.218750
5278		-85.937500
5279		-78.125000
5280		-89.843750
5281		-80.078125
5282		-93.750000
5283		-83.984375
5284		-97.656250
5285		-89.843750
5286		-103.515625
5287		-91.796875
5288		-105.468750
5289		-95.703125
5290		-107.421875
5291		-101.562500
5292		-111.328125
5293		-105.468750
5294		-115.234375
5295		-109.375000
5296		-119.140625
5297		-109.375000
5298		-125.000000
5299		-113.281250
5300		-126.953125
5301		-117.187500
5302		-130.859375
5303		-121.093750
5304		-132.812500
5305		-125.000000
5306		-134.765625
5307		-128.906250
5308		-136.718750
5309		-132.812500
5310		-140.625000
5311		-134.765625
5312		-144.531250
5313		-136.718750
5314		-148.437500
5315		-138.671875
5316		-150.390625
5317		-142.578125
5318		-154.296875
5319		-144.531250
5320		-156.250000
5321		-146.484375
5322		-158.203125
5323		-148.437500
5324		-158.203125
5325		-154.296875
5326		-160.156250
5327		-156.250000
5328		-166.015625
5329		-156.250000
5330		-166.015625
5331		-158.203125
5332		-167.968750
5333		-158.203125
5334		-169.921875
5335		-160.156250
5336		-169.921875
5337		-162.109375
5338		-171.875000
5339		-164.062500
5340		-171.875000
5341		-164.062500
5342		-171.875000
5343		-167.968750
5344		-173.828125
5345		-167.968750
5346		-175.781250
5347		-167.968750
5348		-175.781250
5349		-169.921875
5350		-177.734375
5351		-169.921875
5352		-177.734375
5353		-169.921875
5354		-177.734375
5355		-169.921875
5356		-179.687500
5357		-169.921875
5358		-175.781250
5359		-173.828125
5360		-175.781250
5361		-173.828125
5362		-177.734375
5363		-169.921875
5364		-177.734375
5365		-169.921875
5366		-177.734375
5367		-169.921875
5368		-177.734375
5369		-169.921875
5370		-175.781250
5371		-167.968750
5372		-175.781250
5373		-167.968750
5374		-171.875000
5375		-167.968750
5376		-169.921875
5377		-167.968750
5378		-169.921875
5379		-164.062500
5380		-169.921875
5381		-162.109375
5382		-169.921875
5383		-160.156250
5384		-166.015625
5385		-160.156250
5386		-166.015625
5387		-158.203125
5388		-164.062500
5389		-154.296875
5390		-160.156250
5391		-154.296875
5392		-156.250000
5393		-152.343750
5394		-154.296875
5395		-150.390625
5396		-156.250000
5397		-146.484375
5398		-152.343750
5399		-144.531250
5400		-150.390625
5401		-140.625000
5402		-148.437500
5403		-136.718750
5404		-144.531250
5405		-136.718750
5406		-142.578125
5407		-132.812500
5408		-136.718750
5409		-130.859375
5410		-132.812500
5411		-128.906250
5412		-130.859375
5413		-123.046875
5414		-126.953125
5415		-119.140625
5416		-125.000000
5417		-115.234375
5418		-121.093750
5419		-113.281250
5420		-117.187500
5421		-109.375000
5422		-115.234375
5423		-105.468750
5424		-111.328125
5425		-103.515625
5426		-105.468750
5427		-99.609375
5428		-101.562500
5429		-93.750000
5430		-99.609375
5431		-89.843750
5432		-95.703125
5433		-85.937500
5434		-91.796875
5435		-82.031250
5436		-87.890625
5437		-80.078125
5438		-83.984375
5439		-74.218750
5440		-80.078125
5441		-70.312500
5442		-74.218750
5443		-68.359375
5444		-70.312500
5445		-64.453125
5446		-66.406250
5447		-58.593750
5448		-64.453125
5449		-54.687500
5450		-58.593750
5451		-48.828125
5452		-54.687500
5453		-44.921875
5454		-50.781250
5455		-41.015625
5456		-44.921875
5457		-37.109375
5458		-41.015625
5459		-33.203125
5460		-35.156250
5461		-29.296875
5462		-31.250000
5463		-23.437500
5464		-29.296875
5465		-19.531250
5466		-25.390625
5467		-15.625000
5468		-21.484375
5469		-11.718750
5470		-17.578125
5471		-7.812500
5472		-11.718750
5473		-1.953125
5474		-7.812500
5475		-1.953125
5476		-1.953125
5477		1.953125
5478		1.953125
5479		7.812500
5480		3.906250
5481		13.671875
5482		7.812500
5483		17.578125
5484		9.765625
5485		21.484375
5486		13.671875
5487		25.390625
5488		19.531250
5489		29.296875
5490		23.437500
5491		31.250000
5492		29.296875
5493		33.203125
5494		31.250000
5495		37.109375
5496		35.156250
5497		42.968750
5498		37.109375
5499		44.921875
5500		39.062500
5501		48.828125
5502		44.921875
5503		52.734375
5504		46.875000
5505		56.640625
5506		50.781250
5507		58.593750
5508		56.640625
5509		60.546875
5510		58.593750
5511		64.453125
5512		62.500000
5513		68.359375
5514		64.453125
5515		70.312500
5516		66.406250
5517		76.171875
5518		68.359375
5519		78.125000
5520		72.265625
5521		80.078125
5522		76.171875
5523		82.031250
5524		78.125000
5525		83.984375
5526		82.031250
5527		85.937500
5528		85.937500
5529		89.843750
5530		85.937500
5531		91.796875
5532		87.890625
5533		95.703125
5534		89.843750
5535		99.609375
5536		91.796875
5537		99.609375
5538		95.703125
5539		101.562500
5540		95.703125
5541		103.515625
5542		99.609375
5543		105.468750
5544		103.515625
5545		107.421875
5546		105.468750
5547		109.375000
5548		107.421875
5549		111.328125
5550		107.421875
5551		115.234375
5552		107.421875
5553		117.187500
5554		111.328125
5555		115.234375
5556		113.281250
5557		117.187500
5558		115.234375
5559		119.140625
5560		117.187500
5561		121.093750
5562		119.140625
5563		121.093750
5564		119.140625
5565		123.046875
5566		121.093750
5567		123.046875
5568		119.140625
5569		126.953125
5570		121.093750
5571		126.953125
5572		123.046875
5573		126.953125
5574		125.000000
5575		128.906250
5576		126.953125
5577		128.906250
5578		126.953125
5579		128.906250
5580		126.953125
5581		130.859375
5582		128.906250
5583		130.859375
5584		128.906250
5585		132.812500
5586		128.906250
5587		132.812500
5588		128.906250
5589		132.812500
5590		128.906250
5591		132.812500
5592		130.859375
5593		132.812500
5594		130.859375
5595		132.812500
5596		128.906250
5597		134.765625
5598		130.859375
5599		132.812500
5600		130.859375
5601		134.765625
5602		130.859375
5603		134.765625
5604		128.906250
5605		132.812500
5606		128.906250
5607		132.812500
5608		128.906250
5609		132.812500
5610		128.906250
5611		130.859375
5612		128.906250
5613		130.859375
5614		126.953125
5615		132.812500
5616		126.953125
5617		130.859375
5618		126.953125
5619		130.859375
5620		125.000000
5621		130.859375
5622		125.000000
5623		128.906250
5624		125.000000
5625		126.953125
5626		123.046875
5627		126.953125
5628		123.046875
5629		125.000000
5630		121.093750
5631		125.000000
5632		119.140625
5633		123.046875
5634		119.140625
5635		121.093750
5636		117.187500
5637		121.093750
5638		115.234375
5639		119.140625
5640		113.281250
5641		117.187500
5642		111.328125
5643		117.187500
5644		111.328125
5645		113.281250
5646		107.421875
5647		111.328125
5648		105.468750
5649		111.328125
5650		105.468750
5651		109.375000
5652		103.515625
5653		107.421875
5654		99.609375
5655		105.468750
5656		97.656250
5657		103.515625
5658		95.703125
5659		99.609375
5660		93.750000
5661		97.656250
5662		91.796875
5663		95.703125
5664		87.890625
5665		93.750000
5666		85.937500
5667		89.843750
5668		83.984375
5669		87.890625
5670		80.078125
5671		85.937500
5672		78.125000
5673		82.031250
5674		74.218750
5675		80.078125
5676		72.265625
5677		76.171875
5678		68.359375
5679		74.218750
5680		66.406250
5681		70.312500
5682		62.500000
5683		68.359375
5684		58.593750
5685		64.453125
5686		56.640625
5687		60.546875
5688		52.734375
5689		58.593750
5690		48.828125
5691		54.687500
5692		44.921875
5693		50.781250
5694		42.968750
5695		46.875000
5696		39.062500
5697		42.968750
5698		35.156250
5699		41.015625
5700		31.250000
5701		37.109375
5702		27.343750
5703		33.203125
5704		23.437500
5705		29.296875
5706		19.531250
5707		25.390625
5708		15.625000
5709		21.484375
5710		11.718750
5711		19.531250
5712		7.812500
5713		13.671875
5714		3.906250
5715		9.765625
5716		0.000000
5717		5.859375
5718		-3.906250
5719		1.953125
5720		-7.812500
5721		-1.953125
5722		-13.671875
5723		-7.812500
5724		-17.578125
5725		-11.718750
5726		-21.484375
5727		-15.625000
5728		-25.390625
5729		-19.531250
5730		-31.250000
5731		-23.437500
5732		-33.203125
5733		-27.343750
5734		-37.109375
5735		-31.250000
5736		-41.015625
5737		-37.109375
5738		-44.921875
5739		-41.015625
5740		-50.781250
5741		-42.968750
5742		-54.687500
5743		-48.828125
5744		-58.593750
5745		-52.734375
5746		-62.500000
5747		-56.640625
5748		-66.406250
5749		-60.546875
5750		-70.312500
5751		-64.453125
5752		-74.218750
5753		-68.359375
5754		-78.125000
5755		-74.218750
5756		-83.984375
5757		-78.125000
5758		-85.937500
5759		-82.031250
5760		-89.843750
5761		-83.984375
5762		-93.750000
5763		-89.843750
5764		-97.656250
5765		-93.750000
5766		-101.562500
5767		-95.703125
5768		-105.468750
5769		-99.609375
5770		-109.375000
5771		-103.515625
5772		-113.281250
5773		-107.421875
5774		-117.187500
5775		-111.328125
5776		-121.093750
5777		-115.234375
5778		-123.046875
5779		-119.140625
5780		-126.953125
5781		-123.046875
5782		-130.859375
5783		-125.000000
5784		-132.812500
5785		-128.906250
5786		-136.718750
5787		-130.859375
5788		-140.625000
5789		-132.812500
5790		-142.578125
5791		-138.671875
5792		-144.531250
5793		-140.625000
5794		-148.437500
5795		-142.578125
5796		-150.390625
5797		-144.531250
5798		-152.343750
5799		-148.437500
5800		-154.296875
5801		-150.390625
5802		-156.250000
5803		-152.343750
5804		-160.156250
5805		-154.296875
5806		-162.109375
5807		-158.203125
5808		-164.062500
5809		-160.156250
5810		-166.015625
5811		-160.156250
5812		-166.015625
5813		-164.062500
5814		-167.968750
5815		-164.062500
5816		-169.921875
5817		-166.015625
5818		-171.875000
5819		-166.015625
5820		-171.875000
5821		-167.968750
5822		-173.828125
5823		-169.921875
5824		-173.828125
5825		-169.921875
5826		-175.781250
5827		-169.921875
5828		-173.828125
5829		-171.875000
5830		-175.781250
5831		-173.828125
5832		-175.781250
5833		-173.828125
5834		-177.734375
5835		-171.875000
5836		-177.734375
5837		-171.875000
5838		-177.734375
5839		-173.828125
5840		-177.734375
5841		-171.875000
5842		-177.734375
5843		-171.875000
5844		-175.781250
5845		-171.875000
5846		-175.781250
5847		-171.875000
5848		-173.828125
5849		-171.875000
5850		-173.828125
5851		-169.921875
5852		-173.828125
5853		-167.968750
5854		-171.875000
5855		-167.968750
5856		-171.875000
5857		-166.015625
5858		-169.921875
5859		-164.062500
5860		-167.968750
5861		-164.062500
5862		-166.015625
5863		-162.109375
5864		-164.062500
5865		-160.156250
5866		-164.062500
5867		-158.203125
5868		-162.109375
5869		-156.250000
5870		-160.156250
5871		-152.343750
5872		-156.250000
5873		-150.390625
5874		-154.296875
5875		-148.437500
5876		-152.343750
5877		-146.484375
5878		-150.390625
5879		-144.531250
5880		-146.484375
5881		-140.625000
5882		-142.578125
5883		-136.718750
5884		-142.578125
5885		-134.765625
5886		-138.671875
5887		-130.859375
5888		-134.765625
5889		-128.906250
5890		-132.812500
5891		-125.000000
5892		-128.906250
5893		-121.093750
5894		-126.953125
5895		-119.140625
5896		-121.093750
5897		-117.187500
5898		-117.187500
5899		-113.281250
5900		-115.234375
5901		-107.421875
5902		-111.328125
5903		-103.515625
5904		-107.421875
5905		-99.609375
5906		-105.468750
5907		-97.656250
5908		-99.609375
5909		-93.750000
5910		-97.656250
5911		-87.890625
5912		-91.796875
5913		-85.937500
5914		-87.890625
5915		-82.031250
5916		-83.984375
5917		-76.171875
5918		-80.078125
5919		-72.265625
5920		-76.171875
5921		-68.359375
5922		-72.265625
5923		-64.453125
5924		-68.359375
5925		-60.546875
5926		-64.453125
5927		-56.640625
5928		-60.546875
5929		-52.734375
5930		-54.687500
5931		-48.828125
5932		-50.781250
5933		-42.968750
5934		-46.875000
5935		-39.062500
5936		-42.968750
5937		-35.156250
5938		-39.062500
5939		-31.250000
5940		-35.156250
5941		-27.343750
5942		-31.250000
5943		-21.484375
5944		-27.343750
5945		-19.531250
5946		-21.484375
5947		-15.625000
5948		-17.578125
5949		-11.718750
5950		-13.671875
5951		-7.812500
5952		-7.812500
5953		-3.906250
5954		-3.906250
5955		0.000000
5956		0.000000
5957		3.906250
5958		1.953125
5959		7.812500
5960		7.812500
5961		11.718750
5962		9.765625
5963		15.625000
5964		15.625000
5965		19.531250
5966		19.531250
5967		23.437500
5968		23.437500
5969		27.343750
5970		25.390625
5971		31.250000
5972		29.296875
5973		35.156250
5974		33.203125
5975		39.062500
5976		37.109375
5977		41.015625
5978		41.015625
5979		44.921875
5980		44.921875
5981		48.828125
5982		46.875000
5983		52.734375
5984		50.781250
5985		56.640625
5986		54.687500
5987		58.593750
5988		56.640625
5989		62.500000
5990		60.546875
5991		66.406250
5992		64.453125
5993		68.359375
5994		66.406250
5995		72.265625
5996		70.312500
5997		74.218750
5998		72.265625
5999		76.171875
6000		76.171875
6001		80.078125
6002		78.125000
6003		82.031250
6004		82.031250
6005		85.937500
6006		83.984375
6007		87.890625
6008		85.937500
6009		89.843750
6010		87.890625
6011		93.750000
6012		91.796875
6013		95.703125
6014		93.750000
6015		97.656250
6016		95.703125
6017		99.609375
6018		97.656250
6019		101.562500
6020		99.609375
6021		103.515625
6022		101.562500
6023		105.468750
6024		103.515625
6025		107.421875
6026		105.468750
6027		109.375000
6028		107.421875
6029		111.328125
6030		109.375000
6031		113.281250
6032		111.328125
6033		115.234375
6034		113.281250
6035		117.187500
6036		115.234375
6037		117.187500
6038		115.234375
6039		119.140625
6040		117.187500
6041		121.093750
6042		119.140625
6043		123.046875
6044		121.093750
6045		123.046875
6046		121.093750
6047		125.000000
6048		123.046875
6049		125.000000
6050		121.093750
6051		130.859375
6052		121.093750
6053		130.859375
6054		123.046875
6055		132.812500
6056		123.046875
6057		130.859375
6058		126.953125
6059		130.859375
6060		126.953125
6061		130.859375
6062		128.906250
6063		130.859375
6064		128.906250
6065		132.812500
6066		128.906250
6067		132.812500
6068		126.953125
6069		136.718750
6070		126.953125
6071		136.718750
6072		126.953125
6073		136.718750
6074		130.859375
6075		132.812500
6076		130.859375
6077		132.812500
6078		130.859375
6079		132.812500
6080		130.859375
6081		132.812500
6082		130.859375
6083		132.812500
6084		126.953125
6085		136.718750
6086		126.953125
6087		136.718750
6088		126.953125
6089		136.718750
6090		128.906250
6091		130.859375
6092		128.906250
6093		130.859375
6094		128.906250
6095		130.859375
6096		126.953125
6097		130.859375
6098		126.953125
6099		128.906250
6100		123.046875
6101		130.859375
6102		121.093750
6103		130.859375
6104		121.093750
6105		130.859375
6106		119.140625
6107		128.906250
6108		121.093750
6109		125.000000
6110		121.093750
6111		123.046875
6112		119.140625
6113		123.046875
6114		119.140625
6115		121.093750
6116		117.187500
6117		119.140625
6118		111.328125
6119		121.093750
6120		111.328125
6121		119.140625
6122		109.375000
6123		119.140625
6124		109.375000
6125		113.281250
6126		107.421875
6127		111.328125
6128		105.468750
6129		109.375000
6130		103.515625
6131		107.421875
6132		101.562500
6133		105.468750
6134		95.703125
6135		107.421875
6136		95.703125
6137		105.468750
6138		91.796875
6139		103.515625
6140		91.796875
6141		101.562500
6142		89.843750
6143		93.750000
6144		87.890625
6145		91.796875
6146		85.937500
6147		89.843750
6148		82.031250
6149		85.937500
6150		80.078125
6151		83.984375
6152		74.218750
6153		85.937500
6154		72.265625
6155		82.031250
6156		68.359375
6157		78.125000
6158		68.359375
6159		72.265625
6160		64.453125
6161		70.312500
6162		62.500000
6163		66.406250
6164		58.593750
6165		62.500000
6166		54.687500
6167		60.546875
6168		48.828125
6169		58.593750
6170		44.921875
6171		54.687500
6172		41.015625
6173		52.734375
6174		41.015625
6175		44.921875
6176		37.109375
6177		42.968750
6178		33.203125
6179		39.062500
6180		29.296875
6181		35.156250
6182		25.390625
6183		31.250000
6184		17.578125
6185		27.343750
6186		15.625000
6187		27.343750
6188		11.718750
6189		23.437500
6190		9.765625
6191		19.531250
6192		5.859375
6193		11.718750
6194		1.953125
6195		7.812500
6196		-1.953125
6197		3.906250
6198		-5.859375
6199		0.000000
6200		-9.765625
6201		-3.906250
6202		-15.625000
6203		-5.859375
6204		-21.484375
6205		-9.765625
6206		-23.437500
6207		-13.671875
6208		-27.343750
6209		-21.484375
6210		-31.250000
6211		-25.390625
6212		-35.156250
6213		-29.296875
6214		-39.062500
6215		-33.203125
6216		-42.968750
6217		-37.109375
6218		-50.781250
6219		-41.015625
6220		-54.687500
6221		-42.968750
6222		-58.593750
6223		-46.875000
6224		-60.546875
6225		-50.781250
6226		-64.453125
6227		-58.593750
6228		-68.359375
6229		-62.500000
6230		-72.265625
6231		-66.406250
6232		-76.171875
6233		-70.312500
6234		-80.078125
6235		-74.218750
6236		-83.984375
6237		-78.125000
6238		-89.843750
6239		-82.031250
6240		-91.796875
6241		-85.937500
6242		-95.703125
6243		-89.843750
6244		-99.609375
6245		-93.750000
6246		-103.515625
6247		-97.656250
6248		-107.421875
6249		-101.562500
6250		-109.375000
6251		-105.468750
6252		-113.281250
6253		-109.375000
6254		-119.140625
6255		-111.328125
6256		-123.046875
6257		-111.328125
6258		-125.000000
6259		-119.140625
6260		-126.953125
6261		-123.046875
6262		-130.859375
6263		-126.953125
6264		-132.812500
6265		-128.906250
6266		-136.718750
6267		-132.812500
6268		-140.625000
6269		-134.765625
6270		-142.578125
6271		-138.671875
6272		-144.531250
6273		-140.625000
6274		-148.437500
6275		-144.531250
6276		-150.390625
6277		-146.484375
6278		-152.343750
6279		-148.437500
6280		-154.296875
6281		-150.390625
6282		-158.203125
6283		-154.296875
6284		-160.156250
6285		-156.250000
6286		-162.109375
6287		-158.203125
6288		-164.062500
6289		-160.156250
6290		-164.062500
6291		-162.109375
6292		-166.015625
6293		-164.062500
6294		-167.968750
6295		-164.062500
6296		-169.921875
6297		-166.015625
6298		-169.921875
6299		-167.968750
6300		-171.875000
6301		-169.921875
6302		-173.828125
6303		-169.921875
6304		-173.828125
6305		-171.875000
6306		-173.828125
6307		-171.875000
6308		-175.781250
6309		-171.875000
6310		-175.781250
6311		-173.828125
6312		-175.781250
6313		-173.828125
6314		-175.781250
6315		-173.828125
6316		-175.781250
6317		-173.828125
6318		-175.781250
6319		-173.828125
6320		-175.781250
6321		-173.828125
6322		-175.781250
6323		-171.875000
6324		-175.781250
6325		-171.875000
6326		-175.781250
6327		-171.875000
6328		-173.828125
6329		-171.875000
6330		-171.875000
6331		-169.921875
6332		-171.875000
6333		-167.968750
6334		-169.921875
6335		-167.968750
6336		-169.921875
6337		-166.015625
6338		-167.968750
6339		-164.062500
6340		-166.015625
6341		-162.109375
6342		-164.062500
6343		-160.156250
6344		-164.062500
6345		-160.156250
6346		-162.109375
6347		-158.203125
6348		-160.156250
6349		-156.250000
6350		-156.250000
6351		-152.343750
6352		-154.296875
6353		-148.437500
6354		-154.296875
6355		-148.437500
6356		-150.390625
6357		-146.484375
6358		-148.437500
6359		-142.578125
6360		-146.484375
6361		-138.671875
6362		-142.578125
6363		-136.718750
6364		-138.671875
6365		-134.765625
6366		-136.718750
6367		-130.859375
6368		-132.812500
6369		-128.906250
6370		-130.859375
6371		-125.000000
6372		-126.953125
6373		-121.093750
6374		-123.046875
6375		-119.140625
6376		-119.140625
6377		-115.234375
6378		-117.187500
6379		-111.328125
6380		-113.281250
6381		-107.421875
6382		-109.375000
6383		-103.515625
6384		-105.468750
6385		-99.609375
6386		-101.562500
6387		-95.703125
6388		-97.656250
6389		-91.796875
6390		-93.750000
6391		-87.890625
6392		-89.843750
6393		-83.984375
6394		-87.890625
6395		-80.078125
6396		-82.031250
6397		-76.171875
6398		-78.125000
6399		-72.265625
6400		-72.265625
6401		-68.359375
6402		-68.359375
6403		-64.453125
6404		-66.406250
6405		-58.593750
6406		-62.500000
6407		-54.687500
6408		-56.640625
6409		-50.781250
6410		-52.734375
6411		-46.875000
6412		-48.828125
6413		-42.968750
6414		-44.921875
6415		-39.062500
6416		-41.015625
6417		-35.156250
6418		-35.156250
6419		-29.296875
6420		-31.250000
6421		-25.390625
6422		-27.343750
6423		-21.484375
6424		-23.437500
6425		-17.578125
6426		-19.531250
6427		-13.671875
6428		-15.625000
6429		-9.765625
6430		-11.718750
6431		-5.859375
6432		-5.859375
6433		-1.953125
6434		-1.953125
6435		1.953125
6436		1.953125
6437		9.765625
6438		3.906250
6439		11.718750
6440		7.812500
6441		13.671875
6442		13.671875
6443		19.531250
6444		17.578125
6445		23.437500
6446		19.531250
6447		25.390625
6448		25.390625
6449		29.296875
6450		29.296875
6451		33.203125
6452		31.250000
6453		37.109375
6454		33.203125
6455		41.015625
6456		39.062500
6457		44.921875
6458		42.968750
6459		46.875000
6460		46.875000
6461		50.781250
6462		48.828125
6463		54.687500
6464		52.734375
6465		58.593750
6466		56.640625
6467		60.546875
6468		58.593750
6469		64.453125
6470		62.500000
6471		68.359375
6472		64.453125
6473		70.312500
6474		68.359375
6475		72.265625
6476		72.265625
6477		76.171875
6478		74.218750
6479		80.078125
6480		76.171875
6481		82.031250
6482		80.078125
6483		83.984375
6484		82.031250
6485		85.937500
6486		85.937500
6487		89.843750
6488		85.937500
6489		91.796875
6490		89.843750
6491		93.750000
6492		91.796875
6493		95.703125
6494		95.703125
6495		99.609375
6496		95.703125
6497		101.562500
6498		99.609375
6499		103.515625
6500		101.562500
6501		105.468750
6502		103.515625
6503		107.421875
6504		105.468750
6505		109.375000
6506		107.421875
6507		111.328125
6508		109.375000
6509		113.281250
6510		111.328125
6511		115.234375
6512		111.328125
6513		115.234375
6514		115.234375
6515		117.187500
6516		115.234375
6517		119.140625
6518		117.187500
6519		121.093750
6520		119.140625
6521		123.046875
6522		119.140625
6523		123.046875
6524		121.093750
6525		125.000000
6526		123.046875
6527		125.000000
6528		123.046875
6529		126.953125
6530		125.000000
6531		126.953125
6532		125.000000
6533		128.906250
6534		126.953125
6535		128.906250
6536		126.953125
6537		128.906250
6538		126.953125
6539		130.859375
6540		128.906250
6541		130.859375
6542		128.906250
6543		130.859375
6544		128.906250
6545		132.812500
6546		128.906250
6547		132.812500
6548		130.859375
6549		132.812500
6550		130.859375
6551		132.812500
6552		130.859375
6553		132.812500
6554		130.859375
6555		132.812500
6556		130.859375
6557		132.812500
6558		130.859375
6559		132.812500
6560		130.859375
6561		132.812500
6562		130.859375
6563		132.812500
6564		130.859375
6565		132.812500
6566		130.859375
6567		132.812500
6568		128.906250
6569		132.812500
6570		128.906250
6571		132.812500
6572		128.906250
6573		130.859375
6574		128.906250
6575		130.859375
6576		126.953125
6577		130.859375
6578		126.953125
6579		128.906250
6580		125.000000
6581		128.906250
6582		125.000000
6583		126.953125
6584		123.046875
6585		126.953125
6586		123.046875
6587		125.000000
6588		121.093750
6589		125.000000
6590		121.093750
6591		123.046875
6592		119.140625
6593		121.093750
6594		117.187500
6595		121.093750
6596		115.234375
6597		119.140625
6598		113.281250
6599		117.187500
6600		113.281250
6601		117.187500
6602		111.328125
6603		115.234375
6604		109.375000
6605		113.281250
6606		107.421875
6607		111.328125
6608		105.468750
6609		109.375000
6610		103.515625
6611		107.421875
6612		101.562500
6613		105.468750
6614		99.609375
6615		103.515625
6616		97.656250
6617		101.562500
6618		93.750000
6619		97.656250
6620		91.796875
6621		95.703125
6622		89.843750
6623		93.750000
6624		87.890625
6625		91.796875
6626		83.984375
6627		87.890625
6628		82.031250
6629		85.937500
6630		78.125000
6631		83.984375
6632		76.171875
6633		80.078125
6634		72.265625
6635		76.171875
6636		70.312500
6637		74.218750
6638		66.406250
6639		72.265625
6640		64.453125
6641		68.359375
6642		60.546875
6643		64.453125
6644		56.640625
6645		62.500000
6646		54.687500
6647		58.593750
6648		50.781250
6649		54.687500
6650		46.875000
6651		50.781250
6652		42.968750
6653		48.828125
6654		39.062500
6655		44.921875
6656		35.156250
6657		41.015625
6658		31.250000
6659		37.109375
6660		29.296875
6661		33.203125
6662		23.437500
6663		29.296875
6664		19.531250
6665		25.390625
6666		15.625000
6667		23.437500
6668		13.671875
6669		17.578125
6670		7.812500
6671		13.671875
6672		3.906250
6673		9.765625
6674		0.000000
6675		7.812500
6676		-3.906250
6677		1.953125
6678		-7.812500
6679		-1.953125
6680		-11.718750
6681		-5.859375
6682		-15.625000
6683		-9.765625
6684		-19.531250
6685		-13.671875
6686		-23.437500
6687		-17.578125
6688		-31.250000
6689		-23.437500
6690		-35.156250
6691		-23.437500
6692		-37.109375
6693		-29.296875
6694		-41.015625
6695		-35.156250
6696		-44.921875
6697		-39.062500
6698		-48.828125
6699		-42.968750
6700		-52.734375
6701		-46.875000
6702		-56.640625
6703		-50.781250
6704		-60.546875
6705		-54.687500
6706		-66.406250
6707		-58.593750
6708		-70.312500
6709		-62.500000
6710		-74.218750
6711		-68.359375
6712		-78.125000
6713		-72.265625
6714		-82.031250
6715		-76.171875
6716		-85.937500
6717		-80.078125
6718		-89.843750
6719		-83.984375
6720		-93.750000
6721		-87.890625
6722		-99.609375
6723		-91.796875
6724		-103.515625
6725		-93.750000
6726		-103.515625
6727		-99.609375
6728		-107.421875
6729		-103.515625
6730		-111.328125
6731		-107.421875
6732		-115.234375
6733		-111.328125
6734		-119.140625
6735		-113.281250
6736		-123.046875
6737		-117.187500
6738		-125.000000
6739		-121.093750
6740		-128.906250
6741		-123.046875
6742		-132.812500
6743		-125.000000
6744		-134.765625
6745		-130.859375
6746		-138.671875
6747		-132.812500
6748		-140.625000
6749		-136.718750
6750		-144.531250
6751		-138.671875
6752		-146.484375
6753		-142.578125
6754		-148.437500
6755		-144.531250
6756		-152.343750
6757		-146.484375
6758		-154.296875
6759		-148.437500
6760		-156.250000
6761		-152.343750
6762		-158.203125
6763		-154.296875
6764		-160.156250
6765		-156.250000
6766		-162.109375
6767		-158.203125
6768		-164.062500
6769		-160.156250
6770		-166.015625
6771		-162.109375
6772		-167.968750
6773		-164.062500
6774		-169.921875
6775		-162.109375
6776		-169.921875
6777		-164.062500
6778		-171.875000
6779		-167.968750
6780		-171.875000
6781		-169.921875
6782		-173.828125
6783		-169.921875
6784		-173.828125
6785		-171.875000
6786		-173.828125
6787		-171.875000
6788		-175.781250
6789		-171.875000
6790		-177.734375
6791		-171.875000
6792		-177.734375
6793		-171.875000
6794		-175.781250
6795		-173.828125
6796		-175.781250
6797		-173.828125
6798		-175.781250
6799		-173.828125
6800		-175.781250
6801		-173.828125
6802		-175.781250
6803		-171.875000
6804		-173.828125
6805		-171.875000
6806		-175.781250
6807		-167.968750
6808		-175.781250
6809		-167.968750
6810		-173.828125
6811		-169.921875
6812		-171.875000
6813		-167.968750
6814		-169.921875
6815		-166.015625
6816		-167.968750
6817		-166.015625
6818		-167.968750
6819		-164.062500
6820		-166.015625
6821		-162.109375
6822		-164.062500
6823		-160.156250
6824		-164.062500
6825		-156.250000
6826		-162.109375
6827		-154.296875
6828		-158.203125
6829		-154.296875
6830		-156.250000
6831		-152.343750
6832		-154.296875
6833		-150.390625
6834		-150.390625
6835		-146.484375
6836		-148.437500
6837		-144.531250
6838		-146.484375
6839		-142.578125
6840		-142.578125
6841		-136.718750
6842		-142.578125
6843		-134.765625
6844		-136.718750
6845		-132.812500
6846		-134.765625
6847		-130.859375
6848		-130.859375
6849		-126.953125
6850		-128.906250
6851		-123.046875
6852		-125.000000
6853		-121.093750
6854		-121.093750
6855		-117.187500
6856		-117.187500
6857		-111.328125
6858		-115.234375
6859		-109.375000
6860		-111.328125
6861		-105.468750
6862		-107.421875
6863		-101.562500
6864		-103.515625
6865		-97.656250
6866		-99.609375
6867		-95.703125
6868		-95.703125
6869		-89.843750
6870		-91.796875
6871		-85.937500
6872		-87.890625
6873		-82.031250
6874		-83.984375
6875		-78.125000
6876		-80.078125
6877		-74.218750
6878		-76.171875
6879		-70.312500
6880		-72.265625
6881		-66.406250
6882		-68.359375
6883		-62.500000
6884		-64.453125
6885		-58.593750
6886		-58.593750
6887		-52.734375
6888		-54.687500
6889		-48.828125
6890		-50.781250
6891		-44.921875
6892		-46.875000
6893		-41.015625
6894		-42.968750
6895		-37.109375
6896		-37.109375
6897		-33.203125
6898		-33.203125
6899		-29.296875
6900		-29.296875
6901		-23.437500
6902		-25.390625
6903		-19.531250
6904		-21.484375
6905		-15.625000
6906		-17.578125
6907		-11.718750
6908		-13.671875
6909		-7.812500
6910		-9.765625
6911		-3.906250
6912		-3.906250
6913		0.000000
6914		0.000000
6915		3.906250
6916		3.906250
6917		7.812500
6918		7.812500
6919		11.718750
6920		11.718750
6921		15.625000
6922		15.625000
6923		19.531250
6924		19.531250
6925		23.437500
6926		23.437500
6927		27.343750
6928		25.390625
6929		31.250000
6930		29.296875
6931		35.156250
6932		33.203125
6933		39.062500
6934		37.109375
6935		42.968750
6936		41.015625
6937		44.921875
6938		44.921875
6939		48.828125
6940		46.875000
6941		52.734375
6942		50.781250
6943		56.640625
6944		54.687500
6945		58.593750
6946		56.640625
6947		62.500000
6948		60.546875
6949		64.453125
6950		64.453125
6951		68.359375
6952		66.406250
6953		70.312500
6954		70.312500
6955		74.218750
6956		72.265625
6957		76.171875
6958		76.171875
6959		80.078125
6960		78.125000
6961		82.031250
6962		80.078125
6963		85.937500
6964		83.984375
6965		87.890625
6966		85.937500
6967		89.843750
6968		87.890625
6969		91.796875
6970		91.796875
6971		95.703125
6972		93.750000
6973		97.656250
6974		95.703125
6975		99.609375
6976		97.656250
6977		101.562500
6978		99.609375
6979		103.515625
6980		103.515625
6981		105.468750
6982		103.515625
6983		107.421875
6984		105.468750
6985		109.375000
6986		107.421875
6987		111.328125
6988		109.375000
6989		113.281250
6990		111.328125
6991		115.234375
6992		113.281250
6993		117.187500
6994		115.234375
6995		117.187500
6996		117.187500
6997		119.140625
6998		117.187500
6999		121.093750
7000		119.140625
7001		121.093750
7002		119.140625
7003		123.046875
7004		121.093750
7005		125.000000
7006		123.046875
7007		126.953125
7008		123.046875
7009		126.953125
7010		125.000000
7011		126.953125
7012		125.000000
7013		128.906250
7014		126.953125
7015		128.906250
7016		126.953125
7017		130.859375
7018		126.953125
7019		130.859375
7020		128.906250
7021		130.859375
7022		128.906250
7023		130.859375
7024		128.906250
7025		130.859375
7026		130.859375
7027		132.812500
7028		130.859375
7029		132.812500
7030		130.859375
7031		132.812500
7032		130.859375
7033		132.812500
7034		130.859375
7035		132.812500
7036		130.859375
7037		132.812500
7038		130.859375
7039		132.812500
7040		130.859375
7041		132.812500
7042		130.859375
7043		132.812500
7044		130.859375
7045		132.812500
7046		128.906250
7047		130.859375
7048		128.906250
7049		130.859375
7050		128.906250
7051		130.859375
7052		128.906250
7053		130.859375
7054		126.953125
7055		130.859375
7056		126.953125
7057		128.906250
7058		125.000000
7059		128.906250
7060		125.000000
7061		126.953125
7062		125.000000
7063		126.953125
7064		123.046875
7065		126.953125
7066		121.093750
7067		125.000000
7068		121.093750
7069		123.046875
7070		119.140625
7071		123.046875
7072		117.187500
7073		121.093750
7074		117.187500
7075		119.140625
7076		115.234375
7077		117.187500
7078		113.281250
7079		117.187500
7080		111.328125
7081		115.234375
7082		109.375000
7083		113.281250
7084		107.421875
7085		111.328125
7086		107.421875
7087		111.328125
7088		103.515625
7089		107.421875
7090		101.562500
7091		105.468750
7092		99.609375
7093		103.515625
7094		97.656250
7095		101.562500
7096		93.750000
7097		99.609375
7098		93.750000
7099		97.656250
7100		89.843750
7101		95.703125
7102		87.890625
7103		91.796875
7104		85.937500
7105		89.843750
7106		83.984375
7107		87.890625
7108		80.078125
7109		83.984375
7110		78.125000
7111		82.031250
7112		74.218750
7113		78.125000
7114		70.312500
7115		76.171875
7116		68.359375
7117		72.265625
7118		64.453125
7119		70.312500
7120		62.500000
7121		66.406250
7122		58.593750
7123		62.500000
7124		54.687500
7125		60.546875
7126		52.734375
7127		56.640625
7128		48.828125
7129		52.734375
7130		44.921875
7131		48.828125
7132		41.015625
7133		46.875000
7134		37.109375
7135		42.968750
7136		33.203125
7137		39.062500
7138		31.250000
7139		35.156250
7140		27.343750
7141		31.250000
7142		21.484375
7143		27.343750
7144		19.531250
7145		23.437500
7146		15.625000
7147		19.531250
7148		11.718750
7149		15.625000
7150		7.812500
7151		11.718750
7152		1.953125
7153		7.812500
7154		-1.953125
7155		3.906250
7156		-5.859375
7157		0.000000
7158		-9.765625
7159		-3.906250
7160		-13.671875
7161		-7.812500
7162		-17.578125
7163		-11.718750
7164		-21.484375
7165		-15.625000
7166		-25.390625
7167		-21.484375
7168		-31.250000
7169		-25.390625
7170		-35.156250
7171		-29.296875
7172		-39.062500
7173		-33.203125
7174		-42.968750
7175		-37.109375
7176		-46.875000
7177		-41.015625
7178		-50.781250
7179		-44.921875
7180		-54.687500
7181		-50.781250
7182		-60.546875
7183		-54.687500
7184		-64.453125
7185		-58.593750
7186		-68.359375
7187		-62.500000
7188		-72.265625
7189		-66.406250
7190		-76.171875
7191		-70.312500
7192		-80.078125
7193		-74.218750
7194		-83.984375
7195		-78.125000
7196		-87.890625
7197		-82.031250
7198		-91.796875
7199		-85.937500
7200		-95.703125
7201		-89.843750
7202		-99.609375
7203		-93.750000
7204		-103.515625
7205		-97.656250
7206		-107.421875
7207		-101.562500
7208		-111.328125
7209		-105.468750
7210		-113.281250
7211		-109.375000
7212		-117.187500
7213		-113.281250
7214		-121.093750
7215		-115.234375
7216		-125.000000
7217		-119.140625
7218		-126.953125
7219		-123.046875
7220		-130.859375
7221		-125.000000
7222		-132.812500
7223		-128.906250
7224		-136.718750
7225		-132.812500
7226		-140.625000
7227		-134.765625
7228		-142.578125
7229		-138.671875
7230		-144.531250
7231		-140.625000
7232		-148.437500
7233		-144.531250
7234		-150.390625
7235		-146.484375
7236		-152.343750
7237		-148.437500
7238		-156.250000
7239		-152.343750
7240		-158.203125
7241		-154.296875
7242		-160.156250
7243		-156.250000
7244		-162.109375
7245		-158.203125
7246		-164.062500
7247		-160.156250
7248		-166.015625
7249		-162.109375
7250		-166.015625
7251		-164.062500
7252		-167.968750
7253		-166.015625
7254		-169.921875
7255		-166.015625
7256		-171.875000
7257		-167.968750
7258		-171.875000
7259		-169.921875
7260		-173.828125
7261		-169.921875
7262		-173.828125
7263		-171.875000
7264		-173.828125
7265		-171.875000
7266		-175.781250
7267		-171.875000
7268		-175.781250
7269		-173.828125
7270		-175.781250
7271		-173.828125
7272		-175.781250
7273		-173.828125
7274		-175.781250
7275		-173.828125
7276		-175.781250
7277		-173.828125
7278		-175.781250
7279		-173.828125
7280		-175.781250
7281		-173.828125
7282		-175.781250
7283		-173.828125
7284		-175.781250
7285		-171.875000
7286		-175.781250
7287		-171.875000
7288		-173.828125
7289		-169.921875
7290		-171.875000
7291		-169.921875
7292		-171.875000
7293		-167.968750
7294		-169.921875
7295		-167.968750
7296		-169.921875
7297		-166.015625
7298		-167.968750
7299		-164.062500
7300		-166.015625
7301		-162.109375
7302		-164.062500
7303		-160.156250
7304		-162.109375
7305		-158.203125
7306		-160.156250
7307		-156.250000
7308		-158.203125
7309		-154.296875
7310		-156.250000
7311		-152.343750
7312		-154.296875
7313		-150.390625
7314		-150.390625
7315		-146.484375
7316		-148.437500
7317		-144.531250
7318		-146.484375
7319		-142.578125
7320		-142.578125
7321		-138.671875
7322		-140.625000
7323		-134.765625
7324		-136.718750
7325		-132.812500
7326		-134.765625
7327		-128.906250
7328		-130.859375
7329		-126.953125
7330		-126.953125
7331		-123.046875
7332		-125.000000
7333		-119.140625
7334		-121.093750
7335		-115.234375
7336		-117.187500
7337		-111.328125
7338		-113.281250
7339		-109.375000
7340		-109.375000
7341		-105.468750
7342		-107.421875
7343		-101.562500
7344		-103.515625
7345		-97.656250
7346		-99.609375
7347		-93.750000
7348		-95.703125
7349		-89.843750
7350		-91.796875
7351		-85.937500
7352		-85.937500
7353		-82.031250
7354		-82.031250
7355		-78.125000
7356		-78.125000
7357		-74.218750
7358		-74.218750
7359		-70.312500
7360		-70.312500
7361		-64.453125
7362		-66.406250
7363		-60.546875
7364		-62.500000
7365		-56.640625
7366		-58.593750
7367		-52.734375
7368		-52.734375
7369		-48.828125
7370		-48.828125
7371		-44.921875
7372		-44.921875
7373		-39.062500
7374		-41.015625
7375		-35.156250
7376		-37.109375
7377		-31.250000
7378		-33.203125
7379		-27.343750
7380		-29.296875
7381		-23.437500
7382		-25.390625
7383		-19.531250
7384		-19.531250
7385		-13.671875
7386		-15.625000
7387		-11.718750
7388		-11.718750
7389		-5.859375
7390		-7.812500
7391		-1.953125
7392		-3.906250
7393		1.953125
7394		0.000000
7395		5.859375
7396		3.906250
7397		9.765625
7398		7.812500
7399		13.671875
7400		11.718750
7401		17.578125
7402		15.625000
7403		21.484375
7404		19.531250
7405		25.390625
7406		23.437500
7407		29.296875
7408		27.343750
7409		31.250000
7410		31.250000
7411		35.156250
7412		35.156250
7413		39.062500
7414		39.062500
7415		42.968750
7416		41.015625
7417		46.875000
7418		44.921875
7419		50.781250
7420		48.828125
7421		52.734375
7422		50.781250
7423		56.640625
7424		54.687500
7425		60.546875
7426		58.593750
7427		62.500000
7428		60.546875
7429		66.406250
7430		64.453125
7431		68.359375
7432		68.359375
7433		72.265625
7434		70.312500
7435		74.218750
7436		74.218750
7437		78.125000
7438		76.171875
7439		80.078125
7440		78.125000
7441		83.984375
7442		82.031250
7443		85.937500
7444		83.984375
7445		87.890625
7446		85.937500
7447		89.843750
7448		89.843750
7449		93.750000
7450		91.796875
7451		95.703125
7452		93.750000
7453		97.656250
7454		95.703125
7455		99.609375
7456		97.656250
7457		101.562500
7458		101.562500
7459		103.515625
7460		103.515625
7461		105.468750
7462		103.515625
7463		107.421875
7464		107.421875
7465		109.375000
7466		107.421875
7467		111.328125
7468		109.375000
7469		113.281250
7470		111.328125
7471		115.234375
7472		113.281250
7473		117.187500
7474		115.234375
7475		117.187500
7476		117.187500
7477		119.140625
7478		119.140625
7479		121.093750
7480		119.140625
7481		121.093750
7482		121.093750
7483		123.046875
7484		121.093750
7485		125.000000
7486		123.046875
7487		125.000000
7488		123.046875
7489		126.953125
7490		125.000000
7491		126.953125
7492		125.000000
7493		128.906250
7494		126.953125
7495		128.906250
7496		126.953125
7497		130.859375
7498		126.953125
7499		130.859375
7500		128.906250
7501		130.859375
7502		128.906250
7503		130.859375
7504		128.906250
7505		132.812500
7506		130.859375
7507		132.812500
7508		130.859375
7509		132.812500
7510		130.859375
7511		132.812500
7512		130.859375
7513		132.812500
7514		130.859375
7515		132.812500
7516		128.906250
7517		132.812500
7518		130.859375
7519		132.812500
7520		130.859375
7521		132.812500
7522		130.859375
7523		132.812500
7524		128.906250
7525		132.812500
7526		128.906250
7527		132.812500
7528		128.906250
7529		130.859375
7530		128.906250
7531		130.859375
7532		126.953125
7533		130.859375
7534		126.953125
7535		130.859375
7536		126.953125
7537		128.906250
7538		125.000000
7539		128.906250
7540		125.000000
7541		126.953125
7542		123.046875
7543		126.953125
7544		123.046875
7545		125.000000
7546		121.093750
7547		125.000000
7548		119.140625
7549		123.046875
7550		119.140625
7551		121.093750
7552		117.187500
7553		121.093750
7554		117.187500
7555		119.140625
7556		113.281250
7557		117.187500
7558		113.281250
7559		115.234375
7560		111.328125
7561		113.281250
7562		109.375000
7563		113.281250
7564		107.421875
7565		111.328125
7566		105.468750
7567		109.375000
7568		103.515625
7569		107.421875
7570		101.562500
7571		105.468750
7572		99.609375
7573		101.562500
7574		95.703125
7575		99.609375
7576		93.750000
7577		97.656250
7578		91.796875
7579		95.703125
7580		89.843750
7581		93.750000
7582		85.937500
7583		89.843750
7584		83.984375
7585		87.890625
7586		82.031250
7587		85.937500
7588		78.125000
7589		82.031250
7590		76.171875
7591		80.078125
7592		72.265625
7593		78.125000
7594		70.312500
7595		74.218750
7596		66.406250
7597		70.312500
7598		64.453125
7599		68.359375
7600		60.546875
7601		64.453125
7602		56.640625
7603		60.546875
7604		52.734375
7605		58.593750
7606		48.828125
7607		54.687500
7608		46.875000
7609		50.781250
7610		42.968750
7611		48.828125
7612		39.062500
7613		44.921875
7614		35.156250
7615		41.015625
7616		33.203125
7617		37.109375
7618		29.296875
7619		33.203125
7620		25.390625
7621		29.296875
7622		21.484375
7623		25.390625
7624		17.578125
7625		23.437500
7626		13.671875
7627		17.578125
7628		9.765625
7629		13.671875
7630		5.859375
7631		9.765625
7632		0.000000
7633		5.859375
7634		-3.906250
7635		1.953125
7636		-7.812500
7637		-1.953125
7638		-11.718750
7639		-5.859375
7640		-15.625000
7641		-9.765625
7642		-19.531250
7643		-13.671875
7644		-23.437500
7645		-17.578125
7646		-27.343750
7647		-21.484375
7648		-33.203125
7649		-27.343750
7650		-37.109375
7651		-31.250000
7652		-41.015625
7653		-35.156250
7654		-44.921875
7655		-39.062500
7656		-48.828125
7657		-42.968750
7658		-52.734375
7659		-46.875000
7660		-56.640625
7661		-52.734375
7662		-62.500000
7663		-56.640625
7664		-66.406250
7665		-60.546875
7666		-70.312500
7667		-64.453125
7668		-74.218750
7669		-68.359375
7670		-78.125000
7671		-72.265625
7672		-82.031250
7673		-76.171875
7674		-85.937500
7675		-80.078125
7676		-89.843750
7677		-83.984375
7678		-93.750000
7679		-87.890625
7680		-97.656250
7681		-91.796875
7682		-101.562500
7683		-95.703125
7684		-105.468750
7685		-99.609375
7686		-109.375000
7687		-103.515625
7688		-111.328125
7689		-107.421875
7690		-115.234375
7691		-111.328125
7692		-119.140625
7693		-115.234375
7694		-123.046875
7695		-117.187500
7696		-126.953125
7697		-121.093750
7698		-128.906250
7699		-125.000000
7700		-132.812500
7701		-128.906250
7702		-136.718750
7703		-128.906250
7704		-138.671875
7705		-134.765625
7706		-142.578125
7707		-136.718750
7708		-144.531250
7709		-140.625000
7710		-146.484375
7711		-142.578125
7712		-150.390625
7713		-146.484375
7714		-152.343750
7715		-148.437500
7716		-154.296875
7717		-150.390625
7718		-158.203125
7719		-152.343750
7720		-158.203125
7721		-154.296875
7722		-164.062500
7723		-156.250000
7724		-162.109375
7725		-160.156250
7726		-167.968750
7727		-158.203125
7728		-166.015625
7729		-162.109375
7730		-167.968750
7731		-164.062500
7732		-169.921875
7733		-166.015625
7734		-171.875000
7735		-167.968750
7736		-173.828125
7737		-167.968750
7738		-173.828125
7739		-167.968750
7740		-173.828125
7741		-169.921875
7742		-175.781250
7743		-171.875000
7744		-177.734375
7745		-169.921875
7746		-175.781250
7747		-173.828125
7748		-177.734375
7749		-171.875000
7750		-179.687500
7751		-171.875000
7752		-177.734375
7753		-173.828125
7754		-177.734375
7755		-173.828125
7756		-179.687500
7757		-173.828125
7758		-177.734375
7759		-173.828125
7760		-177.734375
7761		-171.875000
7762		-177.734375
7763		-173.828125
7764		-175.781250
7765		-173.828125
7766		-177.734375
7767		-169.921875
7768		-177.734375
7769		-167.968750
7770		-173.828125
7771		-169.921875
7772		-173.828125
7773		-167.968750
7774		-171.875000
7775		-166.015625
7776		-169.921875
7777		-164.062500
7778		-167.968750
7779		-164.062500
7780		-166.015625
7781		-162.109375
7782		-166.015625
7783		-160.156250
7784		-164.062500
7785		-156.250000
7786		-162.109375
7787		-154.296875
7788		-160.156250
7789		-154.296875
7790		-158.203125
7791		-148.437500
7792		-156.250000
7793		-148.437500
7794		-154.296875
7795		-146.484375
7796		-148.437500
7797		-144.531250
7798		-146.484375
7799		-140.625000
7800		-144.531250
7801		-136.718750
7802		-140.625000
7803		-134.765625
7804		-136.718750
7805		-130.859375
7806		-134.765625
7807		-126.953125
7808		-132.812500
7809		-125.000000
7810		-128.906250
7811		-121.093750
7812		-125.000000
7813		-119.140625
7814		-121.093750
7815		-115.234375
7816		-119.140625
7817		-109.375000
7818		-117.187500
7819		-105.468750
7820		-111.328125
7821		-105.468750
7822		-105.468750
7823		-101.562500
7824		-103.515625
7825		-93.750000
7826		-99.609375
7827		-93.750000
7828		-97.656250
7829		-89.843750
7830		-89.843750
7831		-85.937500
7832		-85.937500
7833		-80.078125
7834		-83.984375
7835		-74.218750
7836		-80.078125
7837		-72.265625
7838		-74.218750
7839		-68.359375
7840		-70.312500
7841		-60.546875
7842		-70.312500
7843		-60.546875
7844		-64.453125
7845		-54.687500
7846		-58.593750
7847		-50.781250
7848		-54.687500
7849		-48.828125
7850		-50.781250
7851		-42.968750
7852		-46.875000
7853		-37.109375
7854		-41.015625
7855		-35.156250
7856		-37.109375
7857		-31.250000
7858		-33.203125
7859		-23.437500
7860		-27.343750
7861		-17.578125
7862		-23.437500
7863		-19.531250
7864		-19.531250
7865		-13.671875
7866		-15.625000
7867		-7.812500
7868		-13.671875
7869		-3.906250
7870		-7.812500
7871		-1.953125
7872		-3.906250
7873		1.953125
7874		0.000000
7875		9.765625
7876		1.953125
7877		9.765625
7878		5.859375
7879		15.625000
7880		11.718750
7881		17.578125
7882		15.625000
7883		23.437500
7884		19.531250
7885		27.343750
7886		19.531250
7887		31.250000
7888		25.390625
7889		33.203125
7890		31.250000
7891		37.109375
7892		31.250000
7893		41.015625
7894		37.109375
7895		46.875000
7896		42.968750
7897		46.875000
7898		44.921875
7899		50.781250
7900		48.828125
7901		56.640625
7902		48.828125
7903		58.593750
7904		54.687500
7905		60.546875
7906		58.593750
7907		62.500000
7908		60.546875
7909		70.312500
7910		62.500000
7911		70.312500
7912		66.406250
7913		72.265625
7914		70.312500
7915		74.218750
7916		74.218750
7917		78.125000
7918		74.218750
7919		83.984375
7920		78.125000
7921		83.984375
7922		82.031250
7923		85.937500
7924		83.984375
7925		91.796875
7926		83.984375
7927		93.750000
7928		85.937500
7929		95.703125
7930		91.796875
7931		95.703125
7932		93.750000
7933		97.656250
7934		95.703125
7935		101.562500
7936		95.703125
7937		103.515625
7938		99.609375
7939		103.515625
7940		103.515625
7941		107.421875
7942		101.562500
7943		111.328125
7944		105.468750
7945		113.281250
7946		109.375000
7947		111.328125
7948		109.375000
7949		113.281250
7950		111.328125
7951		117.187500
7952		111.328125
7953		119.140625
7954		113.281250
7955		119.140625
7956		115.234375
7957		119.140625
7958		115.234375
7959		125.000000
7960		115.234375
7961		125.000000
7962		117.187500
7963		125.000000
7964		121.093750
7965		125.000000
7966		123.046875
7967		126.953125
7968		123.046875
7969		128.906250
7970		121.093750
7971		130.859375
7972		125.000000
7973		128.906250
7974		125.000000
7975		130.859375
7976		125.000000
7977		130.859375
7978		125.000000
7979		132.812500
7980		128.906250
7981		130.859375
7982		128.906250
7983		130.859375
7984		128.906250
7985		132.812500
7986		125.000000
7987		134.765625
7988		126.953125
7989		134.765625
7990		130.859375
7991		132.812500
7992		126.953125
7993		134.765625
7994		130.859375
7995		132.812500
7996		130.859375
7997		132.812500
7998		130.859375
7999		132.812500
8000		130.859375
8001		132.812500
8002		128.906250
8003		132.812500
8004		126.953125
8005		134.765625
8006		128.906250
8007		130.859375
8008		125.000000
8009		132.812500
8010		128.906250
8011		130.859375
8012		126.953125
8013		128.906250
8014		126.953125
8015		128.906250
8016		125.000000
8017		128.906250
8018		125.000000
8019		126.953125
8020		123.046875
8021		126.953125
8022		123.046875
8023		125.000000
8024		121.093750
8025		125.000000
8026		121.093750
8027		123.046875
8028		119.140625
8029		123.046875
8030		117.187500
8031		121.093750
8032		117.187500
8033		119.140625
8034		115.234375
8035		119.140625
8036		113.281250
8037		117.187500
8038		111.328125
8039		115.234375
8040		109.375000
8041		113.281250
8042		109.375000
8043		111.328125
8044		105.468750
8045		109.375000
8046		103.515625
8047		107.421875
8048		101.562500
8049		105.468750
8050		97.656250
8051		103.515625
8052		97.656250
8053		103.515625
8054		93.750000
8055		101.562500
8056		91.796875
8057		97.656250
8058		89.843750
8059		95.703125
8060		87.890625
8061		93.750000
8062		83.984375
8063		91.796875
8064		83.984375
8065		87.890625
8066		80.078125
8067		83.984375
8068		76.171875
8069		83.984375
8070		72.265625
8071		80.078125
8072		70.312500
8073		78.125000
8074		66.406250
8075		74.218750
8076		64.453125
8077		70.312500
8078		60.546875
8079		68.359375
8080		58.593750
8081		64.453125
8082		56.640625
8083		60.546875
8084		52.734375
8085		56.640625
8086		46.875000
8087		54.687500
8088		42.968750
8089		50.781250
8090		39.062500
8091		48.828125
8092		37.109375
8093		44.921875
8094		33.203125
8095		41.015625
8096		31.250000
8097		37.109375
8098		27.343750
8099		33.203125
8100		23.437500
8101		29.296875
8102		19.531250
8103		25.390625
8104		15.625000
8105		23.437500
8106		9.765625
8107		17.578125
8108		5.859375
8109		15.625000
8110		1.953125
8111		9.765625
8112		-1.953125
8113		5.859375
8114		-3.906250
8115		1.953125
8116		-7.812500
8117		-3.906250
8118		-13.671875
8119		-7.812500
8120		-17.578125
8121		-11.718750
8122		-21.484375
8123		-15.625000
8124		-25.390625
8125		-17.578125
8126		-29.296875
8127		-23.437500
8128		-35.156250
8129		-27.343750
8130		-37.109375
8131		-31.250000
8132		-41.015625
8133		-37.109375
8134		-46.875000
8135		-41.015625
8136		-50.781250
8137		-44.921875
8138		-54.687500
8139		-48.828125
8140		-60.546875
8141		-52.734375
8142		-62.500000
8143		-56.640625
8144		-66.406250
8145		-60.546875
8146		-72.265625
8147		-64.453125
8148		-74.218750
8149		-70.312500
8150		-78.125000
8151		-74.218750
8152		-83.984375
8153		-78.125000
8154		-87.890625
8155		-82.031250
8156		-91.796875
8157		-85.937500
8158		-95.703125
8159		-87.890625
8160		-99.609375
8161		-91.796875
8162		-101.562500
8163		-95.703125
8164		-105.468750
8165		-99.609375
8166		-109.375000
8167		-103.515625
8168		-113.281250
8169		-107.421875
8170		-117.187500
8171		-111.328125
8172		-121.093750
8173		-115.234375
8174		-125.000000
8175		-119.140625
8176		-126.953125
8177		-121.093750
8178		-128.906250
8179		-125.000000
8180		-132.812500
8181		-126.953125
8182		-136.718750
8183		-130.859375
8184		-138.671875
8185		-134.765625
8186		-142.578125
8187		-136.718750
8188		-144.531250
8189		-140.625000
8190		-148.437500
8191		-142.578125
8192		-150.390625
8193		-142.578125
8194		-152.343750
8195		-148.437500
8196		-154.296875
8197		-150.390625
8198		-156.250000
8199		-152.343750
8200		-158.203125
8201		-154.296875
8202		-162.109375
8203		-156.250000
8204		-164.062500
8205		-158.203125
8206		-166.015625
8207		-162.109375
8208		-169.921875
8209		-162.109375
8210		-167.968750
8211		-164.062500
8212		-169.921875
8213		-166.015625
8214		-171.875000
8215		-166.015625
8216		-171.875000
8217		-167.968750
8218		-173.828125
8219		-169.921875
8220		-175.781250
8221		-169.921875
8222		-175.781250
8223		-171.875000
8224		-177.734375
8225		-171.875000
8226		-177.734375
8227		-171.875000
8228		-177.734375
8229		-173.828125
8230		-177.734375
8231		-173.828125
8232		-177.734375
8233		-173.828125
8234		-177.734375
8235		-173.828125
8236		-177.734375
8237		-173.828125
8238		-177.734375
8239		-173.828125
8240		-177.734375
8241		-173.828125
8242		-177.734375
8243		-171.875000
8244		-175.781250
8245		-171.875000
8246		-175.781250
8247		-171.875000
8248		-173.828125
8249		-169.921875
8250		-171.875000
8251		-169.921875
8252		-171.875000
8253		-167.968750
8254		-171.875000
8255		-167.968750
8256		-169.921875
8257		-166.015625
8258		-167.968750
8259		-162.109375
8260		-166.015625
8261		-162.109375
8262		-164.062500
8263		-160.156250
8264		-162.109375
8265		-156.250000
8266		-160.156250
8267		-156.250000
8268		-158.203125
8269		-154.296875
8270		-156.250000
8271		-150.390625
8272		-152.343750
8273		-148.437500
8274		-152.343750
8275		-146.484375
8276		-148.437500
8277		-142.578125
8278		-144.531250
8279		-140.625000
8280		-142.578125
8281		-136.718750
8282		-140.625000
8283		-134.765625
8284		-136.718750
8285		-130.859375
8286		-132.812500
8287		-126.953125
8288		-130.859375
8289		-125.000000
8290		-126.953125
8291		-121.093750
8292		-123.046875
8293		-117.187500
8294		-119.140625
8295		-115.234375
8296		-115.234375
8297		-109.375000
8298		-113.281250
8299		-107.421875
8300		-107.421875
8301		-103.515625
8302		-105.468750
8303		-99.609375
8304		-101.562500
8305		-95.703125
8306		-97.656250
8307		-91.796875
8308		-93.750000
8309		-87.890625
8310		-89.843750
8311		-83.984375
8312		-85.937500
8313		-78.125000
8314		-82.031250
8315		-74.218750
8316		-76.171875
8317		-72.265625
8318		-72.265625
8319		-66.406250
8320		-68.359375
8321		-62.500000
8322		-64.453125
8323		-58.593750
8324		-60.546875
8325		-54.687500
8326		-56.640625
8327		-50.781250
8328		-52.734375
8329		-44.921875
8330		-48.828125
8331		-42.968750
8332		-42.968750
8333		-37.109375
8334		-39.062500
8335		-33.203125
8336		-35.156250
8337		-29.296875
8338		-31.250000
8339		-25.390625
8340		-27.343750
8341		-21.484375
8342		-23.437500
8343		-17.578125
8344		-19.531250
8345		-11.718750
8346		-13.671875
8347		-9.765625
8348		-9.765625
8349		-3.906250
8350		-5.859375
8351		0.000000
8352		-1.953125
8353		3.906250
8354		1.953125
8355		7.812500
8356		5.859375
8357		11.718750
8358		9.765625
8359		15.625000
8360		13.671875
8361		19.531250
8362		17.578125
8363		23.437500
8364		21.484375
8365		27.343750
8366		25.390625
8367		31.250000
8368		29.296875
8369		35.156250
8370		33.203125
8371		39.062500
8372		35.156250
8373		41.015625
8374		39.062500
8375		44.921875
8376		42.968750
8377		48.828125
8378		44.921875
8379		50.781250
8380		48.828125
8381		54.687500
8382		52.734375
8383		58.593750
8384		56.640625
8385		60.546875
8386		60.546875
8387		64.453125
8388		60.546875
8389		66.406250
8390		64.453125
8391		70.312500
8392		68.359375
8393		72.265625
8394		70.312500
8395		76.171875
8396		74.218750
8397		80.078125
8398		76.171875
8399		83.984375
8400		80.078125
8401		83.984375
8402		82.031250
8403		85.937500
8404		83.984375
8405		89.843750
8406		87.890625
8407		93.750000
8408		89.843750
8409		93.750000
8410		91.796875
8411		95.703125
8412		95.703125
8413		99.609375
8414		97.656250
8415		101.562500
8416		97.656250
8417		103.515625
8418		101.562500
8419		105.468750
8420		103.515625
8421		107.421875
8422		105.468750
8423		109.375000
8424		107.421875
8425		111.328125
8426		107.421875
8427		111.328125
8428		109.375000
8429		115.234375
8430		111.328125
8431		115.234375
8432		113.281250
8433		119.140625
8434		115.234375
8435		119.140625
8436		117.187500
8437		119.140625
8438		117.187500
8439		121.093750
8440		119.140625
8441		123.046875
8442		119.140625
8443		123.046875
8444		121.093750
8445		125.000000
8446		121.093750
8447		125.000000
8448		123.046875
8449		126.953125
8450		123.046875
8451		128.906250
8452		125.000000
8453		128.906250
8454		125.000000
8455		128.906250
8456		125.000000
8457		130.859375
8458		126.953125
8459		130.859375
8460		126.953125
8461		130.859375
8462		126.953125
8463		130.859375
8464		128.906250
8465		132.812500
8466		128.906250
8467		132.812500
8468		128.906250
8469		130.859375
8470		128.906250
8471		132.812500
8472		126.953125
8473		132.812500
8474		128.906250
8475		132.812500
8476		128.906250
8477		132.812500
8478		128.906250
8479		132.812500
8480		128.906250
8481		132.812500
8482		128.906250
8483		132.812500
8484		126.953125
8485		130.859375
8486		128.906250
8487		130.859375
8488		126.953125
8489		130.859375
8490		126.953125
8491		130.859375
8492		125.000000
8493		128.906250
8494		125.000000
8495		128.906250
8496		125.000000
8497		128.906250
8498		123.046875
8499		126.953125
8500		121.093750
8501		126.953125
8502		121.093750
8503		125.000000
8504		121.093750
8505		123.046875
8506		119.140625
8507		123.046875
8508		117.187500
8509		121.093750
8510		117.187500
8511		121.093750
8512		115.234375
8513		119.140625
8514		113.281250
8515		117.187500
8516		111.328125
8517		115.234375
8518		109.375000
8519		113.281250
8520		109.375000
8521		111.328125
8522		105.468750
8523		111.328125
8524		103.515625
8525		109.375000
8526		101.562500
8527		105.468750
8528		101.562500
8529		103.515625
8530		97.656250
8531		103.515625
8532		95.703125
8533		101.562500
8534		93.750000
8535		99.609375
8536		91.796875
8537		95.703125
8538		87.890625
8539		93.750000
8540		85.937500
8541		91.796875
8542		83.984375
8543		87.890625
8544		82.031250
8545		85.937500
8546		78.125000
8547		82.031250
8548		74.218750
8549		80.078125
8550		72.265625
8551		78.125000
8552		68.359375
8553		74.218750
8554		66.406250
8555		70.312500
8556		62.500000
8557		68.359375
8558		58.593750
8559		64.453125
8560		56.640625
8561		60.546875
8562		52.734375
8563		60.546875
8564		50.781250
8565		54.687500
8566		46.875000
8567		52.734375
8568		42.968750
8569		48.828125
8570		39.062500
8571		44.921875
8572		35.156250
8573		41.015625
8574		31.250000
8575		37.109375
8576		27.343750
8577		33.203125
8578		23.437500
8579		29.296875
8580		21.484375
8581		25.390625
8582		17.578125
8583		23.437500
8584		13.671875
8585		17.578125
8586		7.812500
8587		13.671875
8588		3.906250
8589		9.765625
8590		0.000000
8591		5.859375
8592		-3.906250
8593		1.953125
8594		-7.812500
8595		-1.953125
8596		-11.718750
8597		-5.859375
8598		-15.625000
8599		-9.765625
8600		-21.484375
8601		-13.671875
8602		-23.437500
8603		-19.531250
8604		-27.343750
8605		-23.437500
8606		-33.203125
8607		-27.343750
8608		-37.109375
8609		-31.250000
8610		-41.015625
8611		-35.156250
8612		-44.921875
8613		-39.062500
8614		-48.828125
8615		-42.968750
8616		-54.687500
8617		-46.875000
8618		-58.593750
8619		-50.781250
8620		-62.500000
8621		-56.640625
8622		-66.406250
8623		-60.546875
8624		-70.312500
8625		-64.453125
8626		-74.218750
8627		-68.359375
8628		-78.125000
8629		-72.265625
8630		-82.031250
8631		-76.171875
8632		-85.937500
8633		-80.078125
8634		-89.843750
8635		-83.984375
8636		-93.750000
8637		-87.890625
8638		-97.656250
8639		-91.796875
8640		-101.562500
8641		-95.703125
8642		-105.468750
8643		-99.609375
8644		-109.375000
8645		-103.515625
8646		-113.281250
8647		-107.421875
8648		-117.187500
8649		-111.328125
8650		-119.140625
8651		-115.234375
8652		-123.046875
8653		-117.187500
8654		-126.953125
8655		-121.093750
8656		-128.906250
8657		-125.000000
8658		-132.812500
8659		-128.906250
8660		-136.718750
8661		-130.859375
8662		-138.671875
8663		-132.812500
8664		-142.578125
8665		-136.718750
8666		-144.531250
8667		-140.625000
8668		-146.484375
8669		-142.578125
8670		-150.390625
8671		-146.484375
8672		-154.296875
8673		-148.437500
8674		-156.250000
8675		-150.390625
8676		-158.203125
8677		-152.343750
8678		-160.156250
8679		-154.296875
8680		-162.109375
8681		-158.203125
8682		-164.062500
8683		-160.156250
8684		-166.015625
8685		-162.109375
8686		-166.015625
8687		-164.062500
8688		-167.968750
8689		-166.015625
8690		-171.875000
8691		-166.015625
8692		-171.875000
8693		-167.968750
8694		-173.828125
8695		-169.921875
8696		-175.781250
8697		-169.921875
8698		-175.781250
8699		-171.875000
8700		-175.781250
8701		-171.875000
8702		-177.734375
8703		-171.875000
8704		-177.734375
8705		-173.828125
8706		-179.687500
8707		-173.828125
8708		-177.734375
8709		-173.828125
8710		-179.687500
8711		-175.781250
8712		-177.734375
8713		-175.781250
8714		-179.687500
8715		-175.781250
8716		-179.687500
8717		-175.781250
8718		-177.734375
8719		-173.828125
8720		-177.734375
8721		-173.828125
8722		-177.734375
8723		-173.828125
8724		-177.734375
8725		-171.875000
8726		-175.781250
8727		-171.875000
8728		-173.828125
8729		-171.875000
8730		-173.828125
8731		-169.921875
8732		-171.875000
8733		-167.968750
8734		-171.875000
8735		-166.015625
8736		-169.921875
8737		-166.015625
8738		-167.968750
8739		-164.062500
8740		-166.015625
8741		-162.109375
8742		-164.062500
8743		-160.156250
8744		-162.109375
8745		-158.203125
8746		-160.156250
8747		-154.296875
8748		-158.203125
8749		-152.343750
8750		-156.250000
8751		-150.390625
8752		-152.343750
8753		-148.437500
8754		-150.390625
8755		-146.484375
8756		-146.484375
8757		-140.625000
8758		-144.531250
8759		-140.625000
8760		-140.625000
8761		-136.718750
8762		-138.671875
8763		-132.812500
8764		-134.765625
8765		-130.859375
8766		-132.812500
8767		-126.953125
8768		-128.906250
8769		-123.046875
8770		-125.000000
8771		-121.093750
8772		-121.093750
8773		-117.187500
8774		-119.140625
8775		-113.281250
8776		-115.234375
8777		-109.375000
8778		-111.328125
8779		-105.468750
8780		-107.421875
8781		-101.562500
8782		-103.515625
8783		-97.656250
8784		-99.609375
8785		-93.750000
8786		-97.656250
8787		-89.843750
8788		-91.796875
8789		-85.937500
8790		-87.890625
8791		-82.031250
8792		-83.984375
8793		-78.125000
8794		-80.078125
8795		-74.218750
8796		-76.171875
8797		-70.312500
8798		-72.265625
8799		-66.406250
8800		-66.406250
8801		-62.500000
8802		-64.453125
8803		-56.640625
8804		-58.593750
8805		-52.734375
8806		-54.687500
8807		-48.828125
8808		-50.781250
8809		-44.921875
8810		-46.875000
8811		-41.015625
8812		-41.015625
8813		-37.109375
8814		-37.109375
8815		-31.250000
8816		-33.203125
8817		-27.343750
8818		-29.296875
8819		-23.437500
8820		-25.390625
8821		-19.531250
8822		-21.484375
8823		-15.625000
8824		-17.578125
8825		-9.765625
8826		-13.671875
8827		-5.859375
8828		-7.812500
8829		-3.906250
8830		-3.906250
8831		0.000000
8832		0.000000
8833		3.906250
8834		1.953125
8835		9.765625
8836		7.812500
8837		13.671875
8838		11.718750
8839		15.625000
8840		15.625000
8841		21.484375
8842		19.531250
8843		23.437500
8844		21.484375
8845		27.343750
8846		25.390625
8847		31.250000
8848		29.296875
8849		35.156250
8850		33.203125
8851		39.062500
8852		37.109375
8853		44.921875
8854		41.015625
8855		44.921875
8856		44.921875
8857		48.828125
8858		46.875000
8859		52.734375
8860		50.781250
8861		56.640625
8862		54.687500
8863		60.546875
8864		56.640625
8865		62.500000
8866		60.546875
8867		66.406250
8868		64.453125
8869		68.359375
8870		66.406250
8871		72.265625
8872		70.312500
8873		74.218750
8874		72.265625
8875		78.125000
8876		74.218750
8877		80.078125
8878		78.125000
8879		83.984375
8880		80.078125
8881		83.984375
8882		83.984375
8883		87.890625
8884		85.937500
8885		89.843750
8886		87.890625
8887		93.750000
8888		91.796875
8889		93.750000
8890		93.750000
8891		97.656250
8892		93.750000
8893		99.609375
8894		97.656250
8895		101.562500
8896		99.609375
8897		103.515625
8898		101.562500
8899		105.468750
8900		103.515625
8901		107.421875
8902		105.468750
8903		109.375000
8904		107.421875
8905		111.328125
8906		109.375000
8907		113.281250
8908		111.328125
8909		115.234375
8910		113.281250
8911		115.234375
8912		113.281250
8913		117.187500
8914		115.234375
8915		119.140625
8916		117.187500
8917		121.093750
8918		119.140625
8919		121.093750
8920		119.140625
8921		123.046875
8922		119.140625
8923		123.046875
8924		123.046875
8925		125.000000
8926		123.046875
8927		126.953125
8928		123.046875
8929		126.953125
8930		125.000000
8931		126.953125
8932		125.000000
8933		128.906250
8934		125.000000
8935		130.859375
8936		126.953125
8937		130.859375
8938		126.953125
8939		130.859375
8940		128.906250
8941		130.859375
8942		128.906250
8943		130.859375
8944		128.906250
8945		132.812500
8946		128.906250
8947		132.812500
8948		128.906250
8949		132.812500
8950		128.906250
8951		132.812500
8952		128.906250
8953		132.812500
8954		128.906250
8955		132.812500
8956		128.906250
8957		132.812500
8958		126.953125
8959		132.812500
8960		128.906250
8961		132.812500
8962		128.906250
8963		130.859375
8964		128.906250
8965		130.859375
8966		126.953125
8967		130.859375
8968		126.953125
8969		130.859375
8970		125.000000
8971		130.859375
8972		126.953125
8973		128.906250
8974		125.000000
8975		128.906250
8976		123.046875
8977		128.906250
8978		123.046875
8979		126.953125
8980		123.046875
8981		126.953125
8982		121.093750
8983		125.000000
8984		119.140625
8985		125.000000
8986		119.140625
8987		123.046875
8988		117.187500
8989		123.046875
8990		117.187500
8991		119.140625
8992		115.234375
8993		119.140625
8994		113.281250
8995		117.187500
8996		111.328125
8997		115.234375
8998		109.375000
8999		113.281250
9000		109.375000
9001		113.281250
9002		105.468750
9003		111.328125
9004		103.515625
9005		109.375000
9006		101.562500
9007		105.468750
9008		99.609375
9009		103.515625
9010		97.656250
9011		101.562500
9012		95.703125
9013		99.609375
9014		93.750000
9015		97.656250
9016		89.843750
9017		95.703125
9018		87.890625
9019		91.796875
9020		83.984375
9021		89.843750
9022		83.984375
9023		87.890625
9024		80.078125
9025		83.984375
9026		78.125000
9027		82.031250
9028		74.218750
9029		80.078125
9030		72.265625
9031		76.171875
9032		68.359375
9033		74.218750
9034		64.453125
9035		70.312500
9036		62.500000
9037		66.406250
9038		58.593750
9039		64.453125
9040		56.640625
9041		60.546875
9042		50.781250
9043		56.640625
9044		48.828125
9045		54.687500
9046		44.921875
9047		50.781250
9048		42.968750
9049		46.875000
9050		39.062500
9051		42.968750
9052		35.156250
9053		41.015625
9054		29.296875
9055		37.109375
9056		27.343750
9057		31.250000
9058		23.437500
9059		29.296875
9060		19.531250
9061		25.390625
9062		15.625000
9063		21.484375
9064		11.718750
9065		17.578125
9066		7.812500
9067		13.671875
9068		3.906250
9069		9.765625
9070		-1.953125
9071		5.859375
9072		-3.906250
9073		1.953125
9074		-7.812500
9075		-1.953125
9076		-11.718750
9077		-7.812500
9078		-15.625000
9079		-7.812500
9080		-21.484375
9081		-13.671875
9082		-25.390625
9083		-19.531250
9084		-29.296875
9085		-21.484375
9086		-33.203125
9087		-27.343750
9088		-37.109375
9089		-31.250000
9090		-41.015625
9091		-35.156250
9092		-44.921875
9093		-39.062500
9094		-50.781250
9095		-42.968750
9096		-54.687500
9097		-48.828125
9098		-58.593750
9099		-52.734375
9100		-62.500000
9101		-56.640625
9102		-66.406250
9103		-60.546875
9104		-70.312500
9105		-64.453125
9106		-74.218750
9107		-68.359375
9108		-78.125000
9109		-72.265625
9110		-83.984375
9111		-76.171875
9112		-85.937500
9113		-78.125000
9114		-93.750000
9115		-82.031250
9116		-95.703125
9117		-87.890625
9118		-99.609375
9119		-91.796875
9120		-103.515625
9121		-95.703125
9122		-105.468750
9123		-99.609375
9124		-109.375000
9125		-103.515625
9126		-115.234375
9127		-107.421875
9128		-119.140625
9129		-109.375000
9130		-121.093750
9131		-113.281250
9132		-125.000000
9133		-115.234375
9134		-128.906250
9135		-121.093750
9136		-130.859375
9137		-123.046875
9138		-134.765625
9139		-126.953125
9140		-136.718750
9141		-130.859375
9142		-138.671875
9143		-134.765625
9144		-144.531250
9145		-134.765625
9146		-146.484375
9147		-136.718750
9148		-150.390625
9149		-140.625000
9150		-152.343750
9151		-144.531250
9152		-154.296875
9153		-144.531250
9154		-158.203125
9155		-148.437500
9156		-156.250000
9157		-152.343750
9158		-160.156250
9159		-156.250000
9160		-164.062500
9161		-156.250000
9162		-166.015625
9163		-158.203125
9164		-167.968750
9165		-158.203125
9166		-169.921875
9167		-160.156250
9168		-169.921875
9169		-162.109375
9170		-171.875000
9171		-164.062500
9172		-173.828125
9173		-166.015625
9174		-171.875000
9175		-169.921875
9176		-173.828125
9177		-169.921875
9178		-175.781250
9179		-167.968750
9180		-177.734375
9181		-169.921875
9182		-177.734375
9183		-169.921875
9184		-177.734375
9185		-169.921875
9186		-177.734375
9187		-171.875000
9188		-179.687500
9189		-171.875000
9190		-177.734375
9191		-173.828125
9192		-175.781250
9193		-173.828125
9194		-179.687500
9195		-171.875000
9196		-179.687500
9197		-171.875000
9198		-179.687500
9199		-171.875000
9200		-177.734375
9201		-169.921875
9202		-177.734375
9203		-169.921875
9204		-175.781250
9205		-167.968750
9206		-175.781250
9207		-167.968750
9208		-171.875000
9209		-169.921875
9210		-171.875000
9211		-166.015625
9212		-171.875000
9213		-164.062500
9214		-171.875000
9215		-162.109375
9216		-169.921875
9217		-162.109375
9218		-167.968750
9219		-160.156250
9220		-166.015625
9221		-158.203125
9222		-164.062500
9223		-156.250000
9224		-160.156250
9225		-156.250000
9226		-156.250000
9227		-154.296875
9228		-156.250000
9229		-148.437500
9230		-154.296875
9231		-146.484375
9232		-152.343750
9233		-142.578125
9234		-148.437500
9235		-140.625000
9236		-146.484375
9237		-138.671875
9238		-144.531250
9239		-134.765625
9240		-140.625000
9241		-134.765625
9242		-136.718750
9243		-130.859375
9244		-132.812500
9245		-126.953125
9246		-132.812500
9247		-123.046875
9248		-128.906250
9249		-119.140625
9250		-126.953125
9251		-117.187500
9252		-121.093750
9253		-111.328125
9254		-117.187500
9255		-109.375000
9256		-115.234375
9257		-105.468750
9258		-109.375000
9259		-103.515625
9260		-105.468750
9261		-99.609375
9262		-103.515625
9263		-93.750000
9264		-97.656250
9265		-89.843750
9266		-95.703125
9267		-85.937500
9268		-91.796875
9269		-82.031250
9270		-85.937500
9271		-78.125000
9272		-83.984375
9273		-74.218750
9274		-78.125000
9275		-72.265625
9276		-72.265625
9277		-68.359375
9278		-70.312500
9279		-60.546875
9280		-68.359375
9281		-56.640625
9282		-62.500000
9283		-52.734375
9284		-58.593750
9285		-48.828125
9286		-54.687500
9287		-44.921875
9288		-50.781250
9289		-41.015625
9290		-46.875000
9291		-39.062500
9292		-39.062500
9293		-33.203125
9294		-35.156250
9295		-27.343750
9296		-33.203125
9297		-23.437500
9298		-29.296875
9299		-19.531250
9300		-23.437500
9301		-13.671875
9302		-21.484375
9303		-11.718750
9304		-17.578125
9305		-7.812500
9306		-11.718750
9307		-3.906250
9308		-5.859375
9309		0.000000
9310		-1.953125
9311		3.906250
9312		0.000000
9313		7.812500
9314		3.906250
9315		13.671875
9316		7.812500
9317		15.625000
9318		9.765625
9319		21.484375
9320		15.625000
9321		25.390625
9322		19.531250
9323		29.296875
9324		21.484375
9325		29.296875
9326		29.296875
9327		33.203125
9328		31.250000
9329		39.062500
9330		33.203125
9331		42.968750
9332		37.109375
9333		46.875000
9334		39.062500
9335		50.781250
9336		44.921875
9337		54.687500
9338		46.875000
9339		56.640625
9340		50.781250
9341		58.593750
9342		56.640625
9343		60.546875
9344		60.546875
9345		64.453125
9346		60.546875
9347		70.312500
9348		62.500000
9349		72.265625
9350		66.406250
9351		76.171875
9352		70.312500
9353		78.125000
9354		72.265625
9355		80.078125
9356		74.218750
9357		83.984375
9358		78.125000
9359		83.984375
9360		82.031250
9361		85.937500
9362		83.984375
9363		91.796875
9364		85.937500
9365		93.750000
9366		87.890625
9367		95.703125
9368		89.843750
9369		99.609375
9370		91.796875
9371		99.609375
9372		93.750000
9373		103.515625
9374		95.703125
9375		103.515625
9376		101.562500
9377		105.468750
9378		103.515625
9379		107.421875
9380		101.562500
9381		111.328125
9382		103.515625
9383		113.281250
9384		105.468750
9385		115.234375
9386		107.421875
9387		117.187500
9388		109.375000
9389		117.187500
9390		111.328125
9391		119.140625
9392		115.234375
9393		119.140625
9394		117.187500
9395		119.140625
9396		115.234375
9397		123.046875
9398		117.187500
9399		125.000000
9400		117.187500
9401		126.953125
9402		119.140625
9403		126.953125
9404		119.140625
9405		126.953125
9406		121.093750
9407		128.906250
9408		121.093750
9409		128.906250
9410		125.000000
9411		128.906250
9412		123.046875
9413		130.859375
9414		125.000000
9415		132.812500
9416		125.000000
9417		132.812500
9418		125.000000
9419		132.812500
9420		126.953125
9421		134.765625
9422		126.953125
9423		134.765625
9424		126.953125
9425		134.765625
9426		128.906250
9427		132.812500
9428		128.906250
9429		132.812500
9430		126.953125
9431		134.765625
9432		126.953125
9433		134.765625
9434		126.953125
9435		134.765625
9436		126.953125
9437		134.765625
9438		126.953125
9439		134.765625
9440		126.953125
9441		134.765625
9442		128.906250
9443		132.812500
9444		128.906250
9445		130.859375
9446		125.000000
9447		132.812500
9448		125.000000
9449		132.812500
9450		125.000000
9451		132.812500
9452		123.046875
9453		130.859375
9454		123.046875
9455		130.859375
9456		121.093750
9457		128.906250
9458		121.093750
9459		128.906250
9460		123.046875
9461		125.000000
9462		119.140625
9463		125.000000
9464		117.187500
9465		126.953125
9466		115.234375
9467		125.000000
9468		115.234375
9469		123.046875
9470		113.281250
9471		121.093750
9472		111.328125
9473		119.140625
9474		111.328125
9475		117.187500
9476		111.328125
9477		115.234375
9478		109.375000
9479		113.281250
9480		105.468750
9481		113.281250
9482		101.562500
9483		111.328125
9484		101.562500
9485		109.375000
9486		99.609375
9487		107.421875
9488		95.703125
9489		105.468750
9490		95.703125
9491		103.515625
9492		95.703125
9493		101.562500
9494		91.796875
9495		95.703125
9496		85.937500
9497		95.703125
9498		85.937500
9499		93.750000
9500		82.031250
9501		91.796875
9502		80.078125
9503		87.890625
9504		78.125000
9505		85.937500
9506		74.218750
9507		82.031250
9508		72.265625
9509		80.078125
9510		70.312500
9511		74.218750
9512		68.359375
9513		72.265625
9514		62.500000
9515		72.265625
9516		58.593750
9517		68.359375
9518		54.687500
9519		66.406250
9520		52.734375
9521		60.546875
9522		48.828125
9523		58.593750
9524		44.921875
9525		54.687500
9526		44.921875
9527		48.828125
9528		41.015625
9529		44.921875
9530		37.109375
9531		42.968750
9532		31.250000
9533		41.015625
9534		29.296875
9535		37.109375
9536		25.390625
9537		33.203125
9538		19.531250
9539		31.250000
9540		17.578125
9541		25.390625
9542		13.671875
9543		21.484375
9544		9.765625
9545		15.625000
9546		5.859375
9547		11.718750
9548		0.000000
9549		9.765625
9550		-3.906250
9551		5.859375
9552		-7.812500
9553		1.953125
9554		-11.718750
9555		-1.953125
9556		-15.625000
9557		-5.859375
9558		-19.531250
9559		-11.718750
9560		-21.484375
9561		-15.625000
9562		-25.390625
9563		-21.484375
9564		-31.250000
9565		-23.437500
9566		-37.109375
9567		-27.343750
9568		-41.015625
9569		-31.250000
9570		-44.921875
9571		-35.156250
9572		-50.781250
9573		-39.062500
9574		-52.734375
9575		-42.968750
9576		-54.687500
9577		-48.828125
9578		-60.546875
9579		-54.687500
9580		-66.406250
9581		-58.593750
9582		-70.312500
9583		-60.546875
9584		-74.218750
9585		-62.500000
9586		-78.125000
9587		-68.359375
9588		-82.031250
9589		-72.265625
9590		-85.937500
9591		-76.171875
9592		-87.890625
9593		-80.078125
9594		-91.796875
9595		-85.937500
9596		-95.703125
9597		-89.843750
9598		-101.562500
9599		-91.796875
9600		-103.515625
9601		-95.703125
9602		-109.375000
9603		-99.609375
9604		-113.281250
9605		-103.515625
9606		-115.234375
9607		-107.421875
9608		-121.093750
9609		-109.375000
9610		-121.093750
9611		-115.234375
9612		-123.046875
9613		-119.140625
9614		-128.906250
9615		-121.093750
9616		-132.812500
9617		-123.046875
9618		-136.718750
9619		-126.953125
9620		-138.671875
9621		-130.859375
9622		-142.578125
9623		-132.812500
9624		-144.531250
9625		-136.718750
9626		-146.484375
9627		-138.671875
9628		-148.437500
9629		-144.531250
9630		-150.390625
9631		-146.484375
9632		-156.250000
9633		-146.484375
9634		-158.203125
9635		-148.437500
9636		-158.203125
9637		-150.390625
9638		-162.109375
9639		-152.343750
9640		-164.062500
9641		-156.250000
9642		-164.062500
9643		-158.203125
9644		-164.062500
9645		-160.156250
9646		-166.015625
9647		-162.109375
9648		-169.921875
9649		-162.109375
9650		-171.875000
9651		-164.062500
9652		-173.828125
9653		-166.015625
9654		-175.781250
9655		-166.015625
9656		-175.781250
9657		-167.968750
9658		-177.734375
9659		-167.968750
9660		-175.781250
9661		-169.921875
9662		-173.828125
9663		-171.875000
9664		-177.734375
9665		-169.921875
9666		-177.734375
9667		-171.875000
9668		-179.687500
9669		-171.875000
9670		-177.734375
9671		-171.875000
9672		-179.687500
9673		-171.875000
9674		-179.687500
9675		-169.921875
9676		-179.687500
9677		-169.921875
9678		-175.781250
9679		-173.828125
9680		-173.828125
9681		-171.875000
9682		-177.734375
9683		-167.968750
9684		-175.781250
9685		-167.968750
9686		-175.781250
9687		-166.015625
9688		-173.828125
9689		-166.015625
9690		-171.875000
9691		-164.062500
9692		-171.875000
9693		-164.062500
9694		-169.921875
9695		-164.062500
9696		-166.015625
9697		-162.109375
9698		-166.015625
9699		-158.203125
9700		-164.062500
9701		-156.250000
9702		-162.109375
9703		-154.296875
9704		-160.156250
9705		-152.343750
9706		-158.203125
9707		-150.390625
9708		-156.250000
9709		-146.484375
9710		-154.296875
9711		-146.484375
9712		-148.437500
9713		-144.531250
9714		-146.484375
9715		-142.578125
9716		-146.484375
9717		-136.718750
9718		-142.578125
9719		-132.812500
9720		-138.671875
9721		-130.859375
9722		-136.718750
9723		-126.953125
9724		-132.812500
9725		-125.000000
9726		-130.859375
9727		-121.093750
9728		-126.953125
9729		-119.140625
9730		-121.093750
9731		-117.187500
9732		-117.187500
9733		-111.328125
9734		-115.234375
9735		-107.421875
9736		-111.328125
9737		-103.515625
9738		-107.421875
9739		-99.609375
9740		-103.515625
9741		-97.656250
9742		-99.609375
9743		-91.796875
9744		-97.656250
9745		-89.843750
9746		-91.796875
9747		-85.937500
9748		-87.890625
9749		-80.078125
9750		-85.937500
9751		-76.171875
9752		-82.031250
9753		-70.312500
9754		-76.171875
9755		-68.359375
9756		-72.265625
9757		-64.453125
9758		-70.312500
9759		-58.593750
9760		-64.453125
9761		-56.640625
9762		-58.593750
9763		-52.734375
9764		-54.687500
9765		-48.828125
9766		-50.781250
9767		-42.968750
9768		-48.828125
9769		-37.109375
9770		-42.968750
9771		-33.203125
9772		-39.062500
9773		-31.250000
9774		-35.156250
9775		-25.390625
9776		-29.296875
9777		-21.484375
9778		-25.390625
9779		-19.531250
9780		-19.531250
9781		-15.625000
9782		-15.625000
9783		-9.765625
9784		-13.671875
9785		-5.859375
9786		-9.765625
9787		0.000000
9788		-7.812500
9789		3.906250
9790		0.000000
9791		7.812500
9792		1.953125
9793		11.718750
9794		5.859375
9795		13.671875
9796		11.718750
9797		17.578125
9798		15.625000
9799		21.484375
9800		17.578125
9801		27.343750
9802		21.484375
9803		31.250000
9804		23.437500
9805		33.203125
9806		29.296875
9807		39.062500
9808		31.250000
9809		41.015625
9810		35.156250
9811		44.921875
9812		41.015625
9813		46.875000
9814		44.921875
9815		48.828125
9816		46.875000
9817		56.640625
9818		48.828125
9819		58.593750
9820		50.781250
9821		60.546875
9822		56.640625
9823		66.406250
9824		58.593750
9825		68.359375
9826		62.500000
9827		70.312500
9828		64.453125
9829		72.265625
9830		70.312500
9831		74.218750
9832		72.265625
9833		80.078125
9834		74.218750
9835		82.031250
9836		76.171875
9837		85.937500
9838		78.125000
9839		87.890625
9840		82.031250
9841		89.843750
9842		83.984375
9843		91.796875
9844		85.937500
9845		95.703125
9846		91.796875
9847		95.703125
9848		93.750000
9849		97.656250
9850		93.750000
9851		101.562500
9852		95.703125
9853		105.468750
9854		99.609375
9855		107.421875
9856		99.609375
9857		107.421875
9858		101.562500
9859		111.328125
9860		105.468750
9861		111.328125
9862		105.468750
9863		111.328125
9864		109.375000
9865		113.281250
9866		109.375000
9867		117.187500
9868		111.328125
9869		119.140625
9870		113.281250
9871		121.093750
9872		113.281250
9873		121.093750
9874		115.234375
9875		123.046875
9876		117.187500
9877		125.000000
9878		119.140625
9879		125.000000
9880		121.093750
9881		125.000000
9882		123.046875
9883		125.000000
9884		121.093750
9885		128.906250
9886		121.093750
9887		130.859375
9888		123.046875
9889		130.859375
9890		123.046875
9891		130.859375
9892		125.000000
9893		132.812500
9894		125.000000
9895		132.812500
9896		126.953125
9897		130.859375
9898		128.906250
9899		132.812500
9900		126.953125
9901		134.765625
9902		126.953125
9903		134.765625
9904		126.953125
9905		134.765625
9906		126.953125
9907		134.765625
9908		128.906250
9909		134.765625
9910		126.953125
9911		136.718750
9912		128.906250
9913		134.765625
9914		130.859375
9915		132.812500
9916		128.906250
9917		134.765625
9918		126.953125
9919		134.765625
9920		126.953125
9921		134.765625
9922		126.953125
9923		134.765625
9924		126.953125
9925		134.765625
9926		126.953125
9927		134.765625
9928		126.953125
9929		132.812500
9930		126.953125
9931		130.859375
9932		126.953125
9933		128.906250
9934		123.046875
9935		130.859375
9936		123.046875
9937		130.859375
9938		121.093750
9939		128.906250
9940		121.093750
9941		128.906250
9942		119.140625
9943		126.953125
9944		119.140625
9945		125.000000
9946		117.187500
9947		125.000000
9948		119.140625
9949		121.093750
9950		115.234375
9951		121.093750
9952		111.328125
9953		121.093750
9954		111.328125
9955		119.140625
9956		109.375000
9957		117.187500
9958		107.421875
9959		115.234375
9960		105.468750
9961		113.281250
9962		105.468750
9963		111.328125
9964		103.515625
9965		107.421875
9966		101.562500
9967		105.468750
9968		97.656250
9969		105.468750
9970		95.703125
9971		103.515625
9972		93.750000
9973		101.562500
9974		89.843750
9975		97.656250
9976		87.890625
9977		95.703125
9978		85.937500
9979		93.750000
9980		85.937500
9981		89.843750
9982		82.031250
9983		85.937500
9984		78.125000
9985		85.937500
9986		74.218750
9987		83.984375
9988		70.312500
9989		80.078125
9990		68.359375
9991		78.125000
9992		64.453125
9993		74.218750
9994		62.500000
9995		72.265625
9996		60.546875
9997		68.359375
9998		58.593750
9999		62.500000
10000		52.734375
