Channel              :		CH1
Frequency            :		681.2Hz
Period               :		1.468ms
PK-PK                :		136.7mV
Probe attenuation    :		1X
Voltage per ADC value:		0.122070mV
Time interval        :		2.00000us

index		CH1_Voltage(mV)
1		50.781250
2		50.781250
3		54.687500
4		50.781250
5		56.640625
6		52.734375
7		56.640625
8		50.781250
9		56.640625
10		50.781250
11		58.593750
12		50.781250
13		58.593750
14		52.734375
15		58.593750
16		52.734375
17		58.593750
18		54.687500
19		58.593750
20		54.687500
21		56.640625
22		52.734375
23		60.546875
24		54.687500
25		60.546875
26		54.687500
27		60.546875
28		52.734375
29		60.546875
30		54.687500
31		60.546875
32		54.687500
33		60.546875
34		54.687500
35		60.546875
36		56.640625
37		58.593750
38		54.687500
39		60.546875
40		54.687500
41		60.546875
42		54.687500
43		60.546875
44		54.687500
45		60.546875
46		56.640625
47		62.500000
48		54.687500
49		62.500000
50		54.687500
51		60.546875
52		56.640625
53		58.593750
54		56.640625
55		60.546875
56		54.687500
57		60.546875
58		54.687500
59		60.546875
60		54.687500
61		62.500000
62		54.687500
63		60.546875
64		54.687500
65		60.546875
66		56.640625
67		62.500000
68		56.640625
69		58.593750
70		56.640625
71		58.593750
72		54.687500
73		60.546875
74		54.687500
75		60.546875
76		54.687500
77		60.546875
78		52.734375
79		60.546875
80		52.734375
81		58.593750
82		52.734375
83		58.593750
84		52.734375
85		58.593750
86		54.687500
87		56.640625
88		52.734375
89		58.593750
90		52.734375
91		58.593750
92		52.734375
93		58.593750
94		52.734375
95		58.593750
96		50.781250
97		56.640625
98		50.781250
99		56.640625
100		50.781250
101		56.640625
102		50.781250
103		54.687500
104		50.781250
105		54.687500
106		48.828125
107		54.687500
108		48.828125
109		54.687500
110		46.875000
111		54.687500
112		46.875000
113		54.687500
114		46.875000
115		52.734375
116		46.875000
117		52.734375
118		46.875000
119		50.781250
120		46.875000
121		50.781250
122		44.921875
123		50.781250
124		44.921875
125		50.781250
126		42.968750
127		50.781250
128		42.968750
129		48.828125
130		42.968750
131		48.828125
132		42.968750
133		48.828125
134		41.015625
135		46.875000
136		41.015625
137		44.921875
138		41.015625
139		44.921875
140		39.062500
141		44.921875
142		39.062500
143		44.921875
144		37.109375
145		44.921875
146		37.109375
147		42.968750
148		35.156250
149		42.968750
150		35.156250
151		41.015625
152		35.156250
153		41.015625
154		35.156250
155		39.062500
156		33.203125
157		39.062500
158		33.203125
159		39.062500
160		31.250000
161		39.062500
162		29.296875
163		37.109375
164		29.296875
165		37.109375
166		29.296875
167		35.156250
168		29.296875
169		35.156250
170		29.296875
171		33.203125
172		25.390625
173		33.203125
174		25.390625
175		33.203125
176		23.437500
177		31.250000
178		23.437500
179		29.296875
180		21.484375
181		29.296875
182		21.484375
183		27.343750
184		21.484375
185		27.343750
186		21.484375
187		25.390625
188		21.484375
189		23.437500
190		17.578125
191		25.390625
192		15.625000
193		23.437500
194		15.625000
195		23.437500
196		15.625000
197		21.484375
198		13.671875
199		21.484375
200		13.671875
201		19.531250
202		13.671875
203		19.531250
204		13.671875
205		15.625000
206		9.765625
207		15.625000
208		9.765625
209		15.625000
210		7.812500
211		15.625000
212		7.812500
213		13.671875
214		5.859375
215		13.671875
216		3.906250
217		11.718750
218		3.906250
219		9.765625
220		5.859375
221		7.812500
222		3.906250
223		7.812500
224		0.000000
225		7.812500
226		0.000000
227		5.859375
228		0.000000
229		5.859375
230		-1.953125
231		3.906250
232		-3.906250
233		3.906250
234		-3.906250
235		1.953125
236		-3.906250
237		0.000000
238		-3.906250
239		-1.953125
240		-7.812500
241		0.000000
242		-9.765625
243		-1.953125
244		-9.765625
245		-3.906250
246		-11.718750
247		-3.906250
248		-11.718750
249		-5.859375
250		-13.671875
251		-5.859375
252		-13.671875
253		-7.812500
254		-13.671875
255		-9.765625
256		-15.625000
257		-9.765625
258		-17.578125
259		-11.718750
260		-17.578125
261		-11.718750
262		-19.531250
263		-13.671875
264		-21.484375
265		-13.671875
266		-21.484375
267		-13.671875
268		-21.484375
269		-15.625000
270		-21.484375
271		-19.531250
272		-23.437500
273		-19.531250
274		-25.390625
275		-19.531250
276		-25.390625
277		-19.531250
278		-27.343750
279		-21.484375
280		-27.343750
281		-21.484375
282		-29.296875
283		-21.484375
284		-31.250000
285		-23.437500
286		-31.250000
287		-25.390625
288		-31.250000
289		-27.343750
290		-33.203125
291		-27.343750
292		-35.156250
293		-25.390625
294		-37.109375
295		-29.296875
296		-37.109375
297		-29.296875
298		-37.109375
299		-31.250000
300		-39.062500
301		-31.250000
302		-39.062500
303		-33.203125
304		-39.062500
305		-35.156250
306		-39.062500
307		-35.156250
308		-42.968750
309		-35.156250
310		-42.968750
311		-37.109375
312		-44.921875
313		-37.109375
314		-44.921875
315		-39.062500
316		-44.921875
317		-39.062500
318		-46.875000
319		-39.062500
320		-46.875000
321		-41.015625
322		-44.921875
323		-42.968750
324		-48.828125
325		-42.968750
326		-48.828125
327		-42.968750
328		-50.781250
329		-42.968750
330		-50.781250
331		-44.921875
332		-52.734375
333		-44.921875
334		-52.734375
335		-44.921875
336		-52.734375
337		-46.875000
338		-52.734375
339		-48.828125
340		-54.687500
341		-48.828125
342		-54.687500
343		-48.828125
344		-56.640625
345		-48.828125
346		-56.640625
347		-50.781250
348		-56.640625
349		-50.781250
350		-58.593750
351		-50.781250
352		-58.593750
353		-50.781250
354		-56.640625
355		-54.687500
356		-58.593750
357		-54.687500
358		-60.546875
359		-54.687500
360		-60.546875
361		-54.687500
362		-60.546875
363		-54.687500
364		-62.500000
365		-54.687500
366		-62.500000
367		-56.640625
368		-62.500000
369		-56.640625
370		-62.500000
371		-56.640625
372		-62.500000
373		-58.593750
374		-62.500000
375		-58.593750
376		-64.453125
377		-58.593750
378		-66.406250
379		-58.593750
380		-66.406250
381		-58.593750
382		-66.406250
383		-58.593750
384		-66.406250
385		-58.593750
386		-64.453125
387		-60.546875
388		-64.453125
389		-62.500000
390		-66.406250
391		-62.500000
392		-66.406250
393		-60.546875
394		-66.406250
395		-60.546875
396		-68.359375
397		-60.546875
398		-68.359375
399		-60.546875
400		-68.359375
401		-62.500000
402		-68.359375
403		-62.500000
404		-66.406250
405		-64.453125
406		-68.359375
407		-62.500000
408		-68.359375
409		-62.500000
410		-68.359375
411		-62.500000
412		-68.359375
413		-62.500000
414		-68.359375
415		-62.500000
416		-70.312500
417		-62.500000
418		-68.359375
419		-62.500000
420		-68.359375
421		-62.500000
422		-66.406250
423		-64.453125
424		-68.359375
425		-62.500000
426		-68.359375
427		-62.500000
428		-68.359375
429		-62.500000
430		-68.359375
431		-62.500000
432		-68.359375
433		-62.500000
434		-68.359375
435		-62.500000
436		-68.359375
437		-62.500000
438		-66.406250
439		-64.453125
440		-66.406250
441		-62.500000
442		-66.406250
443		-60.546875
444		-68.359375
445		-60.546875
446		-68.359375
447		-60.546875
448		-66.406250
449		-60.546875
450		-66.406250
451		-60.546875
452		-64.453125
453		-60.546875
454		-64.453125
455		-60.546875
456		-62.500000
457		-60.546875
458		-64.453125
459		-58.593750
460		-64.453125
461		-58.593750
462		-62.500000
463		-58.593750
464		-64.453125
465		-56.640625
466		-64.453125
467		-56.640625
468		-62.500000
469		-56.640625
470		-62.500000
471		-56.640625
472		-60.546875
473		-56.640625
474		-58.593750
475		-56.640625
476		-60.546875
477		-54.687500
478		-60.546875
479		-54.687500
480		-58.593750
481		-52.734375
482		-58.593750
483		-52.734375
484		-58.593750
485		-52.734375
486		-58.593750
487		-50.781250
488		-56.640625
489		-52.734375
490		-54.687500
491		-52.734375
492		-56.640625
493		-48.828125
494		-56.640625
495		-48.828125
496		-54.687500
497		-48.828125
498		-52.734375
499		-48.828125
500		-52.734375
501		-46.875000
502		-52.734375
503		-46.875000
504		-52.734375
505		-44.921875
506		-48.828125
507		-46.875000
508		-50.781250
509		-44.921875
510		-50.781250
511		-42.968750
512		-48.828125
513		-42.968750
514		-48.828125
515		-41.015625
516		-46.875000
517		-41.015625
518		-46.875000
519		-39.062500
520		-44.921875
521		-39.062500
522		-42.968750
523		-39.062500
524		-42.968750
525		-39.062500
526		-41.015625
527		-37.109375
528		-41.015625
529		-35.156250
530		-41.015625
531		-33.203125
532		-41.015625
533		-33.203125
534		-39.062500
535		-33.203125
536		-39.062500
537		-31.250000
538		-37.109375
539		-31.250000
540		-35.156250
541		-31.250000
542		-35.156250
543		-29.296875
544		-35.156250
545		-27.343750
546		-33.203125
547		-27.343750
548		-31.250000
549		-25.390625
550		-31.250000
551		-25.390625
552		-31.250000
553		-23.437500
554		-29.296875
555		-23.437500
556		-27.343750
557		-23.437500
558		-25.390625
559		-23.437500
560		-27.343750
561		-19.531250
562		-27.343750
563		-19.531250
564		-25.390625
565		-19.531250
566		-23.437500
567		-17.578125
568		-21.484375
569		-15.625000
570		-21.484375
571		-15.625000
572		-19.531250
573		-15.625000
574		-17.578125
575		-13.671875
576		-17.578125
577		-11.718750
578		-17.578125
579		-11.718750
580		-17.578125
581		-9.765625
582		-15.625000
583		-7.812500
584		-13.671875
585		-7.812500
586		-13.671875
587		-5.859375
588		-11.718750
589		-5.859375
590		-9.765625
591		-5.859375
592		-9.765625
593		-3.906250
594		-7.812500
595		-1.953125
596		-7.812500
597		-1.953125
598		-7.812500
599		0.000000
600		-5.859375
601		1.953125
602		-5.859375
603		1.953125
604		-3.906250
605		1.953125
606		-1.953125
607		1.953125
608		0.000000
609		3.906250
610		0.000000
611		5.859375
612		0.000000
613		7.812500
614		1.953125
615		7.812500
616		3.906250
617		9.765625
618		3.906250
619		9.765625
620		3.906250
621		11.718750
622		5.859375
623		11.718750
624		7.812500
625		11.718750
626		7.812500
627		13.671875
628		7.812500
629		17.578125
630		9.765625
631		17.578125
632		11.718750
633		17.578125
634		11.718750
635		19.531250
636		13.671875
637		19.531250
638		13.671875
639		19.531250
640		17.578125
641		19.531250
642		17.578125
643		21.484375
644		17.578125
645		23.437500
646		17.578125
647		25.390625
648		19.531250
649		25.390625
650		19.531250
651		25.390625
652		21.484375
653		27.343750
654		21.484375
655		27.343750
656		23.437500
657		27.343750
658		25.390625
659		29.296875
660		25.390625
661		31.250000
662		25.390625
663		31.250000
664		27.343750
665		33.203125
666		27.343750
667		33.203125
668		27.343750
669		35.156250
670		29.296875
671		35.156250
672		29.296875
673		35.156250
674		33.203125
675		35.156250
676		33.203125
677		37.109375
678		31.250000
679		39.062500
680		33.203125
681		39.062500
682		33.203125
683		41.015625
684		35.156250
685		41.015625
686		35.156250
687		42.968750
688		35.156250
689		42.968750
690		39.062500
691		41.015625
692		39.062500
693		42.968750
694		37.109375
695		44.921875
696		39.062500
697		44.921875
698		39.062500
699		46.875000
700		41.015625
701		46.875000
702		41.015625
703		46.875000
704		41.015625
705		48.828125
706		42.968750
707		48.828125
708		44.921875
709		48.828125
710		42.968750
711		50.781250
712		44.921875
713		50.781250
714		44.921875
715		50.781250
716		44.921875
717		52.734375
718		44.921875
719		52.734375
720		46.875000
721		54.687500
722		46.875000
723		52.734375
724		48.828125
725		52.734375
726		50.781250
727		52.734375
728		48.828125
729		54.687500
730		48.828125
731		54.687500
732		48.828125
733		56.640625
734		50.781250
735		56.640625
736		50.781250
737		56.640625
738		50.781250
739		56.640625
740		52.734375
741		54.687500
742		52.734375
743		56.640625
744		52.734375
745		58.593750
746		52.734375
747		58.593750
748		52.734375
749		58.593750
750		52.734375
751		58.593750
752		52.734375
753		60.546875
754		52.734375
755		60.546875
756		54.687500
757		58.593750
758		56.640625
759		58.593750
760		54.687500
761		58.593750
762		54.687500
763		60.546875
764		54.687500
765		60.546875
766		54.687500
767		60.546875
768		54.687500
769		62.500000
770		54.687500
771		62.500000
772		54.687500
773		60.546875
774		56.640625
775		60.546875
776		56.640625
777		60.546875
778		54.687500
779		62.500000
780		56.640625
781		62.500000
782		56.640625
783		62.500000
784		54.687500
785		62.500000
786		54.687500
787		62.500000
788		56.640625
789		62.500000
790		56.640625
791		62.500000
792		56.640625
793		60.546875
794		56.640625
795		62.500000
796		54.687500
797		62.500000
798		56.640625
799		60.546875
800		56.640625
801		60.546875
802		56.640625
803		62.500000
804		54.687500
805		62.500000
806		54.687500
807		60.546875
808		56.640625
809		60.546875
810		56.640625
811		58.593750
812		54.687500
813		60.546875
814		54.687500
815		60.546875
816		54.687500
817		60.546875
818		52.734375
819		60.546875
820		54.687500
821		60.546875
822		52.734375
823		58.593750
824		54.687500
825		58.593750
826		54.687500
827		56.640625
828		52.734375
829		58.593750
830		52.734375
831		58.593750
832		50.781250
833		58.593750
834		50.781250
835		56.640625
836		50.781250
837		56.640625
838		50.781250
839		56.640625
840		50.781250
841		56.640625
842		50.781250
843		52.734375
844		48.828125
845		52.734375
846		48.828125
847		54.687500
848		48.828125
849		54.687500
850		46.875000
851		52.734375
852		46.875000
853		52.734375
854		44.921875
855		52.734375
856		44.921875
857		52.734375
858		46.875000
859		48.828125
860		46.875000
861		48.828125
862		42.968750
863		50.781250
864		42.968750
865		48.828125
866		42.968750
867		48.828125
868		41.015625
869		48.828125
870		41.015625
871		46.875000
872		39.062500
873		46.875000
874		41.015625
875		44.921875
876		41.015625
877		42.968750
878		39.062500
879		44.921875
880		37.109375
881		44.921875
882		35.156250
883		42.968750
884		35.156250
885		41.015625
886		35.156250
887		41.015625
888		35.156250
889		41.015625
890		33.203125
891		39.062500
892		35.156250
893		37.109375
894		33.203125
895		37.109375
896		31.250000
897		37.109375
898		29.296875
899		37.109375
900		29.296875
901		37.109375
902		29.296875
903		35.156250
904		27.343750
905		33.203125
906		27.343750
907		33.203125
908		27.343750
909		31.250000
910		25.390625
911		29.296875
912		25.390625
913		29.296875
914		23.437500
915		29.296875
916		21.484375
917		29.296875
918		19.531250
919		27.343750
920		19.531250
921		27.343750
922		19.531250
923		25.390625
924		19.531250
925		25.390625
926		19.531250
927		21.484375
928		17.578125
929		21.484375
930		15.625000
931		21.484375
932		13.671875
933		21.484375
934		13.671875
935		19.531250
936		11.718750
937		19.531250
938		11.718750
939		17.578125
940		9.765625
941		17.578125
942		11.718750
943		13.671875
944		9.765625
945		13.671875
946		7.812500
947		13.671875
948		5.859375
949		11.718750
950		5.859375
951		11.718750
952		3.906250
953		9.765625
954		3.906250
955		9.765625
956		1.953125
957		9.765625
958		0.000000
959		7.812500
960		1.953125
961		5.859375
962		0.000000
963		5.859375
964		-3.906250
965		3.906250
966		-3.906250
967		3.906250
968		-3.906250
969		1.953125
970		-5.859375
971		1.953125
972		-5.859375
973		0.000000
974		-5.859375
975		0.000000
976		-5.859375
977		-1.953125
978		-7.812500
979		-3.906250
980		-11.718750
981		-3.906250
982		-11.718750
983		-5.859375
984		-11.718750
985		-7.812500
986		-13.671875
987		-5.859375
988		-15.625000
989		-7.812500
990		-17.578125
991		-9.765625
992		-15.625000
993		-9.765625
994		-15.625000
995		-13.671875
996		-19.531250
997		-13.671875
998		-19.531250
999		-13.671875
1000		-21.484375
1001		-15.625000
1002		-21.484375
1003		-15.625000
1004		-23.437500
1005		-17.578125
1006		-25.390625
1007		-17.578125
1008		-25.390625
1009		-19.531250
1010		-25.390625
1011		-21.484375
1012		-27.343750
1013		-23.437500
1014		-29.296875
1015		-21.484375
1016		-29.296875
1017		-23.437500
1018		-31.250000
1019		-23.437500
1020		-31.250000
1021		-25.390625
1022		-31.250000
1023		-25.390625
1024		-35.156250
1025		-27.343750
1026		-33.203125
1027		-29.296875
1028		-33.203125
1029		-31.250000
1030		-37.109375
1031		-29.296875
1032		-37.109375
1033		-31.250000
1034		-39.062500
1035		-31.250000
1036		-39.062500
1037		-33.203125
1038		-41.015625
1039		-33.203125
1040		-41.015625
1041		-35.156250
1042		-41.015625
1043		-35.156250
1044		-41.015625
1045		-39.062500
1046		-42.968750
1047		-37.109375
1048		-44.921875
1049		-39.062500
1050		-44.921875
1051		-39.062500
1052		-46.875000
1053		-39.062500
1054		-46.875000
1055		-41.015625
1056		-48.828125
1057		-41.015625
1058		-48.828125
1059		-41.015625
1060		-48.828125
1061		-42.968750
1062		-48.828125
1063		-44.921875
1064		-50.781250
1065		-44.921875
1066		-50.781250
1067		-44.921875
1068		-50.781250
1069		-46.875000
1070		-52.734375
1071		-46.875000
1072		-52.734375
1073		-48.828125
1074		-52.734375
1075		-48.828125
1076		-54.687500
1077		-48.828125
1078		-54.687500
1079		-50.781250
1080		-56.640625
1081		-50.781250
1082		-58.593750
1083		-50.781250
1084		-58.593750
1085		-50.781250
1086		-58.593750
1087		-52.734375
1088		-58.593750
1089		-52.734375
1090		-60.546875
1091		-52.734375
1092		-60.546875
1093		-52.734375
1094		-58.593750
1095		-56.640625
1096		-60.546875
1097		-54.687500
1098		-62.500000
1099		-54.687500
1100		-64.453125
1101		-54.687500
1102		-62.500000
1103		-56.640625
1104		-62.500000
1105		-56.640625
1106		-62.500000
1107		-56.640625
1108		-64.453125
1109		-56.640625
1110		-62.500000
1111		-58.593750
1112		-62.500000
1113		-58.593750
1114		-64.453125
1115		-58.593750
1116		-66.406250
1117		-58.593750
1118		-64.453125
1119		-58.593750
1120		-66.406250
1121		-58.593750
1122		-66.406250
1123		-60.546875
1124		-66.406250
1125		-60.546875
1126		-66.406250
1127		-60.546875
1128		-64.453125
1129		-62.500000
1130		-66.406250
1131		-60.546875
1132		-68.359375
1133		-60.546875
1134		-68.359375
1135		-60.546875
1136		-68.359375
1137		-60.546875
1138		-68.359375
1139		-60.546875
1140		-68.359375
1141		-62.500000
1142		-68.359375
1143		-62.500000
1144		-66.406250
1145		-62.500000
1146		-66.406250
1147		-64.453125
1148		-68.359375
1149		-60.546875
1150		-68.359375
1151		-62.500000
1152		-68.359375
1153		-62.500000
1154		-70.312500
1155		-62.500000
1156		-68.359375
1157		-60.546875
1158		-68.359375
1159		-62.500000
1160		-68.359375
1161		-62.500000
1162		-66.406250
1163		-64.453125
1164		-68.359375
1165		-62.500000
1166		-68.359375
1167		-60.546875
1168		-66.406250
1169		-62.500000
1170		-68.359375
1171		-60.546875
1172		-68.359375
1173		-60.546875
1174		-68.359375
1175		-60.546875
1176		-66.406250
1177		-60.546875
1178		-64.453125
1179		-62.500000
1180		-64.453125
1181		-62.500000
1182		-66.406250
1183		-60.546875
1184		-66.406250
1185		-60.546875
1186		-66.406250
1187		-58.593750
1188		-64.453125
1189		-58.593750
1190		-64.453125
1191		-58.593750
1192		-64.453125
1193		-58.593750
1194		-62.500000
1195		-56.640625
1196		-62.500000
1197		-58.593750
1198		-64.453125
1199		-56.640625
1200		-62.500000
1201		-56.640625
1202		-62.500000
1203		-56.640625
1204		-62.500000
1205		-54.687500
1206		-60.546875
1207		-54.687500
1208		-60.546875
1209		-54.687500
1210		-60.546875
1211		-54.687500
1212		-58.593750
1213		-54.687500
1214		-56.640625
1215		-54.687500
1216		-58.593750
1217		-52.734375
1218		-58.593750
1219		-52.734375
1220		-58.593750
1221		-50.781250
1222		-56.640625
1223		-50.781250
1224		-56.640625
1225		-50.781250
1226		-56.640625
1227		-48.828125
1228		-52.734375
1229		-50.781250
1230		-52.734375
1231		-48.828125
1232		-52.734375
1233		-46.875000
1234		-52.734375
1235		-46.875000
1236		-50.781250
1237		-44.921875
1238		-50.781250
1239		-44.921875
1240		-50.781250
1241		-42.968750
1242		-48.828125
1243		-42.968750
1244		-48.828125
1245		-42.968750
1246		-44.921875
1247		-42.968750
1248		-44.921875
1249		-41.015625
1250		-46.875000
1251		-39.062500
1252		-44.921875
1253		-39.062500
1254		-44.921875
1255		-39.062500
1256		-44.921875
1257		-35.156250
1258		-42.968750
1259		-35.156250
1260		-41.015625
1261		-35.156250
1262		-39.062500
1263		-35.156250
1264		-37.109375
1265		-35.156250
1266		-37.109375
1267		-33.203125
1268		-39.062500
1269		-31.250000
1270		-37.109375
1271		-29.296875
1272		-35.156250
1273		-29.296875
1274		-35.156250
1275		-29.296875
1276		-35.156250
1277		-27.343750
1278		-33.203125
1279		-27.343750
1280		-31.250000
1281		-27.343750
1282		-31.250000
1283		-25.390625
1284		-29.296875
1285		-25.390625
1286		-29.296875
1287		-21.484375
1288		-27.343750
1289		-21.484375
1290		-27.343750
1291		-21.484375
1292		-27.343750
1293		-19.531250
1294		-25.390625
1295		-19.531250
1296		-23.437500
1297		-19.531250
1298		-21.484375
1299		-17.578125
1300		-21.484375
1301		-15.625000
1302		-21.484375
1303		-15.625000
1304		-21.484375
1305		-15.625000
1306		-17.578125
1307		-11.718750
1308		-17.578125
1309		-11.718750
1310		-17.578125
1311		-11.718750
1312		-15.625000
1313		-9.765625
1314		-13.671875
1315		-9.765625
1316		-13.671875
1317		-7.812500
1318		-11.718750
1319		-5.859375
1320		-11.718750
1321		-5.859375
1322		-11.718750
1323		-3.906250
1324		-9.765625
1325		-3.906250
1326		-7.812500
1327		-1.953125
1328		-7.812500
1329		-1.953125
1330		-5.859375
1331		-1.953125
1332		-3.906250
1333		0.000000
1334		-3.906250
1335		1.953125
1336		-3.906250
1337		3.906250
1338		-1.953125
1339		3.906250
1340		-1.953125
1341		3.906250
1342		0.000000
1343		5.859375
1344		1.953125
1345		7.812500
1346		3.906250
1347		7.812500
1348		5.859375
1349		7.812500
1350		5.859375
1351		9.765625
1352		3.906250
1353		11.718750
1354		7.812500
1355		11.718750
1356		9.765625
1357		13.671875
1358		7.812500
1359		15.625000
1360		9.765625
1361		15.625000
1362		11.718750
1363		15.625000
1364		13.671875
1365		15.625000
1366		13.671875
1367		19.531250
1368		13.671875
1369		19.531250
1370		13.671875
1371		21.484375
1372		15.625000
1373		21.484375
1374		17.578125
1375		21.484375
1376		17.578125
1377		23.437500
1378		17.578125
1379		25.390625
1380		21.484375
1381		23.437500
1382		21.484375
1383		25.390625
1384		23.437500
1385		25.390625
1386		23.437500
1387		27.343750
1388		23.437500
1389		29.296875
1390		25.390625
1391		29.296875
1392		25.390625
1393		29.296875
1394		27.343750
1395		31.250000
1396		29.296875
1397		31.250000
1398		29.296875
1399		31.250000
1400		29.296875
1401		33.203125
1402		29.296875
1403		33.203125
1404		31.250000
1405		35.156250
1406		31.250000
1407		35.156250
1408		33.203125
1409		37.109375
1410		33.203125
1411		37.109375
1412		33.203125
1413		39.062500
1414		35.156250
1415		39.062500
1416		37.109375
1417		39.062500
1418		37.109375
1419		41.015625
1420		37.109375
1421		41.015625
1422		39.062500
1423		41.015625
1424		37.109375
1425		42.968750
1426		39.062500
1427		42.968750
1428		39.062500
1429		44.921875
1430		41.015625
1431		44.921875
1432		42.968750
1433		44.921875
1434		41.015625
1435		46.875000
1436		42.968750
1437		46.875000
1438		42.968750
1439		46.875000
1440		44.921875
1441		46.875000
1442		44.921875
1443		48.828125
1444		44.921875
1445		48.828125
1446		46.875000
1447		48.828125
1448		46.875000
1449		48.828125
1450		46.875000
1451		50.781250
1452		48.828125
1453		50.781250
1454		48.828125
1455		50.781250
1456		48.828125
1457		52.734375
1458		48.828125
1459		52.734375
1460		48.828125
1461		52.734375
1462		48.828125
1463		54.687500
1464		50.781250
1465		52.734375
1466		50.781250
1467		54.687500
1468		50.781250
1469		54.687500
1470		52.734375
1471		54.687500
1472		52.734375
1473		54.687500
1474		52.734375
1475		54.687500
1476		52.734375
1477		56.640625
1478		52.734375
1479		56.640625
1480		54.687500
1481		56.640625
1482		54.687500
1483		56.640625
1484		54.687500
1485		56.640625
1486		54.687500
1487		58.593750
1488		54.687500
1489		58.593750
1490		54.687500
1491		58.593750
1492		54.687500
1493		58.593750
1494		54.687500
1495		58.593750
1496		54.687500
1497		60.546875
1498		56.640625
1499		58.593750
1500		54.687500
1501		60.546875
1502		56.640625
1503		60.546875
1504		56.640625
1505		60.546875
1506		56.640625
1507		60.546875
1508		56.640625
1509		60.546875
1510		56.640625
1511		60.546875
1512		56.640625
1513		60.546875
1514		56.640625
1515		60.546875
1516		56.640625
1517		60.546875
1518		56.640625
1519		60.546875
1520		56.640625
1521		60.546875
1522		56.640625
1523		60.546875
1524		58.593750
1525		60.546875
1526		56.640625
1527		60.546875
1528		56.640625
1529		60.546875
1530		56.640625
1531		60.546875
1532		56.640625
1533		60.546875
1534		56.640625
1535		60.546875
1536		56.640625
1537		60.546875
1538		56.640625
1539		60.546875
1540		56.640625
1541		60.546875
1542		56.640625
1543		58.593750
1544		56.640625
1545		58.593750
1546		54.687500
1547		58.593750
1548		56.640625
1549		58.593750
1550		56.640625
1551		58.593750
1552		54.687500
1553		58.593750
1554		54.687500
1555		58.593750
1556		54.687500
1557		58.593750
1558		54.687500
1559		58.593750
1560		54.687500
1561		56.640625
1562		52.734375
1563		56.640625
1564		54.687500
1565		56.640625
1566		52.734375
1567		56.640625
1568		52.734375
1569		56.640625
1570		52.734375
1571		54.687500
1572		50.781250
1573		54.687500
1574		50.781250
1575		54.687500
1576		50.781250
1577		54.687500
1578		50.781250
1579		54.687500
1580		48.828125
1581		52.734375
1582		50.781250
1583		52.734375
1584		48.828125
1585		52.734375
1586		48.828125
1587		52.734375
1588		48.828125
1589		50.781250
1590		46.875000
1591		50.781250
1592		46.875000
1593		50.781250
1594		46.875000
1595		48.828125
1596		44.921875
1597		48.828125
1598		44.921875
1599		46.875000
1600		44.921875
1601		46.875000
1602		42.968750
1603		46.875000
1604		42.968750
1605		46.875000
1606		42.968750
1607		46.875000
1608		41.015625
1609		44.921875
1610		41.015625
1611		44.921875
1612		39.062500
1613		42.968750
1614		39.062500
1615		42.968750
1616		39.062500
1617		41.015625
1618		39.062500
1619		41.015625
1620		37.109375
1621		41.015625
1622		37.109375
1623		39.062500
1624		37.109375
1625		39.062500
1626		33.203125
1627		39.062500
1628		35.156250
1629		37.109375
1630		33.203125
1631		37.109375
1632		33.203125
1633		37.109375
1634		31.250000
1635		35.156250
1636		31.250000
1637		35.156250
1638		29.296875
1639		33.203125
1640		29.296875
1641		33.203125
1642		27.343750
1643		33.203125
1644		27.343750
1645		31.250000
1646		25.390625
1647		29.296875
1648		25.390625
1649		29.296875
1650		25.390625
1651		27.343750
1652		23.437500
1653		27.343750
1654		21.484375
1655		25.390625
1656		21.484375
1657		25.390625
1658		21.484375
1659		23.437500
1660		19.531250
1661		23.437500
1662		17.578125
1663		21.484375
1664		17.578125
1665		21.484375
1666		17.578125
1667		19.531250
1668		15.625000
1669		19.531250
1670		15.625000
1671		19.531250
1672		13.671875
1673		17.578125
1674		13.671875
1675		17.578125
1676		11.718750
1677		15.625000
1678		11.718750
1679		15.625000
1680		9.765625
1681		13.671875
1682		7.812500
1683		11.718750
1684		7.812500
1685		11.718750
1686		5.859375
1687		11.718750
1688		5.859375
1689		9.765625
1690		3.906250
1691		7.812500
1692		3.906250
1693		7.812500
1694		1.953125
1695		5.859375
1696		0.000000
1697		5.859375
1698		0.000000
1699		3.906250
1700		0.000000
1701		3.906250
1702		-1.953125
1703		1.953125
1704		-3.906250
1705		0.000000
1706		-3.906250
1707		0.000000
1708		-5.859375
1709		0.000000
1710		-5.859375
1711		-1.953125
1712		-7.812500
1713		-3.906250
1714		-7.812500
1715		-3.906250
1716		-9.765625
1717		-5.859375
1718		-9.765625
1719		-7.812500
1720		-11.718750
1721		-7.812500
1722		-13.671875
1723		-9.765625
1724		-13.671875
1725		-9.765625
1726		-15.625000
1727		-11.718750
1728		-15.625000
1729		-11.718750
1730		-17.578125
1731		-13.671875
1732		-17.578125
1733		-13.671875
1734		-19.531250
1735		-15.625000
1736		-19.531250
1737		-15.625000
1738		-21.484375
1739		-17.578125
1740		-21.484375
1741		-19.531250
1742		-23.437500
1743		-19.531250
1744		-23.437500
1745		-21.484375
1746		-25.390625
1747		-21.484375
1748		-27.343750
1749		-23.437500
1750		-27.343750
1751		-23.437500
1752		-29.296875
1753		-25.390625
1754		-29.296875
1755		-25.390625
1756		-31.250000
1757		-27.343750
1758		-31.250000
1759		-27.343750
1760		-33.203125
1761		-29.296875
1762		-33.203125
1763		-29.296875
1764		-35.156250
1765		-31.250000
1766		-35.156250
1767		-31.250000
1768		-35.156250
1769		-33.203125
1770		-37.109375
1771		-33.203125
1772		-39.062500
1773		-33.203125
1774		-39.062500
1775		-35.156250
1776		-41.015625
1777		-37.109375
1778		-41.015625
1779		-37.109375
1780		-41.015625
1781		-37.109375
1782		-42.968750
1783		-39.062500
1784		-42.968750
1785		-41.015625
1786		-44.921875
1787		-41.015625
1788		-44.921875
1789		-41.015625
1790		-46.875000
1791		-42.968750
1792		-46.875000
1793		-42.968750
1794		-46.875000
1795		-42.968750
1796		-48.828125
1797		-44.921875
1798		-48.828125
1799		-44.921875
1800		-48.828125
1801		-46.875000
1802		-50.781250
1803		-46.875000
1804		-52.734375
1805		-46.875000
1806		-50.781250
1807		-48.828125
1808		-52.734375
1809		-48.828125
1810		-52.734375
1811		-48.828125
1812		-54.687500
1813		-50.781250
1814		-54.687500
1815		-50.781250
1816		-54.687500
1817		-50.781250
1818		-54.687500
1819		-52.734375
1820		-56.640625
1821		-52.734375
1822		-56.640625
1823		-52.734375
1824		-58.593750
1825		-54.687500
1826		-58.593750
1827		-54.687500
1828		-58.593750
1829		-54.687500
1830		-58.593750
1831		-56.640625
1832		-60.546875
1833		-56.640625
1834		-60.546875
1835		-56.640625
1836		-60.546875
1837		-56.640625
1838		-60.546875
1839		-58.593750
1840		-60.546875
1841		-58.593750
1842		-62.500000
1843		-58.593750
1844		-62.500000
1845		-58.593750
1846		-62.500000
1847		-58.593750
1848		-64.453125
1849		-58.593750
1850		-64.453125
1851		-60.546875
1852		-62.500000
1853		-60.546875
1854		-64.453125
1855		-60.546875
1856		-64.453125
1857		-60.546875
1858		-64.453125
1859		-62.500000
1860		-64.453125
1861		-60.546875
1862		-64.453125
1863		-62.500000
1864		-66.406250
1865		-62.500000
1866		-66.406250
1867		-62.500000
1868		-66.406250
1869		-62.500000
1870		-66.406250
1871		-62.500000
1872		-66.406250
1873		-62.500000
1874		-66.406250
1875		-62.500000
1876		-66.406250
1877		-62.500000
1878		-66.406250
1879		-62.500000
1880		-66.406250
1881		-62.500000
1882		-68.359375
1883		-62.500000
1884		-66.406250
1885		-64.453125
1886		-66.406250
1887		-64.453125
1888		-66.406250
1889		-62.500000
1890		-66.406250
1891		-64.453125
1892		-66.406250
1893		-62.500000
1894		-66.406250
1895		-62.500000
1896		-66.406250
1897		-62.500000
1898		-66.406250
1899		-62.500000
1900		-66.406250
1901		-62.500000
1902		-66.406250
1903		-62.500000
1904		-64.453125
1905		-62.500000
1906		-64.453125
1907		-62.500000
1908		-64.453125
1909		-62.500000
1910		-64.453125
1911		-62.500000
1912		-64.453125
1913		-62.500000
1914		-64.453125
1915		-60.546875
1916		-64.453125
1917		-60.546875
1918		-64.453125
1919		-60.546875
1920		-64.453125
1921		-60.546875
1922		-64.453125
1923		-60.546875
1924		-62.500000
1925		-60.546875
1926		-62.500000
1927		-58.593750
1928		-62.500000
1929		-58.593750
1930		-60.546875
1931		-58.593750
1932		-60.546875
1933		-56.640625
1934		-60.546875
1935		-56.640625
1936		-60.546875
1937		-56.640625
1938		-60.546875
1939		-56.640625
1940		-58.593750
1941		-56.640625
1942		-58.593750
1943		-54.687500
1944		-58.593750
1945		-54.687500
1946		-56.640625
1947		-54.687500
1948		-56.640625
1949		-54.687500
1950		-56.640625
1951		-52.734375
1952		-54.687500
1953		-52.734375
1954		-56.640625
1955		-50.781250
1956		-54.687500
1957		-50.781250
1958		-54.687500
1959		-50.781250
1960		-52.734375
1961		-50.781250
1962		-52.734375
1963		-48.828125
1964		-52.734375
1965		-46.875000
1966		-50.781250
1967		-46.875000
1968		-50.781250
1969		-46.875000
1970		-48.828125
1971		-46.875000
1972		-48.828125
1973		-44.921875
1974		-48.828125
1975		-44.921875
1976		-46.875000
1977		-42.968750
1978		-46.875000
1979		-42.968750
1980		-44.921875
1981		-42.968750
1982		-44.921875
1983		-41.015625
1984		-44.921875
1985		-41.015625
1986		-42.968750
1987		-41.015625
1988		-42.968750
1989		-39.062500
1990		-41.015625
1991		-39.062500
1992		-41.015625
1993		-37.109375
1994		-39.062500
1995		-35.156250
1996		-39.062500
1997		-35.156250
1998		-39.062500
1999		-35.156250
2000		-37.109375
2001		-33.203125
2002		-35.156250
2003		-33.203125
2004		-35.156250
2005		-31.250000
2006		-35.156250
2007		-31.250000
2008		-33.203125
2009		-29.296875
2010		-31.250000
2011		-29.296875
2012		-31.250000
2013		-27.343750
2014		-31.250000
2015		-25.390625
2016		-29.296875
2017		-25.390625
2018		-27.343750
2019		-25.390625
2020		-27.343750
2021		-23.437500
2022		-27.343750
2023		-23.437500
2024		-25.390625
2025		-21.484375
2026		-23.437500
2027		-21.484375
2028		-23.437500
2029		-19.531250
2030		-21.484375
2031		-19.531250
2032		-21.484375
2033		-17.578125
2034		-21.484375
2035		-15.625000
2036		-19.531250
2037		-15.625000
2038		-17.578125
2039		-13.671875
2040		-17.578125
2041		-13.671875
2042		-15.625000
2043		-11.718750
2044		-15.625000
2045		-9.765625
2046		-15.625000
2047		-9.765625
2048		-13.671875
2049		-9.765625
2050		-13.671875
2051		-7.812500
2052		-9.765625
2053		-7.812500
2054		-9.765625
2055		-5.859375
2056		-9.765625
2057		-3.906250
2058		-7.812500
2059		-3.906250
2060		-5.859375
2061		-3.906250
2062		-5.859375
2063		-1.953125
2064		-3.906250
2065		-1.953125
2066		-3.906250
2067		0.000000
2068		-1.953125
2069		1.953125
2070		-1.953125
2071		1.953125
2072		0.000000
2073		3.906250
2074		0.000000
2075		3.906250
2076		1.953125
2077		5.859375
2078		1.953125
2079		7.812500
2080		3.906250
2081		7.812500
2082		5.859375
2083		7.812500
2084		5.859375
2085		9.765625
2086		7.812500
2087		9.765625
2088		7.812500
2089		11.718750
2090		9.765625
2091		11.718750
2092		9.765625
2093		13.671875
2094		11.718750
2095		13.671875
2096		11.718750
2097		15.625000
2098		13.671875
2099		17.578125
2100		13.671875
2101		17.578125
2102		15.625000
2103		19.531250
2104		15.625000
2105		19.531250
2106		17.578125
2107		21.484375
2108		17.578125
2109		21.484375
2110		19.531250
2111		23.437500
2112		21.484375
2113		23.437500
2114		21.484375
2115		25.390625
2116		21.484375
2117		25.390625
2118		23.437500
2119		27.343750
2120		23.437500
2121		27.343750
2122		25.390625
2123		29.296875
2124		25.390625
2125		29.296875
2126		27.343750
2127		31.250000
2128		27.343750
2129		31.250000
2130		27.343750
2131		33.203125
2132		29.296875
2133		33.203125
2134		29.296875
2135		35.156250
2136		31.250000
2137		35.156250
2138		33.203125
2139		35.156250
2140		31.250000
2141		37.109375
2142		33.203125
2143		37.109375
2144		35.156250
2145		39.062500
2146		35.156250
2147		39.062500
2148		37.109375
2149		39.062500
2150		37.109375
2151		41.015625
2152		37.109375
2153		41.015625
2154		39.062500
2155		41.015625
2156		39.062500
2157		42.968750
2158		41.015625
2159		42.968750
2160		41.015625
2161		44.921875
2162		41.015625
2163		46.875000
2164		41.015625
2165		44.921875
2166		42.968750
2167		46.875000
2168		42.968750
2169		46.875000
2170		44.921875
2171		46.875000
2172		44.921875
2173		46.875000
2174		44.921875
2175		48.828125
2176		46.875000
2177		48.828125
2178		46.875000
2179		48.828125
2180		46.875000
2181		50.781250
2182		48.828125
2183		50.781250
2184		48.828125
2185		52.734375
2186		48.828125
2187		52.734375
2188		50.781250
2189		52.734375
2190		50.781250
2191		52.734375
2192		50.781250
2193		54.687500
2194		50.781250
2195		54.687500
2196		50.781250
2197		54.687500
2198		50.781250
2199		54.687500
2200		50.781250
2201		56.640625
2202		52.734375
2203		56.640625
2204		52.734375
2205		56.640625
2206		52.734375
2207		56.640625
2208		54.687500
2209		56.640625
2210		52.734375
2211		58.593750
2212		54.687500
2213		58.593750
2214		54.687500
2215		58.593750
2216		54.687500
2217		58.593750
2218		54.687500
2219		58.593750
2220		56.640625
2221		58.593750
2222		54.687500
2223		58.593750
2224		54.687500
2225		60.546875
2226		56.640625
2227		58.593750
2228		56.640625
2229		60.546875
2230		56.640625
2231		60.546875
2232		56.640625
2233		60.546875
2234		56.640625
2235		60.546875
2236		56.640625
2237		60.546875
2238		58.593750
2239		60.546875
2240		56.640625
2241		60.546875
2242		58.593750
2243		60.546875
2244		56.640625
2245		60.546875
2246		58.593750
2247		62.500000
2248		58.593750
2249		60.546875
2250		58.593750
2251		62.500000
2252		56.640625
2253		60.546875
2254		56.640625
2255		62.500000
2256		58.593750
2257		60.546875
2258		58.593750
2259		60.546875
2260		56.640625
2261		62.500000
2262		58.593750
2263		60.546875
2264		56.640625
2265		60.546875
2266		56.640625
2267		60.546875
2268		58.593750
2269		60.546875
2270		56.640625
2271		60.546875
2272		58.593750
2273		60.546875
2274		56.640625
2275		60.546875
2276		54.687500
2277		60.546875
2278		56.640625
2279		58.593750
2280		54.687500
2281		60.546875
2282		56.640625
2283		60.546875
2284		56.640625
2285		58.593750
2286		54.687500
2287		58.593750
2288		56.640625
2289		58.593750
2290		54.687500
2291		58.593750
2292		54.687500
2293		58.593750
2294		54.687500
2295		58.593750
2296		54.687500
2297		56.640625
2298		52.734375
2299		56.640625
2300		52.734375
2301		56.640625
2302		52.734375
2303		56.640625
2304		52.734375
2305		54.687500
2306		52.734375
2307		54.687500
2308		50.781250
2309		56.640625
2310		50.781250
2311		54.687500
2312		50.781250
2313		54.687500
2314		50.781250
2315		52.734375
2316		50.781250
2317		52.734375
2318		48.828125
2319		52.734375
2320		46.875000
2321		52.734375
2322		46.875000
2323		50.781250
2324		46.875000
2325		50.781250
2326		46.875000
2327		50.781250
2328		44.921875
2329		48.828125
2330		46.875000
2331		48.828125
2332		44.921875
2333		48.828125
2334		42.968750
2335		48.828125
2336		42.968750
2337		46.875000
2338		42.968750
2339		44.921875
2340		42.968750
2341		44.921875
2342		41.015625
2343		44.921875
2344		41.015625
2345		44.921875
2346		39.062500
2347		42.968750
2348		39.062500
2349		42.968750
2350		39.062500
2351		41.015625
2352		37.109375
2353		41.015625
2354		37.109375
2355		41.015625
2356		37.109375
2357		39.062500
2358		35.156250
2359		39.062500
2360		35.156250
2361		39.062500
2362		33.203125
2363		37.109375
2364		33.203125
2365		37.109375
2366		33.203125
2367		37.109375
2368		31.250000
2369		35.156250
2370		31.250000
2371		35.156250
2372		31.250000
2373		33.203125
2374		29.296875
2375		33.203125
2376		27.343750
2377		31.250000
2378		27.343750
2379		31.250000
2380		27.343750
2381		31.250000
2382		25.390625
2383		29.296875
2384		25.390625
2385		27.343750
2386		23.437500
2387		27.343750
2388		23.437500
2389		27.343750
2390		21.484375
2391		25.390625
2392		21.484375
2393		25.390625
2394		19.531250
2395		23.437500
2396		17.578125
2397		23.437500
2398		17.578125
2399		21.484375
2400		17.578125
2401		21.484375
2402		15.625000
2403		19.531250
2404		15.625000
2405		19.531250
2406		13.671875
2407		17.578125
2408		11.718750
2409		15.625000
2410		11.718750
2411		15.625000
2412		11.718750
2413		15.625000
2414		9.765625
2415		13.671875
2416		7.812500
2417		11.718750
2418		7.812500
2419		11.718750
2420		7.812500
2421		11.718750
2422		5.859375
2423		9.765625
2424		3.906250
2425		7.812500
2426		3.906250
2427		7.812500
2428		1.953125
2429		5.859375
2430		1.953125
2431		3.906250
2432		0.000000
2433		3.906250
2434		0.000000
2435		3.906250
2436		-1.953125
2437		1.953125
2438		-1.953125
2439		1.953125
2440		-3.906250
2441		0.000000
2442		-5.859375
2443		-1.953125
2444		-5.859375
2445		-1.953125
2446		-7.812500
2447		-3.906250
2448		-7.812500
2449		-3.906250
2450		-9.765625
2451		-5.859375
2452		-9.765625
2453		-5.859375
2454		-11.718750
2455		-7.812500
2456		-11.718750
2457		-7.812500
2458		-13.671875
2459		-9.765625
2460		-13.671875
2461		-11.718750
2462		-15.625000
2463		-11.718750
2464		-17.578125
2465		-13.671875
2466		-17.578125
2467		-13.671875
2468		-19.531250
2469		-15.625000
2470		-19.531250
2471		-15.625000
2472		-21.484375
2473		-17.578125
2474		-21.484375
2475		-19.531250
2476		-23.437500
2477		-19.531250
2478		-23.437500
2479		-19.531250
2480		-25.390625
2481		-21.484375
2482		-25.390625
2483		-21.484375
2484		-27.343750
2485		-23.437500
2486		-27.343750
2487		-23.437500
2488		-27.343750
2489		-25.390625
2490		-29.296875
2491		-25.390625
2492		-31.250000
2493		-27.343750
2494		-31.250000
2495		-27.343750
2496		-33.203125
2497		-29.296875
2498		-33.203125
2499		-29.296875
2500		-35.156250
2501		-31.250000
2502		-35.156250
2503		-31.250000
2504		-37.109375
2505		-33.203125
2506		-37.109375
2507		-33.203125
2508		-39.062500
2509		-35.156250
2510		-39.062500
2511		-35.156250
2512		-41.015625
2513		-37.109375
2514		-41.015625
2515		-37.109375
2516		-41.015625
2517		-39.062500
2518		-42.968750
2519		-39.062500
2520		-42.968750
2521		-39.062500
2522		-44.921875
2523		-39.062500
2524		-44.921875
2525		-41.015625
2526		-44.921875
2527		-42.968750
2528		-46.875000
2529		-42.968750
2530		-46.875000
2531		-42.968750
2532		-48.828125
2533		-44.921875
2534		-48.828125
2535		-44.921875
2536		-48.828125
2537		-46.875000
2538		-50.781250
2539		-46.875000
2540		-50.781250
2541		-48.828125
2542		-52.734375
2543		-48.828125
2544		-52.734375
2545		-48.828125
2546		-52.734375
2547		-48.828125
2548		-52.734375
2549		-50.781250
2550		-54.687500
2551		-50.781250
2552		-54.687500
2553		-50.781250
2554		-54.687500
2555		-52.734375
2556		-56.640625
2557		-52.734375
2558		-56.640625
2559		-52.734375
2560		-58.593750
2561		-52.734375
2562		-58.593750
2563		-54.687500
2564		-58.593750
2565		-54.687500
2566		-58.593750
2567		-54.687500
2568		-58.593750
2569		-56.640625
2570		-60.546875
2571		-56.640625
2572		-60.546875
2573		-56.640625
2574		-60.546875
2575		-56.640625
2576		-62.500000
2577		-58.593750
2578		-60.546875
2579		-58.593750
2580		-62.500000
2581		-58.593750
2582		-62.500000
2583		-58.593750
2584		-62.500000
2585		-58.593750
2586		-64.453125
2587		-60.546875
2588		-64.453125
2589		-60.546875
2590		-62.500000
2591		-60.546875
2592		-64.453125
2593		-60.546875
2594		-64.453125
2595		-60.546875
2596		-64.453125
2597		-62.500000
2598		-64.453125
2599		-60.546875
2600		-64.453125
2601		-62.500000
2602		-66.406250
2603		-62.500000
2604		-64.453125
2605		-62.500000
2606		-66.406250
2607		-62.500000
2608		-66.406250
2609		-62.500000
2610		-66.406250
2611		-62.500000
2612		-66.406250
2613		-62.500000
2614		-66.406250
2615		-62.500000
2616		-66.406250
2617		-62.500000
2618		-66.406250
2619		-62.500000
2620		-66.406250
2621		-62.500000
2622		-66.406250
2623		-62.500000
2624		-64.453125
2625		-62.500000
2626		-66.406250
2627		-62.500000
2628		-66.406250
2629		-62.500000
2630		-66.406250
2631		-62.500000
2632		-66.406250
2633		-62.500000
2634		-66.406250
2635		-62.500000
2636		-66.406250
2637		-60.546875
2638		-66.406250
2639		-62.500000
2640		-64.453125
2641		-62.500000
2642		-64.453125
2643		-60.546875
2644		-64.453125
2645		-60.546875
2646		-64.453125
2647		-60.546875
2648		-64.453125
2649		-60.546875
2650		-64.453125
2651		-60.546875
2652		-64.453125
2653		-60.546875
2654		-62.500000
2655		-58.593750
2656		-62.500000
2657		-58.593750
2658		-62.500000
2659		-58.593750
2660		-62.500000
2661		-58.593750
2662		-62.500000
2663		-58.593750
2664		-60.546875
2665		-56.640625
2666		-60.546875
2667		-58.593750
2668		-60.546875
2669		-56.640625
2670		-60.546875
2671		-56.640625
2672		-60.546875
2673		-54.687500
2674		-58.593750
2675		-54.687500
2676		-58.593750
2677		-54.687500
2678		-58.593750
2679		-54.687500
2680		-58.593750
2681		-52.734375
2682		-56.640625
2683		-52.734375
2684		-56.640625
2685		-52.734375
2686		-54.687500
2687		-50.781250
2688		-54.687500
2689		-50.781250
2690		-54.687500
2691		-50.781250
2692		-52.734375
2693		-48.828125
2694		-52.734375
2695		-48.828125
2696		-52.734375
2697		-48.828125
2698		-52.734375
2699		-46.875000
2700		-50.781250
2701		-46.875000
2702		-50.781250
2703		-46.875000
2704		-50.781250
2705		-44.921875
2706		-48.828125
2707		-44.921875
2708		-46.875000
2709		-44.921875
2710		-46.875000
2711		-42.968750
2712		-46.875000
2713		-42.968750
2714		-44.921875
2715		-42.968750
2716		-44.921875
2717		-41.015625
2718		-42.968750
2719		-41.015625
2720		-42.968750
2721		-39.062500
2722		-41.015625
2723		-39.062500
2724		-41.015625
2725		-37.109375
2726		-41.015625
2727		-37.109375
2728		-39.062500
2729		-35.156250
2730		-39.062500
2731		-35.156250
2732		-37.109375
2733		-33.203125
2734		-35.156250
2735		-33.203125
2736		-35.156250
2737		-31.250000
2738		-35.156250
2739		-31.250000
2740		-35.156250
2741		-29.296875
2742		-33.203125
2743		-29.296875
2744		-31.250000
2745		-29.296875
2746		-31.250000
2747		-27.343750
2748		-31.250000
2749		-27.343750
2750		-29.296875
2751		-25.390625
2752		-27.343750
2753		-23.437500
2754		-27.343750
2755		-23.437500
2756		-25.390625
2757		-23.437500
2758		-25.390625
2759		-21.484375
2760		-23.437500
2761		-21.484375
2762		-23.437500
2763		-19.531250
2764		-21.484375
2765		-17.578125
2766		-21.484375
2767		-17.578125
2768		-19.531250
2769		-15.625000
2770		-19.531250
2771		-15.625000
2772		-17.578125
2773		-13.671875
2774		-17.578125
2775		-13.671875
2776		-15.625000
2777		-11.718750
2778		-15.625000
2779		-11.718750
2780		-13.671875
2781		-9.765625
2782		-13.671875
2783		-7.812500
2784		-11.718750
2785		-7.812500
2786		-9.765625
2787		-5.859375
2788		-9.765625
2789		-5.859375
2790		-9.765625
2791		-3.906250
2792		-5.859375
2793		-3.906250
2794		-5.859375
2795		-1.953125
2796		-5.859375
2797		-1.953125
2798		-3.906250
2799		0.000000
2800		-3.906250
2801		0.000000
2802		-1.953125
2803		1.953125
2804		0.000000
2805		3.906250
2806		0.000000
2807		3.906250
2808		1.953125
2809		3.906250
2810		3.906250
2811		5.859375
2812		3.906250
2813		7.812500
2814		3.906250
2815		7.812500
2816		5.859375
2817		9.765625
2818		5.859375
2819		9.765625
2820		7.812500
2821		11.718750
2822		7.812500
2823		13.671875
2824		9.765625
2825		13.671875
2826		11.718750
2827		13.671875
2828		11.718750
2829		15.625000
2830		13.671875
2831		15.625000
2832		13.671875
2833		17.578125
2834		13.671875
2835		19.531250
2836		15.625000
2837		19.531250
2838		15.625000
2839		21.484375
2840		17.578125
2841		21.484375
2842		19.531250
2843		21.484375
2844		19.531250
2845		23.437500
2846		19.531250
2847		25.390625
2848		21.484375
2849		25.390625
2850		23.437500
2851		27.343750
2852		23.437500
2853		27.343750
2854		23.437500
2855		27.343750
2856		25.390625
2857		29.296875
2858		25.390625
2859		29.296875
2860		27.343750
2861		31.250000
2862		29.296875
2863		31.250000
2864		27.343750
2865		33.203125
2866		29.296875
2867		33.203125
2868		31.250000
2869		33.203125
2870		31.250000
2871		35.156250
2872		33.203125
2873		35.156250
2874		33.203125
2875		37.109375
2876		35.156250
2877		39.062500
2878		35.156250
2879		39.062500
2880		35.156250
2881		39.062500
2882		35.156250
2883		41.015625
2884		37.109375
2885		41.015625
2886		39.062500
2887		42.968750
2888		39.062500
2889		42.968750
2890		39.062500
2891		42.968750
2892		41.015625
2893		42.968750
2894		41.015625
2895		44.921875
2896		41.015625
2897		44.921875
2898		42.968750
2899		46.875000
2900		42.968750
2901		46.875000
2902		42.968750
2903		46.875000
2904		42.968750
2905		48.828125
2906		44.921875
2907		48.828125
2908		46.875000
2909		48.828125
2910		46.875000
2911		48.828125
2912		46.875000
2913		50.781250
2914		46.875000
2915		50.781250
2916		48.828125
2917		50.781250
2918		48.828125
2919		52.734375
2920		48.828125
2921		52.734375
2922		48.828125
2923		52.734375
2924		48.828125
2925		54.687500
2926		50.781250
2927		54.687500
2928		50.781250
2929		54.687500
2930		52.734375
2931		54.687500
2932		50.781250
2933		54.687500
2934		52.734375
2935		56.640625
2936		52.734375
2937		56.640625
2938		52.734375
2939		56.640625
2940		52.734375
2941		56.640625
2942		54.687500
2943		56.640625
2944		54.687500
2945		56.640625
2946		54.687500
2947		58.593750
2948		54.687500
2949		58.593750
2950		54.687500
2951		58.593750
2952		54.687500
2953		58.593750
2954		56.640625
2955		58.593750
2956		56.640625
2957		60.546875
2958		56.640625
2959		60.546875
2960		56.640625
2961		60.546875
2962		56.640625
2963		60.546875
2964		56.640625
2965		60.546875
2966		56.640625
2967		60.546875
2968		56.640625
2969		60.546875
2970		58.593750
2971		60.546875
2972		58.593750
2973		60.546875
2974		58.593750
2975		62.500000
2976		58.593750
2977		62.500000
2978		58.593750
2979		60.546875
2980		58.593750
2981		62.500000
2982		58.593750
2983		62.500000
2984		58.593750
2985		62.500000
2986		58.593750
2987		62.500000
2988		58.593750
2989		62.500000
2990		58.593750
2991		62.500000
2992		58.593750
2993		62.500000
2994		58.593750
2995		60.546875
2996		58.593750
2997		62.500000
2998		58.593750
2999		62.500000
3000		58.593750
3001		60.546875
3002		58.593750
3003		62.500000
3004		58.593750
3005		60.546875
3006		58.593750
3007		60.546875
3008		56.640625
3009		62.500000
3010		56.640625
3011		60.546875
3012		58.593750
3013		60.546875
3014		56.640625
3015		60.546875
3016		56.640625
3017		60.546875
3018		56.640625
3019		60.546875
3020		54.687500
3021		60.546875
3022		54.687500
3023		60.546875
3024		56.640625
3025		58.593750
3026		54.687500
3027		58.593750
3028		54.687500
3029		58.593750
3030		54.687500
3031		58.593750
3032		52.734375
3033		58.593750
3034		54.687500
3035		56.640625
3036		52.734375
3037		56.640625
3038		52.734375
3039		56.640625
3040		52.734375
3041		56.640625
3042		50.781250
3043		56.640625
3044		52.734375
3045		54.687500
3046		50.781250
3047		54.687500
3048		50.781250
3049		54.687500
3050		50.781250
3051		52.734375
3052		50.781250
3053		52.734375
3054		48.828125
3055		54.687500
3056		48.828125
3057		52.734375
3058		48.828125
3059		52.734375
3060		48.828125
3061		50.781250
3062		46.875000
3063		50.781250
3064		44.921875
3065		48.828125
3066		44.921875
3067		48.828125
3068		44.921875
3069		48.828125
3070		44.921875
3071		48.828125
3072		44.921875
3073		46.875000
3074		42.968750
3075		46.875000
3076		41.015625
3077		46.875000
3078		42.968750
3079		44.921875
3080		41.015625
3081		42.968750
3082		39.062500
3083		42.968750
3084		39.062500
3085		42.968750
3086		39.062500
3087		42.968750
3088		39.062500
3089		41.015625
3090		37.109375
3091		41.015625
3092		35.156250
3093		41.015625
3094		35.156250
3095		39.062500
3096		35.156250
3097		37.109375
3098		33.203125
3099		37.109375
3100		33.203125
3101		37.109375
3102		31.250000
3103		35.156250
3104		31.250000
3105		35.156250
3106		31.250000
3107		35.156250
3108		29.296875
3109		33.203125
3110		29.296875
3111		31.250000
3112		27.343750
3113		31.250000
3114		27.343750
3115		29.296875
3116		25.390625
3117		29.296875
3118		25.390625
3119		27.343750
3120		23.437500
3121		27.343750
3122		21.484375
3123		27.343750
3124		23.437500
3125		25.390625
3126		21.484375
3127		25.390625
3128		19.531250
3129		23.437500
3130		19.531250
3131		23.437500
3132		17.578125
3133		23.437500
3134		17.578125
3135		21.484375
3136		15.625000
3137		21.484375
3138		15.625000
3139		19.531250
3140		13.671875
3141		17.578125
3142		11.718750
3143		17.578125
3144		11.718750
3145		15.625000
3146		11.718750
3147		13.671875
3148		9.765625
3149		13.671875
3150		9.765625
3151		11.718750
3152		7.812500
3153		11.718750
3154		5.859375
3155		11.718750
3156		5.859375
3157		9.765625
3158		3.906250
3159		9.765625
3160		3.906250
3161		7.812500
3162		3.906250
3163		5.859375
3164		0.000000
3165		3.906250
3166		0.000000
3167		3.906250
3168		-1.953125
3169		3.906250
3170		-1.953125
3171		1.953125
3172		-1.953125
3173		0.000000
3174		-3.906250
3175		0.000000
3176		-5.859375
3177		0.000000
3178		-5.859375
3179		-1.953125
3180		-5.859375
3181		-3.906250
3182		-7.812500
3183		-3.906250
3184		-9.765625
3185		-5.859375
3186		-9.765625
3187		-5.859375
3188		-11.718750
3189		-7.812500
3190		-11.718750
3191		-7.812500
3192		-13.671875
3193		-9.765625
3194		-13.671875
3195		-9.765625
3196		-15.625000
3197		-11.718750
3198		-15.625000
3199		-11.718750
3200		-17.578125
3201		-13.671875
3202		-19.531250
3203		-15.625000
3204		-19.531250
3205		-15.625000
3206		-21.484375
3207		-17.578125
3208		-21.484375
3209		-17.578125
3210		-23.437500
3211		-19.531250
3212		-23.437500
3213		-19.531250
3214		-23.437500
3215		-21.484375
3216		-25.390625
3217		-21.484375
3218		-27.343750
3219		-23.437500
3220		-27.343750
3221		-23.437500
3222		-29.296875
3223		-25.390625
3224		-29.296875
3225		-25.390625
3226		-31.250000
3227		-27.343750
3228		-33.203125
3229		-27.343750
3230		-33.203125
3231		-29.296875
3232		-33.203125
3233		-29.296875
3234		-35.156250
3235		-31.250000
3236		-35.156250
3237		-33.203125
3238		-37.109375
3239		-33.203125
3240		-37.109375
3241		-33.203125
3242		-37.109375
3243		-35.156250
3244		-39.062500
3245		-35.156250
3246		-41.015625
3247		-35.156250
3248		-41.015625
3249		-37.109375
3250		-41.015625
3251		-37.109375
3252		-42.968750
3253		-37.109375
3254		-42.968750
3255		-39.062500
3256		-44.921875
3257		-41.015625
3258		-44.921875
3259		-41.015625
3260		-46.875000
3261		-42.968750
3262		-46.875000
3263		-42.968750
3264		-46.875000
3265		-42.968750
3266		-48.828125
3267		-44.921875
3268		-48.828125
3269		-42.968750
3270		-48.828125
3271		-44.921875
3272		-50.781250
3273		-46.875000
3274		-50.781250
3275		-46.875000
3276		-50.781250
3277		-48.828125
3278		-52.734375
3279		-46.875000
3280		-52.734375
3281		-48.828125
3282		-52.734375
3283		-48.828125
3284		-54.687500
3285		-50.781250
3286		-54.687500
3287		-50.781250
3288		-54.687500
3289		-50.781250
3290		-54.687500
3291		-52.734375
3292		-56.640625
3293		-52.734375
3294		-56.640625
3295		-52.734375
3296		-56.640625
3297		-54.687500
3298		-58.593750
3299		-52.734375
3300		-58.593750
3301		-54.687500
3302		-58.593750
3303		-54.687500
3304		-60.546875
3305		-54.687500
3306		-58.593750
3307		-56.640625
3308		-60.546875
3309		-56.640625
3310		-60.546875
3311		-56.640625
3312		-60.546875
3313		-56.640625
3314		-62.500000
3315		-56.640625
3316		-62.500000
3317		-58.593750
3318		-62.500000
3319		-58.593750
3320		-62.500000
3321		-58.593750
3322		-62.500000
3323		-60.546875
3324		-62.500000
3325		-60.546875
3326		-64.453125
3327		-58.593750
3328		-62.500000
3329		-60.546875
3330		-62.500000
3331		-60.546875
3332		-64.453125
3333		-60.546875
3334		-64.453125
3335		-60.546875
3336		-64.453125
3337		-60.546875
3338		-64.453125
3339		-60.546875
3340		-64.453125
3341		-62.500000
3342		-66.406250
3343		-60.546875
3344		-66.406250
3345		-62.500000
3346		-64.453125
3347		-60.546875
3348		-64.453125
3349		-62.500000
3350		-64.453125
3351		-62.500000
3352		-64.453125
3353		-60.546875
3354		-64.453125
3355		-62.500000
3356		-64.453125
3357		-60.546875
3358		-64.453125
3359		-62.500000
3360		-64.453125
3361		-62.500000
3362		-66.406250
3363		-60.546875
3364		-64.453125
3365		-62.500000
3366		-64.453125
3367		-60.546875
3368		-64.453125
3369		-60.546875
3370		-64.453125
3371		-60.546875
3372		-66.406250
3373		-60.546875
3374		-64.453125
3375		-60.546875
3376		-64.453125
3377		-60.546875
3378		-64.453125
3379		-60.546875
3380		-62.500000
3381		-60.546875
3382		-64.453125
3383		-58.593750
3384		-62.500000
3385		-60.546875
3386		-62.500000
3387		-58.593750
3388		-62.500000
3389		-58.593750
3390		-62.500000
3391		-58.593750
3392		-62.500000
3393		-58.593750
3394		-62.500000
3395		-56.640625
3396		-60.546875
3397		-56.640625
3398		-60.546875
3399		-56.640625
3400		-60.546875
3401		-56.640625
3402		-58.593750
3403		-56.640625
3404		-60.546875
3405		-54.687500
3406		-58.593750
3407		-54.687500
3408		-56.640625
3409		-54.687500
3410		-56.640625
3411		-54.687500
3412		-56.640625
3413		-52.734375
3414		-56.640625
3415		-52.734375
3416		-54.687500
3417		-52.734375
3418		-54.687500
3419		-50.781250
3420		-54.687500
3421		-50.781250
3422		-54.687500
3423		-48.828125
3424		-52.734375
3425		-48.828125
3426		-52.734375
3427		-48.828125
3428		-52.734375
3429		-48.828125
3430		-50.781250
3431		-48.828125
3432		-50.781250
3433		-46.875000
3434		-50.781250
3435		-46.875000
3436		-48.828125
3437		-44.921875
3438		-48.828125
3439		-44.921875
3440		-48.828125
3441		-42.968750
3442		-46.875000
3443		-42.968750
3444		-46.875000
3445		-42.968750
3446		-44.921875
3447		-41.015625
3448		-44.921875
3449		-41.015625
3450		-42.968750
3451		-41.015625
3452		-42.968750
3453		-39.062500
3454		-42.968750
3455		-39.062500
3456		-41.015625
3457		-37.109375
3458		-41.015625
3459		-35.156250
3460		-39.062500
3461		-35.156250
3462		-39.062500
3463		-35.156250
3464		-39.062500
3465		-35.156250
3466		-37.109375
3467		-33.203125
3468		-37.109375
3469		-31.250000
3470		-35.156250
3471		-31.250000
3472		-35.156250
3473		-29.296875
3474		-33.203125
3475		-29.296875
3476		-31.250000
3477		-27.343750
3478		-31.250000
3479		-27.343750
3480		-31.250000
3481		-25.390625
3482		-29.296875
3483		-25.390625
3484		-27.343750
3485		-23.437500
3486		-27.343750
3487		-23.437500
3488		-27.343750
3489		-21.484375
3490		-25.390625
3491		-21.484375
3492		-25.390625
3493		-19.531250
3494		-25.390625
3495		-19.531250
3496		-23.437500
3497		-17.578125
3498		-21.484375
3499		-17.578125
3500		-19.531250
3501		-17.578125
3502		-21.484375
3503		-15.625000
3504		-19.531250
3505		-13.671875
3506		-17.578125
3507		-13.671875
3508		-15.625000
3509		-11.718750
3510		-15.625000
3511		-9.765625
3512		-13.671875
3513		-9.765625
3514		-13.671875
3515		-9.765625
3516		-11.718750
3517		-7.812500
3518		-11.718750
3519		-5.859375
3520		-9.765625
3521		-5.859375
3522		-9.765625
3523		-1.953125
3524		-7.812500
3525		-3.906250
3526		-7.812500
3527		-1.953125
3528		-7.812500
3529		0.000000
3530		-5.859375
3531		0.000000
3532		-1.953125
3533		0.000000
3534		-3.906250
3535		1.953125
3536		-1.953125
3537		3.906250
3538		0.000000
3539		3.906250
3540		0.000000
3541		5.859375
3542		1.953125
3543		5.859375
3544		1.953125
3545		7.812500
3546		3.906250
3547		7.812500
3548		5.859375
3549		7.812500
3550		5.859375
3551		9.765625
3552		5.859375
3553		11.718750
3554		7.812500
3555		13.671875
3556		7.812500
3557		13.671875
3558		9.765625
3559		15.625000
3560		9.765625
3561		15.625000
3562		11.718750
3563		17.578125
3564		11.718750
3565		17.578125
3566		13.671875
3567		17.578125
3568		15.625000
3569		19.531250
3570		15.625000
3571		21.484375
3572		15.625000
3573		21.484375
3574		17.578125
3575		23.437500
3576		19.531250
3577		23.437500
3578		17.578125
3579		25.390625
3580		21.484375
3581		25.390625
3582		21.484375
3583		25.390625
3584		23.437500
3585		25.390625
3586		23.437500
3587		27.343750
3588		25.390625
3589		29.296875
3590		27.343750
3591		29.296875
3592		27.343750
3593		31.250000
3594		27.343750
3595		31.250000
3596		29.296875
3597		31.250000
3598		29.296875
3599		33.203125
3600		29.296875
3601		33.203125
3602		31.250000
3603		35.156250
3604		31.250000
3605		35.156250
3606		33.203125
3607		35.156250
3608		35.156250
3609		37.109375
3610		35.156250
3611		39.062500
3612		37.109375
3613		39.062500
3614		35.156250
3615		39.062500
3616		37.109375
3617		41.015625
3618		39.062500
3619		41.015625
3620		39.062500
3621		42.968750
3622		39.062500
3623		42.968750
3624		41.015625
3625		42.968750
3626		41.015625
3627		44.921875
3628		42.968750
3629		44.921875
3630		42.968750
3631		44.921875
3632		42.968750
3633		44.921875
3634		44.921875
3635		46.875000
3636		42.968750
3637		48.828125
3638		44.921875
3639		46.875000
3640		44.921875
3641		48.828125
3642		44.921875
3643		48.828125
3644		46.875000
3645		50.781250
3646		46.875000
3647		50.781250
3648		48.828125
3649		50.781250
3650		48.828125
3651		50.781250
3652		46.875000
3653		52.734375
3654		48.828125
3655		52.734375
3656		50.781250
3657		52.734375
3658		48.828125
3659		54.687500
3660		50.781250
3661		54.687500
3662		50.781250
3663		54.687500
3664		52.734375
3665		54.687500
3666		52.734375
3667		56.640625
3668		52.734375
3669		56.640625
3670		54.687500
3671		56.640625
3672		52.734375
3673		56.640625
3674		54.687500
3675		56.640625
3676		54.687500
3677		56.640625
3678		52.734375
3679		58.593750
3680		54.687500
3681		58.593750
3682		54.687500
3683		58.593750
3684		56.640625
3685		58.593750
3686		54.687500
3687		62.500000
3688		54.687500
3689		62.500000
3690		54.687500
3691		62.500000
3692		56.640625
3693		60.546875
3694		56.640625
3695		60.546875
3696		58.593750
3697		60.546875
3698		58.593750
3699		60.546875
3700		58.593750
3701		60.546875
3702		54.687500
3703		62.500000
3704		54.687500
3705		64.453125
3706		54.687500
3707		64.453125
3708		54.687500
3709		64.453125
3710		58.593750
3711		62.500000
3712		58.593750
3713		60.546875
3714		58.593750
3715		62.500000
3716		58.593750
3717		62.500000
3718		58.593750
3719		60.546875
3720		54.687500
3721		64.453125
3722		56.640625
3723		64.453125
3724		54.687500
3725		66.406250
3726		58.593750
3727		62.500000
3728		58.593750
3729		60.546875
3730		58.593750
3731		60.546875
3732		58.593750
3733		62.500000
3734		58.593750
3735		60.546875
3736		54.687500
3737		64.453125
3738		54.687500
3739		64.453125
3740		54.687500
3741		64.453125
3742		54.687500
3743		64.453125
3744		56.640625
3745		60.546875
3746		56.640625
3747		60.546875
3748		56.640625
3749		60.546875
3750		56.640625
3751		58.593750
3752		56.640625
3753		60.546875
3754		52.734375
3755		62.500000
3756		52.734375
3757		62.500000
3758		52.734375
3759		60.546875
3760		56.640625
3761		58.593750
3762		54.687500
3763		58.593750
3764		54.687500
3765		58.593750
3766		54.687500
3767		56.640625
3768		54.687500
3769		56.640625
3770		48.828125
3771		58.593750
3772		48.828125
3773		58.593750
3774		48.828125
3775		58.593750
3776		50.781250
3777		54.687500
3778		52.734375
3779		54.687500
3780		50.781250
3781		54.687500
3782		50.781250
3783		54.687500
3784		50.781250
3785		52.734375
3786		46.875000
3787		54.687500
3788		44.921875
3789		56.640625
3790		44.921875
3791		54.687500
3792		44.921875
3793		54.687500
3794		46.875000
3795		50.781250
3796		46.875000
3797		50.781250
3798		46.875000
3799		50.781250
3800		44.921875
3801		48.828125
3802		44.921875
3803		48.828125
3804		41.015625
3805		50.781250
3806		41.015625
3807		48.828125
3808		39.062500
3809		48.828125
3810		41.015625
3811		44.921875
3812		41.015625
3813		44.921875
3814		41.015625
3815		42.968750
3816		41.015625
3817		42.968750
3818		39.062500
3819		42.968750
3820		33.203125
3821		44.921875
3822		35.156250
3823		44.921875
3824		35.156250
3825		42.968750
3826		35.156250
3827		42.968750
3828		35.156250
3829		39.062500
3830		35.156250
3831		37.109375
3832		33.203125
3833		37.109375
3834		33.203125
3835		37.109375
3836		31.250000
3837		35.156250
3838		27.343750
3839		37.109375
3840		27.343750
3841		37.109375
3842		27.343750
3843		35.156250
3844		29.296875
3845		31.250000
3846		27.343750
3847		31.250000
3848		27.343750
3849		29.296875
3850		25.390625
3851		29.296875
3852		25.390625
3853		27.343750
3854		21.484375
3855		29.296875
3856		19.531250
3857		29.296875
3858		19.531250
3859		27.343750
3860		21.484375
3861		23.437500
3862		19.531250
3863		23.437500
3864		19.531250
3865		21.484375
3866		17.578125
3867		21.484375
3868		17.578125
3869		19.531250
3870		15.625000
3871		19.531250
3872		13.671875
3873		21.484375
3874		11.718750
3875		19.531250
3876		13.671875
3877		17.578125
3878		11.718750
3879		15.625000
3880		11.718750
3881		13.671875
3882		9.765625
3883		13.671875
3884		9.765625
3885		13.671875
3886		7.812500
3887		11.718750
3888		7.812500
3889		9.765625
3890		3.906250
3891		9.765625
3892		3.906250
3893		9.765625
3894		3.906250
3895		7.812500
3896		1.953125
3897		5.859375
3898		1.953125
3899		3.906250
3900		0.000000
3901		3.906250
3902		0.000000
3903		1.953125
3904		-1.953125
3905		1.953125
3906		-3.906250
3907		1.953125
3908		-5.859375
3909		1.953125
3910		-3.906250
3911		-1.953125
3912		-5.859375
3913		-1.953125
3914		-5.859375
3915		-3.906250
3916		-7.812500
3917		-3.906250
3918		-9.765625
3919		-3.906250
3920		-9.765625
3921		-7.812500
3922		-11.718750
3923		-7.812500
3924		-11.718750
3925		-9.765625
3926		-13.671875
3927		-9.765625
3928		-13.671875
3929		-11.718750
3930		-15.625000
3931		-11.718750
3932		-15.625000
3933		-13.671875
3934		-17.578125
3935		-13.671875
3936		-19.531250
3937		-15.625000
3938		-19.531250
3939		-17.578125
3940		-19.531250
3941		-17.578125
3942		-21.484375
3943		-19.531250
3944		-23.437500
3945		-19.531250
3946		-23.437500
3947		-19.531250
3948		-25.390625
3949		-21.484375
3950		-25.390625
3951		-23.437500
3952		-27.343750
3953		-23.437500
3954		-27.343750
3955		-25.390625
3956		-29.296875
3957		-25.390625
3958		-29.296875
3959		-25.390625
3960		-31.250000
3961		-27.343750
3962		-33.203125
3963		-29.296875
3964		-33.203125
3965		-29.296875
3966		-33.203125
3967		-31.250000
3968		-35.156250
3969		-31.250000
3970		-35.156250
3971		-33.203125
3972		-37.109375
3973		-33.203125
3974		-39.062500
3975		-33.203125
3976		-39.062500
3977		-35.156250
3978		-41.015625
3979		-37.109375
3980		-41.015625
3981		-37.109375
3982		-41.015625
3983		-37.109375
3984		-42.968750
3985		-39.062500
3986		-42.968750
3987		-41.015625
3988		-44.921875
3989		-41.015625
3990		-44.921875
3991		-41.015625
3992		-44.921875
3993		-42.968750
3994		-46.875000
3995		-42.968750
3996		-46.875000
3997		-42.968750
3998		-46.875000
3999		-44.921875
4000		-48.828125
4001		-44.921875
4002		-48.828125
4003		-44.921875
4004		-50.781250
4005		-46.875000
4006		-50.781250
4007		-46.875000
4008		-50.781250
4009		-48.828125
4010		-50.781250
4011		-48.828125
4012		-52.734375
4013		-48.828125
4014		-54.687500
4015		-48.828125
4016		-52.734375
4017		-48.828125
4018		-54.687500
4019		-52.734375
4020		-54.687500
4021		-52.734375
4022		-56.640625
4023		-50.781250
4024		-56.640625
4025		-52.734375
4026		-56.640625
4027		-54.687500
4028		-58.593750
4029		-52.734375
4030		-58.593750
4031		-54.687500
4032		-60.546875
4033		-54.687500
4034		-58.593750
4035		-56.640625
4036		-58.593750
4037		-56.640625
4038		-62.500000
4039		-56.640625
4040		-60.546875
4041		-56.640625
4042		-62.500000
4043		-58.593750
4044		-60.546875
4045		-58.593750
4046		-62.500000
4047		-58.593750
4048		-62.500000
4049		-58.593750
4050		-62.500000
4051		-58.593750
4052		-62.500000
4053		-60.546875
4054		-62.500000
4055		-58.593750
4056		-64.453125
4057		-60.546875
4058		-64.453125
4059		-60.546875
4060		-64.453125
4061		-60.546875
4062		-64.453125
4063		-60.546875
4064		-64.453125
4065		-60.546875
4066		-64.453125
4067		-60.546875
4068		-64.453125
4069		-62.500000
4070		-64.453125
4071		-62.500000
4072		-66.406250
4073		-62.500000
4074		-66.406250
4075		-62.500000
4076		-64.453125
4077		-62.500000
4078		-66.406250
4079		-62.500000
4080		-66.406250
4081		-62.500000
4082		-66.406250
4083		-62.500000
4084		-66.406250
4085		-62.500000
4086		-66.406250
4087		-62.500000
4088		-64.453125
4089		-62.500000
4090		-66.406250
4091		-60.546875
4092		-66.406250
4093		-62.500000
4094		-64.453125
4095		-62.500000
4096		-66.406250
4097		-62.500000
4098		-66.406250
4099		-62.500000
4100		-64.453125
4101		-62.500000
4102		-66.406250
4103		-62.500000
4104		-64.453125
4105		-62.500000
4106		-66.406250
4107		-60.546875
4108		-66.406250
4109		-60.546875
4110		-64.453125
4111		-62.500000
4112		-64.453125
4113		-60.546875
4114		-64.453125
4115		-60.546875
4116		-62.500000
4117		-60.546875
4118		-64.453125
4119		-60.546875
4120		-62.500000
4121		-60.546875
4122		-62.500000
4123		-58.593750
4124		-62.500000
4125		-58.593750
4126		-62.500000
4127		-58.593750
4128		-62.500000
4129		-58.593750
4130		-62.500000
4131		-56.640625
4132		-60.546875
4133		-56.640625
4134		-60.546875
4135		-58.593750
4136		-60.546875
4137		-56.640625
4138		-58.593750
4139		-56.640625
4140		-58.593750
4141		-54.687500
4142		-58.593750
4143		-54.687500
4144		-58.593750
4145		-54.687500
4146		-56.640625
4147		-54.687500
4148		-56.640625
4149		-52.734375
4150		-56.640625
4151		-52.734375
4152		-54.687500
4153		-52.734375
4154		-54.687500
4155		-50.781250
4156		-54.687500
4157		-50.781250
4158		-52.734375
4159		-50.781250
4160		-52.734375
4161		-48.828125
4162		-52.734375
4163		-48.828125
4164		-50.781250
4165		-48.828125
4166		-50.781250
4167		-46.875000
4168		-50.781250
4169		-46.875000
4170		-48.828125
4171		-46.875000
4172		-48.828125
4173		-44.921875
4174		-46.875000
4175		-44.921875
4176		-46.875000
4177		-44.921875
4178		-46.875000
4179		-42.968750
4180		-44.921875
4181		-42.968750
4182		-44.921875
4183		-41.015625
4184		-44.921875
4185		-41.015625
4186		-42.968750
4187		-41.015625
4188		-42.968750
4189		-39.062500
4190		-41.015625
4191		-39.062500
4192		-41.015625
4193		-37.109375
4194		-41.015625
4195		-37.109375
4196		-39.062500
4197		-35.156250
4198		-37.109375
4199		-35.156250
4200		-37.109375
4201		-33.203125
4202		-35.156250
4203		-33.203125
4204		-35.156250
4205		-31.250000
4206		-33.203125
4207		-31.250000
4208		-33.203125
4209		-31.250000
4210		-33.203125
4211		-29.296875
4212		-31.250000
4213		-27.343750
4214		-31.250000
4215		-27.343750
4216		-29.296875
4217		-27.343750
4218		-29.296875
4219		-25.390625
4220		-27.343750
4221		-25.390625
4222		-27.343750
4223		-23.437500
4224		-27.343750
4225		-21.484375
4226		-25.390625
4227		-21.484375
4228		-23.437500
4229		-21.484375
4230		-23.437500
4231		-19.531250
4232		-21.484375
4233		-17.578125
4234		-19.531250
4235		-17.578125
4236		-19.531250
4237		-15.625000
4238		-17.578125
4239		-15.625000
4240		-17.578125
4241		-13.671875
4242		-17.578125
4243		-13.671875
4244		-15.625000
4245		-11.718750
4246		-15.625000
4247		-9.765625
4248		-13.671875
4249		-9.765625
4250		-11.718750
4251		-7.812500
4252		-11.718750
4253		-7.812500
4254		-9.765625
4255		-7.812500
4256		-9.765625
4257		-3.906250
4258		-7.812500
4259		-5.859375
4260		-7.812500
4261		-3.906250
4262		-5.859375
4263		-1.953125
4264		-3.906250
4265		-1.953125
4266		-3.906250
4267		0.000000
4268		-3.906250
4269		1.953125
4270		-1.953125
4271		1.953125
4272		0.000000
4273		1.953125
4274		0.000000
4275		3.906250
4276		1.953125
4277		3.906250
4278		1.953125
4279		5.859375
4280		3.906250
4281		5.859375
4282		5.859375
4283		7.812500
4284		5.859375
4285		9.765625
4286		7.812500
4287		9.765625
4288		7.812500
4289		11.718750
4290		7.812500
4291		13.671875
4292		9.765625
4293		13.671875
4294		11.718750
4295		13.671875
4296		11.718750
4297		15.625000
4298		13.671875
4299		15.625000
4300		13.671875
4301		17.578125
4302		15.625000
4303		17.578125
4304		15.625000
4305		19.531250
4306		17.578125
4307		19.531250
4308		15.625000
4309		23.437500
4310		17.578125
4311		23.437500
4312		19.531250
4313		25.390625
4314		21.484375
4315		23.437500
4316		21.484375
4317		25.390625
4318		23.437500
4319		27.343750
4320		23.437500
4321		27.343750
4322		25.390625
4323		27.343750
4324		23.437500
4325		31.250000
4326		25.390625
4327		31.250000
4328		27.343750
4329		31.250000
4330		27.343750
4331		31.250000
4332		29.296875
4333		33.203125
4334		31.250000
4335		33.203125
4336		31.250000
4337		33.203125
4338		31.250000
4339		35.156250
4340		33.203125
4341		37.109375
4342		31.250000
4343		37.109375
4344		33.203125
4345		37.109375
4346		35.156250
4347		39.062500
4348		37.109375
4349		39.062500
4350		37.109375
4351		41.015625
4352		37.109375
4353		41.015625
4354		39.062500
4355		41.015625
4356		39.062500
4357		42.968750
4358		37.109375
4359		44.921875
4360		39.062500
4361		44.921875
4362		41.015625
4363		44.921875
4364		42.968750
4365		44.921875
4366		42.968750
4367		44.921875
4368		42.968750
4369		46.875000
4370		44.921875
4371		46.875000
4372		44.921875
4373		46.875000
4374		44.921875
4375		48.828125
4376		42.968750
4377		48.828125
4378		44.921875
4379		50.781250
4380		46.875000
4381		48.828125
4382		46.875000
4383		50.781250
4384		46.875000
4385		50.781250
4386		48.828125
4387		52.734375
4388		48.828125
4389		50.781250
4390		48.828125
4391		52.734375
4392		48.828125
4393		54.687500
4394		48.828125
4395		54.687500
4396		50.781250
4397		54.687500
4398		50.781250
4399		54.687500
4400		52.734375
4401		54.687500
4402		50.781250
4403		54.687500
4404		52.734375
4405		56.640625
4406		52.734375
4407		56.640625
4408		52.734375
4409		58.593750
4410		52.734375
4411		58.593750
4412		52.734375
4413		56.640625
4414		54.687500
4415		56.640625
4416		54.687500
4417		58.593750
4418		54.687500
4419		58.593750
4420		56.640625
4421		58.593750
4422		54.687500
4423		60.546875
4424		56.640625
4425		58.593750
4426		54.687500
4427		60.546875
4428		54.687500
4429		60.546875
4430		56.640625
4431		58.593750
4432		56.640625
4433		60.546875
4434		56.640625
4435		60.546875
4436		56.640625
4437		60.546875
4438		56.640625
4439		60.546875
4440		58.593750
4441		60.546875
4442		54.687500
4443		62.500000
4444		56.640625
4445		62.500000
4446		58.593750
4447		60.546875
4448		56.640625
4449		60.546875
4450		58.593750
4451		60.546875
4452		58.593750
4453		60.546875
4454		56.640625
4455		60.546875
4456		58.593750
4457		60.546875
4458		56.640625
4459		60.546875
4460		56.640625
4461		62.500000
4462		56.640625
4463		62.500000
4464		58.593750
4465		60.546875
4466		58.593750
4467		62.500000
4468		58.593750
4469		60.546875
4470		58.593750
4471		60.546875
4472		56.640625
4473		60.546875
4474		56.640625
4475		60.546875
4476		54.687500
4477		62.500000
4478		54.687500
4479		60.546875
4480		56.640625
4481		58.593750
4482		56.640625
4483		60.546875
4484		56.640625
4485		58.593750
4486		56.640625
4487		58.593750
4488		54.687500
4489		58.593750
4490		54.687500
4491		58.593750
4492		54.687500
4493		58.593750
4494		54.687500
4495		56.640625
4496		54.687500
4497		56.640625
4498		54.687500
4499		58.593750
4500		54.687500
4501		56.640625
4502		52.734375
4503		56.640625
4504		52.734375
4505		54.687500
4506		52.734375
4507		54.687500
4508		52.734375
4509		56.640625
4510		50.781250
4511		54.687500
4512		50.781250
4513		54.687500
4514		50.781250
4515		52.734375
4516		50.781250
4517		52.734375
4518		48.828125
4519		52.734375
4520		48.828125
4521		50.781250
4522		48.828125
4523		50.781250
4524		48.828125
4525		50.781250
4526		46.875000
4527		50.781250
4528		46.875000
4529		48.828125
4530		44.921875
4531		50.781250
4532		44.921875
4533		48.828125
4534		42.968750
4535		48.828125
4536		44.921875
4537		46.875000
4538		44.921875
4539		46.875000
4540		42.968750
4541		46.875000
4542		42.968750
4543		44.921875
4544		41.015625
4545		44.921875
4546		41.015625
4547		44.921875
4548		41.015625
4549		42.968750
4550		39.062500
4551		42.968750
4552		39.062500
4553		42.968750
4554		39.062500
4555		41.015625
4556		37.109375
4557		41.015625
4558		37.109375
4559		39.062500
4560		35.156250
4561		39.062500
4562		35.156250
4563		37.109375
4564		33.203125
4565		37.109375
4566		33.203125
4567		37.109375
4568		33.203125
4569		35.156250
4570		31.250000
4571		35.156250
4572		31.250000
4573		33.203125
4574		27.343750
4575		33.203125
4576		29.296875
4577		31.250000
4578		29.296875
4579		31.250000
4580		27.343750
4581		31.250000
4582		25.390625
4583		29.296875
4584		25.390625
4585		29.296875
4586		23.437500
4587		29.296875
4588		23.437500
4589		27.343750
4590		23.437500
4591		25.390625
4592		21.484375
4593		25.390625
4594		21.484375
4595		23.437500
4596		17.578125
4597		23.437500
4598		19.531250
4599		21.484375
4600		17.578125
4601		21.484375
4602		15.625000
4603		19.531250
4604		15.625000
4605		19.531250
4606		15.625000
4607		17.578125
4608		13.671875
4609		17.578125
4610		13.671875
4611		15.625000
4612		11.718750
4613		15.625000
4614		11.718750
4615		13.671875
4616		9.765625
4617		13.671875
4618		9.765625
4619		11.718750
4620		7.812500
4621		11.718750
4622		5.859375
4623		9.765625
4624		5.859375
4625		9.765625
4626		3.906250
4627		7.812500
4628		3.906250
4629		5.859375
4630		1.953125
4631		5.859375
4632		1.953125
4633		3.906250
4634		0.000000
4635		3.906250
4636		0.000000
4637		1.953125
4638		-1.953125
4639		1.953125
4640		-1.953125
4641		0.000000
4642		-3.906250
4643		0.000000
4644		-5.859375
4645		0.000000
4646		-5.859375
4647		-3.906250
4648		-7.812500
4649		-3.906250
4650		-7.812500
4651		-5.859375
4652		-9.765625
4653		-5.859375
4654		-9.765625
4655		-5.859375
4656		-11.718750
4657		-7.812500
4658		-13.671875
4659		-9.765625
4660		-13.671875
4661		-9.765625
4662		-15.625000
4663		-11.718750
4664		-15.625000
4665		-11.718750
4666		-15.625000
4667		-13.671875
4668		-17.578125
4669		-13.671875
4670		-19.531250
4671		-15.625000
4672		-21.484375
4673		-17.578125
4674		-21.484375
4675		-17.578125
4676		-21.484375
4677		-19.531250
4678		-23.437500
4679		-19.531250
4680		-23.437500
4681		-21.484375
4682		-25.390625
4683		-21.484375
4684		-25.390625
4685		-23.437500
4686		-27.343750
4687		-23.437500
4688		-29.296875
4689		-23.437500
4690		-29.296875
4691		-25.390625
4692		-31.250000
4693		-27.343750
4694		-31.250000
4695		-29.296875
4696		-33.203125
4697		-29.296875
4698		-33.203125
4699		-29.296875
4700		-35.156250
4701		-31.250000
4702		-35.156250
4703		-31.250000
4704		-35.156250
4705		-33.203125
4706		-39.062500
4707		-33.203125
4708		-37.109375
4709		-35.156250
4710		-39.062500
4711		-35.156250
4712		-41.015625
4713		-37.109375
4714		-41.015625
4715		-37.109375
4716		-41.015625
4717		-37.109375
4718		-42.968750
4719		-39.062500
4720		-42.968750
4721		-41.015625
4722		-42.968750
4723		-41.015625
4724		-44.921875
4725		-41.015625
4726		-46.875000
4727		-42.968750
4728		-46.875000
4729		-42.968750
4730		-46.875000
4731		-44.921875
4732		-46.875000
4733		-44.921875
4734		-48.828125
4735		-44.921875
4736		-48.828125
4737		-46.875000
4738		-48.828125
4739		-46.875000
4740		-50.781250
4741		-46.875000
4742		-50.781250
4743		-48.828125
4744		-52.734375
4745		-48.828125
4746		-54.687500
4747		-48.828125
4748		-52.734375
4749		-50.781250
4750		-54.687500
4751		-50.781250
4752		-54.687500
4753		-52.734375
4754		-54.687500
4755		-52.734375
4756		-56.640625
4757		-52.734375
4758		-56.640625
4759		-54.687500
4760		-58.593750
4761		-54.687500
4762		-56.640625
4763		-54.687500
4764		-58.593750
4765		-54.687500
4766		-58.593750
4767		-54.687500
4768		-58.593750
4769		-56.640625
4770		-60.546875
4771		-56.640625
4772		-60.546875
4773		-56.640625
4774		-60.546875
4775		-58.593750
4776		-60.546875
4777		-56.640625
4778		-60.546875
4779		-58.593750
4780		-62.500000
4781		-58.593750
4782		-62.500000
4783		-58.593750
4784		-62.500000
4785		-60.546875
4786		-62.500000
4787		-58.593750
4788		-62.500000
4789		-60.546875
4790		-64.453125
4791		-60.546875
4792		-62.500000
4793		-60.546875
4794		-64.453125
4795		-60.546875
4796		-64.453125
4797		-62.500000
4798		-64.453125
4799		-62.500000
4800		-66.406250
4801		-62.500000
4802		-64.453125
4803		-62.500000
4804		-66.406250
4805		-62.500000
4806		-64.453125
4807		-62.500000
4808		-64.453125
4809		-62.500000
4810		-66.406250
4811		-62.500000
4812		-66.406250
4813		-62.500000
4814		-66.406250
4815		-62.500000
4816		-66.406250
4817		-62.500000
4818		-66.406250
4819		-62.500000
4820		-66.406250
4821		-62.500000
4822		-66.406250
4823		-62.500000
4824		-66.406250
4825		-62.500000
4826		-66.406250
4827		-62.500000
4828		-66.406250
4829		-62.500000
4830		-66.406250
4831		-62.500000
4832		-66.406250
4833		-62.500000
4834		-64.453125
4835		-62.500000
4836		-66.406250
4837		-62.500000
4838		-66.406250
4839		-62.500000
4840		-64.453125
4841		-62.500000
4842		-64.453125
4843		-62.500000
4844		-64.453125
4845		-62.500000
4846		-64.453125
4847		-62.500000
4848		-64.453125
4849		-60.546875
4850		-64.453125
4851		-60.546875
4852		-64.453125
4853		-60.546875
4854		-64.453125
4855		-60.546875
4856		-62.500000
4857		-60.546875
4858		-62.500000
4859		-60.546875
4860		-62.500000
4861		-60.546875
4862		-62.500000
4863		-58.593750
4864		-60.546875
4865		-58.593750
4866		-60.546875
4867		-58.593750
4868		-60.546875
4869		-56.640625
4870		-60.546875
4871		-56.640625
4872		-60.546875
4873		-56.640625
4874		-58.593750
4875		-56.640625
4876		-58.593750
4877		-56.640625
4878		-58.593750
4879		-54.687500
4880		-56.640625
4881		-54.687500
4882		-56.640625
4883		-52.734375
4884		-56.640625
4885		-52.734375
4886		-54.687500
4887		-52.734375
4888		-56.640625
4889		-50.781250
4890		-54.687500
4891		-52.734375
4892		-54.687500
4893		-50.781250
4894		-52.734375
4895		-50.781250
4896		-52.734375
4897		-50.781250
4898		-50.781250
4899		-48.828125
4900		-50.781250
4901		-48.828125
4902		-50.781250
4903		-46.875000
4904		-50.781250
4905		-46.875000
4906		-48.828125
4907		-46.875000
4908		-46.875000
4909		-44.921875
4910		-48.828125
4911		-42.968750
4912		-46.875000
4913		-42.968750
4914		-44.921875
4915		-42.968750
4916		-44.921875
4917		-41.015625
4918		-42.968750
4919		-41.015625
4920		-42.968750
4921		-39.062500
4922		-42.968750
4923		-39.062500
4924		-41.015625
4925		-39.062500
4926		-41.015625
4927		-37.109375
4928		-39.062500
4929		-37.109375
4930		-39.062500
4931		-35.156250
4932		-37.109375
4933		-33.203125
4934		-37.109375
4935		-33.203125
4936		-35.156250
4937		-33.203125
4938		-35.156250
4939		-31.250000
4940		-35.156250
4941		-31.250000
4942		-33.203125
4943		-29.296875
4944		-31.250000
4945		-29.296875
4946		-31.250000
4947		-27.343750
4948		-31.250000
4949		-27.343750
4950		-29.296875
4951		-25.390625
4952		-27.343750
4953		-25.390625
4954		-27.343750
4955		-23.437500
4956		-25.390625
4957		-23.437500
4958		-25.390625
4959		-21.484375
4960		-23.437500
4961		-21.484375
4962		-23.437500
4963		-19.531250
4964		-21.484375
4965		-19.531250
4966		-21.484375
4967		-17.578125
4968		-19.531250
4969		-15.625000
4970		-19.531250
4971		-15.625000
4972		-17.578125
4973		-13.671875
4974		-17.578125
4975		-13.671875
4976		-15.625000
4977		-13.671875
4978		-13.671875
4979		-11.718750
4980		-13.671875
4981		-9.765625
4982		-11.718750
4983		-9.765625
4984		-11.718750
4985		-7.812500
4986		-11.718750
4987		-7.812500
4988		-9.765625
4989		-5.859375
4990		-7.812500
4991		-5.859375
4992		-7.812500
4993		-3.906250
4994		-5.859375
4995		-1.953125
4996		-5.859375
4997		-1.953125
4998		-3.906250
4999		-1.953125
5000		-1.953125
5001		0.000000
5002		-1.953125
5003		1.953125
5004		0.000000
5005		1.953125
5006		0.000000
5007		3.906250
5008		1.953125
5009		3.906250
5010		1.953125
5011		5.859375
5012		3.906250
5013		5.859375
5014		3.906250
5015		7.812500
5016		5.859375
5017		9.765625
5018		5.859375
5019		9.765625
5020		7.812500
5021		11.718750
5022		9.765625
5023		11.718750
5024		9.765625
5025		13.671875
5026		11.718750
5027		13.671875
5028		11.718750
5029		15.625000
5030		11.718750
5031		17.578125
5032		13.671875
5033		17.578125
5034		15.625000
5035		19.531250
5036		15.625000
5037		19.531250
5038		17.578125
5039		19.531250
5040		17.578125
5041		21.484375
5042		19.531250
5043		21.484375
5044		19.531250
5045		23.437500
5046		19.531250
5047		23.437500
5048		21.484375
5049		25.390625
5050		21.484375
5051		25.390625
5052		23.437500
5053		27.343750
5054		25.390625
5055		27.343750
5056		25.390625
5057		29.296875
5058		27.343750
5059		29.296875
5060		27.343750
5061		31.250000
5062		27.343750
5063		31.250000
5064		29.296875
5065		31.250000
5066		29.296875
5067		33.203125
5068		31.250000
5069		35.156250
5070		31.250000
5071		35.156250
5072		33.203125
5073		35.156250
5074		33.203125
5075		37.109375
5076		35.156250
5077		37.109375
5078		35.156250
5079		37.109375
5080		35.156250
5081		39.062500
5082		37.109375
5083		39.062500
5084		37.109375
5085		41.015625
5086		37.109375
5087		41.015625
5088		39.062500
5089		41.015625
5090		39.062500
5091		42.968750
5092		41.015625
5093		42.968750
5094		41.015625
5095		42.968750
5096		41.015625
5097		44.921875
5098		42.968750
5099		44.921875
5100		42.968750
5101		46.875000
5102		42.968750
5103		46.875000
5104		44.921875
5105		46.875000
5106		44.921875
5107		48.828125
5108		44.921875
5109		48.828125
5110		46.875000
5111		48.828125
5112		46.875000
5113		50.781250
5114		46.875000
5115		50.781250
5116		48.828125
5117		50.781250
5118		48.828125
5119		52.734375
5120		48.828125
5121		52.734375
5122		50.781250
5123		52.734375
5124		50.781250
5125		52.734375
5126		50.781250
5127		52.734375
5128		50.781250
5129		54.687500
5130		52.734375
5131		54.687500
5132		52.734375
5133		54.687500
5134		52.734375
5135		56.640625
5136		52.734375
5137		54.687500
5138		52.734375
5139		56.640625
5140		52.734375
5141		56.640625
5142		54.687500
5143		56.640625
5144		54.687500
5145		56.640625
5146		52.734375
5147		58.593750
5148		54.687500
5149		56.640625
5150		54.687500
5151		58.593750
5152		54.687500
5153		58.593750
5154		56.640625
5155		58.593750
5156		56.640625
5157		58.593750
5158		56.640625
5159		60.546875
5160		56.640625
5161		58.593750
5162		56.640625
5163		58.593750
5164		56.640625
5165		60.546875
5166		56.640625
5167		60.546875
5168		56.640625
5169		60.546875
5170		58.593750
5171		60.546875
5172		58.593750
5173		60.546875
5174		56.640625
5175		60.546875
5176		58.593750
5177		60.546875
5178		58.593750
5179		60.546875
5180		56.640625
5181		60.546875
5182		58.593750
5183		60.546875
5184		58.593750
5185		60.546875
5186		56.640625
5187		60.546875
5188		58.593750
5189		60.546875
5190		58.593750
5191		60.546875
5192		56.640625
5193		62.500000
5194		58.593750
5195		60.546875
5196		56.640625
5197		60.546875
5198		58.593750
5199		60.546875
5200		58.593750
5201		60.546875
5202		56.640625
5203		60.546875
5204		58.593750
5205		60.546875
5206		56.640625
5207		60.546875
5208		56.640625
5209		60.546875
5210		56.640625
5211		60.546875
5212		56.640625
5213		58.593750
5214		56.640625
5215		60.546875
5216		56.640625
5217		58.593750
5218		56.640625
5219		58.593750
5220		56.640625
5221		58.593750
5222		56.640625
5223		58.593750
5224		54.687500
5225		58.593750
5226		54.687500
5227		58.593750
5228		54.687500
5229		56.640625
5230		54.687500
5231		56.640625
5232		54.687500
5233		56.640625
5234		52.734375
5235		56.640625
5236		52.734375
5237		56.640625
5238		52.734375
5239		56.640625
5240		52.734375
5241		54.687500
5242		50.781250
5243		54.687500
5244		50.781250
5245		54.687500
5246		50.781250
5247		52.734375
5248		50.781250
5249		52.734375
5250		48.828125
5251		52.734375
5252		48.828125
5253		52.734375
5254		48.828125
5255		52.734375
5256		46.875000
5257		52.734375
5258		48.828125
5259		50.781250
5260		46.875000
5261		50.781250
5262		46.875000
5263		48.828125
5264		46.875000
5265		48.828125
5266		44.921875
5267		48.828125
5268		44.921875
5269		46.875000
5270		44.921875
5271		46.875000
5272		42.968750
5273		46.875000
5274		42.968750
5275		44.921875
5276		41.015625
5277		44.921875
5278		41.015625
5279		42.968750
5280		41.015625
5281		42.968750
5282		39.062500
5283		42.968750
5284		39.062500
5285		41.015625
5286		39.062500
5287		41.015625
5288		37.109375
5289		41.015625
5290		37.109375
5291		39.062500
5292		37.109375
5293		39.062500
5294		35.156250
5295		39.062500
5296		35.156250
5297		37.109375
5298		33.203125
5299		37.109375
5300		33.203125
5301		35.156250
5302		31.250000
5303		35.156250
5304		31.250000
5305		33.203125
5306		31.250000
5307		33.203125
5308		29.296875
5309		33.203125
5310		27.343750
5311		31.250000
5312		27.343750
5313		31.250000
5314		27.343750
5315		29.296875
5316		25.390625
5317		29.296875
5318		25.390625
5319		27.343750
5320		23.437500
5321		27.343750
5322		23.437500
5323		27.343750
5324		21.484375
5325		25.390625
5326		19.531250
5327		25.390625
5328		19.531250
5329		23.437500
5330		19.531250
5331		21.484375
5332		19.531250
5333		21.484375
5334		17.578125
5335		21.484375
5336		15.625000
5337		19.531250
5338		13.671875
5339		19.531250
5340		13.671875
5341		17.578125
5342		11.718750
5343		17.578125
5344		11.718750
5345		15.625000
5346		9.765625
5347		13.671875
5348		9.765625
5349		13.671875
5350		9.765625
5351		11.718750
5352		7.812500
5353		11.718750
5354		5.859375
5355		11.718750
5356		5.859375
5357		9.765625
5358		3.906250
5359		9.765625
5360		3.906250
5361		7.812500
5362		1.953125
5363		9.765625
5364		1.953125
5365		5.859375
5366		1.953125
5367		3.906250
5368		0.000000
5369		3.906250
5370		-1.953125
5371		3.906250
5372		-3.906250
5373		1.953125
5374		-3.906250
5375		0.000000
5376		-3.906250
5377		0.000000
5378		-7.812500
5379		0.000000
5380		-5.859375
5381		-3.906250
5382		-7.812500
5383		-3.906250
5384		-9.765625
5385		-5.859375
5386		-9.765625
5387		-5.859375
5388		-11.718750
5389		-7.812500
5390		-11.718750
5391		-9.765625
5392		-13.671875
5393		-7.812500
5394		-13.671875
5395		-11.718750
5396		-15.625000
5397		-9.765625
5398		-15.625000
5399		-13.671875
5400		-17.578125
5401		-13.671875
5402		-19.531250
5403		-13.671875
5404		-21.484375
5405		-15.625000
5406		-19.531250
5407		-17.578125
5408		-21.484375
5409		-17.578125
5410		-23.437500
5411		-17.578125
5412		-25.390625
5413		-17.578125
5414		-23.437500
5415		-21.484375
5416		-25.390625
5417		-21.484375
5418		-29.296875
5419		-23.437500
5420		-29.296875
5421		-21.484375
5422		-29.296875
5423		-23.437500
5424		-29.296875
5425		-25.390625
5426		-33.203125
5427		-25.390625
5428		-31.250000
5429		-27.343750
5430		-35.156250
5431		-25.390625
5432		-33.203125
5433		-29.296875
5434		-35.156250
5435		-31.250000
5436		-35.156250
5437		-31.250000
5438		-37.109375
5439		-31.250000
5440		-37.109375
5441		-33.203125
5442		-39.062500
5443		-33.203125
5444		-41.015625
5445		-33.203125
5446		-41.015625
5447		-33.203125
5448		-41.015625
5449		-37.109375
5450		-41.015625
5451		-37.109375
5452		-42.968750
5453		-37.109375
5454		-46.875000
5455		-37.109375
5456		-42.968750
5457		-39.062500
5458		-44.921875
5459		-41.015625
5460		-46.875000
5461		-39.062500
5462		-48.828125
5463		-41.015625
5464		-46.875000
5465		-44.921875
5466		-48.828125
5467		-44.921875
5468		-48.828125
5469		-44.921875
5470		-52.734375
5471		-42.968750
5472		-50.781250
5473		-44.921875
5474		-50.781250
5475		-46.875000
5476		-54.687500
5477		-44.921875
5478		-54.687500
5479		-46.875000
5480		-56.640625
5481		-46.875000
5482		-54.687500
5483		-48.828125
5484		-54.687500
5485		-48.828125
5486		-56.640625
5487		-48.828125
5488		-56.640625
5489		-48.828125
5490		-54.687500
5491		-50.781250
5492		-56.640625
5493		-52.734375
5494		-60.546875
5495		-50.781250
5496		-60.546875
5497		-52.734375
5498		-56.640625
5499		-54.687500
5500		-58.593750
5501		-54.687500
5502		-58.593750
5503		-54.687500
5504		-62.500000
5505		-54.687500
5506		-60.546875
5507		-54.687500
5508		-60.546875
5509		-58.593750
5510		-64.453125
5511		-54.687500
5512		-64.453125
5513		-54.687500
5514		-64.453125
5515		-56.640625
5516		-62.500000
5517		-58.593750
5518		-62.500000
5519		-58.593750
5520		-66.406250
5521		-56.640625
5522		-64.453125
5523		-58.593750
5524		-62.500000
5525		-60.546875
5526		-64.453125
5527		-58.593750
5528		-68.359375
5529		-56.640625
5530		-66.406250
5531		-58.593750
5532		-64.453125
5533		-60.546875
5534		-64.453125
5535		-62.500000
5536		-66.406250
5537		-60.546875
5538		-68.359375
5539		-58.593750
5540		-64.453125
5541		-62.500000
5542		-66.406250
5543		-62.500000
5544		-68.359375
5545		-58.593750
5546		-68.359375
5547		-60.546875
5548		-66.406250
5549		-62.500000
5550		-66.406250
5551		-62.500000
5552		-66.406250
5553		-62.500000
5554		-68.359375
5555		-60.546875
5556		-66.406250
5557		-60.546875
5558		-66.406250
5559		-62.500000
5560		-68.359375
5561		-60.546875
5562		-68.359375
5563		-60.546875
5564		-68.359375
5565		-60.546875
5566		-66.406250
5567		-62.500000
5568		-66.406250
5569		-62.500000
5570		-66.406250
5571		-60.546875
5572		-66.406250
5573		-58.593750
5574		-66.406250
5575		-60.546875
5576		-64.453125
5577		-62.500000
5578		-68.359375
5579		-58.593750
5580		-66.406250
5581		-58.593750
5582		-64.453125
5583		-62.500000
5584		-64.453125
5585		-60.546875
5586		-64.453125
5587		-60.546875
5588		-66.406250
5589		-58.593750
5590		-62.500000
5591		-58.593750
5592		-62.500000
5593		-60.546875
5594		-64.453125
5595		-56.640625
5596		-64.453125
5597		-56.640625
5598		-62.500000
5599		-56.640625
5600		-60.546875
5601		-58.593750
5602		-60.546875
5603		-56.640625
5604		-62.500000
5605		-54.687500
5606		-60.546875
5607		-54.687500
5608		-58.593750
5609		-56.640625
5610		-60.546875
5611		-54.687500
5612		-56.640625
5613		-54.687500
5614		-60.546875
5615		-52.734375
5616		-56.640625
5617		-54.687500
5618		-56.640625
5619		-52.734375
5620		-56.640625
5621		-52.734375
5622		-58.593750
5623		-48.828125
5624		-54.687500
5625		-50.781250
5626		-52.734375
5627		-48.828125
5628		-54.687500
5629		-48.828125
5630		-52.734375
5631		-48.828125
5632		-50.781250
5633		-48.828125
5634		-50.781250
5635		-48.828125
5636		-50.781250
5637		-46.875000
5638		-48.828125
5639		-46.875000
5640		-48.828125
5641		-44.921875
5642		-48.828125
5643		-44.921875
5644		-48.828125
5645		-42.968750
5646		-46.875000
5647		-42.968750
5648		-46.875000
5649		-42.968750
5650		-44.921875
5651		-42.968750
5652		-44.921875
5653		-41.015625
5654		-42.968750
5655		-41.015625
5656		-42.968750
5657		-39.062500
5658		-41.015625
5659		-37.109375
5660		-41.015625
5661		-37.109375
5662		-39.062500
5663		-37.109375
5664		-39.062500
5665		-35.156250
5666		-37.109375
5667		-35.156250
5668		-37.109375
5669		-33.203125
5670		-37.109375
5671		-33.203125
5672		-35.156250
5673		-31.250000
5674		-35.156250
5675		-31.250000
5676		-35.156250
5677		-31.250000
5678		-31.250000
5679		-29.296875
5680		-31.250000
5681		-27.343750
5682		-31.250000
5683		-27.343750
5684		-29.296875
5685		-25.390625
5686		-29.296875
5687		-23.437500
5688		-27.343750
5689		-23.437500
5690		-27.343750
5691		-21.484375
5692		-25.390625
5693		-21.484375
5694		-25.390625
5695		-19.531250
5696		-25.390625
5697		-19.531250
5698		-23.437500
5699		-19.531250
5700		-21.484375
5701		-17.578125
5702		-19.531250
5703		-17.578125
5704		-19.531250
5705		-15.625000
5706		-19.531250
5707		-13.671875
5708		-19.531250
5709		-13.671875
5710		-17.578125
5711		-11.718750
5712		-15.625000
5713		-11.718750
5714		-15.625000
5715		-9.765625
5716		-13.671875
5717		-9.765625
5718		-11.718750
5719		-9.765625
5720		-11.718750
5721		-5.859375
5722		-11.718750
5723		-5.859375
5724		-9.765625
5725		-3.906250
5726		-9.765625
5727		-3.906250
5728		-9.765625
5729		-3.906250
5730		-5.859375
5731		-1.953125
5732		-5.859375
5733		-1.953125
5734		-3.906250
5735		0.000000
5736		-1.953125
5737		1.953125
5738		-1.953125
5739		3.906250
5740		-1.953125
5741		3.906250
5742		0.000000
5743		5.859375
5744		0.000000
5745		5.859375
5746		1.953125
5747		5.859375
5748		1.953125
5749		7.812500
5750		3.906250
5751		7.812500
5752		5.859375
5753		9.765625
5754		5.859375
5755		11.718750
5756		7.812500
5757		11.718750
5758		7.812500
5759		13.671875
5760		7.812500
5761		15.625000
5762		11.718750
5763		15.625000
5764		11.718750
5765		15.625000
5766		11.718750
5767		15.625000
5768		13.671875
5769		17.578125
5770		15.625000
5771		19.531250
5772		15.625000
5773		19.531250
5774		17.578125
5775		21.484375
5776		17.578125
5777		23.437500
5778		17.578125
5779		23.437500
5780		19.531250
5781		23.437500
5782		21.484375
5783		25.390625
5784		21.484375
5785		27.343750
5786		23.437500
5787		25.390625
5788		23.437500
5789		27.343750
5790		23.437500
5791		29.296875
5792		25.390625
5793		29.296875
5794		25.390625
5795		31.250000
5796		27.343750
5797		31.250000
5798		27.343750
5799		33.203125
5800		29.296875
5801		33.203125
5802		31.250000
5803		33.203125
5804		31.250000
5805		35.156250
5806		31.250000
5807		35.156250
5808		33.203125
5809		37.109375
5810		33.203125
5811		39.062500
5812		35.156250
5813		37.109375
5814		35.156250
5815		39.062500
5816		35.156250
5817		41.015625
5818		37.109375
5819		41.015625
5820		39.062500
5821		41.015625
5822		37.109375
5823		41.015625
5824		39.062500
5825		42.968750
5826		39.062500
5827		44.921875
5828		39.062500
5829		44.921875
5830		41.015625
5831		44.921875
5832		41.015625
5833		46.875000
5834		42.968750
5835		44.921875
5836		44.921875
5837		46.875000
5838		44.921875
5839		48.828125
5840		44.921875
5841		48.828125
5842		44.921875
5843		48.828125
5844		44.921875
5845		50.781250
5846		46.875000
5847		50.781250
5848		46.875000
5849		50.781250
5850		46.875000
5851		50.781250
5852		48.828125
5853		52.734375
5854		48.828125
5855		52.734375
5856		48.828125
5857		52.734375
5858		50.781250
5859		54.687500
5860		48.828125
5861		54.687500
5862		50.781250
5863		54.687500
5864		52.734375
5865		54.687500
5866		50.781250
5867		54.687500
5868		50.781250
5869		54.687500
5870		52.734375
5871		56.640625
5872		52.734375
5873		56.640625
5874		54.687500
5875		56.640625
5876		54.687500
5877		56.640625
5878		52.734375
5879		58.593750
5880		54.687500
5881		58.593750
5882		54.687500
5883		58.593750
5884		56.640625
5885		58.593750
5886		56.640625
5887		58.593750
5888		54.687500
5889		60.546875
5890		56.640625
5891		60.546875
5892		56.640625
5893		60.546875
5894		54.687500
5895		60.546875
5896		56.640625
5897		60.546875
5898		56.640625
5899		60.546875
5900		56.640625
5901		60.546875
5902		56.640625
5903		60.546875
5904		58.593750
5905		60.546875
5906		56.640625
5907		62.500000
5908		58.593750
5909		60.546875
5910		58.593750
5911		62.500000
5912		56.640625
5913		62.500000
5914		58.593750
5915		60.546875
5916		56.640625
5917		62.500000
5918		56.640625
5919		62.500000
5920		58.593750
5921		62.500000
5922		58.593750
5923		62.500000
5924		58.593750
5925		60.546875
5926		56.640625
5927		62.500000
5928		58.593750
5929		62.500000
5930		58.593750
5931		60.546875
5932		56.640625
5933		60.546875
5934		58.593750
5935		62.500000
5936		58.593750
5937		62.500000
5938		56.640625
5939		60.546875
5940		56.640625
5941		60.546875
5942		56.640625
5943		60.546875
5944		56.640625
5945		60.546875
5946		56.640625
5947		60.546875
5948		56.640625
5949		60.546875
5950		56.640625
5951		60.546875
5952		56.640625
5953		58.593750
5954		56.640625
5955		58.593750
5956		54.687500
5957		60.546875
5958		54.687500
5959		58.593750
5960		54.687500
5961		58.593750
5962		54.687500
5963		58.593750
5964		54.687500
5965		58.593750
5966		52.734375
5967		58.593750
5968		52.734375
5969		56.640625
5970		52.734375
5971		56.640625
5972		52.734375
5973		56.640625
5974		52.734375
5975		54.687500
5976		50.781250
5977		56.640625
5978		50.781250
5979		54.687500
5980		50.781250
5981		54.687500
5982		50.781250
5983		52.734375
5984		48.828125
5985		52.734375
5986		48.828125
5987		52.734375
5988		48.828125
5989		52.734375
5990		46.875000
5991		52.734375
5992		46.875000
5993		50.781250
5994		46.875000
5995		50.781250
5996		46.875000
5997		50.781250
5998		44.921875
5999		48.828125
6000		44.921875
6001		48.828125
6002		44.921875
6003		48.828125
6004		42.968750
6005		46.875000
6006		42.968750
6007		46.875000
6008		42.968750
6009		46.875000
6010		41.015625
6011		44.921875
6012		41.015625
6013		44.921875
6014		39.062500
6015		42.968750
6016		39.062500
6017		42.968750
6018		39.062500
6019		42.968750
6020		37.109375
6021		41.015625
6022		37.109375
6023		41.015625
6024		35.156250
6025		41.015625
6026		35.156250
6027		39.062500
6028		35.156250
6029		39.062500
6030		35.156250
6031		39.062500
6032		33.203125
6033		37.109375
6034		33.203125
6035		37.109375
6036		31.250000
6037		35.156250
6038		31.250000
6039		35.156250
6040		29.296875
6041		35.156250
6042		29.296875
6043		33.203125
6044		27.343750
6045		33.203125
6046		27.343750
6047		31.250000
6048		25.390625
6049		29.296875
6050		25.390625
6051		29.296875
6052		25.390625
6053		29.296875
6054		23.437500
6055		27.343750
6056		23.437500
6057		25.390625
6058		21.484375
6059		25.390625
6060		19.531250
6061		25.390625
6062		19.531250
6063		23.437500
6064		19.531250
6065		23.437500
6066		17.578125
6067		21.484375
6068		17.578125
6069		19.531250
6070		15.625000
6071		19.531250
6072		15.625000
6073		19.531250
6074		13.671875
6075		17.578125
6076		13.671875
6077		17.578125
6078		11.718750
6079		15.625000
6080		9.765625
6081		15.625000
6082		9.765625
6083		13.671875
6084		7.812500
6085		11.718750
6086		7.812500
6087		11.718750
6088		5.859375
6089		9.765625
6090		5.859375
6091		9.765625
6092		3.906250
6093		7.812500
6094		1.953125
6095		7.812500
6096		1.953125
6097		5.859375
6098		1.953125
6099		3.906250
6100		0.000000
6101		3.906250
6102		-1.953125
6103		1.953125
6104		-1.953125
6105		1.953125
6106		-3.906250
6107		0.000000
6108		-3.906250
6109		0.000000
6110		-5.859375
6111		-1.953125
6112		-5.859375
6113		-3.906250
6114		-7.812500
6115		-3.906250
6116		-7.812500
6117		-3.906250
6118		-9.765625
6119		-5.859375
6120		-11.718750
6121		-7.812500
6122		-11.718750
6123		-7.812500
6124		-13.671875
6125		-9.765625
6126		-13.671875
6127		-9.765625
6128		-15.625000
6129		-11.718750
6130		-15.625000
6131		-13.671875
6132		-17.578125
6133		-13.671875
6134		-17.578125
6135		-13.671875
6136		-19.531250
6137		-15.625000
6138		-19.531250
6139		-15.625000
6140		-21.484375
6141		-17.578125
6142		-21.484375
6143		-19.531250
6144		-23.437500
6145		-19.531250
6146		-23.437500
6147		-21.484375
6148		-25.390625
6149		-21.484375
6150		-27.343750
6151		-23.437500
6152		-27.343750
6153		-23.437500
6154		-27.343750
6155		-25.390625
6156		-29.296875
6157		-25.390625
6158		-29.296875
6159		-25.390625
6160		-31.250000
6161		-27.343750
6162		-31.250000
6163		-29.296875
6164		-33.203125
6165		-29.296875
6166		-33.203125
6167		-31.250000
6168		-35.156250
6169		-31.250000
6170		-35.156250
6171		-31.250000
6172		-37.109375
6173		-33.203125
6174		-37.109375
6175		-35.156250
6176		-39.062500
6177		-35.156250
6178		-39.062500
6179		-37.109375
6180		-41.015625
6181		-35.156250
6182		-41.015625
6183		-39.062500
6184		-42.968750
6185		-39.062500
6186		-42.968750
6187		-39.062500
6188		-42.968750
6189		-39.062500
6190		-44.921875
6191		-41.015625
6192		-44.921875
6193		-41.015625
6194		-46.875000
6195		-42.968750
6196		-46.875000
6197		-42.968750
6198		-46.875000
6199		-44.921875
6200		-48.828125
6201		-44.921875
6202		-50.781250
6203		-44.921875
6204		-48.828125
6205		-46.875000
6206		-50.781250
6207		-46.875000
6208		-50.781250
6209		-46.875000
6210		-50.781250
6211		-48.828125
6212		-52.734375
6213		-48.828125
6214		-52.734375
6215		-48.828125
6216		-52.734375
6217		-50.781250
6218		-54.687500
6219		-50.781250
6220		-54.687500
6221		-50.781250
6222		-54.687500
6223		-52.734375
6224		-56.640625
6225		-52.734375
6226		-56.640625
6227		-52.734375
6228		-56.640625
6229		-52.734375
6230		-58.593750
6231		-54.687500
6232		-58.593750
6233		-54.687500
6234		-58.593750
6235		-56.640625
6236		-58.593750
6237		-54.687500
6238		-58.593750
6239		-56.640625
6240		-60.546875
6241		-56.640625
6242		-60.546875
6243		-56.640625
6244		-60.546875
6245		-56.640625
6246		-60.546875
6247		-58.593750
6248		-62.500000
6249		-58.593750
6250		-62.500000
6251		-58.593750
6252		-62.500000
6253		-58.593750
6254		-62.500000
6255		-58.593750
6256		-62.500000
6257		-58.593750
6258		-64.453125
6259		-60.546875
6260		-64.453125
6261		-60.546875
6262		-64.453125
6263		-60.546875
6264		-64.453125
6265		-60.546875
6266		-66.406250
6267		-60.546875
6268		-64.453125
6269		-62.500000
6270		-66.406250
6271		-62.500000
6272		-64.453125
6273		-62.500000
6274		-64.453125
6275		-62.500000
6276		-66.406250
6277		-62.500000
6278		-66.406250
6279		-62.500000
6280		-66.406250
6281		-62.500000
6282		-66.406250
6283		-62.500000
6284		-66.406250
6285		-62.500000
6286		-66.406250
6287		-62.500000
6288		-66.406250
6289		-62.500000
6290		-66.406250
6291		-62.500000
6292		-66.406250
6293		-62.500000
6294		-66.406250
6295		-62.500000
6296		-66.406250
6297		-62.500000
6298		-64.453125
6299		-62.500000
6300		-64.453125
6301		-62.500000
6302		-66.406250
6303		-62.500000
6304		-66.406250
6305		-62.500000
6306		-66.406250
6307		-62.500000
6308		-64.453125
6309		-60.546875
6310		-64.453125
6311		-60.546875
6312		-64.453125
6313		-60.546875
6314		-64.453125
6315		-60.546875
6316		-64.453125
6317		-60.546875
6318		-64.453125
6319		-58.593750
6320		-64.453125
6321		-58.593750
6322		-62.500000
6323		-58.593750
6324		-62.500000
6325		-58.593750
6326		-62.500000
6327		-58.593750
6328		-62.500000
6329		-58.593750
6330		-62.500000
6331		-58.593750
6332		-60.546875
6333		-56.640625
6334		-60.546875
6335		-56.640625
6336		-60.546875
6337		-56.640625
6338		-60.546875
6339		-56.640625
6340		-58.593750
6341		-56.640625
6342		-58.593750
6343		-54.687500
6344		-58.593750
6345		-54.687500
6346		-58.593750
6347		-54.687500
6348		-56.640625
6349		-54.687500
6350		-56.640625
6351		-52.734375
6352		-56.640625
6353		-52.734375
6354		-56.640625
6355		-52.734375
6356		-54.687500
6357		-52.734375
6358		-54.687500
6359		-50.781250
6360		-54.687500
6361		-50.781250
6362		-52.734375
6363		-48.828125
6364		-52.734375
6365		-48.828125
6366		-50.781250
6367		-48.828125
6368		-50.781250
6369		-46.875000
6370		-50.781250
6371		-46.875000
6372		-48.828125
6373		-46.875000
6374		-48.828125
6375		-44.921875
6376		-48.828125
6377		-44.921875
6378		-46.875000
6379		-44.921875
6380		-46.875000
6381		-42.968750
6382		-44.921875
6383		-42.968750
6384		-44.921875
6385		-41.015625
6386		-44.921875
6387		-41.015625
6388		-44.921875
6389		-41.015625
6390		-42.968750
6391		-39.062500
6392		-41.015625
6393		-37.109375
6394		-41.015625
6395		-37.109375
6396		-41.015625
6397		-37.109375
6398		-39.062500
6399		-35.156250
6400		-39.062500
6401		-33.203125
6402		-37.109375
6403		-33.203125
6404		-37.109375
6405		-33.203125
6406		-35.156250
6407		-31.250000
6408		-33.203125
6409		-31.250000
6410		-33.203125
6411		-29.296875
6412		-33.203125
6413		-29.296875
6414		-33.203125
6415		-29.296875
6416		-31.250000
6417		-27.343750
6418		-29.296875
6419		-25.390625
6420		-29.296875
6421		-25.390625
6422		-27.343750
6423		-23.437500
6424		-25.390625
6425		-23.437500
6426		-27.343750
6427		-21.484375
6428		-25.390625
6429		-21.484375
6430		-25.390625
6431		-19.531250
6432		-23.437500
6433		-19.531250
6434		-21.484375
6435		-17.578125
6436		-21.484375
6437		-17.578125
6438		-19.531250
6439		-15.625000
6440		-17.578125
6441		-15.625000
6442		-17.578125
6443		-13.671875
6444		-17.578125
6445		-11.718750
6446		-15.625000
6447		-11.718750
6448		-13.671875
6449		-11.718750
6450		-13.671875
6451		-9.765625
6452		-11.718750
6453		-9.765625
6454		-11.718750
6455		-7.812500
6456		-11.718750
6457		-5.859375
6458		-7.812500
6459		-5.859375
6460		-7.812500
6461		-3.906250
6462		-7.812500
6463		-3.906250
6464		-5.859375
6465		-1.953125
6466		-5.859375
6467		-1.953125
6468		-3.906250
6469		0.000000
6470		-1.953125
6471		1.953125
6472		-1.953125
6473		1.953125
6474		0.000000
6475		1.953125
6476		0.000000
6477		3.906250
6478		1.953125
6479		5.859375
6480		1.953125
6481		5.859375
6482		3.906250
6483		7.812500
6484		3.906250
6485		7.812500
6486		5.859375
6487		9.765625
6488		5.859375
6489		9.765625
6490		7.812500
6491		11.718750
6492		9.765625
6493		11.718750
6494		7.812500
6495		13.671875
6496		9.765625
6497		13.671875
6498		11.718750
6499		15.625000
6500		13.671875
6501		17.578125
6502		13.671875
6503		17.578125
6504		15.625000
6505		17.578125
6506		15.625000
6507		19.531250
6508		17.578125
6509		21.484375
6510		17.578125
6511		21.484375
6512		19.531250
6513		21.484375
6514		19.531250
6515		23.437500
6516		21.484375
6517		23.437500
6518		21.484375
6519		25.390625
6520		21.484375
6521		27.343750
6522		23.437500
6523		27.343750
6524		25.390625
6525		27.343750
6526		25.390625
6527		29.296875
6528		27.343750
6529		29.296875
6530		27.343750
6531		31.250000
6532		29.296875
6533		31.250000
6534		29.296875
6535		33.203125
6536		29.296875
6537		33.203125
6538		31.250000
6539		33.203125
6540		31.250000
6541		35.156250
6542		31.250000
6543		35.156250
6544		33.203125
6545		37.109375
6546		33.203125
6547		39.062500
6548		35.156250
6549		39.062500
6550		35.156250
6551		39.062500
6552		37.109375
6553		41.015625
6554		37.109375
6555		41.015625
6556		37.109375
6557		41.015625
6558		39.062500
6559		41.015625
6560		39.062500
6561		42.968750
6562		41.015625
6563		42.968750
6564		41.015625
6565		44.921875
6566		41.015625
6567		44.921875
6568		41.015625
6569		44.921875
6570		42.968750
6571		46.875000
6572		42.968750
6573		46.875000
6574		44.921875
6575		46.875000
6576		44.921875
6577		46.875000
6578		44.921875
6579		48.828125
6580		46.875000
6581		48.828125
6582		46.875000
6583		50.781250
6584		46.875000
6585		50.781250
6586		46.875000
6587		50.781250
6588		46.875000
6589		50.781250
6590		48.828125
6591		52.734375
6592		50.781250
6593		52.734375
6594		48.828125
6595		52.734375
6596		50.781250
6597		54.687500
6598		50.781250
6599		54.687500
6600		50.781250
6601		54.687500
6602		50.781250
6603		54.687500
6604		50.781250
6605		56.640625
6606		52.734375
6607		56.640625
6608		52.734375
6609		54.687500
6610		52.734375
6611		56.640625
6612		52.734375
6613		56.640625
6614		54.687500
6615		56.640625
6616		54.687500
6617		58.593750
6618		54.687500
6619		58.593750
6620		54.687500
6621		58.593750
6622		54.687500
6623		58.593750
6624		54.687500
6625		58.593750
6626		56.640625
6627		58.593750
6628		54.687500
6629		60.546875
6630		56.640625
6631		60.546875
6632		56.640625
6633		60.546875
6634		56.640625
6635		60.546875
6636		56.640625
6637		60.546875
6638		56.640625
6639		60.546875
6640		56.640625
6641		60.546875
6642		56.640625
6643		60.546875
6644		56.640625
6645		60.546875
6646		56.640625
6647		60.546875
6648		56.640625
6649		60.546875
6650		58.593750
6651		60.546875
6652		56.640625
6653		60.546875
6654		58.593750
6655		60.546875
6656		58.593750
6657		60.546875
6658		56.640625
6659		62.500000
6660		58.593750
6661		60.546875
6662		56.640625
6663		60.546875
6664		58.593750
6665		62.500000
6666		58.593750
6667		60.546875
6668		56.640625
6669		60.546875
6670		56.640625
6671		60.546875
6672		58.593750
6673		60.546875
6674		56.640625
6675		60.546875
6676		56.640625
6677		60.546875
6678		56.640625
6679		60.546875
6680		56.640625
6681		60.546875
6682		56.640625
6683		58.593750
6684		56.640625
6685		60.546875
6686		56.640625
6687		58.593750
6688		56.640625
6689		58.593750
6690		54.687500
6691		58.593750
6692		56.640625
6693		58.593750
6694		54.687500
6695		58.593750
6696		54.687500
6697		58.593750
6698		54.687500
6699		56.640625
6700		54.687500
6701		56.640625
6702		52.734375
6703		58.593750
6704		52.734375
6705		56.640625
6706		52.734375
6707		54.687500
6708		50.781250
6709		56.640625
6710		52.734375
6711		54.687500
6712		50.781250
6713		54.687500
6714		50.781250
6715		54.687500
6716		50.781250
6717		54.687500
6718		50.781250
6719		52.734375
6720		48.828125
6721		52.734375
6722		48.828125
6723		52.734375
6724		48.828125
6725		50.781250
6726		46.875000
6727		50.781250
6728		46.875000
6729		50.781250
6730		46.875000
6731		48.828125
6732		44.921875
6733		50.781250
6734		44.921875
6735		48.828125
6736		42.968750
6737		48.828125
6738		42.968750
6739		46.875000
6740		42.968750
6741		46.875000
6742		42.968750
6743		46.875000
6744		42.968750
6745		44.921875
6746		41.015625
6747		44.921875
6748		39.062500
6749		44.921875
6750		39.062500
6751		42.968750
6752		39.062500
6753		42.968750
6754		39.062500
6755		41.015625
6756		37.109375
6757		41.015625
6758		35.156250
6759		41.015625
6760		35.156250
6761		39.062500
6762		33.203125
6763		39.062500
6764		33.203125
6765		37.109375
6766		33.203125
6767		37.109375
6768		31.250000
6769		35.156250
6770		31.250000
6771		35.156250
6772		29.296875
6773		33.203125
6774		29.296875
6775		33.203125
6776		29.296875
6777		31.250000
6778		27.343750
6779		31.250000
6780		27.343750
6781		31.250000
6782		25.390625
6783		29.296875
6784		25.390625
6785		29.296875
6786		23.437500
6787		27.343750
6788		23.437500
6789		27.343750
6790		21.484375
6791		25.390625
6792		21.484375
6793		25.390625
6794		19.531250
6795		23.437500
6796		19.531250
6797		23.437500
6798		17.578125
6799		21.484375
6800		17.578125
6801		21.484375
6802		15.625000
6803		19.531250
6804		15.625000
6805		19.531250
6806		13.671875
6807		17.578125
6808		13.671875
6809		17.578125
6810		11.718750
6811		15.625000
6812		9.765625
6813		13.671875
6814		9.765625
6815		15.625000
6816		9.765625
6817		11.718750
6818		7.812500
6819		11.718750
6820		7.812500
6821		9.765625
6822		5.859375
6823		9.765625
6824		3.906250
6825		7.812500
6826		3.906250
6827		5.859375
6828		3.906250
6829		5.859375
6830		1.953125
6831		5.859375
6832		1.953125
6833		3.906250
6834		0.000000
6835		3.906250
6836		-1.953125
6837		1.953125
6838		-1.953125
6839		1.953125
6840		-3.906250
6841		0.000000
6842		-3.906250
6843		0.000000
6844		-5.859375
6845		-1.953125
6846		-7.812500
6847		-3.906250
6848		-7.812500
6849		-3.906250
6850		-9.765625
6851		-5.859375
6852		-9.765625
6853		-7.812500
6854		-11.718750
6855		-7.812500
6856		-13.671875
6857		-7.812500
6858		-13.671875
6859		-9.765625
6860		-13.671875
6861		-11.718750
6862		-15.625000
6863		-11.718750
6864		-15.625000
6865		-11.718750
6866		-17.578125
6867		-13.671875
6868		-17.578125
6869		-15.625000
6870		-19.531250
6871		-15.625000
6872		-21.484375
6873		-17.578125
6874		-21.484375
6875		-19.531250
6876		-23.437500
6877		-19.531250
6878		-23.437500
6879		-19.531250
6880		-25.390625
6881		-21.484375
6882		-25.390625
6883		-21.484375
6884		-27.343750
6885		-23.437500
6886		-27.343750
6887		-25.390625
6888		-29.296875
6889		-25.390625
6890		-29.296875
6891		-25.390625
6892		-31.250000
6893		-27.343750
6894		-31.250000
6895		-29.296875
6896		-33.203125
6897		-29.296875
6898		-35.156250
6899		-31.250000
6900		-35.156250
6901		-31.250000
6902		-37.109375
6903		-31.250000
6904		-37.109375
6905		-33.203125
6906		-39.062500
6907		-35.156250
6908		-39.062500
6909		-35.156250
6910		-39.062500
6911		-35.156250
6912		-41.015625
6913		-37.109375
6914		-41.015625
6915		-37.109375
6916		-42.968750
6917		-39.062500
6918		-42.968750
6919		-39.062500
6920		-42.968750
6921		-39.062500
6922		-44.921875
6923		-41.015625
6924		-44.921875
6925		-42.968750
6926		-46.875000
6927		-42.968750
6928		-46.875000
6929		-44.921875
6930		-48.828125
6931		-42.968750
6932		-48.828125
6933		-44.921875
6934		-48.828125
6935		-46.875000
6936		-50.781250
6937		-46.875000
6938		-50.781250
6939		-46.875000
6940		-52.734375
6941		-48.828125
6942		-52.734375
6943		-48.828125
6944		-52.734375
6945		-50.781250
6946		-54.687500
6947		-50.781250
6948		-54.687500
6949		-50.781250
6950		-54.687500
6951		-50.781250
6952		-56.640625
6953		-52.734375
6954		-56.640625
6955		-52.734375
6956		-56.640625
6957		-52.734375
6958		-56.640625
6959		-54.687500
6960		-58.593750
6961		-54.687500
6962		-58.593750
6963		-54.687500
6964		-58.593750
6965		-56.640625
6966		-60.546875
6967		-56.640625
6968		-60.546875
6969		-56.640625
6970		-60.546875
6971		-56.640625
6972		-60.546875
6973		-58.593750
6974		-62.500000
6975		-56.640625
6976		-62.500000
6977		-58.593750
6978		-62.500000
6979		-58.593750
6980		-62.500000
6981		-60.546875
6982		-64.453125
6983		-58.593750
6984		-64.453125
6985		-60.546875
6986		-64.453125
6987		-60.546875
6988		-64.453125
6989		-60.546875
6990		-64.453125
6991		-60.546875
6992		-64.453125
6993		-60.546875
6994		-64.453125
6995		-62.500000
6996		-64.453125
6997		-62.500000
6998		-66.406250
6999		-62.500000
7000		-66.406250
7001		-62.500000
7002		-66.406250
7003		-62.500000
7004		-66.406250
7005		-62.500000
7006		-66.406250
7007		-62.500000
7008		-66.406250
7009		-62.500000
7010		-66.406250
7011		-62.500000
7012		-66.406250
7013		-64.453125
7014		-66.406250
7015		-62.500000
7016		-66.406250
7017		-62.500000
7018		-66.406250
7019		-62.500000
7020		-66.406250
7021		-62.500000
7022		-66.406250
7023		-62.500000
7024		-66.406250
7025		-62.500000
7026		-66.406250
7027		-62.500000
7028		-66.406250
7029		-64.453125
7030		-66.406250
7031		-62.500000
7032		-66.406250
7033		-62.500000
7034		-66.406250
7035		-62.500000
7036		-66.406250
7037		-62.500000
7038		-66.406250
7039		-62.500000
7040		-66.406250
7041		-62.500000
7042		-66.406250
7043		-62.500000
7044		-66.406250
7045		-60.546875
7046		-64.453125
7047		-62.500000
7048		-66.406250
7049		-60.546875
7050		-64.453125
7051		-60.546875
7052		-64.453125
7053		-60.546875
7054		-64.453125
7055		-60.546875
7056		-64.453125
7057		-60.546875
7058		-62.500000
7059		-58.593750
7060		-62.500000
7061		-58.593750
7062		-64.453125
7063		-58.593750
7064		-60.546875
7065		-58.593750
7066		-62.500000
7067		-58.593750
7068		-62.500000
7069		-58.593750
7070		-60.546875
7071		-56.640625
7072		-60.546875
7073		-56.640625
7074		-60.546875
7075		-56.640625
7076		-58.593750
7077		-54.687500
7078		-58.593750
7079		-54.687500
7080		-58.593750
7081		-54.687500
7082		-58.593750
7083		-52.734375
7084		-56.640625
7085		-52.734375
7086		-56.640625
7087		-52.734375
7088		-54.687500
7089		-52.734375
7090		-56.640625
7091		-50.781250
7092		-54.687500
7093		-50.781250
7094		-54.687500
7095		-50.781250
7096		-52.734375
7097		-50.781250
7098		-52.734375
7099		-48.828125
7100		-50.781250
7101		-48.828125
7102		-50.781250
7103		-46.875000
7104		-50.781250
7105		-46.875000
7106		-48.828125
7107		-46.875000
7108		-48.828125
7109		-44.921875
7110		-48.828125
7111		-44.921875
7112		-46.875000
7113		-42.968750
7114		-46.875000
7115		-42.968750
7116		-46.875000
7117		-42.968750
7118		-44.921875
7119		-41.015625
7120		-42.968750
7121		-41.015625
7122		-44.921875
7123		-39.062500
7124		-42.968750
7125		-39.062500
7126		-42.968750
7127		-37.109375
7128		-41.015625
7129		-37.109375
7130		-39.062500
7131		-37.109375
7132		-39.062500
7133		-35.156250
7134		-37.109375
7135		-35.156250
7136		-37.109375
7137		-33.203125
7138		-37.109375
7139		-33.203125
7140		-35.156250
7141		-31.250000
7142		-35.156250
7143		-31.250000
7144		-33.203125
7145		-29.296875
7146		-33.203125
7147		-29.296875
7148		-31.250000
7149		-27.343750
7150		-31.250000
7151		-27.343750
7152		-31.250000
7153		-25.390625
7154		-29.296875
7155		-25.390625
7156		-27.343750
7157		-23.437500
7158		-25.390625
7159		-23.437500
7160		-25.390625
7161		-21.484375
7162		-25.390625
7163		-21.484375
7164		-23.437500
7165		-19.531250
7166		-21.484375
7167		-19.531250
7168		-21.484375
7169		-17.578125
7170		-21.484375
7171		-17.578125
7172		-19.531250
7173		-15.625000
7174		-17.578125
7175		-15.625000
7176		-17.578125
7177		-13.671875
7178		-17.578125
7179		-13.671875
7180		-15.625000
7181		-11.718750
7182		-13.671875
7183		-9.765625
7184		-13.671875
7185		-9.765625
7186		-11.718750
7187		-7.812500
7188		-11.718750
7189		-7.812500
7190		-9.765625
7191		-5.859375
7192		-9.765625
7193		-5.859375
7194		-7.812500
7195		-3.906250
7196		-5.859375
7197		-3.906250
7198		-5.859375
7199		-1.953125
7200		-3.906250
7201		0.000000
7202		-3.906250
7203		1.953125
7204		-1.953125
7205		1.953125
7206		-1.953125
7207		1.953125
7208		0.000000
7209		3.906250
7210		0.000000
7211		3.906250
7212		0.000000
7213		5.859375
7214		1.953125
7215		5.859375
7216		3.906250
7217		7.812500
7218		3.906250
7219		7.812500
7220		5.859375
7221		9.765625
7222		7.812500
7223		9.765625
7224		7.812500
7225		11.718750
7226		7.812500
7227		13.671875
7228		9.765625
7229		13.671875
7230		11.718750
7231		15.625000
7232		11.718750
7233		15.625000
7234		13.671875
7235		17.578125
7236		13.671875
7237		17.578125
7238		15.625000
7239		17.578125
7240		15.625000
7241		19.531250
7242		17.578125
7243		21.484375
7244		17.578125
7245		21.484375
7246		17.578125
7247		23.437500
7248		19.531250
7249		23.437500
7250		21.484375
7251		25.390625
7252		21.484375
7253		25.390625
7254		21.484375
7255		25.390625
7256		23.437500
7257		27.343750
7258		23.437500
7259		27.343750
7260		25.390625
7261		29.296875
7262		27.343750
7263		31.250000
7264		25.390625
7265		31.250000
7266		27.343750
7267		31.250000
7268		29.296875
7269		33.203125
7270		29.296875
7271		33.203125
7272		31.250000
7273		33.203125
7274		31.250000
7275		35.156250
7276		31.250000
7277		35.156250
7278		33.203125
7279		37.109375
7280		33.203125
7281		37.109375
7282		33.203125
7283		37.109375
7284		35.156250
7285		39.062500
7286		37.109375
7287		39.062500
7288		37.109375
7289		41.015625
7290		39.062500
7291		41.015625
7292		39.062500
7293		42.968750
7294		39.062500
7295		42.968750
7296		39.062500
7297		42.968750
7298		41.015625
7299		44.921875
7300		41.015625
7301		44.921875
7302		41.015625
7303		44.921875
7304		42.968750
7305		46.875000
7306		42.968750
7307		46.875000
7308		44.921875
7309		46.875000
7310		44.921875
7311		46.875000
7312		44.921875
7313		48.828125
7314		46.875000
7315		48.828125
7316		46.875000
7317		50.781250
7318		46.875000
7319		50.781250
7320		46.875000
7321		50.781250
7322		48.828125
7323		50.781250
7324		48.828125
7325		52.734375
7326		48.828125
7327		52.734375
7328		48.828125
7329		52.734375
7330		48.828125
7331		52.734375
7332		50.781250
7333		54.687500
7334		50.781250
7335		54.687500
7336		50.781250
7337		54.687500
7338		50.781250
7339		54.687500
7340		52.734375
7341		54.687500
7342		52.734375
7343		56.640625
7344		52.734375
7345		56.640625
7346		52.734375
7347		56.640625
7348		54.687500
7349		56.640625
7350		54.687500
7351		56.640625
7352		54.687500
7353		58.593750
7354		54.687500
7355		58.593750
7356		54.687500
7357		58.593750
7358		54.687500
7359		58.593750
7360		54.687500
7361		58.593750
7362		54.687500
7363		58.593750
7364		56.640625
7365		58.593750
7366		54.687500
7367		60.546875
7368		56.640625
7369		60.546875
7370		54.687500
7371		60.546875
7372		56.640625
7373		58.593750
7374		56.640625
7375		60.546875
7376		56.640625
7377		58.593750
7378		56.640625
7379		60.546875
7380		56.640625
7381		62.500000
7382		56.640625
7383		60.546875
7384		56.640625
7385		60.546875
7386		56.640625
7387		60.546875
7388		56.640625
7389		60.546875
7390		56.640625
7391		60.546875
7392		56.640625
7393		60.546875
7394		56.640625
7395		60.546875
7396		56.640625
7397		60.546875
7398		56.640625
7399		60.546875
7400		56.640625
7401		60.546875
7402		56.640625
7403		60.546875
7404		56.640625
7405		60.546875
7406		56.640625
7407		60.546875
7408		56.640625
7409		60.546875
7410		56.640625
7411		60.546875
7412		56.640625
7413		60.546875
7414		56.640625
7415		58.593750
7416		56.640625
7417		58.593750
7418		54.687500
7419		58.593750
7420		54.687500
7421		58.593750
7422		54.687500
7423		58.593750
7424		54.687500
7425		58.593750
7426		54.687500
7427		58.593750
7428		54.687500
7429		56.640625
7430		52.734375
7431		56.640625
7432		52.734375
7433		56.640625
7434		52.734375
7435		56.640625
7436		52.734375
7437		56.640625
7438		52.734375
7439		54.687500
7440		50.781250
7441		54.687500
7442		50.781250
7443		54.687500
7444		50.781250
7445		54.687500
7446		50.781250
7447		54.687500
7448		50.781250
7449		52.734375
7450		48.828125
7451		52.734375
7452		48.828125
7453		52.734375
7454		48.828125
7455		52.734375
7456		48.828125
7457		50.781250
7458		46.875000
7459		50.781250
7460		44.921875
7461		50.781250
7462		46.875000
7463		48.828125
7464		46.875000
7465		48.828125
7466		44.921875
7467		48.828125
7468		42.968750
7469		46.875000
7470		42.968750
7471		46.875000
7472		42.968750
7473		46.875000
7474		42.968750
7475		46.875000
7476		41.015625
7477		44.921875
7478		41.015625
7479		44.921875
7480		39.062500
7481		42.968750
7482		39.062500
7483		42.968750
7484		39.062500
7485		42.968750
7486		37.109375
7487		42.968750
7488		37.109375
7489		41.015625
7490		37.109375
7491		39.062500
7492		35.156250
7493		39.062500
7494		35.156250
7495		39.062500
7496		33.203125
7497		39.062500
7498		33.203125
7499		37.109375
7500		33.203125
7501		35.156250
7502		31.250000
7503		35.156250
7504		31.250000
7505		35.156250
7506		29.296875
7507		35.156250
7508		29.296875
7509		33.203125
7510		29.296875
7511		31.250000
7512		27.343750
7513		31.250000
7514		25.390625
7515		29.296875
7516		25.390625
7517		29.296875
7518		23.437500
7519		27.343750
7520		23.437500
7521		27.343750
7522		23.437500
7523		27.343750
7524		21.484375
7525		25.390625
7526		21.484375
7527		25.390625
7528		19.531250
7529		23.437500
7530		19.531250
7531		23.437500
7532		19.531250
7533		21.484375
7534		17.578125
7535		21.484375
7536		15.625000
7537		19.531250
7538		15.625000
7539		19.531250
7540		13.671875
7541		19.531250
7542		13.671875
7543		17.578125
7544		11.718750
7545		15.625000
7546		11.718750
7547		15.625000
7548		9.765625
7549		13.671875
7550		9.765625
7551		11.718750
7552		7.812500
7553		11.718750
7554		7.812500
7555		11.718750
7556		5.859375
7557		9.765625
7558		3.906250
7559		9.765625
7560		3.906250
7561		7.812500
7562		3.906250
7563		5.859375
7564		1.953125
7565		5.859375
7566		1.953125
7567		3.906250
7568		-1.953125
7569		3.906250
7570		-1.953125
7571		1.953125
7572		-1.953125
7573		1.953125
7574		-3.906250
7575		0.000000
7576		-3.906250
7577		-1.953125
7578		-5.859375
7579		-1.953125
7580		-7.812500
7581		-3.906250
7582		-7.812500
7583		-3.906250
7584		-9.765625
7585		-3.906250
7586		-9.765625
7587		-5.859375
7588		-11.718750
7589		-7.812500
7590		-13.671875
7591		-7.812500
7592		-13.671875
7593		-9.765625
7594		-13.671875
7595		-11.718750
7596		-15.625000
7597		-11.718750
7598		-15.625000
7599		-11.718750
7600		-17.578125
7601		-13.671875
7602		-19.531250
7603		-15.625000
7604		-19.531250
7605		-15.625000
7606		-19.531250
7607		-15.625000
7608		-21.484375
7609		-17.578125
7610		-23.437500
7611		-19.531250
7612		-23.437500
7613		-19.531250
7614		-25.390625
7615		-21.484375
7616		-25.390625
7617		-23.437500
7618		-27.343750
7619		-23.437500
7620		-29.296875
7621		-23.437500
7622		-29.296875
7623		-25.390625
7624		-31.250000
7625		-27.343750
7626		-31.250000
7627		-27.343750
7628		-31.250000
7629		-29.296875
7630		-33.203125
7631		-29.296875
7632		-35.156250
7633		-29.296875
7634		-35.156250
7635		-31.250000
7636		-37.109375
7637		-33.203125
7638		-37.109375
7639		-33.203125
7640		-39.062500
7641		-35.156250
7642		-39.062500
7643		-35.156250
7644		-39.062500
7645		-35.156250
7646		-41.015625
7647		-37.109375
7648		-42.968750
7649		-39.062500
7650		-42.968750
7651		-39.062500
7652		-42.968750
7653		-41.015625
7654		-44.921875
7655		-41.015625
7656		-44.921875
7657		-41.015625
7658		-44.921875
7659		-42.968750
7660		-46.875000
7661		-42.968750
7662		-46.875000
7663		-44.921875
7664		-48.828125
7665		-44.921875
7666		-48.828125
7667		-44.921875
7668		-50.781250
7669		-46.875000
7670		-50.781250
7671		-46.875000
7672		-50.781250
7673		-48.828125
7674		-52.734375
7675		-48.828125
7676		-52.734375
7677		-48.828125
7678		-52.734375
7679		-50.781250
7680		-54.687500
7681		-50.781250
7682		-54.687500
7683		-50.781250
7684		-54.687500
7685		-52.734375
7686		-54.687500
7687		-52.734375
7688		-56.640625
7689		-52.734375
7690		-56.640625
7691		-52.734375
7692		-58.593750
7693		-54.687500
7694		-58.593750
7695		-54.687500
7696		-58.593750
7697		-54.687500
7698		-60.546875
7699		-56.640625
7700		-60.546875
7701		-56.640625
7702		-60.546875
7703		-56.640625
7704		-60.546875
7705		-56.640625
7706		-62.500000
7707		-58.593750
7708		-62.500000
7709		-58.593750
7710		-62.500000
7711		-58.593750
7712		-62.500000
7713		-60.546875
7714		-64.453125
7715		-60.546875
7716		-64.453125
7717		-60.546875
7718		-64.453125
7719		-60.546875
7720		-64.453125
7721		-60.546875
7722		-64.453125
7723		-62.500000
7724		-66.406250
7725		-62.500000
7726		-66.406250
7727		-62.500000
7728		-66.406250
7729		-62.500000
7730		-66.406250
7731		-62.500000
7732		-66.406250
7733		-62.500000
7734		-66.406250
7735		-62.500000
7736		-66.406250
7737		-64.453125
7738		-66.406250
7739		-64.453125
7740		-68.359375
7741		-64.453125
7742		-66.406250
7743		-64.453125
7744		-68.359375
7745		-64.453125
7746		-66.406250
7747		-64.453125
7748		-68.359375
7749		-64.453125
7750		-68.359375
7751		-64.453125
7752		-66.406250
7753		-64.453125
7754		-68.359375
7755		-64.453125
7756		-68.359375
7757		-64.453125
7758		-68.359375
7759		-64.453125
7760		-68.359375
7761		-64.453125
7762		-68.359375
7763		-64.453125
7764		-68.359375
7765		-64.453125
7766		-68.359375
7767		-64.453125
7768		-66.406250
7769		-64.453125
7770		-66.406250
7771		-62.500000
7772		-66.406250
7773		-62.500000
7774		-66.406250
7775		-62.500000
7776		-66.406250
7777		-64.453125
7778		-66.406250
7779		-62.500000
7780		-66.406250
7781		-62.500000
7782		-66.406250
7783		-62.500000
7784		-66.406250
7785		-62.500000
7786		-64.453125
7787		-62.500000
7788		-66.406250
7789		-60.546875
7790		-64.453125
7791		-60.546875
7792		-64.453125
7793		-60.546875
7794		-64.453125
7795		-60.546875
7796		-64.453125
7797		-60.546875
7798		-62.500000
7799		-58.593750
7800		-62.500000
7801		-58.593750
7802		-62.500000
7803		-58.593750
7804		-62.500000
7805		-56.640625
7806		-60.546875
7807		-56.640625
7808		-60.546875
7809		-56.640625
7810		-60.546875
7811		-56.640625
7812		-60.546875
7813		-56.640625
7814		-58.593750
7815		-56.640625
7816		-58.593750
7817		-54.687500
7818		-56.640625
7819		-54.687500
7820		-56.640625
7821		-52.734375
7822		-56.640625
7823		-52.734375
7824		-56.640625
7825		-52.734375
7826		-54.687500
7827		-50.781250
7828		-54.687500
7829		-50.781250
7830		-54.687500
7831		-50.781250
7832		-52.734375
7833		-48.828125
7834		-52.734375
7835		-48.828125
7836		-52.734375
7837		-48.828125
7838		-52.734375
7839		-46.875000
7840		-50.781250
7841		-46.875000
7842		-48.828125
7843		-46.875000
7844		-48.828125
7845		-44.921875
7846		-48.828125
7847		-42.968750
7848		-46.875000
7849		-42.968750
7850		-46.875000
7851		-42.968750
7852		-46.875000
7853		-42.968750
7854		-44.921875
7855		-42.968750
7856		-44.921875
7857		-41.015625
7858		-42.968750
7859		-39.062500
7860		-42.968750
7861		-39.062500
7862		-42.968750
7863		-37.109375
7864		-41.015625
7865		-37.109375
7866		-39.062500
7867		-37.109375
7868		-39.062500
7869		-35.156250
7870		-37.109375
7871		-35.156250
7872		-37.109375
7873		-33.203125
7874		-37.109375
7875		-33.203125
7876		-35.156250
7877		-31.250000
7878		-35.156250
7879		-29.296875
7880		-33.203125
7881		-29.296875
7882		-33.203125
7883		-29.296875
7884		-31.250000
7885		-27.343750
7886		-29.296875
7887		-27.343750
7888		-29.296875
7889		-25.390625
7890		-29.296875
7891		-25.390625
7892		-27.343750
7893		-23.437500
7894		-27.343750
7895		-21.484375
7896		-25.390625
7897		-21.484375
7898		-25.390625
7899		-19.531250
7900		-23.437500
7901		-19.531250
7902		-21.484375
7903		-19.531250
7904		-21.484375
7905		-17.578125
7906		-19.531250
7907		-15.625000
7908		-19.531250
7909		-15.625000
7910		-17.578125
7911		-13.671875
7912		-15.625000
7913		-13.671875
7914		-15.625000
7915		-11.718750
7916		-13.671875
7917		-11.718750
7918		-13.671875
7919		-9.765625
7920		-11.718750
7921		-7.812500
7922		-11.718750
7923		-5.859375
7924		-9.765625
7925		-7.812500
7926		-9.765625
7927		-5.859375
7928		-7.812500
7929		-5.859375
7930		-7.812500
7931		-3.906250
7932		-5.859375
7933		-1.953125
7934		-5.859375
7935		-1.953125
7936		-3.906250
7937		0.000000
7938		-1.953125
7939		0.000000
7940		-1.953125
7941		1.953125
7942		0.000000
7943		3.906250
7944		0.000000
7945		3.906250
7946		0.000000
7947		3.906250
7948		1.953125
7949		7.812500
7950		3.906250
7951		7.812500
7952		3.906250
7953		7.812500
7954		5.859375
7955		7.812500
7956		5.859375
7957		11.718750
7958		5.859375
7959		11.718750
7960		9.765625
7961		11.718750
7962		9.765625
7963		13.671875
7964		9.765625
7965		15.625000
7966		11.718750
7967		15.625000
7968		11.718750
7969		17.578125
7970		13.671875
7971		17.578125
7972		13.671875
7973		19.531250
7974		13.671875
7975		21.484375
7976		15.625000
7977		19.531250
7978		17.578125
7979		21.484375
7980		19.531250
7981		23.437500
7982		19.531250
7983		23.437500
7984		19.531250
7985		25.390625
7986		21.484375
7987		25.390625
7988		21.484375
7989		25.390625
7990		23.437500
7991		29.296875
7992		23.437500
7993		29.296875
7994		25.390625
7995		29.296875
7996		25.390625
7997		29.296875
7998		25.390625
7999		31.250000
8000		27.343750
8001		31.250000
8002		27.343750
8003		31.250000
8004		29.296875
8005		33.203125
8006		29.296875
8007		35.156250
8008		29.296875
8009		37.109375
8010		31.250000
8011		37.109375
8012		31.250000
8013		37.109375
8014		33.203125
8015		37.109375
8016		35.156250
8017		37.109375
8018		33.203125
8019		39.062500
8020		35.156250
8021		39.062500
8022		37.109375
8023		39.062500
8024		37.109375
8025		41.015625
8026		37.109375
8027		42.968750
8028		37.109375
8029		44.921875
8030		37.109375
8031		44.921875
8032		39.062500
8033		44.921875
8034		39.062500
8035		44.921875
8036		41.015625
8037		44.921875
8038		42.968750
8039		44.921875
8040		41.015625
8041		46.875000
8042		42.968750
8043		46.875000
8044		42.968750
8045		48.828125
8046		42.968750
8047		48.828125
8048		42.968750
8049		50.781250
8050		42.968750
8051		50.781250
8052		46.875000
8053		50.781250
8054		46.875000
8055		50.781250
8056		46.875000
8057		50.781250
8058		46.875000
8059		52.734375
8060		46.875000
8061		52.734375
8062		46.875000
8063		52.734375
8064		48.828125
8065		54.687500
8066		46.875000
8067		54.687500
8068		48.828125
8069		54.687500
8070		50.781250
8071		54.687500
8072		50.781250
8073		54.687500
8074		50.781250
8075		56.640625
8076		48.828125
8077		56.640625
8078		50.781250
8079		56.640625
8080		52.734375
8081		56.640625
8082		50.781250
8083		58.593750
8084		52.734375
8085		58.593750
8086		52.734375
8087		56.640625
8088		54.687500
8089		56.640625
8090		52.734375
8091		58.593750
8092		52.734375
8093		58.593750
8094		52.734375
8095		58.593750
8096		54.687500
8097		60.546875
8098		54.687500
8099		60.546875
8100		54.687500
8101		60.546875
8102		54.687500
8103		58.593750
8104		54.687500
8105		60.546875
8106		56.640625
8107		58.593750
8108		54.687500
8109		60.546875
8110		54.687500
8111		60.546875
8112		54.687500
8113		60.546875
8114		54.687500
8115		60.546875
8116		54.687500
8117		62.500000
8118		54.687500
8119		60.546875
8120		54.687500
8121		60.546875
8122		56.640625
8123		58.593750
8124		54.687500
8125		62.500000
8126		54.687500
8127		60.546875
8128		54.687500
8129		62.500000
8130		54.687500
8131		62.500000
8132		54.687500
8133		60.546875
8134		54.687500
8135		60.546875
8136		54.687500
8137		60.546875
8138		56.640625
8139		58.593750
8140		56.640625
8141		58.593750
8142		54.687500
8143		60.546875
8144		54.687500
8145		60.546875
8146		54.687500
8147		60.546875
8148		54.687500
8149		60.546875
8150		52.734375
8151		60.546875
8152		52.734375
8153		60.546875
8154		54.687500
8155		58.593750
8156		54.687500
8157		58.593750
8158		52.734375
8159		58.593750
8160		50.781250
8161		58.593750
8162		50.781250
8163		58.593750
8164		50.781250
8165		58.593750
8166		50.781250
8167		56.640625
8168		50.781250
8169		56.640625
8170		50.781250
8171		56.640625
8172		52.734375
8173		54.687500
8174		50.781250
8175		56.640625
8176		48.828125
8177		56.640625
8178		48.828125
8179		54.687500
8180		48.828125
8181		54.687500
8182		46.875000
8183		54.687500
8184		46.875000
8185		54.687500
8186		46.875000
8187		52.734375
8188		46.875000
8189		50.781250
8190		46.875000
8191		50.781250
8192		44.921875
8193		52.734375
8194		44.921875
8195		50.781250
8196		44.921875
8197		50.781250
8198		42.968750
8199		50.781250
8200		42.968750
8201		48.828125
8202		42.968750
8203		48.828125
8204		41.015625
8205		46.875000
8206		42.968750
8207		46.875000
8208		41.015625
8209		44.921875
8210		41.015625
8211		44.921875
8212		39.062500
8213		44.921875
8214		39.062500
8215		44.921875
8216		39.062500
8217		42.968750
8218		37.109375
8219		41.015625
8220		37.109375
8221		41.015625
8222		37.109375
8223		41.015625
8224		35.156250
8225		39.062500
8226		33.203125
8227		41.015625
8228		33.203125
8229		41.015625
8230		31.250000
8231		39.062500
8232		31.250000
8233		37.109375
8234		31.250000
8235		37.109375
8236		29.296875
8237		37.109375
8238		31.250000
8239		35.156250
8240		29.296875
8241		33.203125
8242		27.343750
8243		33.203125
8244		25.390625
8245		33.203125
8246		25.390625
8247		31.250000
8248		23.437500
8249		31.250000
8250		23.437500
8251		31.250000
8252		21.484375
8253		29.296875
8254		23.437500
8255		27.343750
8256		23.437500
8257		27.343750
8258		21.484375
8259		25.390625
8260		19.531250
8261		25.390625
8262		17.578125
8263		25.390625
8264		17.578125
8265		23.437500
8266		15.625000
8267		23.437500
8268		15.625000
8269		21.484375
8270		13.671875
8271		21.484375
8272		15.625000
8273		17.578125
8274		13.671875
8275		17.578125
8276		11.718750
8277		17.578125
8278		9.765625
8279		17.578125
8280		7.812500
8281		15.625000
8282		7.812500
8283		13.671875
8284		5.859375
8285		13.671875
8286		5.859375
8287		13.671875
8288		5.859375
8289		11.718750
8290		5.859375
8291		9.765625
8292		1.953125
8293		7.812500
8294		1.953125
8295		7.812500
8296		0.000000
8297		7.812500
8298		0.000000
8299		5.859375
8300		-1.953125
8301		3.906250
8302		-3.906250
8303		3.906250
8304		-3.906250
8305		3.906250
8306		-1.953125
8307		0.000000
8308		-3.906250
8309		0.000000
8310		-7.812500
8311		0.000000
8312		-7.812500
8313		-1.953125
8314		-9.765625
8315		-1.953125
8316		-9.765625
8317		-3.906250
8318		-11.718750
8319		-3.906250
8320		-11.718750
8321		-5.859375
8322		-11.718750
8323		-7.812500
8324		-13.671875
8325		-9.765625
8326		-15.625000
8327		-9.765625
8328		-17.578125
8329		-9.765625
8330		-17.578125
8331		-11.718750
8332		-17.578125
8333		-9.765625
8334		-19.531250
8335		-11.718750
8336		-21.484375
8337		-13.671875
8338		-19.531250
8339		-15.625000
8340		-21.484375
8341		-17.578125
8342		-23.437500
8343		-19.531250
8344		-25.390625
8345		-17.578125
8346		-27.343750
8347		-19.531250
8348		-27.343750
8349		-21.484375
8350		-27.343750
8351		-21.484375
8352		-29.296875
8353		-21.484375
8354		-29.296875
8355		-23.437500
8356		-29.296875
8357		-27.343750
8358		-31.250000
8359		-27.343750
8360		-33.203125
8361		-25.390625
8362		-33.203125
8363		-27.343750
8364		-35.156250
8365		-29.296875
8366		-35.156250
8367		-29.296875
8368		-37.109375
8369		-31.250000
8370		-37.109375
8371		-31.250000
8372		-39.062500
8373		-33.203125
8374		-39.062500
8375		-35.156250
8376		-42.968750
8377		-35.156250
8378		-41.015625
8379		-35.156250
8380		-42.968750
8381		-35.156250
8382		-42.968750
8383		-37.109375
8384		-44.921875
8385		-37.109375
8386		-44.921875
8387		-39.062500
8388		-44.921875
8389		-39.062500
8390		-46.875000
8391		-41.015625
8392		-44.921875
8393		-42.968750
8394		-48.828125
8395		-41.015625
8396		-48.828125
8397		-42.968750
8398		-50.781250
8399		-42.968750
8400		-50.781250
8401		-42.968750
8402		-50.781250
8403		-44.921875
8404		-52.734375
8405		-44.921875
8406		-50.781250
8407		-46.875000
8408		-52.734375
8409		-48.828125
8410		-52.734375
8411		-46.875000
8412		-54.687500
8413		-48.828125
8414		-56.640625
8415		-48.828125
8416		-56.640625
8417		-50.781250
8418		-56.640625
8419		-50.781250
8420		-56.640625
8421		-50.781250
8422		-56.640625
8423		-52.734375
8424		-58.593750
8425		-52.734375
8426		-58.593750
8427		-54.687500
8428		-60.546875
8429		-52.734375
8430		-58.593750
8431		-54.687500
8432		-60.546875
8433		-54.687500
8434		-60.546875
8435		-54.687500
8436		-62.500000
8437		-54.687500
8438		-62.500000
8439		-56.640625
8440		-60.546875
8441		-58.593750
8442		-62.500000
8443		-58.593750
8444		-64.453125
8445		-58.593750
8446		-64.453125
8447		-56.640625
8448		-64.453125
8449		-58.593750
8450		-64.453125
8451		-58.593750
8452		-64.453125
8453		-58.593750
8454		-66.406250
8455		-58.593750
8456		-66.406250
8457		-60.546875
8458		-64.453125
8459		-62.500000
8460		-68.359375
8461		-60.546875
8462		-68.359375
8463		-60.546875
8464		-68.359375
8465		-60.546875
8466		-68.359375
8467		-62.500000
8468		-68.359375
8469		-60.546875
8470		-68.359375
8471		-62.500000
8472		-68.359375
8473		-62.500000
8474		-66.406250
8475		-64.453125
8476		-68.359375
8477		-64.453125
8478		-68.359375
8479		-62.500000
8480		-68.359375
8481		-62.500000
8482		-70.312500
8483		-62.500000
8484		-70.312500
8485		-62.500000
8486		-68.359375
8487		-62.500000
8488		-68.359375
8489		-62.500000
8490		-68.359375
8491		-64.453125
8492		-68.359375
8493		-64.453125
8494		-70.312500
8495		-62.500000
8496		-68.359375
8497		-62.500000
8498		-68.359375
8499		-62.500000
8500		-68.359375
8501		-62.500000
8502		-68.359375
8503		-62.500000
8504		-70.312500
8505		-62.500000
8506		-68.359375
8507		-62.500000
8508		-66.406250
8509		-64.453125
8510		-66.406250
8511		-62.500000
8512		-68.359375
8513		-62.500000
8514		-68.359375
8515		-60.546875
8516		-68.359375
8517		-60.546875
8518		-68.359375
8519		-60.546875
8520		-68.359375
8521		-60.546875
8522		-66.406250
8523		-60.546875
8524		-64.453125
8525		-62.500000
8526		-64.453125
8527		-60.546875
8528		-66.406250
8529		-58.593750
8530		-66.406250
8531		-58.593750
8532		-66.406250
8533		-58.593750
8534		-64.453125
8535		-58.593750
8536		-64.453125
8537		-56.640625
8538		-62.500000
8539		-58.593750
8540		-62.500000
8541		-58.593750
8542		-60.546875
8543		-58.593750
8544		-62.500000
8545		-56.640625
8546		-62.500000
8547		-54.687500
8548		-60.546875
8549		-54.687500
8550		-60.546875
8551		-54.687500
8552		-60.546875
8553		-52.734375
8554		-60.546875
8555		-52.734375
8556		-58.593750
8557		-52.734375
8558		-56.640625
8559		-52.734375
8560		-56.640625
8561		-52.734375
8562		-56.640625
8563		-50.781250
8564		-56.640625
8565		-48.828125
8566		-54.687500
8567		-48.828125
8568		-54.687500
8569		-48.828125
8570		-54.687500
8571		-46.875000
8572		-54.687500
8573		-46.875000
8574		-52.734375
8575		-46.875000
8576		-50.781250
8577		-46.875000
8578		-50.781250
8579		-44.921875
8580		-50.781250
8581		-42.968750
8582		-50.781250
8583		-42.968750
8584		-48.828125
8585		-42.968750
8586		-48.828125
8587		-41.015625
8588		-46.875000
8589		-41.015625
8590		-46.875000
8591		-39.062500
8592		-44.921875
8593		-41.015625
8594		-42.968750
8595		-39.062500
8596		-44.921875
8597		-37.109375
8598		-42.968750
8599		-35.156250
8600		-41.015625
8601		-35.156250
8602		-41.015625
8603		-33.203125
8604		-39.062500
8605		-33.203125
8606		-39.062500
8607		-31.250000
8608		-35.156250
8609		-33.203125
8610		-35.156250
8611		-31.250000
8612		-37.109375
8613		-29.296875
8614		-35.156250
8615		-27.343750
8616		-35.156250
8617		-27.343750
8618		-33.203125
8619		-25.390625
8620		-33.203125
8621		-25.390625
8622		-31.250000
8623		-23.437500
8624		-29.296875
8625		-23.437500
8626		-27.343750
8627		-23.437500
8628		-27.343750
8629		-21.484375
8630		-27.343750
8631		-19.531250
8632		-27.343750
8633		-19.531250
8634		-25.390625
8635		-17.578125
8636		-23.437500
8637		-17.578125
8638		-23.437500
8639		-15.625000
8640		-21.484375
8641		-15.625000
8642		-17.578125
8643		-15.625000
8644		-17.578125
8645		-13.671875
8646		-17.578125
8647		-11.718750
8648		-17.578125
8649		-11.718750
8650		-15.625000
8651		-9.765625
8652		-15.625000
8653		-7.812500
8654		-13.671875
8655		-7.812500
8656		-13.671875
8657		-5.859375
8658		-11.718750
8659		-7.812500
8660		-9.765625
8661		-5.859375
8662		-7.812500
8663		-3.906250
8664		-7.812500
8665		-1.953125
8666		-7.812500
8667		0.000000
8668		-5.859375
8669		0.000000
8670		-5.859375
8671		1.953125
8672		-3.906250
8673		1.953125
8674		-3.906250
8675		3.906250
8676		0.000000
8677		1.953125
8678		0.000000
8679		5.859375
8680		0.000000
8681		5.859375
8682		1.953125
8683		7.812500
8684		3.906250
8685		7.812500
8686		3.906250
8687		9.765625
8688		3.906250
8689		11.718750
8690		5.859375
8691		11.718750
8692		7.812500
8693		11.718750
8694		9.765625
8695		11.718750
8696		9.765625
8697		15.625000
8698		9.765625
8699		15.625000
8700		9.765625
8701		17.578125
8702		11.718750
8703		17.578125
8704		13.671875
8705		19.531250
8706		13.671875
8707		19.531250
8708		15.625000
8709		21.484375
8710		17.578125
8711		19.531250
8712		17.578125
8713		23.437500
8714		17.578125
8715		25.390625
8716		19.531250
8717		25.390625
8718		19.531250
8719		25.390625
8720		19.531250
8721		27.343750
8722		23.437500
8723		27.343750
8724		21.484375
8725		27.343750
8726		25.390625
8727		27.343750
8728		25.390625
8729		29.296875
8730		25.390625
8731		31.250000
8732		25.390625
8733		33.203125
8734		25.390625
8735		33.203125
8736		27.343750
8737		33.203125
8738		27.343750
8739		35.156250
8740		29.296875
8741		35.156250
8742		29.296875
8743		35.156250
8744		31.250000
8745		37.109375
8746		31.250000
8747		39.062500
8748		31.250000
8749		39.062500
8750		33.203125
8751		39.062500
8752		35.156250
8753		41.015625
8754		35.156250
8755		41.015625
8756		35.156250
8757		41.015625
8758		35.156250
8759		42.968750
8760		39.062500
8761		41.015625
8762		39.062500
8763		42.968750
8764		37.109375
8765		44.921875
8766		39.062500
8767		44.921875
8768		39.062500
8769		46.875000
8770		41.015625
8771		46.875000
8772		41.015625
8773		46.875000
8774		41.015625
8775		48.828125
8776		42.968750
8777		46.875000
8778		44.921875
8779		46.875000
8780		44.921875
8781		50.781250
8782		44.921875
8783		50.781250
8784		44.921875
8785		50.781250
8786		44.921875
8787		50.781250
8788		46.875000
8789		52.734375
8790		46.875000
8791		52.734375
8792		46.875000
8793		52.734375
8794		48.828125
8795		52.734375
8796		48.828125
8797		54.687500
8798		48.828125
8799		54.687500
8800		48.828125
8801		54.687500
8802		48.828125
8803		56.640625
8804		48.828125
8805		56.640625
8806		50.781250
8807		56.640625
8808		50.781250
8809		56.640625
8810		52.734375
8811		54.687500
8812		52.734375
8813		56.640625
8814		52.734375
8815		58.593750
8816		52.734375
8817		58.593750
8818		54.687500
8819		58.593750
8820		52.734375
8821		58.593750
8822		52.734375
8823		58.593750
8824		52.734375
8825		58.593750
8826		52.734375
8827		58.593750
8828		54.687500
8829		58.593750
8830		54.687500
8831		60.546875
8832		54.687500
8833		60.546875
8834		54.687500
8835		60.546875
8836		54.687500
8837		60.546875
8838		54.687500
8839		60.546875
8840		54.687500
8841		62.500000
8842		54.687500
8843		60.546875
8844		56.640625
8845		60.546875
8846		56.640625
8847		58.593750
8848		54.687500
8849		62.500000
8850		54.687500
8851		62.500000
8852		54.687500
8853		60.546875
8854		54.687500
8855		62.500000
8856		56.640625
8857		62.500000
8858		56.640625
8859		60.546875
8860		56.640625
8861		60.546875
8862		56.640625
8863		60.546875
8864		54.687500
8865		60.546875
8866		54.687500
8867		62.500000
8868		54.687500
8869		60.546875
8870		54.687500
8871		60.546875
8872		54.687500
8873		60.546875
8874		54.687500
8875		60.546875
8876		54.687500
8877		60.546875
8878		56.640625
8879		58.593750
8880		54.687500
8881		60.546875
8882		52.734375
8883		60.546875
8884		54.687500
8885		60.546875
8886		54.687500
8887		60.546875
8888		52.734375
8889		60.546875
8890		52.734375
8891		58.593750
8892		52.734375
8893		58.593750
8894		52.734375
8895		56.640625
8896		54.687500
8897		56.640625
8898		50.781250
8899		58.593750
8900		50.781250
8901		58.593750
8902		50.781250
8903		56.640625
8904		50.781250
8905		56.640625
8906		50.781250
8907		56.640625
8908		48.828125
8909		56.640625
8910		48.828125
8911		54.687500
8912		50.781250
8913		52.734375
8914		48.828125
8915		54.687500
8916		46.875000
8917		54.687500
8918		46.875000
8919		54.687500
8920		46.875000
8921		52.734375
8922		46.875000
8923		52.734375
8924		46.875000
8925		52.734375
8926		44.921875
8927		50.781250
8928		46.875000
8929		48.828125
8930		44.921875
8931		48.828125
8932		44.921875
8933		48.828125
8934		42.968750
8935		48.828125
8936		41.015625
8937		48.828125
8938		41.015625
8939		48.828125
8940		41.015625
8941		46.875000
8942		41.015625
8943		46.875000
8944		41.015625
8945		44.921875
8946		41.015625
8947		42.968750
8948		37.109375
8949		44.921875
8950		39.062500
8951		44.921875
8952		37.109375
8953		42.968750
8954		35.156250
8955		42.968750
8956		35.156250
8957		41.015625
8958		33.203125
8959		41.015625
8960		33.203125
8961		39.062500
8962		35.156250
8963		37.109375
8964		31.250000
8965		37.109375
8966		31.250000
8967		37.109375
8968		29.296875
8969		37.109375
8970		29.296875
8971		35.156250
8972		27.343750
8973		35.156250
8974		27.343750
8975		33.203125
8976		25.390625
8977		33.203125
8978		27.343750
8979		31.250000
8980		27.343750
8981		29.296875
8982		23.437500
8983		31.250000
8984		23.437500
8985		29.296875
8986		21.484375
8987		29.296875
8988		21.484375
8989		27.343750
8990		19.531250
8991		27.343750
8992		19.531250
8993		25.390625
8994		17.578125
8995		25.390625
8996		19.531250
8997		23.437500
8998		15.625000
8999		21.484375
9000		15.625000
9001		23.437500
9002		15.625000
9003		21.484375
9004		13.671875
9005		19.531250
9006		13.671875
9007		19.531250
9008		11.718750
9009		17.578125
9010		11.718750
9011		17.578125
9012		11.718750
9013		15.625000
9014		9.765625
9015		13.671875
9016		7.812500
9017		13.671875
9018		5.859375
9019		13.671875
9020		5.859375
9021		11.718750
9022		3.906250
9023		11.718750
9024		3.906250
9025		9.765625
9026		1.953125
9027		9.765625
9028		3.906250
9029		7.812500
9030		1.953125
9031		5.859375
9032		-1.953125
9033		5.859375
9034		-3.906250
9035		5.859375
9036		-3.906250
9037		3.906250
9038		-3.906250
9039		3.906250
9040		-5.859375
9041		1.953125
9042		-5.859375
9043		0.000000
9044		-5.859375
9045		0.000000
9046		-5.859375
9047		-1.953125
9048		-9.765625
9049		-3.906250
9050		-9.765625
9051		-3.906250
9052		-11.718750
9053		-3.906250
9054		-13.671875
9055		-5.859375
9056		-13.671875
9057		-5.859375
9058		-13.671875
9059		-7.812500
9060		-15.625000
9061		-7.812500
9062		-13.671875
9063		-11.718750
9064		-15.625000
9065		-13.671875
9066		-19.531250
9067		-11.718750
9068		-19.531250
9069		-13.671875
9070		-21.484375
9071		-13.671875
9072		-21.484375
9073		-15.625000
9074		-23.437500
9075		-15.625000
9076		-23.437500
9077		-17.578125
9078		-23.437500
9079		-19.531250
9080		-25.390625
9081		-21.484375
9082		-25.390625
9083		-21.484375
9084		-29.296875
9085		-21.484375
9086		-29.296875
9087		-21.484375
9088		-29.296875
9089		-23.437500
9090		-31.250000
9091		-25.390625
9092		-31.250000
9093		-25.390625
9094		-33.203125
9095		-25.390625
9096		-33.203125
9097		-29.296875
9098		-33.203125
9099		-29.296875
9100		-35.156250
9101		-29.296875
9102		-37.109375
9103		-29.296875
9104		-37.109375
9105		-31.250000
9106		-39.062500
9107		-33.203125
9108		-39.062500
9109		-33.203125
9110		-41.015625
9111		-35.156250
9112		-39.062500
9113		-35.156250
9114		-41.015625
9115		-37.109375
9116		-42.968750
9117		-37.109375
9118		-42.968750
9119		-37.109375
9120		-44.921875
9121		-39.062500
9122		-44.921875
9123		-39.062500
9124		-46.875000
9125		-39.062500
9126		-46.875000
9127		-41.015625
9128		-46.875000
9129		-42.968750
9130		-46.875000
9131		-44.921875
9132		-48.828125
9133		-42.968750
9134		-50.781250
9135		-42.968750
9136		-50.781250
9137		-44.921875
9138		-50.781250
9139		-44.921875
9140		-52.734375
9141		-44.921875
9142		-54.687500
9143		-46.875000
9144		-54.687500
9145		-46.875000
9146		-52.734375
9147		-50.781250
9148		-54.687500
9149		-50.781250
9150		-56.640625
9151		-50.781250
9152		-56.640625
9153		-50.781250
9154		-56.640625
9155		-50.781250
9156		-58.593750
9157		-50.781250
9158		-58.593750
9159		-50.781250
9160		-58.593750
9161		-52.734375
9162		-58.593750
9163		-52.734375
9164		-58.593750
9165		-54.687500
9166		-58.593750
9167		-54.687500
9168		-62.500000
9169		-54.687500
9170		-62.500000
9171		-54.687500
9172		-62.500000
9173		-56.640625
9174		-62.500000
9175		-56.640625
9176		-62.500000
9177		-56.640625
9178		-62.500000
9179		-56.640625
9180		-62.500000
9181		-58.593750
9182		-62.500000
9183		-60.546875
9184		-64.453125
9185		-58.593750
9186		-64.453125
9187		-58.593750
9188		-66.406250
9189		-58.593750
9190		-66.406250
9191		-58.593750
9192		-66.406250
9193		-60.546875
9194		-66.406250
9195		-60.546875
9196		-64.453125
9197		-62.500000
9198		-66.406250
9199		-62.500000
9200		-68.359375
9201		-60.546875
9202		-68.359375
9203		-60.546875
9204		-68.359375
9205		-60.546875
9206		-68.359375
9207		-62.500000
9208		-68.359375
9209		-62.500000
9210		-68.359375
9211		-62.500000
9212		-68.359375
9213		-62.500000
9214		-66.406250
9215		-64.453125
9216		-66.406250
9217		-62.500000
9218		-70.312500
9219		-62.500000
9220		-68.359375
9221		-62.500000
9222		-68.359375
9223		-62.500000
9224		-68.359375
9225		-62.500000
9226		-68.359375
9227		-62.500000
9228		-68.359375
9229		-62.500000
9230		-66.406250
9231		-64.453125
9232		-66.406250
9233		-64.453125
9234		-66.406250
9235		-62.500000
9236		-68.359375
9237		-62.500000
9238		-68.359375
9239		-62.500000
9240		-68.359375
9241		-62.500000
9242		-68.359375
9243		-62.500000
9244		-66.406250
9245		-60.546875
9246		-66.406250
9247		-62.500000
9248		-64.453125
9249		-62.500000
9250		-64.453125
9251		-60.546875
9252		-66.406250
9253		-60.546875
9254		-66.406250
9255		-60.546875
9256		-66.406250
9257		-60.546875
9258		-66.406250
9259		-58.593750
9260		-64.453125
9261		-58.593750
9262		-66.406250
9263		-58.593750
9264		-62.500000
9265		-58.593750
9266		-62.500000
9267		-60.546875
9268		-64.453125
9269		-56.640625
9270		-62.500000
9271		-56.640625
9272		-62.500000
9273		-56.640625
9274		-62.500000
9275		-54.687500
9276		-62.500000
9277		-54.687500
9278		-60.546875
9279		-54.687500
9280		-58.593750
9281		-56.640625
9282		-58.593750
9283		-56.640625
9284		-60.546875
9285		-52.734375
9286		-58.593750
9287		-52.734375
9288		-58.593750
9289		-52.734375
9290		-56.640625
9291		-50.781250
9292		-56.640625
9293		-50.781250
9294		-56.640625
9295		-50.781250
9296		-56.640625
9297		-48.828125
9298		-52.734375
9299		-50.781250
9300		-52.734375
9301		-48.828125
9302		-54.687500
9303		-46.875000
9304		-52.734375
9305		-46.875000
9306		-52.734375
9307		-46.875000
9308		-50.781250
9309		-44.921875
9310		-50.781250
9311		-44.921875
9312		-48.828125
9313		-42.968750
9314		-46.875000
9315		-44.921875
9316		-46.875000
9317		-44.921875
9318		-46.875000
9319		-41.015625
9320		-46.875000
9321		-41.015625
9322		-46.875000
9323		-39.062500
9324		-46.875000
9325		-39.062500
9326		-44.921875
9327		-39.062500
9328		-44.921875
9329		-37.109375
9330		-41.015625
9331		-37.109375
9332		-41.015625
9333		-37.109375
9334		-41.015625
9335		-35.156250
9336		-41.015625
9337		-33.203125
9338		-39.062500
9339		-33.203125
9340		-37.109375
9341		-33.203125
9342		-37.109375
9343		-31.250000
9344		-37.109375
9345		-29.296875
9346		-35.156250
9347		-29.296875
9348		-33.203125
9349		-29.296875
9350		-31.250000
9351		-29.296875
9352		-33.203125
9353		-27.343750
9354		-31.250000
9355		-25.390625
9356		-31.250000
9357		-23.437500
9358		-29.296875
9359		-23.437500
9360		-27.343750
9361		-21.484375
9362		-27.343750
9363		-21.484375
9364		-27.343750
9365		-21.484375
9366		-25.390625
9367		-19.531250
9368		-25.390625
9369		-17.578125
9370		-23.437500
9371		-17.578125
9372		-23.437500
9373		-15.625000
9374		-21.484375
9375		-15.625000
9376		-19.531250
9377		-13.671875
9378		-19.531250
9379		-13.671875
9380		-17.578125
9381		-11.718750
9382		-15.625000
9383		-13.671875
9384		-15.625000
9385		-11.718750
9386		-13.671875
9387		-9.765625
9388		-13.671875
9389		-7.812500
9390		-13.671875
9391		-7.812500
9392		-13.671875
9393		-5.859375
9394		-11.718750
9395		-3.906250
9396		-9.765625
9397		-3.906250
9398		-7.812500
9399		-3.906250
9400		-5.859375
9401		-3.906250
9402		-5.859375
9403		0.000000
9404		-5.859375
9405		1.953125
9406		-3.906250
9407		1.953125
9408		-3.906250
9409		3.906250
9410		-1.953125
9411		3.906250
9412		-1.953125
9413		3.906250
9414		0.000000
9415		5.859375
9416		1.953125
9417		5.859375
9418		1.953125
9419		7.812500
9420		1.953125
9421		9.765625
9422		3.906250
9423		9.765625
9424		5.859375
9425		11.718750
9426		5.859375
9427		11.718750
9428		7.812500
9429		13.671875
9430		7.812500
9431		13.671875
9432		11.718750
9433		13.671875
9434		9.765625
9435		15.625000
9436		11.718750
9437		17.578125
9438		11.718750
9439		17.578125
9440		13.671875
9441		19.531250
9442		13.671875
9443		21.484375
9444		13.671875
9445		21.484375
9446		15.625000
9447		23.437500
9448		17.578125
9449		21.484375
9450		19.531250
9451		23.437500
9452		19.531250
9453		25.390625
9454		19.531250
9455		27.343750
9456		21.484375
9457		27.343750
9458		21.484375
9459		29.296875
9460		23.437500
9461		29.296875
9462		23.437500
9463		29.296875
9464		25.390625
9465		31.250000
9466		27.343750
9467		29.296875
9468		29.296875
9469		31.250000
9470		27.343750
9471		33.203125
9472		27.343750
9473		35.156250
9474		29.296875
9475		35.156250
9476		29.296875
9477		37.109375
9478		31.250000
9479		37.109375
9480		31.250000
9481		37.109375
9482		35.156250
9483		37.109375
9484		35.156250
9485		37.109375
9486		33.203125
9487		41.015625
9488		35.156250
9489		41.015625
9490		35.156250
9491		42.968750
9492		35.156250
9493		42.968750
9494		37.109375
9495		42.968750
9496		37.109375
9497		44.921875
9498		39.062500
9499		44.921875
9500		41.015625
9501		44.921875
9502		41.015625
9503		46.875000
9504		41.015625
9505		46.875000
9506		41.015625
9507		48.828125
9508		42.968750
9509		48.828125
9510		42.968750
9511		48.828125
9512		42.968750
9513		48.828125
9514		44.921875
9515		50.781250
9516		44.921875
9517		50.781250
9518		46.875000
9519		50.781250
9520		44.921875
9521		52.734375
9522		46.875000
9523		52.734375
9524		46.875000
9525		54.687500
9526		46.875000
9527		54.687500
9528		46.875000
9529		54.687500
9530		48.828125
9531		54.687500
9532		50.781250
9533		54.687500
9534		50.781250
9535		54.687500
9536		50.781250
9537		56.640625
9538		50.781250
9539		56.640625
9540		50.781250
9541		56.640625
9542		50.781250
9543		56.640625
9544		50.781250
9545		58.593750
9546		52.734375
9547		58.593750
9548		52.734375
9549		58.593750
9550		54.687500
9551		56.640625
9552		54.687500
9553		58.593750
9554		52.734375
9555		60.546875
9556		52.734375
9557		60.546875
9558		52.734375
9559		60.546875
9560		54.687500
9561		60.546875
9562		54.687500
9563		60.546875
9564		54.687500
9565		62.500000
9566		56.640625
9567		58.593750
9568		56.640625
9569		60.546875
9570		56.640625
9571		62.500000
9572		54.687500
9573		62.500000
9574		56.640625
9575		62.500000
9576		56.640625
9577		62.500000
9578		54.687500
9579		62.500000
9580		56.640625
9581		62.500000
9582		56.640625
9583		62.500000
9584		56.640625
9585		60.546875
9586		56.640625
9587		62.500000
9588		56.640625
9589		62.500000
9590		56.640625
9591		62.500000
9592		56.640625
9593		62.500000
9594		56.640625
9595		62.500000
9596		54.687500
9597		62.500000
9598		56.640625
9599		62.500000
9600		58.593750
9601		60.546875
9602		56.640625
9603		60.546875
9604		54.687500
9605		62.500000
9606		54.687500
9607		62.500000
9608		54.687500
9609		62.500000
9610		54.687500
9611		60.546875
9612		54.687500
9613		60.546875
9614		54.687500
9615		60.546875
9616		56.640625
9617		60.546875
9618		54.687500
9619		60.546875
9620		54.687500
9621		60.546875
9622		54.687500
9623		60.546875
9624		52.734375
9625		60.546875
9626		52.734375
9627		60.546875
9628		52.734375
9629		60.546875
9630		52.734375
9631		58.593750
9632		52.734375
9633		58.593750
9634		54.687500
9635		56.640625
9636		52.734375
9637		56.640625
9638		50.781250
9639		56.640625
9640		50.781250
9641		56.640625
9642		50.781250
9643		56.640625
9644		48.828125
9645		56.640625
9646		48.828125
9647		54.687500
9648		48.828125
9649		56.640625
9650		48.828125
9651		54.687500
9652		48.828125
9653		52.734375
9654		46.875000
9655		54.687500
9656		46.875000
9657		52.734375
9658		44.921875
9659		52.734375
9660		46.875000
9661		52.734375
9662		44.921875
9663		50.781250
9664		44.921875
9665		50.781250
9666		44.921875
9667		50.781250
9668		44.921875
9669		48.828125
9670		42.968750
9671		48.828125
9672		41.015625
9673		48.828125
9674		41.015625
9675		46.875000
9676		39.062500
9677		46.875000
9678		41.015625
9679		46.875000
9680		39.062500
9681		46.875000
9682		39.062500
9683		44.921875
9684		39.062500
9685		42.968750
9686		39.062500
9687		41.015625
9688		37.109375
9689		42.968750
9690		35.156250
9691		42.968750
9692		35.156250
9693		41.015625
9694		33.203125
9695		41.015625
9696		33.203125
9697		39.062500
9698		33.203125
9699		39.062500
9700		33.203125
9701		37.109375
9702		33.203125
9703		35.156250
9704		31.250000
9705		35.156250
9706		29.296875
9707		35.156250
9708		27.343750
9709		35.156250
9710		27.343750
9711		33.203125
9712		25.390625
9713		33.203125
9714		25.390625
9715		31.250000
9716		25.390625
9717		31.250000
9718		25.390625
9719		27.343750
9720		23.437500
9721		27.343750
9722		21.484375
9723		27.343750
9724		21.484375
9725		27.343750
9726		21.484375
9727		25.390625
9728		19.531250
9729		25.390625
9730		17.578125
9731		25.390625
9732		17.578125
9733		23.437500
9734		17.578125
9735		21.484375
9736		15.625000
9737		19.531250
9738		13.671875
9739		21.484375
9740		13.671875
9741		19.531250
9742		11.718750
9743		19.531250
9744		11.718750
9745		17.578125
9746		9.765625
9747		17.578125
9748		9.765625
9749		15.625000
9750		7.812500
9751		13.671875
9752		7.812500
9753		11.718750
9754		5.859375
9755		11.718750
9756		5.859375
9757		11.718750
9758		3.906250
9759		9.765625
9760		1.953125
9761		9.765625
9762		0.000000
9763		7.812500
9764		0.000000
9765		5.859375
9766		0.000000
9767		5.859375
9768		0.000000
9769		1.953125
9770		0.000000
9771		1.953125
9772		-3.906250
9773		1.953125
9774		-3.906250
9775		1.953125
9776		-5.859375
9777		1.953125
9778		-7.812500
9779		0.000000
9780		-7.812500
9781		-1.953125
9782		-9.765625
9783		-1.953125
9784		-9.765625
9785		-3.906250
9786		-9.765625
9787		-5.859375
9788		-11.718750
9789		-5.859375
9790		-13.671875
9791		-7.812500
9792		-13.671875
9793		-7.812500
9794		-15.625000
9795		-7.812500
9796		-17.578125
9797		-9.765625
9798		-17.578125
9799		-11.718750
9800		-19.531250
9801		-11.718750
9802		-17.578125
9803		-13.671875
9804		-19.531250
9805		-15.625000
9806		-21.484375
9807		-15.625000
9808		-23.437500
9809		-15.625000
9810		-23.437500
9811		-17.578125
9812		-25.390625
9813		-17.578125
9814		-25.390625
9815		-19.531250
9816		-27.343750
9817		-21.484375
9818		-25.390625
9819		-23.437500
9820		-27.343750
9821		-25.390625
9822		-29.296875
9823		-23.437500
9824		-33.203125
9825		-23.437500
9826		-33.203125
9827		-25.390625
9828		-33.203125
9829		-27.343750
9830		-35.156250
9831		-27.343750
9832		-35.156250
9833		-29.296875
9834		-35.156250
9835		-29.296875
9836		-35.156250
9837		-33.203125
9838		-37.109375
9839		-33.203125
9840		-39.062500
9841		-33.203125
9842		-39.062500
9843		-33.203125
9844		-41.015625
9845		-33.203125
9846		-41.015625
9847		-35.156250
9848		-42.968750
9849		-35.156250
9850		-42.968750
9851		-37.109375
9852		-42.968750
9853		-39.062500
9854		-42.968750
9855		-41.015625
9856		-46.875000
9857		-39.062500
9858		-46.875000
9859		-41.015625
9860		-46.875000
9861		-41.015625
9862		-48.828125
9863		-41.015625
9864		-48.828125
9865		-42.968750
9866		-50.781250
9867		-42.968750
9868		-50.781250
9869		-44.921875
9870		-48.828125
9871		-46.875000
9872		-52.734375
9873		-46.875000
9874		-52.734375
9875		-44.921875
9876		-54.687500
9877		-46.875000
9878		-54.687500
9879		-46.875000
9880		-54.687500
9881		-48.828125
9882		-56.640625
9883		-48.828125
9884		-56.640625
9885		-48.828125
9886		-54.687500
9887		-52.734375
9888		-56.640625
9889		-52.734375
9890		-56.640625
9891		-50.781250
9892		-58.593750
9893		-52.734375
9894		-58.593750
9895		-52.734375
9896		-58.593750
9897		-52.734375
9898		-60.546875
9899		-54.687500
9900		-60.546875
9901		-54.687500
9902		-58.593750
9903		-56.640625
9904		-60.546875
9905		-56.640625
9906		-62.500000
9907		-56.640625
9908		-62.500000
9909		-56.640625
9910		-62.500000
9911		-56.640625
9912		-62.500000
9913		-56.640625
9914		-64.453125
9915		-58.593750
9916		-64.453125
9917		-56.640625
9918		-64.453125
9919		-58.593750
9920		-62.500000
9921		-60.546875
9922		-64.453125
9923		-58.593750
9924		-66.406250
9925		-60.546875
9926		-66.406250
9927		-58.593750
9928		-66.406250
9929		-60.546875
9930		-66.406250
9931		-60.546875
9932		-66.406250
9933		-60.546875
9934		-66.406250
9935		-60.546875
9936		-64.453125
9937		-62.500000
9938		-66.406250
9939		-62.500000
9940		-68.359375
9941		-60.546875
9942		-68.359375
9943		-60.546875
9944		-68.359375
9945		-60.546875
9946		-68.359375
9947		-62.500000
9948		-68.359375
9949		-60.546875
9950		-68.359375
9951		-60.546875
9952		-68.359375
9953		-62.500000
9954		-66.406250
9955		-64.453125
9956		-68.359375
9957		-62.500000
9958		-68.359375
9959		-62.500000
9960		-68.359375
9961		-62.500000
9962		-68.359375
9963		-62.500000
9964		-68.359375
9965		-60.546875
9966		-68.359375
9967		-60.546875
9968		-68.359375
9969		-62.500000
9970		-66.406250
9971		-62.500000
9972		-66.406250
9973		-62.500000
9974		-68.359375
9975		-62.500000
9976		-68.359375
9977		-60.546875
9978		-66.406250
9979		-60.546875
9980		-66.406250
9981		-60.546875
9982		-66.406250
9983		-60.546875
9984		-66.406250
9985		-58.593750
9986		-64.453125
9987		-60.546875
9988		-64.453125
9989		-60.546875
9990		-64.453125
9991		-60.546875
9992		-66.406250
9993		-58.593750
9994		-66.406250
9995		-56.640625
9996		-64.453125
9997		-58.593750
9998		-64.453125
9999		-58.593750
10000		-62.500000
