Channel              :		CH1
Frequency            :		682.1Hz
Period               :		1.466ms
PK-PK                :		132.8mV
Probe attenuation    :		1X
Voltage per ADC value:		0.122070mV
Time interval        :		2.00000us

index		CH1_Voltage(mV)
1		54.687500
2		54.687500
3		50.781250
4		54.687500
5		50.781250
6		54.687500
7		50.781250
8		54.687500
9		52.734375
10		56.640625
11		52.734375
12		56.640625
13		52.734375
14		56.640625
15		52.734375
16		56.640625
17		52.734375
18		56.640625
19		54.687500
20		56.640625
21		52.734375
22		58.593750
23		52.734375
24		56.640625
25		54.687500
26		58.593750
27		54.687500
28		58.593750
29		54.687500
30		58.593750
31		54.687500
32		58.593750
33		54.687500
34		58.593750
35		54.687500
36		58.593750
37		54.687500
38		58.593750
39		54.687500
40		58.593750
41		54.687500
42		58.593750
43		54.687500
44		58.593750
45		56.640625
46		58.593750
47		54.687500
48		60.546875
49		54.687500
50		58.593750
51		54.687500
52		58.593750
53		54.687500
54		58.593750
55		56.640625
56		58.593750
57		54.687500
58		58.593750
59		54.687500
60		58.593750
61		54.687500
62		58.593750
63		54.687500
64		58.593750
65		54.687500
66		58.593750
67		54.687500
68		58.593750
69		54.687500
70		58.593750
71		54.687500
72		56.640625
73		54.687500
74		58.593750
75		52.734375
76		56.640625
77		52.734375
78		56.640625
79		52.734375
80		56.640625
81		52.734375
82		56.640625
83		52.734375
84		56.640625
85		52.734375
86		56.640625
87		52.734375
88		56.640625
89		50.781250
90		56.640625
91		50.781250
92		54.687500
93		50.781250
94		54.687500
95		50.781250
96		54.687500
97		50.781250
98		54.687500
99		50.781250
100		54.687500
101		48.828125
102		54.687500
103		48.828125
104		52.734375
105		48.828125
106		52.734375
107		46.875000
108		52.734375
109		46.875000
110		50.781250
111		46.875000
112		50.781250
113		46.875000
114		50.781250
115		46.875000
116		50.781250
117		44.921875
118		50.781250
119		44.921875
120		48.828125
121		44.921875
122		48.828125
123		44.921875
124		48.828125
125		42.968750
126		46.875000
127		42.968750
128		46.875000
129		41.015625
130		46.875000
131		41.015625
132		44.921875
133		41.015625
134		44.921875
135		39.062500
136		44.921875
137		39.062500
138		42.968750
139		39.062500
140		42.968750
141		39.062500
142		41.015625
143		37.109375
144		41.015625
145		37.109375
146		41.015625
147		35.156250
148		39.062500
149		35.156250
150		39.062500
151		33.203125
152		39.062500
153		35.156250
154		37.109375
155		33.203125
156		37.109375
157		31.250000
158		37.109375
159		31.250000
160		35.156250
161		31.250000
162		35.156250
163		31.250000
164		33.203125
165		29.296875
166		33.203125
167		27.343750
168		33.203125
169		27.343750
170		31.250000
171		27.343750
172		29.296875
173		25.390625
174		29.296875
175		25.390625
176		29.296875
177		23.437500
178		27.343750
179		23.437500
180		27.343750
181		21.484375
182		25.390625
183		21.484375
184		25.390625
185		19.531250
186		23.437500
187		19.531250
188		23.437500
189		19.531250
190		21.484375
191		17.578125
192		23.437500
193		17.578125
194		21.484375
195		15.625000
196		19.531250
197		15.625000
198		17.578125
199		13.671875
200		17.578125
201		13.671875
202		17.578125
203		11.718750
204		15.625000
205		9.765625
206		15.625000
207		9.765625
208		13.671875
209		7.812500
210		11.718750
211		7.812500
212		11.718750
213		5.859375
214		11.718750
215		5.859375
216		9.765625
217		5.859375
218		9.765625
219		3.906250
220		7.812500
221		3.906250
222		5.859375
223		1.953125
224		5.859375
225		1.953125
226		3.906250
227		0.000000
228		3.906250
229		-1.953125
230		3.906250
231		-1.953125
232		1.953125
233		-3.906250
234		0.000000
235		-3.906250
236		0.000000
237		-5.859375
238		-1.953125
239		-7.812500
240		-3.906250
241		-7.812500
242		-3.906250
243		-7.812500
244		-5.859375
245		-9.765625
246		-5.859375
247		-9.765625
248		-7.812500
249		-11.718750
250		-7.812500
251		-13.671875
252		-7.812500
253		-13.671875
254		-9.765625
255		-15.625000
256		-11.718750
257		-17.578125
258		-11.718750
259		-15.625000
260		-11.718750
261		-17.578125
262		-13.671875
263		-19.531250
264		-13.671875
265		-19.531250
266		-15.625000
267		-21.484375
268		-17.578125
269		-21.484375
270		-17.578125
271		-23.437500
272		-19.531250
273		-25.390625
274		-19.531250
275		-23.437500
276		-21.484375
277		-25.390625
278		-21.484375
279		-27.343750
280		-23.437500
281		-27.343750
282		-23.437500
283		-29.296875
284		-25.390625
285		-29.296875
286		-25.390625
287		-29.296875
288		-25.390625
289		-31.250000
290		-27.343750
291		-33.203125
292		-27.343750
293		-33.203125
294		-29.296875
295		-35.156250
296		-29.296875
297		-35.156250
298		-31.250000
299		-35.156250
300		-33.203125
301		-37.109375
302		-33.203125
303		-37.109375
304		-33.203125
305		-39.062500
306		-35.156250
307		-41.015625
308		-35.156250
309		-39.062500
310		-37.109375
311		-41.015625
312		-37.109375
313		-42.968750
314		-37.109375
315		-42.968750
316		-39.062500
317		-42.968750
318		-39.062500
319		-44.921875
320		-41.015625
321		-44.921875
322		-41.015625
323		-44.921875
324		-42.968750
325		-46.875000
326		-42.968750
327		-46.875000
328		-42.968750
329		-46.875000
330		-44.921875
331		-48.828125
332		-44.921875
333		-48.828125
334		-44.921875
335		-48.828125
336		-44.921875
337		-50.781250
338		-46.875000
339		-50.781250
340		-48.828125
341		-52.734375
342		-48.828125
343		-52.734375
344		-48.828125
345		-52.734375
346		-48.828125
347		-54.687500
348		-50.781250
349		-54.687500
350		-50.781250
351		-54.687500
352		-50.781250
353		-56.640625
354		-50.781250
355		-54.687500
356		-52.734375
357		-54.687500
358		-52.734375
359		-56.640625
360		-52.734375
361		-56.640625
362		-52.734375
363		-58.593750
364		-54.687500
365		-58.593750
366		-54.687500
367		-58.593750
368		-54.687500
369		-58.593750
370		-54.687500
371		-58.593750
372		-54.687500
373		-58.593750
374		-56.640625
375		-60.546875
376		-56.640625
377		-60.546875
378		-56.640625
379		-60.546875
380		-56.640625
381		-60.546875
382		-56.640625
383		-62.500000
384		-58.593750
385		-62.500000
386		-58.593750
387		-62.500000
388		-58.593750
389		-62.500000
390		-58.593750
391		-62.500000
392		-58.593750
393		-62.500000
394		-58.593750
395		-64.453125
396		-58.593750
397		-62.500000
398		-58.593750
399		-62.500000
400		-58.593750
401		-64.453125
402		-58.593750
403		-64.453125
404		-58.593750
405		-62.500000
406		-60.546875
407		-62.500000
408		-58.593750
409		-64.453125
410		-60.546875
411		-64.453125
412		-60.546875
413		-64.453125
414		-58.593750
415		-62.500000
416		-60.546875
417		-64.453125
418		-60.546875
419		-64.453125
420		-60.546875
421		-64.453125
422		-60.546875
423		-62.500000
424		-60.546875
425		-64.453125
426		-60.546875
427		-62.500000
428		-60.546875
429		-62.500000
430		-60.546875
431		-62.500000
432		-58.593750
433		-62.500000
434		-60.546875
435		-62.500000
436		-58.593750
437		-64.453125
438		-58.593750
439		-62.500000
440		-58.593750
441		-62.500000
442		-58.593750
443		-62.500000
444		-58.593750
445		-62.500000
446		-58.593750
447		-60.546875
448		-56.640625
449		-60.546875
450		-58.593750
451		-60.546875
452		-56.640625
453		-62.500000
454		-56.640625
455		-60.546875
456		-56.640625
457		-58.593750
458		-56.640625
459		-60.546875
460		-54.687500
461		-58.593750
462		-54.687500
463		-58.593750
464		-54.687500
465		-58.593750
466		-54.687500
467		-56.640625
468		-54.687500
469		-56.640625
470		-54.687500
471		-56.640625
472		-52.734375
473		-54.687500
474		-52.734375
475		-54.687500
476		-50.781250
477		-54.687500
478		-50.781250
479		-54.687500
480		-50.781250
481		-54.687500
482		-50.781250
483		-52.734375
484		-48.828125
485		-52.734375
486		-48.828125
487		-52.734375
488		-48.828125
489		-50.781250
490		-46.875000
491		-50.781250
492		-46.875000
493		-50.781250
494		-46.875000
495		-50.781250
496		-44.921875
497		-48.828125
498		-44.921875
499		-46.875000
500		-44.921875
501		-46.875000
502		-42.968750
503		-46.875000
504		-42.968750
505		-44.921875
506		-41.015625
507		-44.921875
508		-41.015625
509		-44.921875
510		-41.015625
511		-42.968750
512		-41.015625
513		-42.968750
514		-39.062500
515		-42.968750
516		-37.109375
517		-41.015625
518		-37.109375
519		-41.015625
520		-37.109375
521		-39.062500
522		-35.156250
523		-39.062500
524		-35.156250
525		-37.109375
526		-33.203125
527		-37.109375
528		-31.250000
529		-35.156250
530		-33.203125
531		-35.156250
532		-31.250000
533		-33.203125
534		-29.296875
535		-33.203125
536		-29.296875
537		-33.203125
538		-27.343750
539		-33.203125
540		-27.343750
541		-29.296875
542		-27.343750
543		-29.296875
544		-25.390625
545		-29.296875
546		-25.390625
547		-27.343750
548		-23.437500
549		-27.343750
550		-23.437500
551		-25.390625
552		-21.484375
553		-25.390625
554		-19.531250
555		-23.437500
556		-19.531250
557		-23.437500
558		-19.531250
559		-21.484375
560		-17.578125
561		-21.484375
562		-17.578125
563		-19.531250
564		-15.625000
565		-19.531250
566		-13.671875
567		-17.578125
568		-13.671875
569		-17.578125
570		-11.718750
571		-15.625000
572		-11.718750
573		-13.671875
574		-11.718750
575		-13.671875
576		-9.765625
577		-13.671875
578		-9.765625
579		-11.718750
580		-7.812500
581		-11.718750
582		-5.859375
583		-9.765625
584		-5.859375
585		-9.765625
586		-3.906250
587		-7.812500
588		-3.906250
589		-7.812500
590		-1.953125
591		-5.859375
592		-1.953125
593		-3.906250
594		0.000000
595		-3.906250
596		0.000000
597		-1.953125
598		1.953125
599		-1.953125
600		1.953125
601		0.000000
602		3.906250
603		0.000000
604		3.906250
605		1.953125
606		5.859375
607		1.953125
608		5.859375
609		3.906250
610		7.812500
611		3.906250
612		9.765625
613		5.859375
614		9.765625
615		5.859375
616		11.718750
617		7.812500
618		11.718750
619		7.812500
620		11.718750
621		9.765625
622		13.671875
623		9.765625
624		13.671875
625		11.718750
626		15.625000
627		11.718750
628		17.578125
629		13.671875
630		17.578125
631		13.671875
632		19.531250
633		15.625000
634		19.531250
635		17.578125
636		19.531250
637		17.578125
638		21.484375
639		19.531250
640		21.484375
641		19.531250
642		23.437500
643		19.531250
644		23.437500
645		21.484375
646		23.437500
647		21.484375
648		25.390625
649		23.437500
650		27.343750
651		23.437500
652		27.343750
653		25.390625
654		27.343750
655		25.390625
656		29.296875
657		27.343750
658		29.296875
659		27.343750
660		31.250000
661		27.343750
662		31.250000
663		29.296875
664		33.203125
665		29.296875
666		35.156250
667		31.250000
668		33.203125
669		31.250000
670		35.156250
671		33.203125
672		35.156250
673		33.203125
674		37.109375
675		33.203125
676		37.109375
677		35.156250
678		37.109375
679		35.156250
680		39.062500
681		35.156250
682		39.062500
683		37.109375
684		39.062500
685		37.109375
686		41.015625
687		39.062500
688		41.015625
689		39.062500
690		42.968750
691		39.062500
692		42.968750
693		41.015625
694		44.921875
695		39.062500
696		44.921875
697		41.015625
698		44.921875
699		42.968750
700		44.921875
701		42.968750
702		46.875000
703		42.968750
704		46.875000
705		44.921875
706		46.875000
707		44.921875
708		48.828125
709		44.921875
710		48.828125
711		44.921875
712		48.828125
713		44.921875
714		50.781250
715		46.875000
716		50.781250
717		46.875000
718		50.781250
719		46.875000
720		50.781250
721		46.875000
722		50.781250
723		48.828125
724		52.734375
725		48.828125
726		52.734375
727		50.781250
728		52.734375
729		48.828125
730		54.687500
731		50.781250
732		54.687500
733		50.781250
734		54.687500
735		50.781250
736		54.687500
737		52.734375
738		54.687500
739		50.781250
740		54.687500
741		52.734375
742		56.640625
743		52.734375
744		56.640625
745		52.734375
746		56.640625
747		52.734375
748		56.640625
749		52.734375
750		56.640625
751		52.734375
752		56.640625
753		54.687500
754		56.640625
755		54.687500
756		56.640625
757		54.687500
758		58.593750
759		54.687500
760		56.640625
761		54.687500
762		58.593750
763		54.687500
764		58.593750
765		54.687500
766		58.593750
767		54.687500
768		58.593750
769		54.687500
770		58.593750
771		54.687500
772		60.546875
773		54.687500
774		58.593750
775		56.640625
776		58.593750
777		54.687500
778		58.593750
779		54.687500
780		58.593750
781		56.640625
782		58.593750
783		54.687500
784		60.546875
785		54.687500
786		58.593750
787		54.687500
788		58.593750
789		54.687500
790		60.546875
791		54.687500
792		58.593750
793		54.687500
794		58.593750
795		54.687500
796		58.593750
797		54.687500
798		58.593750
799		54.687500
800		58.593750
801		54.687500
802		58.593750
803		54.687500
804		58.593750
805		52.734375
806		58.593750
807		52.734375
808		58.593750
809		54.687500
810		56.640625
811		54.687500
812		58.593750
813		52.734375
814		56.640625
815		52.734375
816		56.640625
817		52.734375
818		56.640625
819		52.734375
820		56.640625
821		52.734375
822		56.640625
823		52.734375
824		54.687500
825		50.781250
826		56.640625
827		50.781250
828		54.687500
829		48.828125
830		54.687500
831		50.781250
832		54.687500
833		50.781250
834		54.687500
835		48.828125
836		52.734375
837		48.828125
838		52.734375
839		48.828125
840		52.734375
841		48.828125
842		52.734375
843		48.828125
844		50.781250
845		46.875000
846		50.781250
847		46.875000
848		50.781250
849		46.875000
850		50.781250
851		44.921875
852		48.828125
853		44.921875
854		48.828125
855		44.921875
856		48.828125
857		42.968750
858		48.828125
859		42.968750
860		46.875000
861		42.968750
862		46.875000
863		42.968750
864		46.875000
865		41.015625
866		44.921875
867		41.015625
868		44.921875
869		41.015625
870		42.968750
871		39.062500
872		42.968750
873		39.062500
874		42.968750
875		39.062500
876		42.968750
877		37.109375
878		41.015625
879		37.109375
880		41.015625
881		37.109375
882		39.062500
883		35.156250
884		39.062500
885		35.156250
886		37.109375
887		33.203125
888		37.109375
889		33.203125
890		37.109375
891		31.250000
892		37.109375
893		31.250000
894		35.156250
895		31.250000
896		35.156250
897		29.296875
898		33.203125
899		29.296875
900		33.203125
901		27.343750
902		33.203125
903		27.343750
904		31.250000
905		27.343750
906		31.250000
907		25.390625
908		29.296875
909		25.390625
910		29.296875
911		23.437500
912		29.296875
913		23.437500
914		27.343750
915		21.484375
916		25.390625
917		21.484375
918		25.390625
919		21.484375
920		23.437500
921		19.531250
922		23.437500
923		17.578125
924		23.437500
925		17.578125
926		21.484375
927		15.625000
928		19.531250
929		13.671875
930		19.531250
931		13.671875
932		19.531250
933		13.671875
934		17.578125
935		13.671875
936		15.625000
937		9.765625
938		15.625000
939		9.765625
940		15.625000
941		7.812500
942		13.671875
943		7.812500
944		11.718750
945		7.812500
946		11.718750
947		5.859375
948		11.718750
949		3.906250
950		9.765625
951		3.906250
952		7.812500
953		3.906250
954		5.859375
955		1.953125
956		7.812500
957		1.953125
958		5.859375
959		0.000000
960		5.859375
961		0.000000
962		1.953125
963		-1.953125
964		1.953125
965		-1.953125
966		1.953125
967		-3.906250
968		0.000000
969		-3.906250
970		-1.953125
971		-5.859375
972		-1.953125
973		-5.859375
974		-3.906250
975		-7.812500
976		-3.906250
977		-9.765625
978		-3.906250
979		-9.765625
980		-5.859375
981		-11.718750
982		-5.859375
983		-11.718750
984		-7.812500
985		-13.671875
986		-7.812500
987		-13.671875
988		-9.765625
989		-15.625000
990		-11.718750
991		-15.625000
992		-11.718750
993		-17.578125
994		-13.671875
995		-17.578125
996		-13.671875
997		-19.531250
998		-15.625000
999		-19.531250
1000		-15.625000
1001		-21.484375
1002		-17.578125
1003		-23.437500
1004		-17.578125
1005		-23.437500
1006		-19.531250
1007		-25.390625
1008		-19.531250
1009		-25.390625
1010		-21.484375
1011		-25.390625
1012		-23.437500
1013		-29.296875
1014		-23.437500
1015		-27.343750
1016		-25.390625
1017		-29.296875
1018		-25.390625
1019		-29.296875
1020		-25.390625
1021		-31.250000
1022		-27.343750
1023		-33.203125
1024		-27.343750
1025		-33.203125
1026		-29.296875
1027		-33.203125
1028		-31.250000
1029		-35.156250
1030		-31.250000
1031		-35.156250
1032		-31.250000
1033		-37.109375
1034		-33.203125
1035		-37.109375
1036		-33.203125
1037		-37.109375
1038		-35.156250
1039		-39.062500
1040		-35.156250
1041		-39.062500
1042		-35.156250
1043		-41.015625
1044		-37.109375
1045		-41.015625
1046		-37.109375
1047		-42.968750
1048		-39.062500
1049		-42.968750
1050		-39.062500
1051		-42.968750
1052		-39.062500
1053		-44.921875
1054		-41.015625
1055		-44.921875
1056		-41.015625
1057		-44.921875
1058		-42.968750
1059		-46.875000
1060		-42.968750
1061		-46.875000
1062		-44.921875
1063		-48.828125
1064		-44.921875
1065		-48.828125
1066		-44.921875
1067		-48.828125
1068		-46.875000
1069		-50.781250
1070		-46.875000
1071		-50.781250
1072		-46.875000
1073		-50.781250
1074		-46.875000
1075		-52.734375
1076		-48.828125
1077		-52.734375
1078		-48.828125
1079		-52.734375
1080		-50.781250
1081		-54.687500
1082		-50.781250
1083		-54.687500
1084		-50.781250
1085		-54.687500
1086		-50.781250
1087		-56.640625
1088		-52.734375
1089		-56.640625
1090		-52.734375
1091		-56.640625
1092		-52.734375
1093		-58.593750
1094		-52.734375
1095		-58.593750
1096		-52.734375
1097		-58.593750
1098		-54.687500
1099		-58.593750
1100		-54.687500
1101		-58.593750
1102		-54.687500
1103		-58.593750
1104		-56.640625
1105		-60.546875
1106		-56.640625
1107		-60.546875
1108		-56.640625
1109		-60.546875
1110		-56.640625
1111		-60.546875
1112		-56.640625
1113		-60.546875
1114		-56.640625
1115		-62.500000
1116		-58.593750
1117		-62.500000
1118		-58.593750
1119		-62.500000
1120		-58.593750
1121		-62.500000
1122		-58.593750
1123		-62.500000
1124		-58.593750
1125		-62.500000
1126		-58.593750
1127		-62.500000
1128		-58.593750
1129		-62.500000
1130		-60.546875
1131		-64.453125
1132		-58.593750
1133		-64.453125
1134		-58.593750
1135		-62.500000
1136		-60.546875
1137		-62.500000
1138		-58.593750
1139		-64.453125
1140		-60.546875
1141		-64.453125
1142		-60.546875
1143		-64.453125
1144		-60.546875
1145		-62.500000
1146		-60.546875
1147		-64.453125
1148		-60.546875
1149		-64.453125
1150		-60.546875
1151		-64.453125
1152		-60.546875
1153		-64.453125
1154		-60.546875
1155		-64.453125
1156		-60.546875
1157		-64.453125
1158		-60.546875
1159		-62.500000
1160		-60.546875
1161		-64.453125
1162		-58.593750
1163		-62.500000
1164		-60.546875
1165		-62.500000
1166		-58.593750
1167		-62.500000
1168		-58.593750
1169		-62.500000
1170		-58.593750
1171		-62.500000
1172		-58.593750
1173		-62.500000
1174		-58.593750
1175		-62.500000
1176		-58.593750
1177		-62.500000
1178		-58.593750
1179		-62.500000
1180		-56.640625
1181		-60.546875
1182		-56.640625
1183		-60.546875
1184		-56.640625
1185		-60.546875
1186		-56.640625
1187		-60.546875
1188		-56.640625
1189		-58.593750
1190		-54.687500
1191		-58.593750
1192		-54.687500
1193		-58.593750
1194		-54.687500
1195		-58.593750
1196		-54.687500
1197		-56.640625
1198		-54.687500
1199		-58.593750
1200		-52.734375
1201		-56.640625
1202		-52.734375
1203		-56.640625
1204		-52.734375
1205		-54.687500
1206		-52.734375
1207		-56.640625
1208		-50.781250
1209		-54.687500
1210		-50.781250
1211		-54.687500
1212		-50.781250
1213		-52.734375
1214		-50.781250
1215		-52.734375
1216		-48.828125
1217		-52.734375
1218		-48.828125
1219		-50.781250
1220		-48.828125
1221		-50.781250
1222		-46.875000
1223		-50.781250
1224		-46.875000
1225		-50.781250
1226		-44.921875
1227		-48.828125
1228		-44.921875
1229		-48.828125
1230		-44.921875
1231		-46.875000
1232		-44.921875
1233		-46.875000
1234		-42.968750
1235		-46.875000
1236		-42.968750
1237		-44.921875
1238		-41.015625
1239		-44.921875
1240		-41.015625
1241		-42.968750
1242		-41.015625
1243		-42.968750
1244		-39.062500
1245		-42.968750
1246		-39.062500
1247		-41.015625
1248		-37.109375
1249		-41.015625
1250		-37.109375
1251		-39.062500
1252		-35.156250
1253		-39.062500
1254		-35.156250
1255		-39.062500
1256		-35.156250
1257		-37.109375
1258		-33.203125
1259		-37.109375
1260		-31.250000
1261		-35.156250
1262		-31.250000
1263		-33.203125
1264		-31.250000
1265		-33.203125
1266		-29.296875
1267		-33.203125
1268		-29.296875
1269		-31.250000
1270		-29.296875
1271		-31.250000
1272		-27.343750
1273		-29.296875
1274		-27.343750
1275		-29.296875
1276		-25.390625
1277		-29.296875
1278		-25.390625
1279		-27.343750
1280		-23.437500
1281		-25.390625
1282		-21.484375
1283		-25.390625
1284		-21.484375
1285		-25.390625
1286		-21.484375
1287		-25.390625
1288		-19.531250
1289		-21.484375
1290		-19.531250
1291		-21.484375
1292		-17.578125
1293		-19.531250
1294		-17.578125
1295		-19.531250
1296		-15.625000
1297		-17.578125
1298		-15.625000
1299		-17.578125
1300		-13.671875
1301		-17.578125
1302		-13.671875
1303		-15.625000
1304		-11.718750
1305		-15.625000
1306		-11.718750
1307		-15.625000
1308		-9.765625
1309		-11.718750
1310		-9.765625
1311		-11.718750
1312		-7.812500
1313		-11.718750
1314		-5.859375
1315		-9.765625
1316		-5.859375
1317		-9.765625
1318		-3.906250
1319		-7.812500
1320		-3.906250
1321		-5.859375
1322		-1.953125
1323		-5.859375
1324		0.000000
1325		-3.906250
1326		-1.953125
1327		-3.906250
1328		0.000000
1329		-1.953125
1330		1.953125
1331		0.000000
1332		1.953125
1333		0.000000
1334		3.906250
1335		0.000000
1336		3.906250
1337		1.953125
1338		5.859375
1339		1.953125
1340		7.812500
1341		1.953125
1342		7.812500
1343		1.953125
1344		9.765625
1345		3.906250
1346		9.765625
1347		5.859375
1348		9.765625
1349		7.812500
1350		11.718750
1351		7.812500
1352		13.671875
1353		7.812500
1354		13.671875
1355		9.765625
1356		13.671875
1357		9.765625
1358		17.578125
1359		11.718750
1360		17.578125
1361		13.671875
1362		17.578125
1363		13.671875
1364		17.578125
1365		15.625000
1366		17.578125
1367		15.625000
1368		21.484375
1369		17.578125
1370		21.484375
1371		17.578125
1372		21.484375
1373		17.578125
1374		23.437500
1375		19.531250
1376		25.390625
1377		19.531250
1378		27.343750
1379		21.484375
1380		25.390625
1381		23.437500
1382		25.390625
1383		23.437500
1384		27.343750
1385		25.390625
1386		29.296875
1387		25.390625
1388		29.296875
1389		25.390625
1390		31.250000
1391		25.390625
1392		31.250000
1393		25.390625
1394		33.203125
1395		27.343750
1396		33.203125
1397		29.296875
1398		33.203125
1399		31.250000
1400		33.203125
1401		29.296875
1402		37.109375
1403		29.296875
1404		37.109375
1405		31.250000
1406		39.062500
1407		31.250000
1408		39.062500
1409		33.203125
1410		39.062500
1411		35.156250
1412		39.062500
1413		35.156250
1414		39.062500
1415		37.109375
1416		39.062500
1417		35.156250
1418		42.968750
1419		37.109375
1420		42.968750
1421		37.109375
1422		42.968750
1423		37.109375
1424		44.921875
1425		39.062500
1426		44.921875
1427		39.062500
1428		44.921875
1429		39.062500
1430		44.921875
1431		42.968750
1432		44.921875
1433		42.968750
1434		44.921875
1435		41.015625
1436		48.828125
1437		41.015625
1438		46.875000
1439		42.968750
1440		48.828125
1441		42.968750
1442		48.828125
1443		42.968750
1444		50.781250
1445		44.921875
1446		50.781250
1447		44.921875
1448		50.781250
1449		46.875000
1450		48.828125
1451		46.875000
1452		50.781250
1453		44.921875
1454		52.734375
1455		46.875000
1456		54.687500
1457		46.875000
1458		54.687500
1459		46.875000
1460		54.687500
1461		48.828125
1462		54.687500
1463		48.828125
1464		54.687500
1465		50.781250
1466		52.734375
1467		48.828125
1468		54.687500
1469		48.828125
1470		56.640625
1471		50.781250
1472		56.640625
1473		50.781250
1474		56.640625
1475		50.781250
1476		56.640625
1477		50.781250
1478		58.593750
1479		50.781250
1480		56.640625
1481		52.734375
1482		56.640625
1483		52.734375
1484		56.640625
1485		50.781250
1486		56.640625
1487		50.781250
1488		58.593750
1489		52.734375
1490		58.593750
1491		52.734375
1492		58.593750
1493		52.734375
1494		58.593750
1495		52.734375
1496		60.546875
1497		54.687500
1498		58.593750
1499		54.687500
1500		58.593750
1501		54.687500
1502		58.593750
1503		52.734375
1504		58.593750
1505		52.734375
1506		60.546875
1507		54.687500
1508		60.546875
1509		52.734375
1510		60.546875
1511		52.734375
1512		60.546875
1513		52.734375
1514		58.593750
1515		54.687500
1516		58.593750
1517		56.640625
1518		58.593750
1519		54.687500
1520		58.593750
1521		54.687500
1522		58.593750
1523		52.734375
1524		60.546875
1525		54.687500
1526		60.546875
1527		54.687500
1528		58.593750
1529		54.687500
1530		58.593750
1531		54.687500
1532		58.593750
1533		54.687500
1534		56.640625
1535		54.687500
1536		58.593750
1537		52.734375
1538		58.593750
1539		52.734375
1540		58.593750
1541		50.781250
1542		58.593750
1543		52.734375
1544		58.593750
1545		52.734375
1546		58.593750
1547		50.781250
1548		56.640625
1549		52.734375
1550		56.640625
1551		52.734375
1552		56.640625
1553		50.781250
1554		58.593750
1555		50.781250
1556		56.640625
1557		50.781250
1558		56.640625
1559		48.828125
1560		56.640625
1561		48.828125
1562		56.640625
1563		48.828125
1564		54.687500
1565		50.781250
1566		54.687500
1567		50.781250
1568		52.734375
1569		46.875000
1570		52.734375
1571		46.875000
1572		54.687500
1573		46.875000
1574		54.687500
1575		46.875000
1576		52.734375
1577		46.875000
1578		52.734375
1579		44.921875
1580		52.734375
1581		44.921875
1582		52.734375
1583		46.875000
1584		48.828125
1585		42.968750
1586		50.781250
1587		42.968750
1588		48.828125
1589		42.968750
1590		48.828125
1591		41.015625
1592		48.828125
1593		41.015625
1594		48.828125
1595		41.015625
1596		48.828125
1597		39.062500
1598		46.875000
1599		41.015625
1600		44.921875
1601		41.015625
1602		44.921875
1603		39.062500
1604		44.921875
1605		37.109375
1606		44.921875
1607		37.109375
1608		42.968750
1609		35.156250
1610		42.968750
1611		35.156250
1612		42.968750
1613		35.156250
1614		41.015625
1615		35.156250
1616		41.015625
1617		35.156250
1618		39.062500
1619		31.250000
1620		39.062500
1621		31.250000
1622		39.062500
1623		31.250000
1624		37.109375
1625		29.296875
1626		37.109375
1627		29.296875
1628		35.156250
1629		27.343750
1630		35.156250
1631		29.296875
1632		35.156250
1633		29.296875
1634		31.250000
1635		27.343750
1636		31.250000
1637		25.390625
1638		33.203125
1639		25.390625
1640		31.250000
1641		23.437500
1642		29.296875
1643		23.437500
1644		29.296875
1645		21.484375
1646		29.296875
1647		21.484375
1648		27.343750
1649		21.484375
1650		25.390625
1651		21.484375
1652		23.437500
1653		17.578125
1654		25.390625
1655		17.578125
1656		23.437500
1657		15.625000
1658		23.437500
1659		15.625000
1660		21.484375
1661		13.671875
1662		21.484375
1663		13.671875
1664		19.531250
1665		13.671875
1666		19.531250
1667		13.671875
1668		15.625000
1669		9.765625
1670		15.625000
1671		9.765625
1672		15.625000
1673		7.812500
1674		15.625000
1675		7.812500
1676		13.671875
1677		7.812500
1678		13.671875
1679		5.859375
1680		11.718750
1681		3.906250
1682		11.718750
1683		5.859375
1684		7.812500
1685		3.906250
1686		7.812500
1687		0.000000
1688		7.812500
1689		0.000000
1690		7.812500
1691		0.000000
1692		5.859375
1693		-1.953125
1694		5.859375
1695		-1.953125
1696		3.906250
1697		-3.906250
1698		3.906250
1699		-3.906250
1700		1.953125
1701		-3.906250
1702		-1.953125
1703		-5.859375
1704		0.000000
1705		-7.812500
1706		0.000000
1707		-9.765625
1708		-1.953125
1709		-11.718750
1710		-1.953125
1711		-11.718750
1712		-3.906250
1713		-11.718750
1714		-5.859375
1715		-11.718750
1716		-5.859375
1717		-11.718750
1718		-9.765625
1719		-13.671875
1720		-9.765625
1721		-15.625000
1722		-9.765625
1723		-17.578125
1724		-9.765625
1725		-19.531250
1726		-11.718750
1727		-19.531250
1728		-11.718750
1729		-19.531250
1730		-13.671875
1731		-21.484375
1732		-15.625000
1733		-19.531250
1734		-15.625000
1735		-21.484375
1736		-17.578125
1737		-25.390625
1738		-17.578125
1739		-25.390625
1740		-17.578125
1741		-25.390625
1742		-19.531250
1743		-27.343750
1744		-21.484375
1745		-29.296875
1746		-21.484375
1747		-29.296875
1748		-21.484375
1749		-29.296875
1750		-23.437500
1751		-29.296875
1752		-25.390625
1753		-33.203125
1754		-25.390625
1755		-33.203125
1756		-27.343750
1757		-35.156250
1758		-27.343750
1759		-35.156250
1760		-27.343750
1761		-35.156250
1762		-29.296875
1763		-35.156250
1764		-29.296875
1765		-37.109375
1766		-31.250000
1767		-37.109375
1768		-33.203125
1769		-37.109375
1770		-33.203125
1771		-39.062500
1772		-33.203125
1773		-41.015625
1774		-35.156250
1775		-42.968750
1776		-35.156250
1777		-42.968750
1778		-35.156250
1779		-42.968750
1780		-37.109375
1781		-42.968750
1782		-37.109375
1783		-42.968750
1784		-39.062500
1785		-42.968750
1786		-41.015625
1787		-46.875000
1788		-39.062500
1789		-46.875000
1790		-39.062500
1791		-46.875000
1792		-41.015625
1793		-48.828125
1794		-42.968750
1795		-50.781250
1796		-42.968750
1797		-48.828125
1798		-42.968750
1799		-50.781250
1800		-44.921875
1801		-48.828125
1802		-46.875000
1803		-52.734375
1804		-46.875000
1805		-52.734375
1806		-44.921875
1807		-52.734375
1808		-46.875000
1809		-54.687500
1810		-46.875000
1811		-54.687500
1812		-46.875000
1813		-56.640625
1814		-48.828125
1815		-54.687500
1816		-48.828125
1817		-54.687500
1818		-50.781250
1819		-54.687500
1820		-52.734375
1821		-56.640625
1822		-50.781250
1823		-58.593750
1824		-50.781250
1825		-58.593750
1826		-52.734375
1827		-58.593750
1828		-52.734375
1829		-58.593750
1830		-52.734375
1831		-60.546875
1832		-52.734375
1833		-60.546875
1834		-54.687500
1835		-58.593750
1836		-54.687500
1837		-60.546875
1838		-54.687500
1839		-62.500000
1840		-54.687500
1841		-62.500000
1842		-54.687500
1843		-62.500000
1844		-54.687500
1845		-62.500000
1846		-56.640625
1847		-62.500000
1848		-56.640625
1849		-64.453125
1850		-56.640625
1851		-62.500000
1852		-58.593750
1853		-62.500000
1854		-58.593750
1855		-64.453125
1856		-56.640625
1857		-64.453125
1858		-58.593750
1859		-64.453125
1860		-58.593750
1861		-64.453125
1862		-58.593750
1863		-64.453125
1864		-58.593750
1865		-64.453125
1866		-58.593750
1867		-64.453125
1868		-58.593750
1869		-62.500000
1870		-60.546875
1871		-66.406250
1872		-58.593750
1873		-64.453125
1874		-58.593750
1875		-64.453125
1876		-58.593750
1877		-66.406250
1878		-58.593750
1879		-66.406250
1880		-58.593750
1881		-66.406250
1882		-58.593750
1883		-66.406250
1884		-58.593750
1885		-64.453125
1886		-60.546875
1887		-64.453125
1888		-60.546875
1889		-66.406250
1890		-58.593750
1891		-64.453125
1892		-58.593750
1893		-66.406250
1894		-58.593750
1895		-64.453125
1896		-58.593750
1897		-64.453125
1898		-58.593750
1899		-64.453125
1900		-58.593750
1901		-64.453125
1902		-60.546875
1903		-62.500000
1904		-60.546875
1905		-64.453125
1906		-58.593750
1907		-64.453125
1908		-56.640625
1909		-62.500000
1910		-56.640625
1911		-64.453125
1912		-56.640625
1913		-64.453125
1914		-56.640625
1915		-62.500000
1916		-56.640625
1917		-62.500000
1918		-56.640625
1919		-60.546875
1920		-56.640625
1921		-60.546875
1922		-56.640625
1923		-60.546875
1924		-54.687500
1925		-62.500000
1926		-54.687500
1927		-60.546875
1928		-54.687500
1929		-60.546875
1930		-52.734375
1931		-58.593750
1932		-52.734375
1933		-58.593750
1934		-52.734375
1935		-56.640625
1936		-54.687500
1937		-56.640625
1938		-52.734375
1939		-56.640625
1940		-50.781250
1941		-56.640625
1942		-50.781250
1943		-56.640625
1944		-50.781250
1945		-56.640625
1946		-48.828125
1947		-54.687500
1948		-48.828125
1949		-54.687500
1950		-48.828125
1951		-52.734375
1952		-46.875000
1953		-52.734375
1954		-46.875000
1955		-52.734375
1956		-46.875000
1957		-52.734375
1958		-44.921875
1959		-50.781250
1960		-44.921875
1961		-50.781250
1962		-44.921875
1963		-50.781250
1964		-42.968750
1965		-48.828125
1966		-42.968750
1967		-48.828125
1968		-41.015625
1969		-46.875000
1970		-41.015625
1971		-44.921875
1972		-42.968750
1973		-46.875000
1974		-39.062500
1975		-44.921875
1976		-39.062500
1977		-44.921875
1978		-37.109375
1979		-44.921875
1980		-37.109375
1981		-42.968750
1982		-37.109375
1983		-42.968750
1984		-35.156250
1985		-41.015625
1986		-37.109375
1987		-39.062500
1988		-35.156250
1989		-39.062500
1990		-33.203125
1991		-39.062500
1992		-31.250000
1993		-37.109375
1994		-31.250000
1995		-37.109375
1996		-31.250000
1997		-37.109375
1998		-29.296875
1999		-35.156250
2000		-29.296875
2001		-33.203125
2002		-27.343750
2003		-33.203125
2004		-27.343750
2005		-31.250000
2006		-27.343750
2007		-31.250000
2008		-25.390625
2009		-31.250000
2010		-23.437500
2011		-29.296875
2012		-23.437500
2013		-29.296875
2014		-21.484375
2015		-27.343750
2016		-21.484375
2017		-27.343750
2018		-19.531250
2019		-23.437500
2020		-21.484375
2021		-23.437500
2022		-19.531250
2023		-23.437500
2024		-17.578125
2025		-23.437500
2026		-15.625000
2027		-23.437500
2028		-15.625000
2029		-21.484375
2030		-13.671875
2031		-19.531250
2032		-13.671875
2033		-17.578125
2034		-11.718750
2035		-17.578125
2036		-11.718750
2037		-15.625000
2038		-11.718750
2039		-15.625000
2040		-9.765625
2041		-15.625000
2042		-7.812500
2043		-13.671875
2044		-7.812500
2045		-13.671875
2046		-5.859375
2047		-11.718750
2048		-5.859375
2049		-11.718750
2050		-3.906250
2051		-9.765625
2052		-3.906250
2053		-7.812500
2054		-3.906250
2055		-5.859375
2056		-3.906250
2057		-7.812500
2058		0.000000
2059		-5.859375
2060		0.000000
2061		-5.859375
2062		1.953125
2063		-1.953125
2064		3.906250
2065		-1.953125
2066		3.906250
2067		-1.953125
2068		5.859375
2069		0.000000
2070		3.906250
2071		1.953125
2072		5.859375
2073		1.953125
2074		7.812500
2075		1.953125
2076		9.765625
2077		1.953125
2078		9.765625
2079		3.906250
2080		9.765625
2081		5.859375
2082		11.718750
2083		7.812500
2084		13.671875
2085		7.812500
2086		13.671875
2087		9.765625
2088		13.671875
2089		11.718750
2090		15.625000
2091		11.718750
2092		17.578125
2093		11.718750
2094		17.578125
2095		11.718750
2096		19.531250
2097		13.671875
2098		19.531250
2099		13.671875
2100		21.484375
2101		15.625000
2102		21.484375
2103		17.578125
2104		21.484375
2105		17.578125
2106		23.437500
2107		17.578125
2108		23.437500
2109		17.578125
2110		25.390625
2111		19.531250
2112		27.343750
2113		21.484375
2114		27.343750
2115		21.484375
2116		29.296875
2117		21.484375
2118		29.296875
2119		23.437500
2120		29.296875
2121		25.390625
2122		29.296875
2123		25.390625
2124		31.250000
2125		25.390625
2126		33.203125
2127		27.343750
2128		33.203125
2129		27.343750
2130		35.156250
2131		29.296875
2132		35.156250
2133		29.296875
2134		35.156250
2135		29.296875
2136		37.109375
2137		33.203125
2138		35.156250
2139		33.203125
2140		37.109375
2141		31.250000
2142		39.062500
2143		33.203125
2144		41.015625
2145		33.203125
2146		41.015625
2147		35.156250
2148		41.015625
2149		37.109375
2150		42.968750
2151		37.109375
2152		42.968750
2153		39.062500
2154		42.968750
2155		39.062500
2156		42.968750
2157		39.062500
2158		44.921875
2159		39.062500
2160		44.921875
2161		39.062500
2162		46.875000
2163		39.062500
2164		46.875000
2165		41.015625
2166		46.875000
2167		42.968750
2168		46.875000
2169		42.968750
2170		48.828125
2171		42.968750
2172		46.875000
2173		42.968750
2174		48.828125
2175		42.968750
2176		50.781250
2177		44.921875
2178		50.781250
2179		44.921875
2180		50.781250
2181		44.921875
2182		50.781250
2183		44.921875
2184		52.734375
2185		44.921875
2186		52.734375
2187		48.828125
2188		50.781250
2189		48.828125
2190		52.734375
2191		46.875000
2192		54.687500
2193		46.875000
2194		54.687500
2195		48.828125
2196		54.687500
2197		48.828125
2198		56.640625
2199		48.828125
2200		56.640625
2201		48.828125
2202		56.640625
2203		50.781250
2204		56.640625
2205		50.781250
2206		56.640625
2207		50.781250
2208		56.640625
2209		50.781250
2210		56.640625
2211		50.781250
2212		56.640625
2213		50.781250
2214		58.593750
2215		52.734375
2216		58.593750
2217		52.734375
2218		58.593750
2219		50.781250
2220		58.593750
2221		54.687500
2222		56.640625
2223		54.687500
2224		58.593750
2225		52.734375
2226		58.593750
2227		52.734375
2228		60.546875
2229		52.734375
2230		60.546875
2231		52.734375
2232		60.546875
2233		52.734375
2234		60.546875
2235		54.687500
2236		60.546875
2237		54.687500
2238		58.593750
2239		54.687500
2240		58.593750
2241		54.687500
2242		60.546875
2243		54.687500
2244		60.546875
2245		54.687500
2246		60.546875
2247		54.687500
2248		60.546875
2249		52.734375
2250		60.546875
2251		52.734375
2252		60.546875
2253		54.687500
2254		60.546875
2255		56.640625
2256		58.593750
2257		54.687500
2258		58.593750
2259		52.734375
2260		60.546875
2261		52.734375
2262		60.546875
2263		54.687500
2264		60.546875
2265		52.734375
2266		60.546875
2267		52.734375
2268		60.546875
2269		52.734375
2270		60.546875
2271		54.687500
2272		56.640625
2273		54.687500
2274		58.593750
2275		52.734375
2276		60.546875
2277		52.734375
2278		58.593750
2279		50.781250
2280		58.593750
2281		50.781250
2282		58.593750
2283		50.781250
2284		56.640625
2285		50.781250
2286		58.593750
2287		50.781250
2288		56.640625
2289		52.734375
2290		54.687500
2291		50.781250
2292		56.640625
2293		50.781250
2294		56.640625
2295		48.828125
2296		56.640625
2297		48.828125
2298		54.687500
2299		48.828125
2300		54.687500
2301		46.875000
2302		54.687500
2303		48.828125
2304		54.687500
2305		48.828125
2306		52.734375
2307		48.828125
2308		52.734375
2309		46.875000
2310		52.734375
2311		46.875000
2312		52.734375
2313		44.921875
2314		52.734375
2315		44.921875
2316		52.734375
2317		44.921875
2318		50.781250
2319		42.968750
2320		50.781250
2321		44.921875
2322		50.781250
2323		44.921875
2324		48.828125
2325		41.015625
2326		48.828125
2327		41.015625
2328		46.875000
2329		41.015625
2330		46.875000
2331		41.015625
2332		46.875000
2333		39.062500
2334		46.875000
2335		39.062500
2336		44.921875
2337		39.062500
2338		44.921875
2339		39.062500
2340		42.968750
2341		39.062500
2342		42.968750
2343		35.156250
2344		42.968750
2345		35.156250
2346		42.968750
2347		35.156250
2348		41.015625
2349		33.203125
2350		41.015625
2351		33.203125
2352		39.062500
2353		33.203125
2354		39.062500
2355		33.203125
2356		37.109375
2357		33.203125
2358		35.156250
2359		29.296875
2360		37.109375
2361		29.296875
2362		35.156250
2363		27.343750
2364		35.156250
2365		27.343750
2366		37.109375
2367		27.343750
2368		35.156250
2369		25.390625
2370		33.203125
2371		25.390625
2372		33.203125
2373		25.390625
2374		29.296875
2375		23.437500
2376		29.296875
2377		23.437500
2378		29.296875
2379		21.484375
2380		27.343750
2381		21.484375
2382		27.343750
2383		19.531250
2384		27.343750
2385		19.531250
2386		25.390625
2387		17.578125
2388		25.390625
2389		17.578125
2390		21.484375
2391		17.578125
2392		21.484375
2393		15.625000
2394		21.484375
2395		13.671875
2396		21.484375
2397		13.671875
2398		19.531250
2399		11.718750
2400		19.531250
2401		11.718750
2402		17.578125
2403		9.765625
2404		17.578125
2405		9.765625
2406		15.625000
2407		9.765625
2408		13.671875
2409		7.812500
2410		13.671875
2411		5.859375
2412		13.671875
2413		5.859375
2414		11.718750
2415		3.906250
2416		9.765625
2417		3.906250
2418		9.765625
2419		1.953125
2420		9.765625
2421		1.953125
2422		9.765625
2423		1.953125
2424		5.859375
2425		1.953125
2426		3.906250
2427		-1.953125
2428		5.859375
2429		-3.906250
2430		3.906250
2431		-3.906250
2432		1.953125
2433		-5.859375
2434		1.953125
2435		-5.859375
2436		1.953125
2437		-5.859375
2438		0.000000
2439		-5.859375
2440		-1.953125
2441		-7.812500
2442		-3.906250
2443		-9.765625
2444		-3.906250
2445		-11.718750
2446		-3.906250
2447		-13.671875
2448		-5.859375
2449		-13.671875
2450		-5.859375
2451		-13.671875
2452		-7.812500
2453		-15.625000
2454		-7.812500
2455		-15.625000
2456		-9.765625
2457		-15.625000
2458		-11.718750
2459		-17.578125
2460		-11.718750
2461		-19.531250
2462		-11.718750
2463		-19.531250
2464		-13.671875
2465		-21.484375
2466		-13.671875
2467		-23.437500
2468		-15.625000
2469		-23.437500
2470		-17.578125
2471		-23.437500
2472		-17.578125
2473		-23.437500
2474		-19.531250
2475		-25.390625
2476		-21.484375
2477		-27.343750
2478		-21.484375
2479		-29.296875
2480		-21.484375
2481		-29.296875
2482		-21.484375
2483		-31.250000
2484		-23.437500
2485		-31.250000
2486		-23.437500
2487		-31.250000
2488		-25.390625
2489		-33.203125
2490		-27.343750
2491		-33.203125
2492		-29.296875
2493		-35.156250
2494		-29.296875
2495		-37.109375
2496		-29.296875
2497		-37.109375
2498		-29.296875
2499		-39.062500
2500		-31.250000
2501		-39.062500
2502		-31.250000
2503		-39.062500
2504		-33.203125
2505		-41.015625
2506		-33.203125
2507		-41.015625
2508		-35.156250
2509		-39.062500
2510		-37.109375
2511		-42.968750
2512		-37.109375
2513		-42.968750
2514		-37.109375
2515		-44.921875
2516		-39.062500
2517		-44.921875
2518		-39.062500
2519		-44.921875
2520		-39.062500
2521		-46.875000
2522		-39.062500
2523		-46.875000
2524		-42.968750
2525		-46.875000
2526		-42.968750
2527		-48.828125
2528		-42.968750
2529		-50.781250
2530		-42.968750
2531		-50.781250
2532		-44.921875
2533		-50.781250
2534		-44.921875
2535		-52.734375
2536		-44.921875
2537		-50.781250
2538		-44.921875
2539		-50.781250
2540		-46.875000
2541		-50.781250
2542		-48.828125
2543		-52.734375
2544		-46.875000
2545		-54.687500
2546		-48.828125
2547		-54.687500
2548		-48.828125
2549		-56.640625
2550		-50.781250
2551		-56.640625
2552		-50.781250
2553		-56.640625
2554		-50.781250
2555		-56.640625
2556		-50.781250
2557		-56.640625
2558		-54.687500
2559		-56.640625
2560		-54.687500
2561		-58.593750
2562		-52.734375
2563		-58.593750
2564		-52.734375
2565		-60.546875
2566		-54.687500
2567		-60.546875
2568		-54.687500
2569		-60.546875
2570		-54.687500
2571		-62.500000
2572		-54.687500
2573		-62.500000
2574		-54.687500
2575		-60.546875
2576		-58.593750
2577		-62.500000
2578		-56.640625
2579		-62.500000
2580		-56.640625
2581		-62.500000
2582		-56.640625
2583		-62.500000
2584		-56.640625
2585		-64.453125
2586		-58.593750
2587		-64.453125
2588		-56.640625
2589		-64.453125
2590		-58.593750
2591		-62.500000
2592		-60.546875
2593		-62.500000
2594		-60.546875
2595		-66.406250
2596		-58.593750
2597		-66.406250
2598		-58.593750
2599		-66.406250
2600		-58.593750
2601		-66.406250
2602		-58.593750
2603		-66.406250
2604		-58.593750
2605		-66.406250
2606		-60.546875
2607		-64.453125
2608		-60.546875
2609		-64.453125
2610		-62.500000
2611		-66.406250
2612		-60.546875
2613		-64.453125
2614		-60.546875
2615		-66.406250
2616		-60.546875
2617		-66.406250
2618		-58.593750
2619		-66.406250
2620		-60.546875
2621		-66.406250
2622		-58.593750
2623		-64.453125
2624		-60.546875
2625		-64.453125
2626		-60.546875
2627		-64.453125
2628		-60.546875
2629		-64.453125
2630		-60.546875
2631		-64.453125
2632		-58.593750
2633		-64.453125
2634		-58.593750
2635		-66.406250
2636		-58.593750
2637		-66.406250
2638		-58.593750
2639		-64.453125
2640		-58.593750
2641		-62.500000
2642		-60.546875
2643		-62.500000
2644		-60.546875
2645		-64.453125
2646		-58.593750
2647		-64.453125
2648		-56.640625
2649		-62.500000
2650		-56.640625
2651		-62.500000
2652		-56.640625
2653		-64.453125
2654		-54.687500
2655		-62.500000
2656		-54.687500
2657		-62.500000
2658		-56.640625
2659		-60.546875
2660		-56.640625
2661		-60.546875
2662		-54.687500
2663		-60.546875
2664		-54.687500
2665		-60.546875
2666		-54.687500
2667		-60.546875
2668		-52.734375
2669		-60.546875
2670		-52.734375
2671		-58.593750
2672		-52.734375
2673		-58.593750
2674		-52.734375
2675		-56.640625
2676		-52.734375
2677		-54.687500
2678		-52.734375
2679		-56.640625
2680		-50.781250
2681		-54.687500
2682		-48.828125
2683		-56.640625
2684		-48.828125
2685		-54.687500
2686		-48.828125
2687		-54.687500
2688		-46.875000
2689		-54.687500
2690		-46.875000
2691		-52.734375
2692		-48.828125
2693		-50.781250
2694		-46.875000
2695		-50.781250
2696		-44.921875
2697		-50.781250
2698		-44.921875
2699		-48.828125
2700		-42.968750
2701		-48.828125
2702		-42.968750
2703		-48.828125
2704		-41.015625
2705		-48.828125
2706		-41.015625
2707		-46.875000
2708		-41.015625
2709		-44.921875
2710		-41.015625
2711		-46.875000
2712		-39.062500
2713		-44.921875
2714		-39.062500
2715		-44.921875
2716		-37.109375
2717		-42.968750
2718		-37.109375
2719		-42.968750
2720		-35.156250
2721		-41.015625
2722		-35.156250
2723		-41.015625
2724		-33.203125
2725		-37.109375
2726		-35.156250
2727		-37.109375
2728		-33.203125
2729		-37.109375
2730		-31.250000
2731		-37.109375
2732		-31.250000
2733		-37.109375
2734		-29.296875
2735		-35.156250
2736		-29.296875
2737		-35.156250
2738		-27.343750
2739		-33.203125
2740		-27.343750
2741		-33.203125
2742		-27.343750
2743		-29.296875
2744		-27.343750
2745		-29.296875
2746		-25.390625
2747		-29.296875
2748		-23.437500
2749		-29.296875
2750		-21.484375
2751		-27.343750
2752		-21.484375
2753		-27.343750
2754		-21.484375
2755		-27.343750
2756		-19.531250
2757		-25.390625
2758		-19.531250
2759		-21.484375
2760		-19.531250
2761		-21.484375
2762		-17.578125
2763		-23.437500
2764		-15.625000
2765		-21.484375
2766		-13.671875
2767		-19.531250
2768		-13.671875
2769		-19.531250
2770		-11.718750
2771		-17.578125
2772		-9.765625
2773		-17.578125
2774		-9.765625
2775		-13.671875
2776		-9.765625
2777		-13.671875
2778		-9.765625
2779		-13.671875
2780		-7.812500
2781		-11.718750
2782		-5.859375
2783		-11.718750
2784		-5.859375
2785		-11.718750
2786		-3.906250
2787		-9.765625
2788		-3.906250
2789		-9.765625
2790		-1.953125
2791		-9.765625
2792		-1.953125
2793		-5.859375
2794		-1.953125
2795		-5.859375
2796		0.000000
2797		-3.906250
2798		1.953125
2799		-3.906250
2800		1.953125
2801		-3.906250
2802		3.906250
2803		-1.953125
2804		5.859375
2805		0.000000
2806		5.859375
2807		0.000000
2808		7.812500
2809		3.906250
2810		5.859375
2811		3.906250
2812		7.812500
2813		3.906250
2814		9.765625
2815		3.906250
2816		11.718750
2817		5.859375
2818		11.718750
2819		5.859375
2820		13.671875
2821		7.812500
2822		13.671875
2823		7.812500
2824		15.625000
2825		9.765625
2826		15.625000
2827		11.718750
2828		15.625000
2829		13.671875
2830		17.578125
2831		11.718750
2832		19.531250
2833		13.671875
2834		21.484375
2835		13.671875
2836		21.484375
2837		15.625000
2838		21.484375
2839		17.578125
2840		23.437500
2841		17.578125
2842		23.437500
2843		19.531250
2844		23.437500
2845		21.484375
2846		23.437500
2847		19.531250
2848		27.343750
2849		21.484375
2850		27.343750
2851		21.484375
2852		27.343750
2853		23.437500
2854		29.296875
2855		23.437500
2856		31.250000
2857		23.437500
2858		31.250000
2859		25.390625
2860		31.250000
2861		27.343750
2862		31.250000
2863		27.343750
2864		33.203125
2865		27.343750
2866		33.203125
2867		27.343750
2868		35.156250
2869		29.296875
2870		35.156250
2871		29.296875
2872		37.109375
2873		31.250000
2874		37.109375
2875		31.250000
2876		39.062500
2877		35.156250
2878		37.109375
2879		35.156250
2880		39.062500
2881		33.203125
2882		41.015625
2883		35.156250
2884		41.015625
2885		35.156250
2886		42.968750
2887		35.156250
2888		42.968750
2889		37.109375
2890		42.968750
2891		37.109375
2892		44.921875
2893		39.062500
2894		42.968750
2895		39.062500
2896		44.921875
2897		39.062500
2898		44.921875
2899		39.062500
2900		46.875000
2901		41.015625
2902		46.875000
2903		41.015625
2904		46.875000
2905		42.968750
2906		48.828125
2907		41.015625
2908		48.828125
2909		42.968750
2910		48.828125
2911		44.921875
2912		48.828125
2913		44.921875
2914		50.781250
2915		42.968750
2916		50.781250
2917		44.921875
2918		50.781250
2919		44.921875
2920		50.781250
2921		44.921875
2922		52.734375
2923		46.875000
2924		52.734375
2925		46.875000
2926		52.734375
2927		48.828125
2928		52.734375
2929		48.828125
2930		52.734375
2931		48.828125
2932		54.687500
2933		48.828125
2934		54.687500
2935		48.828125
2936		54.687500
2937		48.828125
2938		54.687500
2939		48.828125
2940		56.640625
2941		48.828125
2942		56.640625
2943		50.781250
2944		54.687500
2945		52.734375
2946		54.687500
2947		50.781250
2948		56.640625
2949		50.781250
2950		56.640625
2951		50.781250
2952		56.640625
2953		52.734375
2954		56.640625
2955		52.734375
2956		58.593750
2957		50.781250
2958		58.593750
2959		52.734375
2960		58.593750
2961		52.734375
2962		56.640625
2963		52.734375
2964		56.640625
2965		52.734375
2966		58.593750
2967		52.734375
2968		58.593750
2969		52.734375
2970		58.593750
2971		52.734375
2972		58.593750
2973		52.734375
2974		60.546875
2975		52.734375
2976		60.546875
2977		54.687500
2978		56.640625
2979		54.687500
2980		58.593750
2981		54.687500
2982		60.546875
2983		52.734375
2984		58.593750
2985		52.734375
2986		60.546875
2987		52.734375
2988		58.593750
2989		54.687500
2990		58.593750
2991		52.734375
2992		60.546875
2993		52.734375
2994		58.593750
2995		54.687500
2996		58.593750
2997		52.734375
2998		58.593750
2999		52.734375
3000		58.593750
3001		52.734375
3002		58.593750
3003		52.734375
3004		58.593750
3005		50.781250
3006		58.593750
3007		50.781250
3008		58.593750
3009		52.734375
3010		58.593750
3011		52.734375
3012		56.640625
3013		52.734375
3014		54.687500
3015		50.781250
3016		56.640625
3017		50.781250
3018		56.640625
3019		50.781250
3020		56.640625
3021		48.828125
3022		56.640625
3023		48.828125
3024		56.640625
3025		48.828125
3026		54.687500
3027		48.828125
3028		54.687500
3029		50.781250
3030		52.734375
3031		48.828125
3032		54.687500
3033		46.875000
3034		54.687500
3035		46.875000
3036		52.734375
3037		46.875000
3038		52.734375
3039		46.875000
3040		52.734375
3041		44.921875
3042		52.734375
3043		44.921875
3044		50.781250
3045		46.875000
3046		50.781250
3047		44.921875
3048		48.828125
3049		42.968750
3050		50.781250
3051		42.968750
3052		48.828125
3053		42.968750
3054		48.828125
3055		41.015625
3056		48.828125
3057		42.968750
3058		46.875000
3059		41.015625
3060		46.875000
3061		41.015625
3062		44.921875
3063		41.015625
3064		44.921875
3065		41.015625
3066		44.921875
3067		37.109375
3068		44.921875
3069		37.109375
3070		44.921875
3071		37.109375
3072		42.968750
3073		35.156250
3074		42.968750
3075		35.156250
3076		41.015625
3077		35.156250
3078		41.015625
3079		35.156250
3080		39.062500
3081		33.203125
3082		39.062500
3083		31.250000
3084		41.015625
3085		33.203125
3086		39.062500
3087		33.203125
3088		39.062500
3089		31.250000
3090		37.109375
3091		29.296875
3092		35.156250
3093		29.296875
3094		35.156250
3095		29.296875
3096		33.203125
3097		29.296875
3098		31.250000
3099		25.390625
3100		33.203125
3101		25.390625
3102		31.250000
3103		23.437500
3104		31.250000
3105		23.437500
3106		31.250000
3107		21.484375
3108		29.296875
3109		21.484375
3110		29.296875
3111		23.437500
3112		27.343750
3113		21.484375
3114		25.390625
3115		19.531250
3116		25.390625
3117		17.578125
3118		25.390625
3119		17.578125
3120		25.390625
3121		15.625000
3122		23.437500
3123		15.625000
3124		21.484375
3125		13.671875
3126		21.484375
3127		13.671875
3128		21.484375
3129		13.671875
3130		17.578125
3131		11.718750
3132		17.578125
3133		11.718750
3134		17.578125
3135		9.765625
3136		17.578125
3137		7.812500
3138		15.625000
3139		7.812500
3140		13.671875
3141		5.859375
3142		13.671875
3143		5.859375
3144		13.671875
3145		5.859375
3146		9.765625
3147		5.859375
3148		7.812500
3149		1.953125
3150		7.812500
3151		1.953125
3152		7.812500
3153		1.953125
3154		7.812500
3155		0.000000
3156		5.859375
3157		-1.953125
3158		5.859375
3159		-1.953125
3160		3.906250
3161		-3.906250
3162		3.906250
3163		-1.953125
3164		0.000000
3165		-5.859375
3166		0.000000
3167		-5.859375
3168		0.000000
3169		-7.812500
3170		0.000000
3171		-7.812500
3172		-1.953125
3173		-9.765625
3174		-1.953125
3175		-9.765625
3176		-3.906250
3177		-11.718750
3178		-3.906250
3179		-11.718750
3180		-7.812500
3181		-11.718750
3182		-7.812500
3183		-15.625000
3184		-7.812500
3185		-15.625000
3186		-9.765625
3187		-17.578125
3188		-9.765625
3189		-17.578125
3190		-11.718750
3191		-19.531250
3192		-11.718750
3193		-19.531250
3194		-13.671875
3195		-19.531250
3196		-15.625000
3197		-21.484375
3198		-17.578125
3199		-23.437500
3200		-17.578125
3201		-23.437500
3202		-17.578125
3203		-23.437500
3204		-19.531250
3205		-25.390625
3206		-19.531250
3207		-27.343750
3208		-21.484375
3209		-27.343750
3210		-21.484375
3211		-27.343750
3212		-23.437500
3213		-29.296875
3214		-25.390625
3215		-31.250000
3216		-25.390625
3217		-33.203125
3218		-25.390625
3219		-33.203125
3220		-25.390625
3221		-33.203125
3222		-27.343750
3223		-35.156250
3224		-29.296875
3225		-35.156250
3226		-29.296875
3227		-37.109375
3228		-29.296875
3229		-37.109375
3230		-33.203125
3231		-37.109375
3232		-33.203125
3233		-39.062500
3234		-33.203125
3235		-39.062500
3236		-33.203125
3237		-41.015625
3238		-35.156250
3239		-42.968750
3240		-35.156250
3241		-42.968750
3242		-37.109375
3243		-44.921875
3244		-37.109375
3245		-42.968750
3246		-37.109375
3247		-42.968750
3248		-41.015625
3249		-44.921875
3250		-39.062500
3251		-46.875000
3252		-41.015625
3253		-46.875000
3254		-41.015625
3255		-48.828125
3256		-41.015625
3257		-50.781250
3258		-42.968750
3259		-50.781250
3260		-42.968750
3261		-50.781250
3262		-44.921875
3263		-50.781250
3264		-46.875000
3265		-50.781250
3266		-46.875000
3267		-54.687500
3268		-44.921875
3269		-54.687500
3270		-46.875000
3271		-54.687500
3272		-46.875000
3273		-54.687500
3274		-48.828125
3275		-56.640625
3276		-48.828125
3277		-56.640625
3278		-50.781250
3279		-56.640625
3280		-50.781250
3281		-56.640625
3282		-52.734375
3283		-56.640625
3284		-50.781250
3285		-58.593750
3286		-50.781250
3287		-58.593750
3288		-52.734375
3289		-60.546875
3290		-52.734375
3291		-60.546875
3292		-52.734375
3293		-60.546875
3294		-54.687500
3295		-60.546875
3296		-54.687500
3297		-58.593750
3298		-56.640625
3299		-60.546875
3300		-56.640625
3301		-62.500000
3302		-56.640625
3303		-62.500000
3304		-54.687500
3305		-64.453125
3306		-56.640625
3307		-64.453125
3308		-56.640625
3309		-64.453125
3310		-56.640625
3311		-64.453125
3312		-56.640625
3313		-64.453125
3314		-60.546875
3315		-64.453125
3316		-60.546875
3317		-64.453125
3318		-58.593750
3319		-66.406250
3320		-58.593750
3321		-66.406250
3322		-58.593750
3323		-66.406250
3324		-58.593750
3325		-66.406250
3326		-58.593750
3327		-66.406250
3328		-60.546875
3329		-66.406250
3330		-60.546875
3331		-66.406250
3332		-62.500000
3333		-66.406250
3334		-62.500000
3335		-68.359375
3336		-60.546875
3337		-66.406250
3338		-60.546875
3339		-68.359375
3340		-60.546875
3341		-66.406250
3342		-60.546875
3343		-68.359375
3344		-60.546875
3345		-68.359375
3346		-60.546875
3347		-66.406250
3348		-62.500000
3349		-66.406250
3350		-62.500000
3351		-66.406250
3352		-60.546875
3353		-68.359375
3354		-60.546875
3355		-68.359375
3356		-60.546875
3357		-68.359375
3358		-60.546875
3359		-68.359375
3360		-60.546875
3361		-66.406250
3362		-62.500000
3363		-66.406250
3364		-62.500000
3365		-64.453125
3366		-62.500000
3367		-66.406250
3368		-60.546875
3369		-66.406250
3370		-60.546875
3371		-68.359375
3372		-58.593750
3373		-66.406250
3374		-60.546875
3375		-64.453125
3376		-60.546875
3377		-66.406250
3378		-58.593750
3379		-64.453125
3380		-60.546875
3381		-62.500000
3382		-58.593750
3383		-62.500000
3384		-58.593750
3385		-64.453125
3386		-58.593750
3387		-64.453125
3388		-56.640625
3389		-64.453125
3390		-56.640625
3391		-62.500000
3392		-56.640625
3393		-62.500000
3394		-56.640625
3395		-62.500000
3396		-54.687500
3397		-60.546875
3398		-56.640625
3399		-58.593750
3400		-56.640625
3401		-60.546875
3402		-54.687500
3403		-60.546875
3404		-54.687500
3405		-58.593750
3406		-52.734375
3407		-58.593750
3408		-54.687500
3409		-58.593750
3410		-52.734375
3411		-58.593750
3412		-50.781250
3413		-56.640625
3414		-50.781250
3415		-54.687500
3416		-52.734375
3417		-54.687500
3418		-50.781250
3419		-56.640625
3420		-48.828125
3421		-54.687500
3422		-48.828125
3423		-54.687500
3424		-48.828125
3425		-54.687500
3426		-48.828125
3427		-50.781250
3428		-48.828125
3429		-52.734375
3430		-46.875000
3431		-50.781250
3432		-46.875000
3433		-48.828125
3434		-46.875000
3435		-48.828125
3436		-42.968750
3437		-48.828125
3438		-42.968750
3439		-48.828125
3440		-42.968750
3441		-48.828125
3442		-41.015625
3443		-46.875000
3444		-41.015625
3445		-46.875000
3446		-39.062500
3447		-46.875000
3448		-39.062500
3449		-42.968750
3450		-39.062500
3451		-42.968750
3452		-39.062500
3453		-42.968750
3454		-37.109375
3455		-42.968750
3456		-37.109375
3457		-41.015625
3458		-35.156250
3459		-39.062500
3460		-35.156250
3461		-37.109375
3462		-35.156250
3463		-37.109375
3464		-33.203125
3465		-35.156250
3466		-33.203125
3467		-35.156250
3468		-31.250000
3469		-35.156250
3470		-29.296875
3471		-35.156250
3472		-29.296875
3473		-35.156250
3474		-27.343750
3475		-31.250000
3476		-27.343750
3477		-31.250000
3478		-25.390625
3479		-29.296875
3480		-25.390625
3481		-29.296875
3482		-25.390625
3483		-29.296875
3484		-23.437500
3485		-27.343750
3486		-23.437500
3487		-27.343750
3488		-21.484375
3489		-27.343750
3490		-19.531250
3491		-23.437500
3492		-19.531250
3493		-23.437500
3494		-19.531250
3495		-21.484375
3496		-17.578125
3497		-21.484375
3498		-17.578125
3499		-19.531250
3500		-15.625000
3501		-19.531250
3502		-15.625000
3503		-19.531250
3504		-13.671875
3505		-17.578125
3506		-11.718750
3507		-15.625000
3508		-11.718750
3509		-15.625000
3510		-11.718750
3511		-13.671875
3512		-9.765625
3513		-13.671875
3514		-9.765625
3515		-11.718750
3516		-7.812500
3517		-9.765625
3518		-7.812500
3519		-11.718750
3520		-3.906250
3521		-9.765625
3522		-5.859375
3523		-7.812500
3524		-3.906250
3525		-5.859375
3526		-1.953125
3527		-5.859375
3528		-1.953125
3529		-5.859375
3530		0.000000
3531		-3.906250
3532		0.000000
3533		-1.953125
3534		0.000000
3535		-1.953125
3536		1.953125
3537		-1.953125
3538		3.906250
3539		0.000000
3540		3.906250
3541		0.000000
3542		5.859375
3543		1.953125
3544		5.859375
3545		3.906250
3546		7.812500
3547		3.906250
3548		7.812500
3549		3.906250
3550		9.765625
3551		5.859375
3552		9.765625
3553		7.812500
3554		11.718750
3555		9.765625
3556		11.718750
3557		9.765625
3558		13.671875
3559		9.765625
3560		15.625000
3561		11.718750
3562		15.625000
3563		13.671875
3564		15.625000
3565		11.718750
3566		17.578125
3567		15.625000
3568		17.578125
3569		15.625000
3570		19.531250
3571		13.671875
3572		19.531250
3573		17.578125
3574		21.484375
3575		17.578125
3576		21.484375
3577		19.531250
3578		23.437500
3579		19.531250
3580		23.437500
3581		21.484375
3582		23.437500
3583		21.484375
3584		25.390625
3585		23.437500
3586		25.390625
3587		23.437500
3588		27.343750
3589		23.437500
3590		27.343750
3591		25.390625
3592		29.296875
3593		25.390625
3594		31.250000
3595		27.343750
3596		31.250000
3597		27.343750
3598		31.250000
3599		29.296875
3600		31.250000
3601		29.296875
3602		33.203125
3603		29.296875
3604		33.203125
3605		29.296875
3606		35.156250
3607		31.250000
3608		35.156250
3609		33.203125
3610		35.156250
3611		33.203125
3612		37.109375
3613		33.203125
3614		37.109375
3615		35.156250
3616		39.062500
3617		35.156250
3618		39.062500
3619		35.156250
3620		39.062500
3621		37.109375
3622		41.015625
3623		37.109375
3624		41.015625
3625		37.109375
3626		41.015625
3627		37.109375
3628		42.968750
3629		39.062500
3630		42.968750
3631		39.062500
3632		44.921875
3633		41.015625
3634		42.968750
3635		41.015625
3636		44.921875
3637		41.015625
3638		44.921875
3639		41.015625
3640		46.875000
3641		42.968750
3642		44.921875
3643		42.968750
3644		46.875000
3645		44.921875
3646		46.875000
3647		44.921875
3648		48.828125
3649		44.921875
3650		48.828125
3651		44.921875
3652		48.828125
3653		44.921875
3654		48.828125
3655		46.875000
3656		50.781250
3657		46.875000
3658		50.781250
3659		46.875000
3660		50.781250
3661		46.875000
3662		50.781250
3663		48.828125
3664		50.781250
3665		48.828125
3666		52.734375
3667		48.828125
3668		52.734375
3669		48.828125
3670		52.734375
3671		48.828125
3672		54.687500
3673		50.781250
3674		54.687500
3675		48.828125
3676		54.687500
3677		50.781250
3678		54.687500
3679		50.781250
3680		54.687500
3681		50.781250
3682		54.687500
3683		50.781250
3684		54.687500
3685		50.781250
3686		54.687500
3687		50.781250
3688		56.640625
3689		52.734375
3690		56.640625
3691		52.734375
3692		54.687500
3693		52.734375
3694		56.640625
3695		52.734375
3696		56.640625
3697		52.734375
3698		56.640625
3699		52.734375
3700		56.640625
3701		52.734375
3702		56.640625
3703		52.734375
3704		56.640625
3705		52.734375
3706		56.640625
3707		52.734375
3708		56.640625
3709		54.687500
3710		56.640625
3711		52.734375
3712		56.640625
3713		52.734375
3714		56.640625
3715		52.734375
3716		56.640625
3717		54.687500
3718		56.640625
3719		54.687500
3720		56.640625
3721		52.734375
3722		56.640625
3723		52.734375
3724		56.640625
3725		52.734375
3726		56.640625
3727		52.734375
3728		56.640625
3729		52.734375
3730		56.640625
3731		52.734375
3732		56.640625
3733		52.734375
3734		56.640625
3735		52.734375
3736		56.640625
3737		52.734375
3738		56.640625
3739		52.734375
3740		56.640625
3741		52.734375
3742		54.687500
3743		52.734375
3744		54.687500
3745		50.781250
3746		56.640625
3747		50.781250
3748		54.687500
3749		50.781250
3750		54.687500
3751		50.781250
3752		54.687500
3753		50.781250
3754		52.734375
3755		48.828125
3756		54.687500
3757		48.828125
3758		52.734375
3759		48.828125
3760		52.734375
3761		48.828125
3762		52.734375
3763		48.828125
3764		52.734375
3765		46.875000
3766		50.781250
3767		48.828125
3768		50.781250
3769		46.875000
3770		50.781250
3771		46.875000
3772		50.781250
3773		46.875000
3774		50.781250
3775		46.875000
3776		50.781250
3777		44.921875
3778		50.781250
3779		44.921875
3780		48.828125
3781		44.921875
3782		46.875000
3783		42.968750
3784		46.875000
3785		42.968750
3786		46.875000
3787		42.968750
3788		46.875000
3789		41.015625
3790		44.921875
3791		41.015625
3792		44.921875
3793		41.015625
3794		44.921875
3795		41.015625
3796		44.921875
3797		39.062500
3798		42.968750
3799		39.062500
3800		42.968750
3801		39.062500
3802		41.015625
3803		39.062500
3804		41.015625
3805		37.109375
3806		41.015625
3807		37.109375
3808		41.015625
3809		35.156250
3810		39.062500
3811		35.156250
3812		39.062500
3813		35.156250
3814		39.062500
3815		33.203125
3816		37.109375
3817		33.203125
3818		37.109375
3819		33.203125
3820		35.156250
3821		31.250000
3822		35.156250
3823		31.250000
3824		35.156250
3825		29.296875
3826		33.203125
3827		29.296875
3828		33.203125
3829		27.343750
3830		31.250000
3831		27.343750
3832		31.250000
3833		25.390625
3834		31.250000
3835		25.390625
3836		29.296875
3837		25.390625
3838		27.343750
3839		23.437500
3840		29.296875
3841		23.437500
3842		27.343750
3843		21.484375
3844		25.390625
3845		21.484375
3846		25.390625
3847		21.484375
3848		23.437500
3849		19.531250
3850		23.437500
3851		17.578125
3852		23.437500
3853		17.578125
3854		21.484375
3855		17.578125
3856		21.484375
3857		15.625000
3858		19.531250
3859		15.625000
3860		19.531250
3861		13.671875
3862		17.578125
3863		13.671875
3864		17.578125
3865		11.718750
3866		17.578125
3867		9.765625
3868		15.625000
3869		9.765625
3870		13.671875
3871		7.812500
3872		13.671875
3873		7.812500
3874		11.718750
3875		5.859375
3876		11.718750
3877		5.859375
3878		9.765625
3879		5.859375
3880		9.765625
3881		3.906250
3882		7.812500
3883		3.906250
3884		5.859375
3885		1.953125
3886		5.859375
3887		0.000000
3888		3.906250
3889		0.000000
3890		5.859375
3891		0.000000
3892		1.953125
3893		-3.906250
3894		1.953125
3895		-1.953125
3896		0.000000
3897		-3.906250
3898		0.000000
3899		-5.859375
3900		-1.953125
3901		-5.859375
3902		-1.953125
3903		-7.812500
3904		-3.906250
3905		-7.812500
3906		-3.906250
3907		-9.765625
3908		-5.859375
3909		-9.765625
3910		-5.859375
3911		-11.718750
3912		-7.812500
3913		-11.718750
3914		-7.812500
3915		-13.671875
3916		-9.765625
3917		-15.625000
3918		-9.765625
3919		-15.625000
3920		-11.718750
3921		-15.625000
3922		-13.671875
3923		-17.578125
3924		-13.671875
3925		-17.578125
3926		-15.625000
3927		-19.531250
3928		-15.625000
3929		-21.484375
3930		-17.578125
3931		-21.484375
3932		-17.578125
3933		-23.437500
3934		-17.578125
3935		-23.437500
3936		-19.531250
3937		-25.390625
3938		-21.484375
3939		-25.390625
3940		-21.484375
3941		-27.343750
3942		-23.437500
3943		-29.296875
3944		-23.437500
3945		-29.296875
3946		-25.390625
3947		-29.296875
3948		-25.390625
3949		-31.250000
3950		-27.343750
3951		-31.250000
3952		-27.343750
3953		-33.203125
3954		-29.296875
3955		-35.156250
3956		-29.296875
3957		-33.203125
3958		-31.250000
3959		-35.156250
3960		-31.250000
3961		-37.109375
3962		-31.250000
3963		-37.109375
3964		-33.203125
3965		-37.109375
3966		-35.156250
3967		-39.062500
3968		-35.156250
3969		-39.062500
3970		-37.109375
3971		-41.015625
3972		-37.109375
3973		-42.968750
3974		-37.109375
3975		-42.968750
3976		-39.062500
3977		-42.968750
3978		-39.062500
3979		-44.921875
3980		-41.015625
3981		-44.921875
3982		-41.015625
3983		-44.921875
3984		-42.968750
3985		-46.875000
3986		-42.968750
3987		-46.875000
3988		-42.968750
3989		-46.875000
3990		-44.921875
3991		-48.828125
3992		-44.921875
3993		-48.828125
3994		-44.921875
3995		-50.781250
3996		-44.921875
3997		-50.781250
3998		-46.875000
3999		-50.781250
4000		-48.828125
4001		-52.734375
4002		-48.828125
4003		-52.734375
4004		-48.828125
4005		-52.734375
4006		-50.781250
4007		-52.734375
4008		-50.781250
4009		-54.687500
4010		-50.781250
4011		-54.687500
4012		-50.781250
4013		-56.640625
4014		-52.734375
4015		-56.640625
4016		-52.734375
4017		-56.640625
4018		-52.734375
4019		-56.640625
4020		-52.734375
4021		-56.640625
4022		-54.687500
4023		-58.593750
4024		-54.687500
4025		-60.546875
4026		-54.687500
4027		-58.593750
4028		-56.640625
4029		-60.546875
4030		-56.640625
4031		-60.546875
4032		-56.640625
4033		-60.546875
4034		-56.640625
4035		-62.500000
4036		-56.640625
4037		-60.546875
4038		-58.593750
4039		-62.500000
4040		-58.593750
4041		-62.500000
4042		-58.593750
4043		-62.500000
4044		-58.593750
4045		-62.500000
4046		-60.546875
4047		-62.500000
4048		-60.546875
4049		-64.453125
4050		-58.593750
4051		-64.453125
4052		-60.546875
4053		-64.453125
4054		-60.546875
4055		-64.453125
4056		-60.546875
4057		-64.453125
4058		-60.546875
4059		-64.453125
4060		-60.546875
4061		-66.406250
4062		-62.500000
4063		-64.453125
4064		-62.500000
4065		-66.406250
4066		-62.500000
4067		-66.406250
4068		-62.500000
4069		-66.406250
4070		-62.500000
4071		-66.406250
4072		-62.500000
4073		-66.406250
4074		-60.546875
4075		-66.406250
4076		-62.500000
4077		-66.406250
4078		-62.500000
4079		-66.406250
4080		-62.500000
4081		-66.406250
4082		-62.500000
4083		-66.406250
4084		-62.500000
4085		-66.406250
4086		-62.500000
4087		-66.406250
4088		-62.500000
4089		-66.406250
4090		-62.500000
4091		-66.406250
4092		-62.500000
4093		-66.406250
4094		-62.500000
4095		-66.406250
4096		-62.500000
4097		-66.406250
4098		-62.500000
4099		-66.406250
4100		-60.546875
4101		-66.406250
4102		-62.500000
4103		-64.453125
4104		-62.500000
4105		-64.453125
4106		-62.500000
4107		-64.453125
4108		-60.546875
4109		-64.453125
4110		-60.546875
4111		-64.453125
4112		-58.593750
4113		-64.453125
4114		-60.546875
4115		-64.453125
4116		-60.546875
4117		-64.453125
4118		-58.593750
4119		-64.453125
4120		-58.593750
4121		-62.500000
4122		-58.593750
4123		-62.500000
4124		-56.640625
4125		-62.500000
4126		-56.640625
4127		-60.546875
4128		-56.640625
4129		-60.546875
4130		-58.593750
4131		-60.546875
4132		-56.640625
4133		-60.546875
4134		-56.640625
4135		-60.546875
4136		-54.687500
4137		-58.593750
4138		-54.687500
4139		-58.593750
4140		-54.687500
4141		-58.593750
4142		-54.687500
4143		-56.640625
4144		-52.734375
4145		-56.640625
4146		-52.734375
4147		-56.640625
4148		-52.734375
4149		-56.640625
4150		-50.781250
4151		-54.687500
4152		-50.781250
4153		-54.687500
4154		-50.781250
4155		-52.734375
4156		-50.781250
4157		-52.734375
4158		-48.828125
4159		-52.734375
4160		-48.828125
4161		-50.781250
4162		-48.828125
4163		-50.781250
4164		-46.875000
4165		-50.781250
4166		-46.875000
4167		-48.828125
4168		-44.921875
4169		-48.828125
4170		-44.921875
4171		-46.875000
4172		-44.921875
4173		-46.875000
4174		-42.968750
4175		-46.875000
4176		-42.968750
4177		-44.921875
4178		-41.015625
4179		-44.921875
4180		-41.015625
4181		-42.968750
4182		-41.015625
4183		-42.968750
4184		-39.062500
4185		-42.968750
4186		-39.062500
4187		-42.968750
4188		-37.109375
4189		-41.015625
4190		-37.109375
4191		-39.062500
4192		-35.156250
4193		-39.062500
4194		-35.156250
4195		-39.062500
4196		-33.203125
4197		-37.109375
4198		-33.203125
4199		-37.109375
4200		-31.250000
4201		-35.156250
4202		-31.250000
4203		-35.156250
4204		-31.250000
4205		-33.203125
4206		-29.296875
4207		-33.203125
4208		-29.296875
4209		-33.203125
4210		-27.343750
4211		-31.250000
4212		-27.343750
4213		-29.296875
4214		-23.437500
4215		-27.343750
4216		-25.390625
4217		-27.343750
4218		-23.437500
4219		-27.343750
4220		-21.484375
4221		-25.390625
4222		-21.484375
4223		-25.390625
4224		-21.484375
4225		-25.390625
4226		-21.484375
4227		-23.437500
4228		-19.531250
4229		-21.484375
4230		-17.578125
4231		-21.484375
4232		-17.578125
4233		-19.531250
4234		-15.625000
4235		-19.531250
4236		-15.625000
4237		-17.578125
4238		-13.671875
4239		-15.625000
4240		-13.671875
4241		-17.578125
4242		-11.718750
4243		-15.625000
4244		-9.765625
4245		-13.671875
4246		-9.765625
4247		-11.718750
4248		-7.812500
4249		-11.718750
4250		-7.812500
4251		-9.765625
4252		-7.812500
4253		-9.765625
4254		-5.859375
4255		-7.812500
4256		-5.859375
4257		-7.812500
4258		-3.906250
4259		-7.812500
4260		-1.953125
4261		-5.859375
4262		-1.953125
4263		-5.859375
4264		0.000000
4265		-3.906250
4266		0.000000
4267		-1.953125
4268		1.953125
4269		-1.953125
4270		1.953125
4271		-1.953125
4272		3.906250
4273		1.953125
4274		3.906250
4275		1.953125
4276		5.859375
4277		1.953125
4278		5.859375
4279		3.906250
4280		7.812500
4281		5.859375
4282		7.812500
4283		5.859375
4284		9.765625
4285		5.859375
4286		9.765625
4287		7.812500
4288		11.718750
4289		7.812500
4290		11.718750
4291		9.765625
4292		13.671875
4293		9.765625
4294		13.671875
4295		11.718750
4296		15.625000
4297		11.718750
4298		15.625000
4299		13.671875
4300		17.578125
4301		13.671875
4302		19.531250
4303		15.625000
4304		19.531250
4305		15.625000
4306		19.531250
4307		17.578125
4308		21.484375
4309		17.578125
4310		23.437500
4311		17.578125
4312		23.437500
4313		19.531250
4314		23.437500
4315		21.484375
4316		25.390625
4317		21.484375
4318		25.390625
4319		23.437500
4320		25.390625
4321		23.437500
4322		27.343750
4323		25.390625
4324		27.343750
4325		25.390625
4326		29.296875
4327		25.390625
4328		29.296875
4329		27.343750
4330		31.250000
4331		27.343750
4332		31.250000
4333		29.296875
4334		33.203125
4335		29.296875
4336		33.203125
4337		29.296875
4338		33.203125
4339		31.250000
4340		35.156250
4341		31.250000
4342		35.156250
4343		31.250000
4344		35.156250
4345		33.203125
4346		37.109375
4347		33.203125
4348		37.109375
4349		35.156250
4350		39.062500
4351		35.156250
4352		39.062500
4353		35.156250
4354		41.015625
4355		37.109375
4356		41.015625
4357		37.109375
4358		41.015625
4359		37.109375
4360		41.015625
4361		39.062500
4362		41.015625
4363		39.062500
4364		42.968750
4365		39.062500
4366		42.968750
4367		39.062500
4368		42.968750
4369		41.015625
4370		44.921875
4371		41.015625
4372		44.921875
4373		41.015625
4374		44.921875
4375		41.015625
4376		44.921875
4377		42.968750
4378		46.875000
4379		42.968750
4380		46.875000
4381		42.968750
4382		46.875000
4383		42.968750
4384		48.828125
4385		44.921875
4386		48.828125
4387		44.921875
4388		50.781250
4389		44.921875
4390		48.828125
4391		46.875000
4392		50.781250
4393		46.875000
4394		50.781250
4395		46.875000
4396		50.781250
4397		46.875000
4398		50.781250
4399		48.828125
4400		50.781250
4401		48.828125
4402		52.734375
4403		48.828125
4404		52.734375
4405		48.828125
4406		52.734375
4407		48.828125
4408		52.734375
4409		50.781250
4410		52.734375
4411		50.781250
4412		52.734375
4413		48.828125
4414		54.687500
4415		50.781250
4416		54.687500
4417		50.781250
4418		54.687500
4419		50.781250
4420		54.687500
4421		50.781250
4422		54.687500
4423		50.781250
4424		54.687500
4425		50.781250
4426		54.687500
4427		50.781250
4428		54.687500
4429		50.781250
4430		56.640625
4431		52.734375
4432		54.687500
4433		52.734375
4434		54.687500
4435		52.734375
4436		56.640625
4437		52.734375
4438		54.687500
4439		52.734375
4440		56.640625
4441		52.734375
4442		56.640625
4443		52.734375
4444		56.640625
4445		52.734375
4446		56.640625
4447		52.734375
4448		56.640625
4449		52.734375
4450		56.640625
4451		52.734375
4452		56.640625
4453		52.734375
4454		56.640625
4455		52.734375
4456		54.687500
4457		52.734375
4458		56.640625
4459		52.734375
4460		54.687500
4461		50.781250
4462		56.640625
4463		52.734375
4464		54.687500
4465		52.734375
4466		54.687500
4467		50.781250
4468		56.640625
4469		50.781250
4470		54.687500
4471		50.781250
4472		54.687500
4473		50.781250
4474		54.687500
4475		50.781250
4476		54.687500
4477		50.781250
4478		54.687500
4479		50.781250
4480		54.687500
4481		50.781250
4482		52.734375
4483		48.828125
4484		52.734375
4485		48.828125
4486		52.734375
4487		48.828125
4488		52.734375
4489		48.828125
4490		52.734375
4491		46.875000
4492		52.734375
4493		46.875000
4494		50.781250
4495		46.875000
4496		50.781250
4497		46.875000
4498		50.781250
4499		46.875000
4500		50.781250
4501		46.875000
4502		48.828125
4503		44.921875
4504		48.828125
4505		44.921875
4506		48.828125
4507		44.921875
4508		48.828125
4509		42.968750
4510		48.828125
4511		42.968750
4512		46.875000
4513		42.968750
4514		46.875000
4515		42.968750
4516		46.875000
4517		42.968750
4518		44.921875
4519		41.015625
4520		44.921875
4521		41.015625
4522		44.921875
4523		41.015625
4524		44.921875
4525		41.015625
4526		42.968750
4527		39.062500
4528		42.968750
4529		39.062500
4530		42.968750
4531		37.109375
4532		41.015625
4533		37.109375
4534		41.015625
4535		37.109375
4536		41.015625
4537		37.109375
4538		39.062500
4539		35.156250
4540		39.062500
4541		35.156250
4542		39.062500
4543		35.156250
4544		37.109375
4545		33.203125
4546		39.062500
4547		31.250000
4548		35.156250
4549		31.250000
4550		35.156250
4551		31.250000
4552		35.156250
4553		31.250000
4554		33.203125
4555		29.296875
4556		33.203125
4557		29.296875
4558		33.203125
4559		27.343750
4560		31.250000
4561		27.343750
4562		31.250000
4563		25.390625
4564		29.296875
4565		25.390625
4566		29.296875
4567		25.390625
4568		29.296875
4569		23.437500
4570		27.343750
4571		23.437500
4572		27.343750
4573		21.484375
4574		25.390625
4575		21.484375
4576		25.390625
4577		19.531250
4578		23.437500
4579		19.531250
4580		23.437500
4581		17.578125
4582		23.437500
4583		17.578125
4584		21.484375
4585		17.578125
4586		21.484375
4587		15.625000
4588		19.531250
4589		13.671875
4590		17.578125
4591		13.671875
4592		17.578125
4593		13.671875
4594		15.625000
4595		11.718750
4596		15.625000
4597		11.718750
4598		15.625000
4599		9.765625
4600		13.671875
4601		7.812500
4602		13.671875
4603		7.812500
4604		11.718750
4605		7.812500
4606		11.718750
4607		5.859375
4608		9.765625
4609		5.859375
4610		7.812500
4611		3.906250
4612		7.812500
4613		1.953125
4614		7.812500
4615		1.953125
4616		5.859375
4617		1.953125
4618		3.906250
4619		0.000000
4620		3.906250
4621		-1.953125
4622		1.953125
4623		-1.953125
4624		1.953125
4625		-1.953125
4626		0.000000
4627		-3.906250
4628		0.000000
4629		-5.859375
4630		-1.953125
4631		-5.859375
4632		-1.953125
4633		-7.812500
4634		-3.906250
4635		-9.765625
4636		-3.906250
4637		-9.765625
4638		-5.859375
4639		-9.765625
4640		-5.859375
4641		-11.718750
4642		-5.859375
4643		-11.718750
4644		-9.765625
4645		-15.625000
4646		-9.765625
4647		-13.671875
4648		-9.765625
4649		-15.625000
4650		-11.718750
4651		-17.578125
4652		-13.671875
4653		-17.578125
4654		-13.671875
4655		-19.531250
4656		-15.625000
4657		-19.531250
4658		-15.625000
4659		-19.531250
4660		-17.578125
4661		-21.484375
4662		-17.578125
4663		-23.437500
4664		-19.531250
4665		-23.437500
4666		-19.531250
4667		-25.390625
4668		-21.484375
4669		-25.390625
4670		-21.484375
4671		-27.343750
4672		-21.484375
4673		-29.296875
4674		-23.437500
4675		-29.296875
4676		-25.390625
4677		-29.296875
4678		-25.390625
4679		-31.250000
4680		-27.343750
4681		-31.250000
4682		-27.343750
4683		-33.203125
4684		-29.296875
4685		-33.203125
4686		-29.296875
4687		-35.156250
4688		-31.250000
4689		-35.156250
4690		-31.250000
4691		-37.109375
4692		-33.203125
4693		-37.109375
4694		-33.203125
4695		-39.062500
4696		-35.156250
4697		-39.062500
4698		-35.156250
4699		-41.015625
4700		-37.109375
4701		-41.015625
4702		-37.109375
4703		-41.015625
4704		-39.062500
4705		-42.968750
4706		-39.062500
4707		-42.968750
4708		-39.062500
4709		-44.921875
4710		-41.015625
4711		-44.921875
4712		-41.015625
4713		-44.921875
4714		-42.968750
4715		-46.875000
4716		-42.968750
4717		-46.875000
4718		-42.968750
4719		-48.828125
4720		-44.921875
4721		-48.828125
4722		-44.921875
4723		-48.828125
4724		-46.875000
4725		-50.781250
4726		-46.875000
4727		-50.781250
4728		-46.875000
4729		-52.734375
4730		-46.875000
4731		-52.734375
4732		-48.828125
4733		-52.734375
4734		-48.828125
4735		-54.687500
4736		-48.828125
4737		-54.687500
4738		-50.781250
4739		-54.687500
4740		-50.781250
4741		-56.640625
4742		-52.734375
4743		-56.640625
4744		-52.734375
4745		-56.640625
4746		-52.734375
4747		-58.593750
4748		-52.734375
4749		-58.593750
4750		-54.687500
4751		-58.593750
4752		-54.687500
4753		-58.593750
4754		-54.687500
4755		-60.546875
4756		-56.640625
4757		-60.546875
4758		-56.640625
4759		-60.546875
4760		-56.640625
4761		-60.546875
4762		-58.593750
4763		-62.500000
4764		-58.593750
4765		-62.500000
4766		-58.593750
4767		-62.500000
4768		-58.593750
4769		-62.500000
4770		-58.593750
4771		-64.453125
4772		-60.546875
4773		-64.453125
4774		-58.593750
4775		-64.453125
4776		-58.593750
4777		-64.453125
4778		-60.546875
4779		-66.406250
4780		-60.546875
4781		-64.453125
4782		-60.546875
4783		-64.453125
4784		-62.500000
4785		-66.406250
4786		-62.500000
4787		-66.406250
4788		-62.500000
4789		-66.406250
4790		-62.500000
4791		-66.406250
4792		-62.500000
4793		-66.406250
4794		-64.453125
4795		-66.406250
4796		-62.500000
4797		-68.359375
4798		-62.500000
4799		-68.359375
4800		-64.453125
4801		-68.359375
4802		-64.453125
4803		-68.359375
4804		-64.453125
4805		-68.359375
4806		-64.453125
4807		-68.359375
4808		-64.453125
4809		-68.359375
4810		-64.453125
4811		-68.359375
4812		-64.453125
4813		-66.406250
4814		-64.453125
4815		-68.359375
4816		-64.453125
4817		-70.312500
4818		-64.453125
4819		-68.359375
4820		-64.453125
4821		-68.359375
4822		-64.453125
4823		-68.359375
4824		-64.453125
4825		-68.359375
4826		-64.453125
4827		-68.359375
4828		-64.453125
4829		-66.406250
4830		-62.500000
4831		-68.359375
4832		-64.453125
4833		-66.406250
4834		-62.500000
4835		-66.406250
4836		-62.500000
4837		-66.406250
4838		-62.500000
4839		-66.406250
4840		-62.500000
4841		-66.406250
4842		-62.500000
4843		-64.453125
4844		-62.500000
4845		-66.406250
4846		-60.546875
4847		-64.453125
4848		-60.546875
4849		-66.406250
4850		-60.546875
4851		-64.453125
4852		-60.546875
4853		-64.453125
4854		-60.546875
4855		-64.453125
4856		-58.593750
4857		-62.500000
4858		-58.593750
4859		-62.500000
4860		-58.593750
4861		-62.500000
4862		-58.593750
4863		-62.500000
4864		-56.640625
4865		-62.500000
4866		-56.640625
4867		-60.546875
4868		-56.640625
4869		-60.546875
4870		-56.640625
4871		-60.546875
4872		-56.640625
4873		-58.593750
4874		-54.687500
4875		-58.593750
4876		-54.687500
4877		-56.640625
4878		-54.687500
4879		-56.640625
4880		-52.734375
4881		-56.640625
4882		-52.734375
4883		-56.640625
4884		-52.734375
4885		-54.687500
4886		-52.734375
4887		-54.687500
4888		-50.781250
4889		-54.687500
4890		-50.781250
4891		-52.734375
4892		-48.828125
4893		-52.734375
4894		-48.828125
4895		-52.734375
4896		-48.828125
4897		-50.781250
4898		-48.828125
4899		-50.781250
4900		-46.875000
4901		-50.781250
4902		-46.875000
4903		-48.828125
4904		-44.921875
4905		-48.828125
4906		-44.921875
4907		-46.875000
4908		-44.921875
4909		-46.875000
4910		-42.968750
4911		-44.921875
4912		-42.968750
4913		-44.921875
4914		-42.968750
4915		-44.921875
4916		-41.015625
4917		-44.921875
4918		-41.015625
4919		-42.968750
4920		-39.062500
4921		-42.968750
4922		-37.109375
4923		-41.015625
4924		-37.109375
4925		-41.015625
4926		-35.156250
4927		-39.062500
4928		-35.156250
4929		-39.062500
4930		-35.156250
4931		-39.062500
4932		-33.203125
4933		-37.109375
4934		-33.203125
4935		-35.156250
4936		-31.250000
4937		-35.156250
4938		-31.250000
4939		-35.156250
4940		-29.296875
4941		-33.203125
4942		-29.296875
4943		-31.250000
4944		-29.296875
4945		-31.250000
4946		-27.343750
4947		-29.296875
4948		-25.390625
4949		-29.296875
4950		-25.390625
4951		-27.343750
4952		-23.437500
4953		-27.343750
4954		-23.437500
4955		-25.390625
4956		-21.484375
4957		-25.390625
4958		-21.484375
4959		-23.437500
4960		-19.531250
4961		-23.437500
4962		-19.531250
4963		-21.484375
4964		-19.531250
4965		-21.484375
4966		-17.578125
4967		-19.531250
4968		-15.625000
4969		-19.531250
4970		-15.625000
4971		-17.578125
4972		-13.671875
4973		-17.578125
4974		-13.671875
4975		-15.625000
4976		-11.718750
4977		-15.625000
4978		-11.718750
4979		-13.671875
4980		-9.765625
4981		-13.671875
4982		-9.765625
4983		-11.718750
4984		-7.812500
4985		-11.718750
4986		-5.859375
4987		-9.765625
4988		-5.859375
4989		-7.812500
4990		-5.859375
4991		-7.812500
4992		-3.906250
4993		-5.859375
4994		-1.953125
4995		-5.859375
4996		-1.953125
4997		-3.906250
4998		0.000000
4999		-3.906250
5000		0.000000
5001		-1.953125
5002		1.953125
5003		-1.953125
5004		3.906250
5005		0.000000
5006		3.906250
5007		0.000000
5008		3.906250
5009		1.953125
5010		5.859375
5011		1.953125
5012		5.859375
5013		3.906250
5014		7.812500
5015		3.906250
5016		9.765625
5017		5.859375
5018		9.765625
5019		7.812500
5020		9.765625
5021		7.812500
5022		11.718750
5023		7.812500
5024		11.718750
5025		9.765625
5026		13.671875
5027		9.765625
5028		15.625000
5029		11.718750
5030		15.625000
5031		13.671875
5032		15.625000
5033		11.718750
5034		17.578125
5035		13.671875
5036		17.578125
5037		15.625000
5038		19.531250
5039		15.625000
5040		19.531250
5041		17.578125
5042		21.484375
5043		17.578125
5044		23.437500
5045		19.531250
5046		21.484375
5047		19.531250
5048		23.437500
5049		19.531250
5050		25.390625
5051		21.484375
5052		25.390625
5053		21.484375
5054		27.343750
5055		23.437500
5056		27.343750
5057		25.390625
5058		27.343750
5059		25.390625
5060		29.296875
5061		25.390625
5062		29.296875
5063		27.343750
5064		31.250000
5065		27.343750
5066		33.203125
5067		29.296875
5068		33.203125
5069		29.296875
5070		33.203125
5071		29.296875
5072		35.156250
5073		31.250000
5074		35.156250
5075		31.250000
5076		37.109375
5077		31.250000
5078		35.156250
5079		33.203125
5080		37.109375
5081		33.203125
5082		37.109375
5083		35.156250
5084		39.062500
5085		35.156250
5086		39.062500
5087		35.156250
5088		39.062500
5089		37.109375
5090		39.062500
5091		37.109375
5092		41.015625
5093		37.109375
5094		42.968750
5095		39.062500
5096		42.968750
5097		39.062500
5098		42.968750
5099		39.062500
5100		44.921875
5101		41.015625
5102		42.968750
5103		41.015625
5104		44.921875
5105		41.015625
5106		44.921875
5107		42.968750
5108		44.921875
5109		42.968750
5110		46.875000
5111		42.968750
5112		46.875000
5113		44.921875
5114		46.875000
5115		44.921875
5116		48.828125
5117		44.921875
5118		48.828125
5119		44.921875
5120		48.828125
5121		44.921875
5122		48.828125
5123		46.875000
5124		50.781250
5125		46.875000
5126		50.781250
5127		46.875000
5128		50.781250
5129		46.875000
5130		50.781250
5131		48.828125
5132		50.781250
5133		46.875000
5134		52.734375
5135		48.828125
5136		52.734375
5137		48.828125
5138		52.734375
5139		48.828125
5140		52.734375
5141		48.828125
5142		52.734375
5143		50.781250
5144		52.734375
5145		48.828125
5146		54.687500
5147		50.781250
5148		52.734375
5149		50.781250
5150		54.687500
5151		50.781250
5152		54.687500
5153		50.781250
5154		54.687500
5155		50.781250
5156		54.687500
5157		50.781250
5158		54.687500
5159		52.734375
5160		54.687500
5161		50.781250
5162		54.687500
5163		52.734375
5164		54.687500
5165		52.734375
5166		54.687500
5167		50.781250
5168		56.640625
5169		52.734375
5170		56.640625
5171		52.734375
5172		56.640625
5173		52.734375
5174		56.640625
5175		52.734375
5176		56.640625
5177		52.734375
5178		56.640625
5179		52.734375
5180		56.640625
5181		52.734375
5182		56.640625
5183		52.734375
5184		56.640625
5185		52.734375
5186		56.640625
5187		52.734375
5188		56.640625
5189		52.734375
5190		56.640625
5191		52.734375
5192		56.640625
5193		52.734375
5194		56.640625
5195		52.734375
5196		56.640625
5197		52.734375
5198		56.640625
5199		50.781250
5200		56.640625
5201		52.734375
5202		54.687500
5203		52.734375
5204		56.640625
5205		52.734375
5206		54.687500
5207		52.734375
5208		54.687500
5209		50.781250
5210		54.687500
5211		50.781250
5212		54.687500
5213		50.781250
5214		54.687500
5215		50.781250
5216		54.687500
5217		50.781250
5218		54.687500
5219		50.781250
5220		52.734375
5221		50.781250
5222		52.734375
5223		48.828125
5224		52.734375
5225		48.828125
5226		52.734375
5227		48.828125
5228		52.734375
5229		48.828125
5230		52.734375
5231		46.875000
5232		52.734375
5233		46.875000
5234		50.781250
5235		46.875000
5236		50.781250
5237		46.875000
5238		50.781250
5239		46.875000
5240		48.828125
5241		46.875000
5242		50.781250
5243		44.921875
5244		48.828125
5245		44.921875
5246		48.828125
5247		44.921875
5248		48.828125
5249		44.921875
5250		46.875000
5251		42.968750
5252		46.875000
5253		42.968750
5254		46.875000
5255		42.968750
5256		44.921875
5257		41.015625
5258		44.921875
5259		41.015625
5260		44.921875
5261		41.015625
5262		44.921875
5263		39.062500
5264		42.968750
5265		39.062500
5266		42.968750
5267		39.062500
5268		42.968750
5269		37.109375
5270		41.015625
5271		37.109375
5272		41.015625
5273		37.109375
5274		41.015625
5275		35.156250
5276		39.062500
5277		35.156250
5278		39.062500
5279		33.203125
5280		37.109375
5281		33.203125
5282		37.109375
5283		31.250000
5284		37.109375
5285		31.250000
5286		35.156250
5287		31.250000
5288		35.156250
5289		31.250000
5290		33.203125
5291		29.296875
5292		33.203125
5293		29.296875
5294		33.203125
5295		27.343750
5296		31.250000
5297		27.343750
5298		31.250000
5299		27.343750
5300		29.296875
5301		25.390625
5302		29.296875
5303		25.390625
5304		27.343750
5305		23.437500
5306		27.343750
5307		23.437500
5308		27.343750
5309		21.484375
5310		27.343750
5311		21.484375
5312		25.390625
5313		19.531250
5314		25.390625
5315		19.531250
5316		23.437500
5317		17.578125
5318		23.437500
5319		17.578125
5320		21.484375
5321		15.625000
5322		21.484375
5323		15.625000
5324		19.531250
5325		15.625000
5326		17.578125
5327		13.671875
5328		17.578125
5329		13.671875
5330		17.578125
5331		11.718750
5332		15.625000
5333		11.718750
5334		15.625000
5335		9.765625
5336		13.671875
5337		9.765625
5338		13.671875
5339		7.812500
5340		11.718750
5341		7.812500
5342		9.765625
5343		5.859375
5344		9.765625
5345		5.859375
5346		9.765625
5347		3.906250
5348		9.765625
5349		3.906250
5350		5.859375
5351		1.953125
5352		5.859375
5353		1.953125
5354		5.859375
5355		0.000000
5356		3.906250
5357		0.000000
5358		1.953125
5359		-1.953125
5360		1.953125
5361		-3.906250
5362		0.000000
5363		-5.859375
5364		0.000000
5365		-5.859375
5366		-1.953125
5367		-5.859375
5368		-1.953125
5369		-7.812500
5370		-3.906250
5371		-7.812500
5372		-3.906250
5373		-9.765625
5374		-5.859375
5375		-9.765625
5376		-7.812500
5377		-11.718750
5378		-5.859375
5379		-13.671875
5380		-7.812500
5381		-13.671875
5382		-9.765625
5383		-13.671875
5384		-11.718750
5385		-15.625000
5386		-11.718750
5387		-17.578125
5388		-13.671875
5389		-17.578125
5390		-13.671875
5391		-19.531250
5392		-15.625000
5393		-19.531250
5394		-15.625000
5395		-21.484375
5396		-15.625000
5397		-21.484375
5398		-17.578125
5399		-23.437500
5400		-19.531250
5401		-25.390625
5402		-19.531250
5403		-25.390625
5404		-19.531250
5405		-25.390625
5406		-21.484375
5407		-27.343750
5408		-23.437500
5409		-27.343750
5410		-23.437500
5411		-29.296875
5412		-25.390625
5413		-29.296875
5414		-25.390625
5415		-31.250000
5416		-27.343750
5417		-31.250000
5418		-27.343750
5419		-33.203125
5420		-27.343750
5421		-33.203125
5422		-29.296875
5423		-35.156250
5424		-31.250000
5425		-35.156250
5426		-31.250000
5427		-37.109375
5428		-33.203125
5429		-37.109375
5430		-33.203125
5431		-39.062500
5432		-35.156250
5433		-39.062500
5434		-35.156250
5435		-39.062500
5436		-35.156250
5437		-41.015625
5438		-37.109375
5439		-41.015625
5440		-37.109375
5441		-42.968750
5442		-39.062500
5443		-42.968750
5444		-39.062500
5445		-44.921875
5446		-39.062500
5447		-44.921875
5448		-41.015625
5449		-46.875000
5450		-41.015625
5451		-46.875000
5452		-42.968750
5453		-46.875000
5454		-42.968750
5455		-48.828125
5456		-42.968750
5457		-48.828125
5458		-44.921875
5459		-48.828125
5460		-44.921875
5461		-50.781250
5462		-46.875000
5463		-50.781250
5464		-46.875000
5465		-50.781250
5466		-46.875000
5467		-50.781250
5468		-48.828125
5469		-52.734375
5470		-48.828125
5471		-54.687500
5472		-48.828125
5473		-54.687500
5474		-50.781250
5475		-54.687500
5476		-50.781250
5477		-54.687500
5478		-50.781250
5479		-54.687500
5480		-52.734375
5481		-56.640625
5482		-52.734375
5483		-56.640625
5484		-52.734375
5485		-58.593750
5486		-52.734375
5487		-58.593750
5488		-54.687500
5489		-58.593750
5490		-54.687500
5491		-58.593750
5492		-56.640625
5493		-60.546875
5494		-54.687500
5495		-60.546875
5496		-56.640625
5497		-60.546875
5498		-56.640625
5499		-60.546875
5500		-56.640625
5501		-60.546875
5502		-58.593750
5503		-62.500000
5504		-58.593750
5505		-62.500000
5506		-56.640625
5507		-62.500000
5508		-58.593750
5509		-62.500000
5510		-58.593750
5511		-62.500000
5512		-58.593750
5513		-64.453125
5514		-60.546875
5515		-64.453125
5516		-60.546875
5517		-64.453125
5518		-60.546875
5519		-64.453125
5520		-60.546875
5521		-64.453125
5522		-60.546875
5523		-64.453125
5524		-60.546875
5525		-64.453125
5526		-62.500000
5527		-64.453125
5528		-62.500000
5529		-66.406250
5530		-62.500000
5531		-64.453125
5532		-60.546875
5533		-66.406250
5534		-62.500000
5535		-66.406250
5536		-62.500000
5537		-66.406250
5538		-62.500000
5539		-66.406250
5540		-62.500000
5541		-66.406250
5542		-62.500000
5543		-66.406250
5544		-62.500000
5545		-66.406250
5546		-62.500000
5547		-66.406250
5548		-62.500000
5549		-66.406250
5550		-62.500000
5551		-66.406250
5552		-62.500000
5553		-66.406250
5554		-62.500000
5555		-66.406250
5556		-62.500000
5557		-66.406250
5558		-62.500000
5559		-66.406250
5560		-62.500000
5561		-66.406250
5562		-62.500000
5563		-66.406250
5564		-62.500000
5565		-66.406250
5566		-62.500000
5567		-64.453125
5568		-62.500000
5569		-64.453125
5570		-60.546875
5571		-64.453125
5572		-60.546875
5573		-64.453125
5574		-60.546875
5575		-64.453125
5576		-60.546875
5577		-64.453125
5578		-60.546875
5579		-62.500000
5580		-60.546875
5581		-64.453125
5582		-58.593750
5583		-62.500000
5584		-58.593750
5585		-62.500000
5586		-58.593750
5587		-62.500000
5588		-58.593750
5589		-60.546875
5590		-58.593750
5591		-60.546875
5592		-56.640625
5593		-60.546875
5594		-56.640625
5595		-60.546875
5596		-56.640625
5597		-60.546875
5598		-56.640625
5599		-60.546875
5600		-54.687500
5601		-58.593750
5602		-56.640625
5603		-58.593750
5604		-54.687500
5605		-58.593750
5606		-54.687500
5607		-56.640625
5608		-52.734375
5609		-56.640625
5610		-52.734375
5611		-56.640625
5612		-52.734375
5613		-54.687500
5614		-50.781250
5615		-54.687500
5616		-50.781250
5617		-54.687500
5618		-50.781250
5619		-54.687500
5620		-50.781250
5621		-54.687500
5622		-48.828125
5623		-52.734375
5624		-48.828125
5625		-52.734375
5626		-46.875000
5627		-52.734375
5628		-46.875000
5629		-50.781250
5630		-46.875000
5631		-50.781250
5632		-44.921875
5633		-48.828125
5634		-44.921875
5635		-48.828125
5636		-44.921875
5637		-46.875000
5638		-42.968750
5639		-46.875000
5640		-41.015625
5641		-46.875000
5642		-41.015625
5643		-44.921875
5644		-41.015625
5645		-44.921875
5646		-39.062500
5647		-42.968750
5648		-39.062500
5649		-42.968750
5650		-39.062500
5651		-41.015625
5652		-39.062500
5653		-41.015625
5654		-37.109375
5655		-41.015625
5656		-35.156250
5657		-39.062500
5658		-35.156250
5659		-39.062500
5660		-33.203125
5661		-39.062500
5662		-33.203125
5663		-37.109375
5664		-31.250000
5665		-37.109375
5666		-31.250000
5667		-35.156250
5668		-31.250000
5669		-33.203125
5670		-31.250000
5671		-33.203125
5672		-27.343750
5673		-33.203125
5674		-27.343750
5675		-31.250000
5676		-25.390625
5677		-31.250000
5678		-25.390625
5679		-29.296875
5680		-23.437500
5681		-29.296875
5682		-23.437500
5683		-27.343750
5684		-23.437500
5685		-25.390625
5686		-23.437500
5687		-25.390625
5688		-21.484375
5689		-25.390625
5690		-19.531250
5691		-23.437500
5692		-19.531250
5693		-23.437500
5694		-17.578125
5695		-21.484375
5696		-15.625000
5697		-21.484375
5698		-15.625000
5699		-19.531250
5700		-15.625000
5701		-17.578125
5702		-15.625000
5703		-17.578125
5704		-13.671875
5705		-17.578125
5706		-11.718750
5707		-15.625000
5708		-9.765625
5709		-13.671875
5710		-9.765625
5711		-13.671875
5712		-7.812500
5713		-11.718750
5714		-7.812500
5715		-11.718750
5716		-5.859375
5717		-9.765625
5718		-5.859375
5719		-7.812500
5720		-5.859375
5721		-7.812500
5722		-3.906250
5723		-5.859375
5724		-1.953125
5725		-5.859375
5726		-1.953125
5727		-3.906250
5728		0.000000
5729		-3.906250
5730		0.000000
5731		-1.953125
5732		0.000000
5733		-1.953125
5734		1.953125
5735		0.000000
5736		1.953125
5737		0.000000
5738		3.906250
5739		0.000000
5740		5.859375
5741		3.906250
5742		5.859375
5743		3.906250
5744		7.812500
5745		3.906250
5746		7.812500
5747		5.859375
5748		9.765625
5749		7.812500
5750		11.718750
5751		7.812500
5752		11.718750
5753		9.765625
5754		11.718750
5755		9.765625
5756		13.671875
5757		11.718750
5758		13.671875
5759		11.718750
5760		15.625000
5761		11.718750
5762		17.578125
5763		13.671875
5764		17.578125
5765		15.625000
5766		17.578125
5767		15.625000
5768		19.531250
5769		17.578125
5770		19.531250
5771		17.578125
5772		21.484375
5773		19.531250
5774		21.484375
5775		19.531250
5776		23.437500
5777		19.531250
5778		23.437500
5779		21.484375
5780		23.437500
5781		21.484375
5782		25.390625
5783		23.437500
5784		25.390625
5785		23.437500
5786		27.343750
5787		25.390625
5788		27.343750
5789		25.390625
5790		29.296875
5791		25.390625
5792		29.296875
5793		27.343750
5794		31.250000
5795		27.343750
5796		31.250000
5797		29.296875
5798		31.250000
5799		29.296875
5800		33.203125
5801		31.250000
5802		33.203125
5803		31.250000
5804		35.156250
5805		31.250000
5806		35.156250
5807		33.203125
5808		37.109375
5809		33.203125
5810		37.109375
5811		33.203125
5812		37.109375
5813		35.156250
5814		39.062500
5815		35.156250
5816		39.062500
5817		37.109375
5818		39.062500
5819		37.109375
5820		41.015625
5821		37.109375
5822		42.968750
5823		35.156250
5824		44.921875
5825		37.109375
5826		44.921875
5827		37.109375
5828		46.875000
5829		41.015625
5830		42.968750
5831		41.015625
5832		44.921875
5833		41.015625
5834		44.921875
5835		42.968750
5836		44.921875
5837		42.968750
5838		46.875000
5839		41.015625
5840		48.828125
5841		41.015625
5842		50.781250
5843		42.968750
5844		50.781250
5845		44.921875
5846		48.828125
5847		44.921875
5848		48.828125
5849		46.875000
5850		48.828125
5851		46.875000
5852		50.781250
5853		46.875000
5854		48.828125
5855		44.921875
5856		52.734375
5857		44.921875
5858		54.687500
5859		44.921875
5860		54.687500
5861		44.921875
5862		54.687500
5863		48.828125
5864		50.781250
5865		48.828125
5866		52.734375
5867		50.781250
5868		52.734375
5869		50.781250
5870		52.734375
5871		50.781250
5872		52.734375
5873		46.875000
5874		56.640625
5875		48.828125
5876		56.640625
5877		48.828125
5878		58.593750
5879		50.781250
5880		54.687500
5881		52.734375
5882		54.687500
5883		52.734375
5884		54.687500
5885		52.734375
5886		56.640625
5887		52.734375
5888		56.640625
5889		50.781250
5890		60.546875
5891		50.781250
5892		58.593750
5893		48.828125
5894		60.546875
5895		52.734375
5896		58.593750
5897		54.687500
5898		56.640625
5899		54.687500
5900		56.640625
5901		54.687500
5902		58.593750
5903		54.687500
5904		56.640625
5905		52.734375
5906		58.593750
5907		50.781250
5908		60.546875
5909		50.781250
5910		60.546875
5911		50.781250
5912		60.546875
5913		54.687500
5914		58.593750
5915		54.687500
5916		56.640625
5917		54.687500
5918		56.640625
5919		54.687500
5920		56.640625
5921		54.687500
5922		56.640625
5923		50.781250
5924		62.500000
5925		50.781250
5926		60.546875
5927		50.781250
5928		60.546875
5929		54.687500
5930		56.640625
5931		54.687500
5932		58.593750
5933		54.687500
5934		56.640625
5935		52.734375
5936		56.640625
5937		52.734375
5938		56.640625
5939		50.781250
5940		58.593750
5941		50.781250
5942		58.593750
5943		48.828125
5944		58.593750
5945		48.828125
5946		58.593750
5947		52.734375
5948		54.687500
5949		52.734375
5950		54.687500
5951		50.781250
5952		54.687500
5953		50.781250
5954		54.687500
5955		50.781250
5956		54.687500
5957		46.875000
5958		56.640625
5959		46.875000
5960		56.640625
5961		46.875000
5962		56.640625
5963		48.828125
5964		52.734375
5965		48.828125
5966		50.781250
5967		46.875000
5968		52.734375
5969		48.828125
5970		50.781250
5971		46.875000
5972		50.781250
5973		42.968750
5974		52.734375
5975		44.921875
5976		52.734375
5977		42.968750
5978		52.734375
5979		44.921875
5980		48.828125
5981		44.921875
5982		48.828125
5983		44.921875
5984		46.875000
5985		44.921875
5986		46.875000
5987		42.968750
5988		46.875000
5989		41.015625
5990		46.875000
5991		39.062500
5992		48.828125
5993		39.062500
5994		46.875000
5995		37.109375
5996		48.828125
5997		41.015625
5998		44.921875
5999		39.062500
6000		42.968750
6001		39.062500
6002		41.015625
6003		37.109375
6004		41.015625
6005		37.109375
6006		41.015625
6007		37.109375
6008		39.062500
6009		35.156250
6010		42.968750
6011		33.203125
6012		41.015625
6013		33.203125
6014		37.109375
6015		33.203125
6016		37.109375
6017		33.203125
6018		37.109375
6019		33.203125
6020		35.156250
6021		31.250000
6022		35.156250
6023		29.296875
6024		35.156250
6025		27.343750
6026		35.156250
6027		27.343750
6028		35.156250
6029		27.343750
6030		31.250000
6031		27.343750
6032		31.250000
6033		25.390625
6034		31.250000
6035		25.390625
6036		29.296875
6037		25.390625
6038		29.296875
6039		23.437500
6040		29.296875
6041		23.437500
6042		27.343750
6043		21.484375
6044		27.343750
6045		21.484375
6046		27.343750
6047		21.484375
6048		23.437500
6049		19.531250
6050		23.437500
6051		19.531250
6052		21.484375
6053		17.578125
6054		21.484375
6055		15.625000
6056		21.484375
6057		15.625000
6058		19.531250
6059		15.625000
6060		17.578125
6061		13.671875
6062		17.578125
6063		13.671875
6064		15.625000
6065		11.718750
6066		15.625000
6067		11.718750
6068		15.625000
6069		9.765625
6070		13.671875
6071		9.765625
6072		13.671875
6073		7.812500
6074		11.718750
6075		7.812500
6076		11.718750
6077		5.859375
6078		9.765625
6079		5.859375
6080		7.812500
6081		3.906250
6082		7.812500
6083		1.953125
6084		5.859375
6085		1.953125
6086		5.859375
6087		0.000000
6088		3.906250
6089		0.000000
6090		3.906250
6091		0.000000
6092		1.953125
6093		-1.953125
6094		1.953125
6095		-1.953125
6096		0.000000
6097		-3.906250
6098		0.000000
6099		-5.859375
6100		0.000000
6101		-5.859375
6102		-1.953125
6103		-7.812500
6104		-3.906250
6105		-7.812500
6106		-5.859375
6107		-9.765625
6108		-5.859375
6109		-9.765625
6110		-5.859375
6111		-11.718750
6112		-7.812500
6113		-13.671875
6114		-7.812500
6115		-13.671875
6116		-9.765625
6117		-13.671875
6118		-11.718750
6119		-15.625000
6120		-9.765625
6121		-15.625000
6122		-13.671875
6123		-17.578125
6124		-13.671875
6125		-19.531250
6126		-13.671875
6127		-19.531250
6128		-15.625000
6129		-21.484375
6130		-17.578125
6131		-23.437500
6132		-17.578125
6133		-23.437500
6134		-17.578125
6135		-23.437500
6136		-19.531250
6137		-25.390625
6138		-21.484375
6139		-25.390625
6140		-21.484375
6141		-27.343750
6142		-21.484375
6143		-27.343750
6144		-23.437500
6145		-29.296875
6146		-25.390625
6147		-29.296875
6148		-25.390625
6149		-31.250000
6150		-25.390625
6151		-31.250000
6152		-27.343750
6153		-31.250000
6154		-27.343750
6155		-33.203125
6156		-29.296875
6157		-35.156250
6158		-31.250000
6159		-35.156250
6160		-31.250000
6161		-35.156250
6162		-31.250000
6163		-37.109375
6164		-33.203125
6165		-37.109375
6166		-33.203125
6167		-39.062500
6168		-33.203125
6169		-39.062500
6170		-35.156250
6171		-41.015625
6172		-37.109375
6173		-41.015625
6174		-37.109375
6175		-42.968750
6176		-37.109375
6177		-42.968750
6178		-39.062500
6179		-42.968750
6180		-39.062500
6181		-44.921875
6182		-41.015625
6183		-44.921875
6184		-41.015625
6185		-44.921875
6186		-42.968750
6187		-46.875000
6188		-42.968750
6189		-46.875000
6190		-42.968750
6191		-48.828125
6192		-42.968750
6193		-48.828125
6194		-44.921875
6195		-48.828125
6196		-44.921875
6197		-50.781250
6198		-46.875000
6199		-50.781250
6200		-46.875000
6201		-50.781250
6202		-46.875000
6203		-50.781250
6204		-48.828125
6205		-52.734375
6206		-48.828125
6207		-52.734375
6208		-48.828125
6209		-54.687500
6210		-50.781250
6211		-54.687500
6212		-50.781250
6213		-54.687500
6214		-52.734375
6215		-54.687500
6216		-50.781250
6217		-56.640625
6218		-52.734375
6219		-56.640625
6220		-52.734375
6221		-56.640625
6222		-54.687500
6223		-56.640625
6224		-54.687500
6225		-58.593750
6226		-52.734375
6227		-58.593750
6228		-54.687500
6229		-58.593750
6230		-54.687500
6231		-60.546875
6232		-56.640625
6233		-60.546875
6234		-56.640625
6235		-60.546875
6236		-56.640625
6237		-60.546875
6238		-56.640625
6239		-60.546875
6240		-58.593750
6241		-62.500000
6242		-56.640625
6243		-62.500000
6244		-58.593750
6245		-62.500000
6246		-58.593750
6247		-62.500000
6248		-58.593750
6249		-62.500000
6250		-58.593750
6251		-62.500000
6252		-58.593750
6253		-62.500000
6254		-58.593750
6255		-62.500000
6256		-60.546875
6257		-64.453125
6258		-60.546875
6259		-64.453125
6260		-58.593750
6261		-64.453125
6262		-60.546875
6263		-64.453125
6264		-60.546875
6265		-64.453125
6266		-60.546875
6267		-64.453125
6268		-60.546875
6269		-64.453125
6270		-60.546875
6271		-64.453125
6272		-62.500000
6273		-64.453125
6274		-60.546875
6275		-66.406250
6276		-60.546875
6277		-66.406250
6278		-60.546875
6279		-64.453125
6280		-60.546875
6281		-64.453125
6282		-62.500000
6283		-64.453125
6284		-60.546875
6285		-64.453125
6286		-62.500000
6287		-64.453125
6288		-60.546875
6289		-64.453125
6290		-60.546875
6291		-64.453125
6292		-62.500000
6293		-64.453125
6294		-60.546875
6295		-64.453125
6296		-60.546875
6297		-64.453125
6298		-60.546875
6299		-64.453125
6300		-60.546875
6301		-64.453125
6302		-58.593750
6303		-62.500000
6304		-60.546875
6305		-62.500000
6306		-60.546875
6307		-64.453125
6308		-58.593750
6309		-62.500000
6310		-58.593750
6311		-62.500000
6312		-58.593750
6313		-62.500000
6314		-58.593750
6315		-60.546875
6316		-58.593750
6317		-60.546875
6318		-58.593750
6319		-60.546875
6320		-56.640625
6321		-60.546875
6322		-56.640625
6323		-60.546875
6324		-56.640625
6325		-60.546875
6326		-56.640625
6327		-60.546875
6328		-56.640625
6329		-58.593750
6330		-54.687500
6331		-58.593750
6332		-54.687500
6333		-56.640625
6334		-54.687500
6335		-56.640625
6336		-52.734375
6337		-56.640625
6338		-54.687500
6339		-56.640625
6340		-52.734375
6341		-56.640625
6342		-50.781250
6343		-54.687500
6344		-52.734375
6345		-54.687500
6346		-50.781250
6347		-54.687500
6348		-50.781250
6349		-52.734375
6350		-50.781250
6351		-52.734375
6352		-48.828125
6353		-54.687500
6354		-48.828125
6355		-50.781250
6356		-48.828125
6357		-50.781250
6358		-46.875000
6359		-50.781250
6360		-46.875000
6361		-48.828125
6362		-46.875000
6363		-48.828125
6364		-44.921875
6365		-48.828125
6366		-44.921875
6367		-46.875000
6368		-42.968750
6369		-46.875000
6370		-42.968750
6371		-44.921875
6372		-42.968750
6373		-44.921875
6374		-41.015625
6375		-44.921875
6376		-41.015625
6377		-42.968750
6378		-41.015625
6379		-42.968750
6380		-39.062500
6381		-42.968750
6382		-39.062500
6383		-41.015625
6384		-39.062500
6385		-41.015625
6386		-37.109375
6387		-41.015625
6388		-35.156250
6389		-39.062500
6390		-35.156250
6391		-37.109375
6392		-35.156250
6393		-37.109375
6394		-33.203125
6395		-35.156250
6396		-33.203125
6397		-35.156250
6398		-31.250000
6399		-35.156250
6400		-29.296875
6401		-33.203125
6402		-31.250000
6403		-33.203125
6404		-29.296875
6405		-31.250000
6406		-27.343750
6407		-31.250000
6408		-27.343750
6409		-29.296875
6410		-25.390625
6411		-31.250000
6412		-25.390625
6413		-27.343750
6414		-25.390625
6415		-27.343750
6416		-23.437500
6417		-27.343750
6418		-21.484375
6419		-25.390625
6420		-21.484375
6421		-23.437500
6422		-19.531250
6423		-23.437500
6424		-19.531250
6425		-21.484375
6426		-19.531250
6427		-21.484375
6428		-17.578125
6429		-19.531250
6430		-17.578125
6431		-19.531250
6432		-15.625000
6433		-19.531250
6434		-13.671875
6435		-17.578125
6436		-13.671875
6437		-15.625000
6438		-11.718750
6439		-15.625000
6440		-11.718750
6441		-13.671875
6442		-11.718750
6443		-13.671875
6444		-7.812500
6445		-13.671875
6446		-7.812500
6447		-9.765625
6448		-7.812500
6449		-9.765625
6450		-5.859375
6451		-7.812500
6452		-5.859375
6453		-7.812500
6454		-3.906250
6455		-5.859375
6456		-1.953125
6457		-5.859375
6458		-1.953125
6459		-3.906250
6460		-1.953125
6461		-5.859375
6462		1.953125
6463		-3.906250
6464		1.953125
6465		-1.953125
6466		1.953125
6467		0.000000
6468		3.906250
6469		0.000000
6470		3.906250
6471		1.953125
6472		3.906250
6473		1.953125
6474		5.859375
6475		3.906250
6476		7.812500
6477		1.953125
6478		9.765625
6479		3.906250
6480		9.765625
6481		5.859375
6482		9.765625
6483		7.812500
6484		11.718750
6485		7.812500
6486		11.718750
6487		9.765625
6488		13.671875
6489		11.718750
6490		13.671875
6491		11.718750
6492		15.625000
6493		11.718750
6494		17.578125
6495		11.718750
6496		17.578125
6497		13.671875
6498		19.531250
6499		15.625000
6500		19.531250
6501		17.578125
6502		19.531250
6503		17.578125
6504		19.531250
6505		17.578125
6506		21.484375
6507		19.531250
6508		21.484375
6509		19.531250
6510		23.437500
6511		19.531250
6512		25.390625
6513		19.531250
6514		25.390625
6515		21.484375
6516		25.390625
6517		23.437500
6518		27.343750
6519		25.390625
6520		27.343750
6521		25.390625
6522		29.296875
6523		25.390625
6524		29.296875
6525		25.390625
6526		31.250000
6527		27.343750
6528		33.203125
6529		27.343750
6530		33.203125
6531		27.343750
6532		33.203125
6533		31.250000
6534		33.203125
6535		31.250000
6536		35.156250
6537		31.250000
6538		35.156250
6539		33.203125
6540		35.156250
6541		33.203125
6542		37.109375
6543		33.203125
6544		39.062500
6545		33.203125
6546		39.062500
6547		35.156250
6548		41.015625
6549		37.109375
6550		39.062500
6551		35.156250
6552		41.015625
6553		37.109375
6554		41.015625
6555		39.062500
6556		41.015625
6557		39.062500
6558		42.968750
6559		39.062500
6560		42.968750
6561		39.062500
6562		44.921875
6563		41.015625
6564		44.921875
6565		41.015625
6566		44.921875
6567		41.015625
6568		44.921875
6569		42.968750
6570		46.875000
6571		42.968750
6572		46.875000
6573		42.968750
6574		46.875000
6575		44.921875
6576		48.828125
6577		44.921875
6578		48.828125
6579		44.921875
6580		48.828125
6581		44.921875
6582		48.828125
6583		46.875000
6584		50.781250
6585		46.875000
6586		50.781250
6587		46.875000
6588		50.781250
6589		46.875000
6590		50.781250
6591		48.828125
6592		50.781250
6593		48.828125
6594		52.734375
6595		48.828125
6596		52.734375
6597		48.828125
6598		54.687500
6599		50.781250
6600		52.734375
6601		50.781250
6602		52.734375
6603		50.781250
6604		52.734375
6605		50.781250
6606		54.687500
6607		50.781250
6608		54.687500
6609		52.734375
6610		54.687500
6611		50.781250
6612		56.640625
6613		50.781250
6614		56.640625
6615		50.781250
6616		56.640625
6617		52.734375
6618		56.640625
6619		52.734375
6620		56.640625
6621		52.734375
6622		56.640625
6623		52.734375
6624		56.640625
6625		52.734375
6626		56.640625
6627		52.734375
6628		56.640625
6629		52.734375
6630		58.593750
6631		54.687500
6632		56.640625
6633		54.687500
6634		56.640625
6635		54.687500
6636		58.593750
6637		54.687500
6638		56.640625
6639		54.687500
6640		56.640625
6641		54.687500
6642		58.593750
6643		54.687500
6644		58.593750
6645		54.687500
6646		58.593750
6647		54.687500
6648		58.593750
6649		54.687500
6650		56.640625
6651		52.734375
6652		58.593750
6653		54.687500
6654		56.640625
6655		54.687500
6656		58.593750
6657		54.687500
6658		58.593750
6659		54.687500
6660		56.640625
6661		54.687500
6662		58.593750
6663		52.734375
6664		58.593750
6665		54.687500
6666		56.640625
6667		54.687500
6668		56.640625
6669		54.687500
6670		56.640625
6671		54.687500
6672		56.640625
6673		52.734375
6674		56.640625
6675		52.734375
6676		56.640625
6677		52.734375
6678		54.687500
6679		52.734375
6680		54.687500
6681		52.734375
6682		56.640625
6683		52.734375
6684		54.687500
6685		52.734375
6686		54.687500
6687		50.781250
6688		54.687500
6689		50.781250
6690		54.687500
6691		50.781250
6692		54.687500
6693		50.781250
6694		54.687500
6695		50.781250
6696		52.734375
6697		48.828125
6698		52.734375
6699		48.828125
6700		52.734375
6701		48.828125
6702		52.734375
6703		48.828125
6704		50.781250
6705		46.875000
6706		52.734375
6707		46.875000
6708		50.781250
6709		44.921875
6710		50.781250
6711		46.875000
6712		48.828125
6713		44.921875
6714		48.828125
6715		44.921875
6716		48.828125
6717		44.921875
6718		48.828125
6719		44.921875
6720		46.875000
6721		42.968750
6722		46.875000
6723		42.968750
6724		46.875000
6725		41.015625
6726		44.921875
6727		41.015625
6728		46.875000
6729		41.015625
6730		42.968750
6731		41.015625
6732		42.968750
6733		39.062500
6734		42.968750
6735		39.062500
6736		42.968750
6737		39.062500
6738		41.015625
6739		37.109375
6740		41.015625
6741		37.109375
6742		41.015625
6743		37.109375
6744		39.062500
6745		35.156250
6746		39.062500
6747		35.156250
6748		39.062500
6749		35.156250
6750		37.109375
6751		33.203125
6752		37.109375
6753		33.203125
6754		37.109375
6755		31.250000
6756		35.156250
6757		31.250000
6758		33.203125
6759		29.296875
6760		33.203125
6761		29.296875
6762		33.203125
6763		29.296875
6764		31.250000
6765		27.343750
6766		31.250000
6767		27.343750
6768		29.296875
6769		25.390625
6770		29.296875
6771		25.390625
6772		29.296875
6773		23.437500
6774		27.343750
6775		23.437500
6776		27.343750
6777		21.484375
6778		25.390625
6779		21.484375
6780		25.390625
6781		19.531250
6782		23.437500
6783		19.531250
6784		23.437500
6785		19.531250
6786		21.484375
6787		17.578125
6788		21.484375
6789		17.578125
6790		19.531250
6791		15.625000
6792		19.531250
6793		13.671875
6794		17.578125
6795		13.671875
6796		17.578125
6797		13.671875
6798		15.625000
6799		11.718750
6800		15.625000
6801		11.718750
6802		13.671875
6803		9.765625
6804		13.671875
6805		7.812500
6806		13.671875
6807		7.812500
6808		11.718750
6809		7.812500
6810		9.765625
6811		5.859375
6812		9.765625
6813		5.859375
6814		7.812500
6815		3.906250
6816		7.812500
6817		1.953125
6818		5.859375
6819		1.953125
6820		5.859375
6821		1.953125
6822		3.906250
6823		0.000000
6824		3.906250
6825		0.000000
6826		3.906250
6827		-1.953125
6828		1.953125
6829		-3.906250
6830		0.000000
6831		-3.906250
6832		0.000000
6833		-5.859375
6834		-1.953125
6835		-5.859375
6836		-1.953125
6837		-5.859375
6838		-3.906250
6839		-9.765625
6840		-3.906250
6841		-9.765625
6842		-5.859375
6843		-9.765625
6844		-5.859375
6845		-11.718750
6846		-7.812500
6847		-11.718750
6848		-7.812500
6849		-13.671875
6850		-9.765625
6851		-13.671875
6852		-9.765625
6853		-15.625000
6854		-11.718750
6855		-15.625000
6856		-13.671875
6857		-17.578125
6858		-13.671875
6859		-19.531250
6860		-15.625000
6861		-19.531250
6862		-15.625000
6863		-21.484375
6864		-17.578125
6865		-21.484375
6866		-19.531250
6867		-23.437500
6868		-19.531250
6869		-23.437500
6870		-19.531250
6871		-25.390625
6872		-21.484375
6873		-25.390625
6874		-23.437500
6875		-27.343750
6876		-23.437500
6877		-27.343750
6878		-23.437500
6879		-29.296875
6880		-25.390625
6881		-29.296875
6882		-25.390625
6883		-31.250000
6884		-27.343750
6885		-31.250000
6886		-29.296875
6887		-33.203125
6888		-29.296875
6889		-33.203125
6890		-29.296875
6891		-35.156250
6892		-31.250000
6893		-35.156250
6894		-31.250000
6895		-35.156250
6896		-33.203125
6897		-37.109375
6898		-33.203125
6899		-39.062500
6900		-33.203125
6901		-39.062500
6902		-35.156250
6903		-39.062500
6904		-35.156250
6905		-41.015625
6906		-37.109375
6907		-41.015625
6908		-37.109375
6909		-41.015625
6910		-39.062500
6911		-42.968750
6912		-39.062500
6913		-42.968750
6914		-41.015625
6915		-44.921875
6916		-41.015625
6917		-44.921875
6918		-41.015625
6919		-46.875000
6920		-42.968750
6921		-46.875000
6922		-42.968750
6923		-46.875000
6924		-42.968750
6925		-48.828125
6926		-44.921875
6927		-48.828125
6928		-44.921875
6929		-48.828125
6930		-46.875000
6931		-50.781250
6932		-44.921875
6933		-50.781250
6934		-46.875000
6935		-50.781250
6936		-48.828125
6937		-52.734375
6938		-46.875000
6939		-52.734375
6940		-48.828125
6941		-54.687500
6942		-50.781250
6943		-54.687500
6944		-50.781250
6945		-54.687500
6946		-50.781250
6947		-54.687500
6948		-52.734375
6949		-56.640625
6950		-52.734375
6951		-56.640625
6952		-52.734375
6953		-56.640625
6954		-54.687500
6955		-56.640625
6956		-54.687500
6957		-56.640625
6958		-54.687500
6959		-58.593750
6960		-54.687500
6961		-58.593750
6962		-54.687500
6963		-58.593750
6964		-56.640625
6965		-60.546875
6966		-56.640625
6967		-60.546875
6968		-56.640625
6969		-60.546875
6970		-56.640625
6971		-60.546875
6972		-56.640625
6973		-62.500000
6974		-56.640625
6975		-60.546875
6976		-58.593750
6977		-62.500000
6978		-56.640625
6979		-62.500000
6980		-58.593750
6981		-62.500000
6982		-58.593750
6983		-62.500000
6984		-60.546875
6985		-62.500000
6986		-60.546875
6987		-64.453125
6988		-60.546875
6989		-62.500000
6990		-60.546875
6991		-62.500000
6992		-60.546875
6993		-64.453125
6994		-60.546875
6995		-64.453125
6996		-60.546875
6997		-62.500000
6998		-60.546875
6999		-64.453125
7000		-60.546875
7001		-64.453125
7002		-60.546875
7003		-64.453125
7004		-60.546875
7005		-64.453125
7006		-60.546875
7007		-64.453125
7008		-60.546875
7009		-64.453125
7010		-60.546875
7011		-64.453125
7012		-60.546875
7013		-64.453125
7014		-60.546875
7015		-64.453125
7016		-60.546875
7017		-64.453125
7018		-60.546875
7019		-64.453125
7020		-60.546875
7021		-64.453125
7022		-60.546875
7023		-64.453125
7024		-60.546875
7025		-64.453125
7026		-60.546875
7027		-62.500000
7028		-60.546875
7029		-64.453125
7030		-58.593750
7031		-64.453125
7032		-60.546875
7033		-62.500000
7034		-60.546875
7035		-62.500000
7036		-60.546875
7037		-62.500000
7038		-60.546875
7039		-62.500000
7040		-58.593750
7041		-62.500000
7042		-58.593750
7043		-62.500000
7044		-58.593750
7045		-62.500000
7046		-58.593750
7047		-60.546875
7048		-56.640625
7049		-60.546875
7050		-58.593750
7051		-60.546875
7052		-56.640625
7053		-60.546875
7054		-56.640625
7055		-58.593750
7056		-56.640625
7057		-58.593750
7058		-56.640625
7059		-60.546875
7060		-54.687500
7061		-58.593750
7062		-54.687500
7063		-56.640625
7064		-54.687500
7065		-58.593750
7066		-52.734375
7067		-56.640625
7068		-54.687500
7069		-56.640625
7070		-52.734375
7071		-54.687500
7072		-52.734375
7073		-54.687500
7074		-52.734375
7075		-54.687500
7076		-50.781250
7077		-54.687500
7078		-50.781250
7079		-52.734375
7080		-50.781250
7081		-52.734375
7082		-48.828125
7083		-52.734375
7084		-48.828125
7085		-50.781250
7086		-48.828125
7087		-50.781250
7088		-46.875000
7089		-50.781250
7090		-46.875000
7091		-50.781250
7092		-44.921875
7093		-48.828125
7094		-44.921875
7095		-48.828125
7096		-44.921875
7097		-46.875000
7098		-44.921875
7099		-46.875000
7100		-42.968750
7101		-46.875000
7102		-42.968750
7103		-44.921875
7104		-41.015625
7105		-44.921875
7106		-41.015625
7107		-42.968750
7108		-39.062500
7109		-42.968750
7110		-39.062500
7111		-41.015625
7112		-39.062500
7113		-41.015625
7114		-37.109375
7115		-41.015625
7116		-37.109375
7117		-41.015625
7118		-35.156250
7119		-39.062500
7120		-35.156250
7121		-37.109375
7122		-35.156250
7123		-37.109375
7124		-33.203125
7125		-35.156250
7126		-33.203125
7127		-35.156250
7128		-31.250000
7129		-35.156250
7130		-31.250000
7131		-33.203125
7132		-31.250000
7133		-33.203125
7134		-29.296875
7135		-31.250000
7136		-29.296875
7137		-31.250000
7138		-27.343750
7139		-29.296875
7140		-25.390625
7141		-29.296875
7142		-25.390625
7143		-29.296875
7144		-25.390625
7145		-27.343750
7146		-23.437500
7147		-25.390625
7148		-23.437500
7149		-25.390625
7150		-21.484375
7151		-25.390625
7152		-21.484375
7153		-23.437500
7154		-19.531250
7155		-21.484375
7156		-19.531250
7157		-21.484375
7158		-17.578125
7159		-21.484375
7160		-17.578125
7161		-19.531250
7162		-15.625000
7163		-17.578125
7164		-15.625000
7165		-17.578125
7166		-13.671875
7167		-15.625000
7168		-13.671875
7169		-15.625000
7170		-11.718750
7171		-13.671875
7172		-11.718750
7173		-13.671875
7174		-9.765625
7175		-11.718750
7176		-9.765625
7177		-11.718750
7178		-7.812500
7179		-9.765625
7180		-7.812500
7181		-9.765625
7182		-5.859375
7183		-7.812500
7184		-3.906250
7185		-7.812500
7186		-3.906250
7187		-5.859375
7188		-3.906250
7189		-5.859375
7190		-1.953125
7191		-3.906250
7192		-1.953125
7193		-3.906250
7194		0.000000
7195		-1.953125
7196		1.953125
7197		0.000000
7198		1.953125
7199		0.000000
7200		3.906250
7201		0.000000
7202		3.906250
7203		1.953125
7204		5.859375
7205		3.906250
7206		5.859375
7207		3.906250
7208		7.812500
7209		5.859375
7210		7.812500
7211		5.859375
7212		9.765625
7213		7.812500
7214		9.765625
7215		7.812500
7216		11.718750
7217		7.812500
7218		13.671875
7219		9.765625
7220		13.671875
7221		11.718750
7222		13.671875
7223		11.718750
7224		15.625000
7225		13.671875
7226		15.625000
7227		13.671875
7228		17.578125
7229		13.671875
7230		17.578125
7231		15.625000
7232		19.531250
7233		15.625000
7234		19.531250
7235		17.578125
7236		21.484375
7237		17.578125
7238		23.437500
7239		19.531250
7240		21.484375
7241		19.531250
7242		23.437500
7243		21.484375
7244		23.437500
7245		21.484375
7246		27.343750
7247		23.437500
7248		25.390625
7249		23.437500
7250		27.343750
7251		23.437500
7252		27.343750
7253		25.390625
7254		29.296875
7255		25.390625
7256		31.250000
7257		27.343750
7258		31.250000
7259		27.343750
7260		31.250000
7261		27.343750
7262		33.203125
7263		29.296875
7264		33.203125
7265		31.250000
7266		33.203125
7267		31.250000
7268		35.156250
7269		33.203125
7270		35.156250
7271		33.203125
7272		35.156250
7273		33.203125
7274		37.109375
7275		35.156250
7276		37.109375
7277		35.156250
7278		39.062500
7279		35.156250
7280		39.062500
7281		37.109375
7282		39.062500
7283		37.109375
7284		41.015625
7285		39.062500
7286		41.015625
7287		39.062500
7288		41.015625
7289		39.062500
7290		42.968750
7291		39.062500
7292		42.968750
7293		41.015625
7294		42.968750
7295		41.015625
7296		44.921875
7297		41.015625
7298		44.921875
7299		42.968750
7300		44.921875
7301		42.968750
7302		46.875000
7303		42.968750
7304		46.875000
7305		42.968750
7306		48.828125
7307		44.921875
7308		48.828125
7309		44.921875
7310		48.828125
7311		46.875000
7312		48.828125
7313		46.875000
7314		50.781250
7315		46.875000
7316		50.781250
7317		46.875000
7318		50.781250
7319		46.875000
7320		52.734375
7321		48.828125
7322		50.781250
7323		48.828125
7324		50.781250
7325		48.828125
7326		52.734375
7327		48.828125
7328		52.734375
7329		50.781250
7330		52.734375
7331		48.828125
7332		54.687500
7333		50.781250
7334		52.734375
7335		50.781250
7336		54.687500
7337		50.781250
7338		54.687500
7339		52.734375
7340		54.687500
7341		52.734375
7342		54.687500
7343		52.734375
7344		56.640625
7345		52.734375
7346		56.640625
7347		52.734375
7348		56.640625
7349		52.734375
7350		56.640625
7351		52.734375
7352		56.640625
7353		54.687500
7354		56.640625
7355		52.734375
7356		56.640625
7357		54.687500
7358		56.640625
7359		54.687500
7360		58.593750
7361		54.687500
7362		58.593750
7363		54.687500
7364		56.640625
7365		54.687500
7366		58.593750
7367		54.687500
7368		58.593750
7369		54.687500
7370		58.593750
7371		54.687500
7372		58.593750
7373		54.687500
7374		58.593750
7375		54.687500
7376		58.593750
7377		56.640625
7378		58.593750
7379		54.687500
7380		58.593750
7381		56.640625
7382		58.593750
7383		56.640625
7384		58.593750
7385		54.687500
7386		58.593750
7387		56.640625
7388		58.593750
7389		54.687500
7390		58.593750
7391		54.687500
7392		58.593750
7393		54.687500
7394		58.593750
7395		54.687500
7396		58.593750
7397		54.687500
7398		58.593750
7399		54.687500
7400		56.640625
7401		54.687500
7402		58.593750
7403		54.687500
7404		56.640625
7405		54.687500
7406		56.640625
7407		52.734375
7408		56.640625
7409		54.687500
7410		56.640625
7411		54.687500
7412		56.640625
7413		52.734375
7414		56.640625
7415		52.734375
7416		56.640625
7417		52.734375
7418		56.640625
7419		52.734375
7420		56.640625
7421		52.734375
7422		54.687500
7423		52.734375
7424		54.687500
7425		50.781250
7426		54.687500
7427		50.781250
7428		54.687500
7429		50.781250
7430		54.687500
7431		50.781250
7432		54.687500
7433		50.781250
7434		52.734375
7435		48.828125
7436		52.734375
7437		48.828125
7438		52.734375
7439		48.828125
7440		50.781250
7441		46.875000
7442		50.781250
7443		46.875000
7444		50.781250
7445		46.875000
7446		50.781250
7447		46.875000
7448		50.781250
7449		46.875000
7450		48.828125
7451		44.921875
7452		48.828125
7453		44.921875
7454		48.828125
7455		44.921875
7456		46.875000
7457		42.968750
7458		46.875000
7459		42.968750
7460		46.875000
7461		42.968750
7462		46.875000
7463		41.015625
7464		44.921875
7465		41.015625
7466		44.921875
7467		41.015625
7468		44.921875
7469		39.062500
7470		42.968750
7471		39.062500
7472		42.968750
7473		37.109375
7474		42.968750
7475		37.109375
7476		41.015625
7477		35.156250
7478		42.968750
7479		37.109375
7480		41.015625
7481		35.156250
7482		39.062500
7483		35.156250
7484		39.062500
7485		35.156250
7486		37.109375
7487		33.203125
7488		37.109375
7489		31.250000
7490		37.109375
7491		31.250000
7492		35.156250
7493		31.250000
7494		35.156250
7495		29.296875
7496		35.156250
7497		27.343750
7498		33.203125
7499		29.296875
7500		31.250000
7501		27.343750
7502		31.250000
7503		27.343750
7504		31.250000
7505		25.390625
7506		29.296875
7507		23.437500
7508		29.296875
7509		23.437500
7510		29.296875
7511		21.484375
7512		29.296875
7513		21.484375
7514		27.343750
7515		19.531250
7516		29.296875
7517		21.484375
7518		23.437500
7519		19.531250
7520		23.437500
7521		17.578125
7522		23.437500
7523		17.578125
7524		21.484375
7525		15.625000
7526		21.484375
7527		15.625000
7528		19.531250
7529		13.671875
7530		19.531250
7531		13.671875
7532		19.531250
7533		13.671875
7534		15.625000
7535		9.765625
7536		15.625000
7537		9.765625
7538		15.625000
7539		7.812500
7540		15.625000
7541		9.765625
7542		13.671875
7543		7.812500
7544		11.718750
7545		5.859375
7546		11.718750
7547		5.859375
7548		9.765625
7549		3.906250
7550		9.765625
7551		3.906250
7552		7.812500
7553		1.953125
7554		5.859375
7555		0.000000
7556		7.812500
7557		0.000000
7558		5.859375
7559		0.000000
7560		3.906250
7561		-3.906250
7562		3.906250
7563		-3.906250
7564		3.906250
7565		-7.812500
7566		3.906250
7567		-5.859375
7568		0.000000
7569		-5.859375
7570		-1.953125
7571		-7.812500
7572		-1.953125
7573		-9.765625
7574		0.000000
7575		-7.812500
7576		-3.906250
7577		-9.765625
7578		-5.859375
7579		-13.671875
7580		-3.906250
7581		-15.625000
7582		-5.859375
7583		-13.671875
7584		-9.765625
7585		-13.671875
7586		-9.765625
7587		-15.625000
7588		-9.765625
7589		-17.578125
7590		-9.765625
7591		-17.578125
7592		-11.718750
7593		-17.578125
7594		-13.671875
7595		-21.484375
7596		-13.671875
7597		-21.484375
7598		-11.718750
7599		-23.437500
7600		-13.671875
7601		-21.484375
7602		-19.531250
7603		-23.437500
7604		-19.531250
7605		-27.343750
7606		-19.531250
7607		-27.343750
7608		-17.578125
7609		-25.390625
7610		-21.484375
7611		-27.343750
7612		-23.437500
7613		-31.250000
7614		-21.484375
7615		-31.250000
7616		-21.484375
7617		-29.296875
7618		-27.343750
7619		-31.250000
7620		-27.343750
7621		-31.250000
7622		-27.343750
7623		-35.156250
7624		-27.343750
7625		-35.156250
7626		-29.296875
7627		-33.203125
7628		-31.250000
7629		-39.062500
7630		-29.296875
7631		-39.062500
7632		-29.296875
7633		-39.062500
7634		-31.250000
7635		-37.109375
7636		-35.156250
7637		-41.015625
7638		-35.156250
7639		-42.968750
7640		-33.203125
7641		-41.015625
7642		-35.156250
7643		-41.015625
7644		-37.109375
7645		-42.968750
7646		-35.156250
7647		-44.921875
7648		-35.156250
7649		-46.875000
7650		-37.109375
7651		-42.968750
7652		-41.015625
7653		-44.921875
7654		-41.015625
7655		-46.875000
7656		-41.015625
7657		-48.828125
7658		-39.062500
7659		-46.875000
7660		-42.968750
7661		-46.875000
7662		-44.921875
7663		-50.781250
7664		-41.015625
7665		-50.781250
7666		-42.968750
7667		-48.828125
7668		-46.875000
7669		-50.781250
7670		-46.875000
7671		-52.734375
7672		-46.875000
7673		-54.687500
7674		-44.921875
7675		-52.734375
7676		-46.875000
7677		-52.734375
7678		-48.828125
7679		-56.640625
7680		-48.828125
7681		-56.640625
7682		-46.875000
7683		-56.640625
7684		-48.828125
7685		-54.687500
7686		-50.781250
7687		-56.640625
7688		-52.734375
7689		-58.593750
7690		-50.781250
7691		-58.593750
7692		-50.781250
7693		-56.640625
7694		-52.734375
7695		-58.593750
7696		-54.687500
7697		-60.546875
7698		-50.781250
7699		-60.546875
7700		-52.734375
7701		-58.593750
7702		-56.640625
7703		-60.546875
7704		-56.640625
7705		-60.546875
7706		-56.640625
7707		-62.500000
7708		-54.687500
7709		-62.500000
7710		-56.640625
7711		-60.546875
7712		-58.593750
7713		-64.453125
7714		-54.687500
7715		-62.500000
7716		-54.687500
7717		-64.453125
7718		-56.640625
7719		-62.500000
7720		-58.593750
7721		-62.500000
7722		-58.593750
7723		-64.453125
7724		-56.640625
7725		-64.453125
7726		-58.593750
7727		-62.500000
7728		-60.546875
7729		-64.453125
7730		-58.593750
7731		-66.406250
7732		-56.640625
7733		-66.406250
7734		-56.640625
7735		-62.500000
7736		-60.546875
7737		-62.500000
7738		-60.546875
7739		-64.453125
7740		-58.593750
7741		-66.406250
7742		-58.593750
7743		-64.453125
7744		-60.546875
7745		-64.453125
7746		-60.546875
7747		-64.453125
7748		-58.593750
7749		-66.406250
7750		-56.640625
7751		-64.453125
7752		-60.546875
7753		-62.500000
7754		-60.546875
7755		-62.500000
7756		-60.546875
7757		-66.406250
7758		-58.593750
7759		-64.453125
7760		-58.593750
7761		-62.500000
7762		-60.546875
7763		-64.453125
7764		-58.593750
7765		-64.453125
7766		-58.593750
7767		-62.500000
7768		-60.546875
7769		-62.500000
7770		-58.593750
7771		-62.500000
7772		-58.593750
7773		-62.500000
7774		-58.593750
7775		-62.500000
7776		-56.640625
7777		-62.500000
7778		-56.640625
7779		-60.546875
7780		-56.640625
7781		-62.500000
7782		-56.640625
7783		-60.546875
7784		-56.640625
7785		-60.546875
7786		-56.640625
7787		-58.593750
7788		-54.687500
7789		-58.593750
7790		-54.687500
7791		-58.593750
7792		-54.687500
7793		-58.593750
7794		-54.687500
7795		-56.640625
7796		-54.687500
7797		-56.640625
7798		-54.687500
7799		-58.593750
7800		-52.734375
7801		-56.640625
7802		-52.734375
7803		-56.640625
7804		-50.781250
7805		-54.687500
7806		-52.734375
7807		-54.687500
7808		-50.781250
7809		-54.687500
7810		-50.781250
7811		-54.687500
7812		-48.828125
7813		-52.734375
7814		-48.828125
7815		-52.734375
7816		-48.828125
7817		-50.781250
7818		-48.828125
7819		-50.781250
7820		-46.875000
7821		-50.781250
7822		-44.921875
7823		-50.781250
7824		-44.921875
7825		-48.828125
7826		-44.921875
7827		-48.828125
7828		-42.968750
7829		-48.828125
7830		-42.968750
7831		-46.875000
7832		-42.968750
7833		-46.875000
7834		-41.015625
7835		-44.921875
7836		-41.015625
7837		-44.921875
7838		-39.062500
7839		-44.921875
7840		-39.062500
7841		-42.968750
7842		-39.062500
7843		-42.968750
7844		-37.109375
7845		-41.015625
7846		-37.109375
7847		-41.015625
7848		-35.156250
7849		-41.015625
7850		-35.156250
7851		-39.062500
7852		-35.156250
7853		-37.109375
7854		-33.203125
7855		-37.109375
7856		-33.203125
7857		-37.109375
7858		-31.250000
7859		-35.156250
7860		-31.250000
7861		-35.156250
7862		-29.296875
7863		-35.156250
7864		-29.296875
7865		-33.203125
7866		-27.343750
7867		-33.203125
7868		-27.343750
7869		-31.250000
7870		-27.343750
7871		-29.296875
7872		-25.390625
7873		-29.296875
7874		-23.437500
7875		-29.296875
7876		-23.437500
7877		-27.343750
7878		-21.484375
7879		-29.296875
7880		-19.531250
7881		-25.390625
7882		-19.531250
7883		-25.390625
7884		-19.531250
7885		-23.437500
7886		-19.531250
7887		-21.484375
7888		-17.578125
7889		-21.484375
7890		-17.578125
7891		-21.484375
7892		-15.625000
7893		-19.531250
7894		-13.671875
7895		-19.531250
7896		-13.671875
7897		-17.578125
7898		-11.718750
7899		-15.625000
7900		-11.718750
7901		-15.625000
7902		-11.718750
7903		-13.671875
7904		-9.765625
7905		-13.671875
7906		-9.765625
7907		-13.671875
7908		-7.812500
7909		-11.718750
7910		-5.859375
7911		-9.765625
7912		-5.859375
7913		-11.718750
7914		-3.906250
7915		-7.812500
7916		-3.906250
7917		-7.812500
7918		-1.953125
7919		-7.812500
7920		-1.953125
7921		-3.906250
7922		0.000000
7923		-3.906250
7924		0.000000
7925		-3.906250
7926		0.000000
7927		-1.953125
7928		1.953125
7929		-1.953125
7930		3.906250
7931		0.000000
7932		3.906250
7933		1.953125
7934		5.859375
7935		1.953125
7936		5.859375
7937		3.906250
7938		7.812500
7939		3.906250
7940		7.812500
7941		3.906250
7942		9.765625
7943		5.859375
7944		9.765625
7945		5.859375
7946		13.671875
7947		5.859375
7948		13.671875
7949		7.812500
7950		13.671875
7951		9.765625
7952		13.671875
7953		11.718750
7954		15.625000
7955		11.718750
7956		15.625000
7957		11.718750
7958		17.578125
7959		13.671875
7960		17.578125
7961		15.625000
7962		19.531250
7963		15.625000
7964		21.484375
7965		17.578125
7966		21.484375
7967		17.578125
7968		21.484375
7969		19.531250
7970		23.437500
7971		19.531250
7972		23.437500
7973		21.484375
7974		25.390625
7975		21.484375
7976		25.390625
7977		23.437500
7978		25.390625
7979		21.484375
7980		29.296875
7981		23.437500
7982		27.343750
7983		25.390625
7984		29.296875
7985		25.390625
7986		31.250000
7987		27.343750
7988		29.296875
7989		27.343750
7990		31.250000
7991		29.296875
7992		33.203125
7993		29.296875
7994		33.203125
7995		29.296875
7996		33.203125
7997		29.296875
7998		35.156250
7999		31.250000
8000		35.156250
8001		33.203125
8002		35.156250
8003		33.203125
8004		37.109375
8005		35.156250
8006		37.109375
8007		35.156250
8008		39.062500
8009		35.156250
8010		39.062500
8011		37.109375
8012		41.015625
8013		37.109375
8014		41.015625
8015		37.109375
8016		41.015625
8017		37.109375
8018		42.968750
8019		39.062500
8020		42.968750
8021		41.015625
8022		42.968750
8023		41.015625
8024		42.968750
8025		39.062500
8026		44.921875
8027		41.015625
8028		44.921875
8029		42.968750
8030		46.875000
8031		41.015625
8032		46.875000
8033		42.968750
8034		48.828125
8035		42.968750
8036		48.828125
8037		44.921875
8038		46.875000
8039		44.921875
8040		48.828125
8041		44.921875
8042		50.781250
8043		46.875000
8044		50.781250
8045		46.875000
8046		50.781250
8047		46.875000
8048		50.781250
8049		48.828125
8050		52.734375
8051		48.828125
8052		50.781250
8053		48.828125
8054		52.734375
8055		48.828125
8056		52.734375
8057		50.781250
8058		52.734375
8059		50.781250
8060		54.687500
8061		50.781250
8062		54.687500
8063		50.781250
8064		54.687500
8065		50.781250
8066		54.687500
8067		50.781250
8068		54.687500
8069		50.781250
8070		56.640625
8071		52.734375
8072		56.640625
8073		52.734375
8074		54.687500
8075		52.734375
8076		56.640625
8077		52.734375
8078		56.640625
8079		52.734375
8080		56.640625
8081		54.687500
8082		56.640625
8083		52.734375
8084		58.593750
8085		52.734375
8086		56.640625
8087		54.687500
8088		58.593750
8089		54.687500
8090		58.593750
8091		54.687500
8092		58.593750
8093		54.687500
8094		58.593750
8095		54.687500
8096		58.593750
8097		54.687500
8098		58.593750
8099		54.687500
8100		58.593750
8101		54.687500
8102		58.593750
8103		56.640625
8104		58.593750
8105		54.687500
8106		60.546875
8107		56.640625
8108		58.593750
8109		54.687500
8110		60.546875
8111		54.687500
8112		58.593750
8113		54.687500
8114		58.593750
8115		54.687500
8116		58.593750
8117		54.687500
8118		58.593750
8119		54.687500
8120		58.593750
8121		54.687500
8122		58.593750
8123		56.640625
8124		58.593750
8125		54.687500
8126		58.593750
8127		54.687500
8128		58.593750
8129		54.687500
8130		58.593750
8131		54.687500
8132		58.593750
8133		54.687500
8134		58.593750
8135		54.687500
8136		58.593750
8137		52.734375
8138		58.593750
8139		54.687500
8140		56.640625
8141		54.687500
8142		56.640625
8143		54.687500
8144		56.640625
8145		54.687500
8146		56.640625
8147		52.734375
8148		56.640625
8149		52.734375
8150		56.640625
8151		52.734375
8152		56.640625
8153		52.734375
8154		56.640625
8155		52.734375
8156		56.640625
8157		50.781250
8158		54.687500
8159		50.781250
8160		54.687500
8161		50.781250
8162		54.687500
8163		50.781250
8164		54.687500
8165		48.828125
8166		54.687500
8167		48.828125
8168		52.734375
8169		48.828125
8170		52.734375
8171		48.828125
8172		52.734375
8173		48.828125
8174		52.734375
8175		46.875000
8176		50.781250
8177		46.875000
8178		50.781250
8179		46.875000
8180		50.781250
8181		46.875000
8182		48.828125
8183		44.921875
8184		48.828125
8185		44.921875
8186		48.828125
8187		42.968750
8188		48.828125
8189		42.968750
8190		48.828125
8191		42.968750
8192		46.875000
8193		42.968750
8194		46.875000
8195		41.015625
8196		46.875000
8197		41.015625
8198		44.921875
8199		41.015625
8200		44.921875
8201		41.015625
8202		42.968750
8203		39.062500
8204		42.968750
8205		39.062500
8206		44.921875
8207		37.109375
8208		41.015625
8209		37.109375
8210		42.968750
8211		37.109375
8212		41.015625
8213		35.156250
8214		39.062500
8215		35.156250
8216		39.062500
8217		35.156250
8218		39.062500
8219		33.203125
8220		37.109375
8221		33.203125
8222		37.109375
8223		33.203125
8224		35.156250
8225		31.250000
8226		35.156250
8227		31.250000
8228		35.156250
8229		29.296875
8230		33.203125
8231		29.296875
8232		33.203125
8233		29.296875
8234		31.250000
8235		27.343750
8236		31.250000
8237		25.390625
8238		31.250000
8239		25.390625
8240		29.296875
8241		25.390625
8242		27.343750
8243		23.437500
8244		27.343750
8245		23.437500
8246		27.343750
8247		21.484375
8248		25.390625
8249		21.484375
8250		25.390625
8251		19.531250
8252		23.437500
8253		17.578125
8254		23.437500
8255		17.578125
8256		21.484375
8257		17.578125
8258		21.484375
8259		15.625000
8260		21.484375
8261		15.625000
8262		19.531250
8263		13.671875
8264		19.531250
8265		13.671875
8266		17.578125
8267		11.718750
8268		15.625000
8269		11.718750
8270		15.625000
8271		9.765625
8272		13.671875
8273		9.765625
8274		13.671875
8275		7.812500
8276		13.671875
8277		7.812500
8278		11.718750
8279		5.859375
8280		11.718750
8281		5.859375
8282		9.765625
8283		3.906250
8284		9.765625
8285		3.906250
8286		7.812500
8287		1.953125
8288		5.859375
8289		1.953125
8290		5.859375
8291		0.000000
8292		3.906250
8293		-1.953125
8294		3.906250
8295		-1.953125
8296		1.953125
8297		-3.906250
8298		1.953125
8299		-3.906250
8300		0.000000
8301		-3.906250
8302		0.000000
8303		-5.859375
8304		-1.953125
8305		-7.812500
8306		-1.953125
8307		-7.812500
8308		-3.906250
8309		-9.765625
8310		-5.859375
8311		-9.765625
8312		-5.859375
8313		-11.718750
8314		-5.859375
8315		-11.718750
8316		-7.812500
8317		-13.671875
8318		-9.765625
8319		-13.671875
8320		-9.765625
8321		-15.625000
8322		-11.718750
8323		-15.625000
8324		-11.718750
8325		-15.625000
8326		-13.671875
8327		-17.578125
8328		-13.671875
8329		-19.531250
8330		-13.671875
8331		-19.531250
8332		-15.625000
8333		-21.484375
8334		-17.578125
8335		-21.484375
8336		-17.578125
8337		-23.437500
8338		-19.531250
8339		-25.390625
8340		-19.531250
8341		-25.390625
8342		-21.484375
8343		-27.343750
8344		-21.484375
8345		-27.343750
8346		-23.437500
8347		-27.343750
8348		-23.437500
8349		-29.296875
8350		-25.390625
8351		-29.296875
8352		-25.390625
8353		-31.250000
8354		-27.343750
8355		-33.203125
8356		-27.343750
8357		-33.203125
8358		-29.296875
8359		-33.203125
8360		-29.296875
8361		-35.156250
8362		-31.250000
8363		-35.156250
8364		-31.250000
8365		-35.156250
8366		-33.203125
8367		-37.109375
8368		-33.203125
8369		-37.109375
8370		-35.156250
8371		-39.062500
8372		-35.156250
8373		-39.062500
8374		-35.156250
8375		-41.015625
8376		-37.109375
8377		-41.015625
8378		-37.109375
8379		-41.015625
8380		-39.062500
8381		-42.968750
8382		-39.062500
8383		-44.921875
8384		-39.062500
8385		-44.921875
8386		-41.015625
8387		-44.921875
8388		-41.015625
8389		-44.921875
8390		-41.015625
8391		-46.875000
8392		-42.968750
8393		-46.875000
8394		-42.968750
8395		-46.875000
8396		-42.968750
8397		-48.828125
8398		-44.921875
8399		-48.828125
8400		-44.921875
8401		-50.781250
8402		-46.875000
8403		-50.781250
8404		-46.875000
8405		-52.734375
8406		-46.875000
8407		-50.781250
8408		-48.828125
8409		-52.734375
8410		-48.828125
8411		-52.734375
8412		-48.828125
8413		-54.687500
8414		-50.781250
8415		-54.687500
8416		-50.781250
8417		-54.687500
8418		-50.781250
8419		-54.687500
8420		-52.734375
8421		-56.640625
8422		-52.734375
8423		-56.640625
8424		-52.734375
8425		-58.593750
8426		-52.734375
8427		-56.640625
8428		-54.687500
8429		-58.593750
8430		-54.687500
8431		-58.593750
8432		-54.687500
8433		-58.593750
8434		-54.687500
8435		-58.593750
8436		-54.687500
8437		-58.593750
8438		-56.640625
8439		-60.546875
8440		-56.640625
8441		-60.546875
8442		-56.640625
8443		-60.546875
8444		-56.640625
8445		-60.546875
8446		-56.640625
8447		-60.546875
8448		-56.640625
8449		-62.500000
8450		-58.593750
8451		-62.500000
8452		-58.593750
8453		-62.500000
8454		-58.593750
8455		-62.500000
8456		-58.593750
8457		-62.500000
8458		-58.593750
8459		-62.500000
8460		-60.546875
8461		-62.500000
8462		-58.593750
8463		-62.500000
8464		-58.593750
8465		-62.500000
8466		-60.546875
8467		-62.500000
8468		-60.546875
8469		-62.500000
8470		-60.546875
8471		-64.453125
8472		-60.546875
8473		-64.453125
8474		-58.593750
8475		-62.500000
8476		-60.546875
8477		-64.453125
8478		-60.546875
8479		-64.453125
8480		-60.546875
8481		-64.453125
8482		-60.546875
8483		-64.453125
8484		-60.546875
8485		-62.500000
8486		-60.546875
8487		-64.453125
8488		-60.546875
8489		-64.453125
8490		-58.593750
8491		-62.500000
8492		-60.546875
8493		-62.500000
8494		-58.593750
8495		-62.500000
8496		-60.546875
8497		-62.500000
8498		-60.546875
8499		-62.500000
8500		-58.593750
8501		-62.500000
8502		-58.593750
8503		-62.500000
8504		-58.593750
8505		-62.500000
8506		-58.593750
8507		-62.500000
8508		-56.640625
8509		-62.500000
8510		-58.593750
8511		-60.546875
8512		-56.640625
8513		-60.546875
8514		-56.640625
8515		-60.546875
8516		-56.640625
8517		-60.546875
8518		-56.640625
8519		-60.546875
8520		-56.640625
8521		-60.546875
8522		-56.640625
8523		-58.593750
8524		-54.687500
8525		-58.593750
8526		-54.687500
8527		-56.640625
8528		-54.687500
8529		-58.593750
8530		-52.734375
8531		-56.640625
8532		-52.734375
8533		-56.640625
8534		-52.734375
8535		-56.640625
8536		-50.781250
8537		-54.687500
8538		-52.734375
8539		-54.687500
8540		-50.781250
8541		-54.687500
8542		-50.781250
8543		-52.734375
8544		-50.781250
8545		-52.734375
8546		-48.828125
8547		-52.734375
8548		-48.828125
8549		-52.734375
8550		-48.828125
8551		-52.734375
8552		-46.875000
8553		-50.781250
8554		-46.875000
8555		-50.781250
8556		-46.875000
8557		-50.781250
8558		-44.921875
8559		-48.828125
8560		-44.921875
8561		-46.875000
8562		-42.968750
8563		-46.875000
8564		-42.968750
8565		-46.875000
8566		-42.968750
8567		-44.921875
8568		-41.015625
8569		-44.921875
8570		-41.015625
8571		-44.921875
8572		-41.015625
8573		-42.968750
8574		-39.062500
8575		-42.968750
8576		-39.062500
8577		-41.015625
8578		-39.062500
8579		-41.015625
8580		-37.109375
8581		-41.015625
8582		-37.109375
8583		-39.062500
8584		-35.156250
8585		-39.062500
8586		-35.156250
8587		-37.109375
8588		-35.156250
8589		-37.109375
8590		-33.203125
8591		-37.109375
8592		-31.250000
8593		-35.156250
8594		-31.250000
8595		-35.156250
8596		-29.296875
8597		-33.203125
8598		-29.296875
8599		-31.250000
8600		-29.296875
8601		-31.250000
8602		-27.343750
8603		-31.250000
8604		-27.343750
8605		-29.296875
8606		-25.390625
8607		-29.296875
8608		-25.390625
8609		-27.343750
8610		-23.437500
8611		-27.343750
8612		-23.437500
8613		-25.390625
8614		-21.484375
8615		-25.390625
8616		-21.484375
8617		-23.437500
8618		-19.531250
8619		-23.437500
8620		-19.531250
8621		-21.484375
8622		-17.578125
8623		-21.484375
8624		-17.578125
8625		-21.484375
8626		-15.625000
8627		-19.531250
8628		-15.625000
8629		-17.578125
8630		-13.671875
8631		-17.578125
8632		-13.671875
8633		-15.625000
8634		-11.718750
8635		-15.625000
8636		-11.718750
8637		-13.671875
8638		-9.765625
8639		-13.671875
8640		-9.765625
8641		-11.718750
8642		-7.812500
8643		-9.765625
8644		-7.812500
8645		-9.765625
8646		-5.859375
8647		-11.718750
8648		-5.859375
8649		-7.812500
8650		-3.906250
8651		-7.812500
8652		-3.906250
8653		-5.859375
8654		-1.953125
8655		-3.906250
8656		0.000000
8657		-3.906250
8658		0.000000
8659		-1.953125
8660		0.000000
8661		-1.953125
8662		1.953125
8663		-1.953125
8664		3.906250
8665		0.000000
8666		3.906250
8667		1.953125
8668		5.859375
8669		1.953125
8670		5.859375
8671		3.906250
8672		7.812500
8673		3.906250
8674		7.812500
8675		5.859375
8676		9.765625
8677		5.859375
8678		11.718750
8679		7.812500
8680		11.718750
8681		7.812500
8682		11.718750
8683		9.765625
8684		13.671875
8685		9.765625
8686		13.671875
8687		11.718750
8688		15.625000
8689		11.718750
8690		15.625000
8691		13.671875
8692		17.578125
8693		13.671875
8694		19.531250
8695		15.625000
8696		19.531250
8697		15.625000
8698		21.484375
8699		17.578125
8700		21.484375
8701		19.531250
8702		21.484375
8703		19.531250
8704		23.437500
8705		19.531250
8706		23.437500
8707		21.484375
8708		25.390625
8709		21.484375
8710		27.343750
8711		23.437500
8712		27.343750
8713		23.437500
8714		27.343750
8715		25.390625
8716		27.343750
8717		25.390625
8718		29.296875
8719		27.343750
8720		29.296875
8721		27.343750
8722		31.250000
8723		27.343750
8724		33.203125
8725		29.296875
8726		33.203125
8727		29.296875
8728		33.203125
8729		29.296875
8730		33.203125
8731		31.250000
8732		35.156250
8733		33.203125
8734		37.109375
8735		31.250000
8736		37.109375
8737		33.203125
8738		37.109375
8739		35.156250
8740		37.109375
8741		35.156250
8742		39.062500
8743		35.156250
8744		41.015625
8745		37.109375
8746		41.015625
8747		37.109375
8748		41.015625
8749		37.109375
8750		42.968750
8751		37.109375
8752		42.968750
8753		39.062500
8754		42.968750
8755		41.015625
8756		44.921875
8757		39.062500
8758		44.921875
8759		41.015625
8760		44.921875
8761		42.968750
8762		46.875000
8763		42.968750
8764		46.875000
8765		42.968750
8766		46.875000
8767		42.968750
8768		48.828125
8769		44.921875
8770		48.828125
8771		44.921875
8772		48.828125
8773		44.921875
8774		48.828125
8775		46.875000
8776		50.781250
8777		46.875000
8778		50.781250
8779		46.875000
8780		50.781250
8781		46.875000
8782		50.781250
8783		48.828125
8784		52.734375
8785		48.828125
8786		52.734375
8787		48.828125
8788		52.734375
8789		50.781250
8790		52.734375
8791		48.828125
8792		52.734375
8793		50.781250
8794		52.734375
8795		50.781250
8796		54.687500
8797		50.781250
8798		54.687500
8799		52.734375
8800		54.687500
8801		52.734375
8802		54.687500
8803		52.734375
8804		56.640625
8805		52.734375
8806		56.640625
8807		52.734375
8808		56.640625
8809		52.734375
8810		56.640625
8811		54.687500
8812		56.640625
8813		54.687500
8814		56.640625
8815		52.734375
8816		58.593750
8817		54.687500
8818		58.593750
8819		54.687500
8820		58.593750
8821		54.687500
8822		58.593750
8823		54.687500
8824		58.593750
8825		54.687500
8826		58.593750
8827		54.687500
8828		58.593750
8829		56.640625
8830		58.593750
8831		54.687500
8832		60.546875
8833		54.687500
8834		58.593750
8835		54.687500
8836		60.546875
8837		56.640625
8838		60.546875
8839		56.640625
8840		60.546875
8841		54.687500
8842		60.546875
8843		54.687500
8844		58.593750
8845		56.640625
8846		58.593750
8847		54.687500
8848		60.546875
8849		56.640625
8850		58.593750
8851		56.640625
8852		58.593750
8853		54.687500
8854		60.546875
8855		54.687500
8856		58.593750
8857		56.640625
8858		58.593750
8859		54.687500
8860		58.593750
8861		56.640625
8862		58.593750
8863		56.640625
8864		58.593750
8865		54.687500
8866		58.593750
8867		54.687500
8868		58.593750
8869		54.687500
8870		58.593750
8871		54.687500
8872		58.593750
8873		54.687500
8874		58.593750
8875		54.687500
8876		56.640625
8877		54.687500
8878		58.593750
8879		52.734375
8880		58.593750
8881		52.734375
8882		56.640625
8883		52.734375
8884		56.640625
8885		52.734375
8886		56.640625
8887		52.734375
8888		56.640625
8889		52.734375
8890		56.640625
8891		50.781250
8892		54.687500
8893		50.781250
8894		54.687500
8895		50.781250
8896		54.687500
8897		50.781250
8898		54.687500
8899		50.781250
8900		54.687500
8901		48.828125
8902		54.687500
8903		48.828125
8904		52.734375
8905		48.828125
8906		52.734375
8907		48.828125
8908		52.734375
8909		48.828125
8910		50.781250
8911		46.875000
8912		50.781250
8913		46.875000
8914		50.781250
8915		46.875000
8916		50.781250
8917		44.921875
8918		48.828125
8919		44.921875
8920		48.828125
8921		44.921875
8922		48.828125
8923		42.968750
8924		48.828125
8925		42.968750
8926		46.875000
8927		42.968750
8928		46.875000
8929		42.968750
8930		46.875000
8931		41.015625
8932		44.921875
8933		41.015625
8934		44.921875
8935		39.062500
8936		44.921875
8937		39.062500
8938		42.968750
8939		39.062500
8940		42.968750
8941		37.109375
8942		41.015625
8943		37.109375
8944		41.015625
8945		37.109375
8946		41.015625
8947		35.156250
8948		39.062500
8949		35.156250
8950		39.062500
8951		35.156250
8952		37.109375
8953		33.203125
8954		37.109375
8955		33.203125
8956		37.109375
8957		33.203125
8958		35.156250
8959		31.250000
8960		35.156250
8961		29.296875
8962		35.156250
8963		29.296875
8964		33.203125
8965		27.343750
8966		33.203125
8967		27.343750
8968		31.250000
8969		27.343750
8970		31.250000
8971		25.390625
8972		31.250000
8973		25.390625
8974		29.296875
8975		23.437500
8976		29.296875
8977		23.437500
8978		27.343750
8979		23.437500
8980		25.390625
8981		21.484375
8982		25.390625
8983		21.484375
8984		25.390625
8985		19.531250
8986		23.437500
8987		19.531250
8988		23.437500
8989		17.578125
8990		21.484375
8991		17.578125
8992		21.484375
8993		15.625000
8994		19.531250
8995		15.625000
8996		19.531250
8997		13.671875
8998		17.578125
8999		13.671875
9000		17.578125
9001		11.718750
9002		15.625000
9003		11.718750
9004		15.625000
9005		9.765625
9006		13.671875
9007		9.765625
9008		13.671875
9009		7.812500
9010		11.718750
9011		7.812500
9012		11.718750
9013		5.859375
9014		9.765625
9015		3.906250
9016		9.765625
9017		3.906250
9018		7.812500
9019		3.906250
9020		7.812500
9021		1.953125
9022		5.859375
9023		1.953125
9024		5.859375
9025		0.000000
9026		3.906250
9027		0.000000
9028		1.953125
9029		-1.953125
9030		1.953125
9031		-1.953125
9032		0.000000
9033		-3.906250
9034		0.000000
9035		-3.906250
9036		0.000000
9037		-5.859375
9038		-1.953125
9039		-7.812500
9040		-3.906250
9041		-7.812500
9042		-3.906250
9043		-7.812500
9044		-5.859375
9045		-9.765625
9046		-5.859375
9047		-9.765625
9048		-7.812500
9049		-11.718750
9050		-7.812500
9051		-13.671875
9052		-9.765625
9053		-13.671875
9054		-9.765625
9055		-15.625000
9056		-11.718750
9057		-15.625000
9058		-11.718750
9059		-17.578125
9060		-13.671875
9061		-17.578125
9062		-13.671875
9063		-19.531250
9064		-15.625000
9065		-19.531250
9066		-17.578125
9067		-21.484375
9068		-15.625000
9069		-21.484375
9070		-17.578125
9071		-23.437500
9072		-19.531250
9073		-23.437500
9074		-19.531250
9075		-25.390625
9076		-19.531250
9077		-25.390625
9078		-21.484375
9079		-27.343750
9080		-23.437500
9081		-27.343750
9082		-23.437500
9083		-29.296875
9084		-25.390625
9085		-29.296875
9086		-25.390625
9087		-31.250000
9088		-27.343750
9089		-31.250000
9090		-27.343750
9091		-33.203125
9092		-29.296875
9093		-33.203125
9094		-29.296875
9095		-35.156250
9096		-29.296875
9097		-35.156250
9098		-31.250000
9099		-35.156250
9100		-31.250000
9101		-37.109375
9102		-31.250000
9103		-37.109375
9104		-33.203125
9105		-39.062500
9106		-33.203125
9107		-39.062500
9108		-35.156250
9109		-39.062500
9110		-35.156250
9111		-41.015625
9112		-37.109375
9113		-41.015625
9114		-37.109375
9115		-41.015625
9116		-39.062500
9117		-44.921875
9118		-39.062500
9119		-42.968750
9120		-41.015625
9121		-44.921875
9122		-41.015625
9123		-44.921875
9124		-42.968750
9125		-46.875000
9126		-42.968750
9127		-46.875000
9128		-42.968750
9129		-46.875000
9130		-42.968750
9131		-46.875000
9132		-44.921875
9133		-50.781250
9134		-44.921875
9135		-48.828125
9136		-46.875000
9137		-50.781250
9138		-46.875000
9139		-50.781250
9140		-46.875000
9141		-50.781250
9142		-46.875000
9143		-52.734375
9144		-48.828125
9145		-52.734375
9146		-46.875000
9147		-52.734375
9148		-50.781250
9149		-54.687500
9150		-48.828125
9151		-54.687500
9152		-48.828125
9153		-54.687500
9154		-50.781250
9155		-54.687500
9156		-50.781250
9157		-54.687500
9158		-52.734375
9159		-56.640625
9160		-52.734375
9161		-56.640625
9162		-52.734375
9163		-56.640625
9164		-52.734375
9165		-58.593750
9166		-54.687500
9167		-58.593750
9168		-54.687500
9169		-58.593750
9170		-54.687500
9171		-58.593750
9172		-54.687500
9173		-58.593750
9174		-54.687500
9175		-58.593750
9176		-56.640625
9177		-60.546875
9178		-56.640625
9179		-60.546875
9180		-56.640625
9181		-60.546875
9182		-56.640625
9183		-60.546875
9184		-56.640625
9185		-60.546875
9186		-56.640625
9187		-60.546875
9188		-56.640625
9189		-62.500000
9190		-56.640625
9191		-60.546875
9192		-58.593750
9193		-62.500000
9194		-58.593750
9195		-60.546875
9196		-58.593750
9197		-60.546875
9198		-58.593750
9199		-62.500000
9200		-58.593750
9201		-62.500000
9202		-58.593750
9203		-62.500000
9204		-58.593750
9205		-62.500000
9206		-58.593750
9207		-62.500000
9208		-58.593750
9209		-62.500000
9210		-58.593750
9211		-62.500000
9212		-58.593750
9213		-62.500000
9214		-58.593750
9215		-62.500000
9216		-58.593750
9217		-62.500000
9218		-58.593750
9219		-62.500000
9220		-58.593750
9221		-62.500000
9222		-58.593750
9223		-62.500000
9224		-58.593750
9225		-62.500000
9226		-58.593750
9227		-62.500000
9228		-58.593750
9229		-62.500000
9230		-58.593750
9231		-60.546875
9232		-58.593750
9233		-60.546875
9234		-58.593750
9235		-60.546875
9236		-56.640625
9237		-60.546875
9238		-56.640625
9239		-60.546875
9240		-56.640625
9241		-60.546875
9242		-56.640625
9243		-60.546875
9244		-56.640625
9245		-60.546875
9246		-56.640625
9247		-60.546875
9248		-54.687500
9249		-58.593750
9250		-56.640625
9251		-58.593750
9252		-54.687500
9253		-58.593750
9254		-54.687500
9255		-58.593750
9256		-54.687500
9257		-56.640625
9258		-52.734375
9259		-56.640625
9260		-52.734375
9261		-56.640625
9262		-52.734375
9263		-56.640625
9264		-52.734375
9265		-54.687500
9266		-52.734375
9267		-54.687500
9268		-50.781250
9269		-54.687500
9270		-50.781250
9271		-54.687500
9272		-50.781250
9273		-52.734375
9274		-50.781250
9275		-52.734375
9276		-48.828125
9277		-52.734375
9278		-48.828125
9279		-50.781250
9280		-48.828125
9281		-50.781250
9282		-46.875000
9283		-50.781250
9284		-46.875000
9285		-50.781250
9286		-46.875000
9287		-50.781250
9288		-44.921875
9289		-48.828125
9290		-44.921875
9291		-48.828125
9292		-44.921875
9293		-46.875000
9294		-42.968750
9295		-46.875000
9296		-42.968750
9297		-46.875000
9298		-41.015625
9299		-44.921875
9300		-42.968750
9301		-44.921875
9302		-41.015625
9303		-44.921875
9304		-39.062500
9305		-42.968750
9306		-39.062500
9307		-42.968750
9308		-39.062500
9309		-41.015625
9310		-37.109375
9311		-41.015625
9312		-37.109375
9313		-39.062500
9314		-35.156250
9315		-39.062500
9316		-35.156250
9317		-39.062500
9318		-35.156250
9319		-37.109375
9320		-33.203125
9321		-37.109375
9322		-33.203125
9323		-35.156250
9324		-31.250000
9325		-35.156250
9326		-31.250000
9327		-33.203125
9328		-31.250000
9329		-33.203125
9330		-29.296875
9331		-31.250000
9332		-27.343750
9333		-31.250000
9334		-27.343750
9335		-31.250000
9336		-25.390625
9337		-29.296875
9338		-25.390625
9339		-29.296875
9340		-23.437500
9341		-27.343750
9342		-23.437500
9343		-27.343750
9344		-23.437500
9345		-25.390625
9346		-21.484375
9347		-25.390625
9348		-21.484375
9349		-23.437500
9350		-19.531250
9351		-21.484375
9352		-19.531250
9353		-23.437500
9354		-17.578125
9355		-21.484375
9356		-17.578125
9357		-19.531250
9358		-15.625000
9359		-19.531250
9360		-15.625000
9361		-17.578125
9362		-13.671875
9363		-17.578125
9364		-13.671875
9365		-15.625000
9366		-11.718750
9367		-15.625000
9368		-11.718750
9369		-13.671875
9370		-9.765625
9371		-13.671875
9372		-9.765625
9373		-11.718750
9374		-7.812500
9375		-11.718750
9376		-5.859375
9377		-9.765625
9378		-5.859375
9379		-9.765625
9380		-5.859375
9381		-7.812500
9382		-3.906250
9383		-5.859375
9384		-3.906250
9385		-5.859375
9386		-1.953125
9387		-3.906250
9388		-1.953125
9389		-3.906250
9390		0.000000
9391		-3.906250
9392		1.953125
9393		-1.953125
9394		1.953125
9395		0.000000
9396		3.906250
9397		0.000000
9398		5.859375
9399		1.953125
9400		5.859375
9401		1.953125
9402		5.859375
9403		3.906250
9404		7.812500
9405		3.906250
9406		9.765625
9407		5.859375
9408		9.765625
9409		5.859375
9410		9.765625
9411		7.812500
9412		11.718750
9413		7.812500
9414		11.718750
9415		7.812500
9416		13.671875
9417		11.718750
9418		13.671875
9419		11.718750
9420		15.625000
9421		11.718750
9422		17.578125
9423		13.671875
9424		17.578125
9425		13.671875
9426		17.578125
9427		15.625000
9428		19.531250
9429		15.625000
9430		19.531250
9431		17.578125
9432		21.484375
9433		17.578125
9434		21.484375
9435		19.531250
9436		23.437500
9437		19.531250
9438		23.437500
9439		19.531250
9440		25.390625
9441		21.484375
9442		25.390625
9443		23.437500
9444		27.343750
9445		23.437500
9446		27.343750
9447		25.390625
9448		29.296875
9449		25.390625
9450		29.296875
9451		27.343750
9452		29.296875
9453		27.343750
9454		31.250000
9455		27.343750
9456		33.203125
9457		29.296875
9458		33.203125
9459		29.296875
9460		35.156250
9461		31.250000
9462		35.156250
9463		31.250000
9464		37.109375
9465		31.250000
9466		35.156250
9467		33.203125
9468		37.109375
9469		33.203125
9470		37.109375
9471		33.203125
9472		39.062500
9473		35.156250
9474		39.062500
9475		37.109375
9476		39.062500
9477		37.109375
9478		41.015625
9479		37.109375
9480		41.015625
9481		39.062500
9482		42.968750
9483		39.062500
9484		42.968750
9485		39.062500
9486		42.968750
9487		39.062500
9488		44.921875
9489		39.062500
9490		44.921875
9491		41.015625
9492		44.921875
9493		41.015625
9494		44.921875
9495		42.968750
9496		46.875000
9497		42.968750
9498		46.875000
9499		42.968750
9500		48.828125
9501		44.921875
9502		48.828125
9503		44.921875
9504		48.828125
9505		46.875000
9506		48.828125
9507		46.875000
9508		50.781250
9509		46.875000
9510		50.781250
9511		46.875000
9512		50.781250
9513		48.828125
9514		52.734375
9515		48.828125
9516		52.734375
9517		48.828125
9518		52.734375
9519		48.828125
9520		52.734375
9521		50.781250
9522		52.734375
9523		48.828125
9524		54.687500
9525		50.781250
9526		54.687500
9527		50.781250
9528		54.687500
9529		50.781250
9530		54.687500
9531		50.781250
9532		56.640625
9533		50.781250
9534		54.687500
9535		52.734375
9536		56.640625
9537		52.734375
9538		56.640625
9539		52.734375
9540		56.640625
9541		52.734375
9542		58.593750
9543		54.687500
9544		56.640625
9545		54.687500
9546		58.593750
9547		52.734375
9548		58.593750
9549		54.687500
9550		58.593750
9551		54.687500
9552		58.593750
9553		54.687500
9554		58.593750
9555		54.687500
9556		58.593750
9557		54.687500
9558		60.546875
9559		56.640625
9560		60.546875
9561		54.687500
9562		60.546875
9563		56.640625
9564		58.593750
9565		56.640625
9566		60.546875
9567		54.687500
9568		60.546875
9569		56.640625
9570		58.593750
9571		56.640625
9572		60.546875
9573		56.640625
9574		60.546875
9575		56.640625
9576		60.546875
9577		56.640625
9578		60.546875
9579		56.640625
9580		60.546875
9581		56.640625
9582		60.546875
9583		56.640625
9584		60.546875
9585		56.640625
9586		60.546875
9587		56.640625
9588		60.546875
9589		56.640625
9590		60.546875
9591		56.640625
9592		60.546875
9593		56.640625
9594		58.593750
9595		54.687500
9596		60.546875
9597		56.640625
9598		58.593750
9599		54.687500
9600		58.593750
9601		54.687500
9602		60.546875
9603		56.640625
9604		58.593750
9605		54.687500
9606		58.593750
9607		54.687500
9608		58.593750
9609		54.687500
9610		58.593750
9611		54.687500
9612		58.593750
9613		54.687500
9614		58.593750
9615		54.687500
9616		58.593750
9617		52.734375
9618		58.593750
9619		52.734375
9620		56.640625
9621		52.734375
9622		56.640625
9623		52.734375
9624		56.640625
9625		52.734375
9626		56.640625
9627		52.734375
9628		56.640625
9629		50.781250
9630		54.687500
9631		50.781250
9632		54.687500
9633		50.781250
9634		54.687500
9635		50.781250
9636		54.687500
9637		48.828125
9638		52.734375
9639		48.828125
9640		52.734375
9641		48.828125
9642		52.734375
9643		48.828125
9644		50.781250
9645		48.828125
9646		50.781250
9647		46.875000
9648		50.781250
9649		44.921875
9650		50.781250
9651		46.875000
9652		48.828125
9653		44.921875
9654		48.828125
9655		44.921875
9656		48.828125
9657		44.921875
9658		48.828125
9659		42.968750
9660		46.875000
9661		42.968750
9662		46.875000
9663		42.968750
9664		46.875000
9665		41.015625
9666		44.921875
9667		41.015625
9668		44.921875
9669		41.015625
9670		42.968750
9671		39.062500
9672		42.968750
9673		39.062500
9674		42.968750
9675		39.062500
9676		41.015625
9677		37.109375
9678		41.015625
9679		37.109375
9680		41.015625
9681		35.156250
9682		39.062500
9683		35.156250
9684		39.062500
9685		35.156250
9686		37.109375
9687		33.203125
9688		37.109375
9689		33.203125
9690		37.109375
9691		31.250000
9692		35.156250
9693		31.250000
9694		35.156250
9695		29.296875
9696		33.203125
9697		29.296875
9698		33.203125
9699		27.343750
9700		33.203125
9701		27.343750
9702		31.250000
9703		27.343750
9704		31.250000
9705		25.390625
9706		31.250000
9707		25.390625
9708		29.296875
9709		23.437500
9710		29.296875
9711		23.437500
9712		27.343750
9713		23.437500
9714		25.390625
9715		21.484375
9716		25.390625
9717		19.531250
9718		23.437500
9719		19.531250
9720		23.437500
9721		17.578125
9722		21.484375
9723		17.578125
9724		21.484375
9725		17.578125
9726		21.484375
9727		15.625000
9728		19.531250
9729		15.625000
9730		19.531250
9731		13.671875
9732		17.578125
9733		11.718750
9734		17.578125
9735		11.718750
9736		15.625000
9737		11.718750
9738		13.671875
9739		9.765625
9740		13.671875
9741		9.765625
9742		11.718750
9743		7.812500
9744		11.718750
9745		7.812500
9746		9.765625
9747		5.859375
9748		9.765625
9749		5.859375
9750		7.812500
9751		3.906250
9752		7.812500
9753		1.953125
9754		5.859375
9755		0.000000
9756		5.859375
9757		0.000000
9758		3.906250
9759		0.000000
9760		3.906250
9761		0.000000
9762		1.953125
9763		-1.953125
9764		1.953125
9765		-3.906250
9766		0.000000
9767		-3.906250
9768		0.000000
9769		-5.859375
9770		-1.953125
9771		-5.859375
9772		-3.906250
9773		-7.812500
9774		-3.906250
9775		-7.812500
9776		-3.906250
9777		-9.765625
9778		-5.859375
9779		-11.718750
9780		-7.812500
9781		-11.718750
9782		-7.812500
9783		-13.671875
9784		-9.765625
9785		-13.671875
9786		-9.765625
9787		-13.671875
9788		-11.718750
9789		-15.625000
9790		-11.718750
9791		-17.578125
9792		-11.718750
9793		-17.578125
9794		-13.671875
9795		-19.531250
9796		-15.625000
9797		-19.531250
9798		-15.625000
9799		-21.484375
9800		-15.625000
9801		-23.437500
9802		-17.578125
9803		-23.437500
9804		-19.531250
9805		-23.437500
9806		-19.531250
9807		-25.390625
9808		-21.484375
9809		-25.390625
9810		-21.484375
9811		-25.390625
9812		-23.437500
9813		-27.343750
9814		-23.437500
9815		-29.296875
9816		-25.390625
9817		-29.296875
9818		-25.390625
9819		-31.250000
9820		-27.343750
9821		-31.250000
9822		-27.343750
9823		-33.203125
9824		-29.296875
9825		-33.203125
9826		-29.296875
9827		-33.203125
9828		-31.250000
9829		-35.156250
9830		-31.250000
9831		-35.156250
9832		-33.203125
9833		-37.109375
9834		-33.203125
9835		-37.109375
9836		-33.203125
9837		-37.109375
9838		-35.156250
9839		-39.062500
9840		-35.156250
9841		-39.062500
9842		-37.109375
9843		-41.015625
9844		-37.109375
9845		-42.968750
9846		-37.109375
9847		-42.968750
9848		-39.062500
9849		-42.968750
9850		-39.062500
9851		-44.921875
9852		-41.015625
9853		-44.921875
9854		-41.015625
9855		-44.921875
9856		-41.015625
9857		-46.875000
9858		-42.968750
9859		-46.875000
9860		-42.968750
9861		-46.875000
9862		-42.968750
9863		-48.828125
9864		-44.921875
9865		-48.828125
9866		-44.921875
9867		-48.828125
9868		-44.921875
9869		-50.781250
9870		-44.921875
9871		-50.781250
9872		-48.828125
9873		-50.781250
9874		-46.875000
9875		-52.734375
9876		-48.828125
9877		-52.734375
9878		-48.828125
9879		-52.734375
9880		-48.828125
9881		-52.734375
9882		-48.828125
9883		-54.687500
9884		-50.781250
9885		-54.687500
9886		-50.781250
9887		-54.687500
9888		-52.734375
9889		-56.640625
9890		-52.734375
9891		-56.640625
9892		-52.734375
9893		-56.640625
9894		-52.734375
9895		-56.640625
9896		-52.734375
9897		-56.640625
9898		-54.687500
9899		-58.593750
9900		-54.687500
9901		-58.593750
9902		-54.687500
9903		-58.593750
9904		-54.687500
9905		-58.593750
9906		-56.640625
9907		-60.546875
9908		-56.640625
9909		-60.546875
9910		-56.640625
9911		-60.546875
9912		-56.640625
9913		-60.546875
9914		-56.640625
9915		-60.546875
9916		-56.640625
9917		-60.546875
9918		-58.593750
9919		-62.500000
9920		-56.640625
9921		-60.546875
9922		-58.593750
9923		-62.500000
9924		-56.640625
9925		-62.500000
9926		-58.593750
9927		-62.500000
9928		-58.593750
9929		-62.500000
9930		-58.593750
9931		-62.500000
9932		-58.593750
9933		-62.500000
9934		-58.593750
9935		-62.500000
9936		-58.593750
9937		-62.500000
9938		-60.546875
9939		-62.500000
9940		-58.593750
9941		-62.500000
9942		-58.593750
9943		-62.500000
9944		-60.546875
9945		-64.453125
9946		-60.546875
9947		-62.500000
9948		-60.546875
9949		-62.500000
9950		-60.546875
9951		-62.500000
9952		-58.593750
9953		-62.500000
9954		-58.593750
9955		-62.500000
9956		-58.593750
9957		-62.500000
9958		-58.593750
9959		-62.500000
9960		-58.593750
9961		-62.500000
9962		-58.593750
9963		-62.500000
9964		-58.593750
9965		-62.500000
9966		-58.593750
9967		-60.546875
9968		-58.593750
9969		-60.546875
9970		-58.593750
9971		-60.546875
9972		-58.593750
9973		-60.546875
9974		-56.640625
9975		-60.546875
9976		-56.640625
9977		-60.546875
9978		-56.640625
9979		-60.546875
9980		-56.640625
9981		-60.546875
9982		-54.687500
9983		-58.593750
9984		-56.640625
9985		-58.593750
9986		-54.687500
9987		-58.593750
9988		-54.687500
9989		-56.640625
9990		-54.687500
9991		-58.593750
9992		-52.734375
9993		-56.640625
9994		-52.734375
9995		-56.640625
9996		-52.734375
9997		-56.640625
9998		-52.734375
9999		-54.687500
10000		-52.734375
