Channel              :		CH1
Frequency            :		1.061kHz
Period               :		0.942ms
PK-PK                :		298.8mV
Probe attenuation    :		1X
Voltage per ADC value:		0.122070mV
Time interval        :		2.00000us

index		CH1_Voltage(mV)
1		93.750000
2		93.750000
3		99.609375
4		89.843750
5		97.656250
6		87.890625
7		93.750000
8		83.984375
9		91.796875
10		82.031250
11		89.843750
12		78.125000
13		85.937500
14		76.171875
15		83.984375
16		74.218750
17		78.125000
18		70.312500
19		76.171875
20		66.406250
21		74.218750
22		62.500000
23		70.312500
24		58.593750
25		68.359375
26		54.687500
27		62.500000
28		52.734375
29		60.546875
30		48.828125
31		58.593750
32		46.875000
33		52.734375
34		42.968750
35		48.828125
36		37.109375
37		46.875000
38		33.203125
39		42.968750
40		31.250000
41		39.062500
42		27.343750
43		35.156250
44		23.437500
45		31.250000
46		19.531250
47		27.343750
48		17.578125
49		23.437500
50		13.671875
51		19.531250
52		7.812500
53		15.625000
54		3.906250
55		11.718750
56		0.000000
57		9.765625
58		-3.906250
59		3.906250
60		-7.812500
61		0.000000
62		-11.718750
63		-1.953125
64		-13.671875
65		-7.812500
66		-17.578125
67		-11.718750
68		-23.437500
69		-15.625000
70		-27.343750
71		-17.578125
72		-31.250000
73		-21.484375
74		-35.156250
75		-27.343750
76		-39.062500
77		-31.250000
78		-42.968750
79		-33.203125
80		-46.875000
81		-37.109375
82		-48.828125
83		-42.968750
84		-52.734375
85		-46.875000
86		-58.593750
87		-50.781250
88		-60.546875
89		-54.687500
90		-64.453125
91		-56.640625
92		-68.359375
93		-60.546875
94		-72.265625
95		-62.500000
96		-76.171875
97		-68.359375
98		-78.125000
99		-72.265625
100		-82.031250
101		-76.171875
102		-85.937500
103		-80.078125
104		-89.843750
105		-80.078125
106		-91.796875
107		-83.984375
108		-95.703125
109		-87.890625
110		-99.609375
111		-91.796875
112		-101.562500
113		-93.750000
114		-105.468750
115		-97.656250
116		-107.421875
117		-101.562500
118		-109.375000
119		-103.515625
120		-113.281250
121		-105.468750
122		-115.234375
123		-107.421875
124		-119.140625
125		-111.328125
126		-121.093750
127		-113.281250
128		-123.046875
129		-117.187500
130		-125.000000
131		-119.140625
132		-126.953125
133		-121.093750
134		-128.906250
135		-125.000000
136		-132.812500
137		-125.000000
138		-134.765625
139		-126.953125
140		-136.718750
141		-128.906250
142		-136.718750
143		-130.859375
144		-138.671875
145		-132.812500
146		-140.625000
147		-132.812500
148		-142.578125
149		-134.765625
150		-142.578125
151		-138.671875
152		-144.531250
153		-138.671875
154		-146.484375
155		-138.671875
156		-146.484375
157		-138.671875
158		-148.437500
159		-140.625000
160		-148.437500
161		-142.578125
162		-148.437500
163		-142.578125
164		-148.437500
165		-142.578125
166		-148.437500
167		-144.531250
168		-148.437500
169		-144.531250
170		-150.390625
171		-142.578125
172		-150.390625
173		-144.531250
174		-150.390625
175		-142.578125
176		-150.390625
177		-142.578125
178		-150.390625
179		-142.578125
180		-148.437500
181		-142.578125
182		-148.437500
183		-142.578125
184		-146.484375
185		-142.578125
186		-146.484375
187		-140.625000
188		-144.531250
189		-138.671875
190		-144.531250
191		-138.671875
192		-144.531250
193		-136.718750
194		-142.578125
195		-136.718750
196		-140.625000
197		-134.765625
198		-140.625000
199		-132.812500
200		-136.718750
201		-132.812500
202		-134.765625
203		-130.859375
204		-132.812500
205		-128.906250
206		-132.812500
207		-126.953125
208		-128.906250
209		-123.046875
210		-126.953125
211		-121.093750
212		-125.000000
213		-119.140625
214		-123.046875
215		-117.187500
216		-121.093750
217		-115.234375
218		-117.187500
219		-111.328125
220		-115.234375
221		-107.421875
222		-113.281250
223		-105.468750
224		-111.328125
225		-103.515625
226		-107.421875
227		-99.609375
228		-103.515625
229		-97.656250
230		-103.515625
231		-93.750000
232		-97.656250
233		-91.796875
234		-93.750000
235		-87.890625
236		-89.843750
237		-83.984375
238		-87.890625
239		-80.078125
240		-85.937500
241		-76.171875
242		-80.078125
243		-72.265625
244		-78.125000
245		-70.312500
246		-74.218750
247		-66.406250
248		-72.265625
249		-62.500000
250		-66.406250
251		-60.546875
252		-62.500000
253		-56.640625
254		-58.593750
255		-50.781250
256		-56.640625
257		-46.875000
258		-52.734375
259		-42.968750
260		-48.828125
261		-41.015625
262		-44.921875
263		-35.156250
264		-39.062500
265		-31.250000
266		-37.109375
267		-29.296875
268		-31.250000
269		-25.390625
270		-27.343750
271		-19.531250
272		-23.437500
273		-15.625000
274		-21.484375
275		-11.718750
276		-17.578125
277		-7.812500
278		-11.718750
279		-3.906250
280		-9.765625
281		0.000000
282		-5.859375
283		3.906250
284		0.000000
285		5.859375
286		3.906250
287		9.765625
288		7.812500
289		15.625000
290		11.718750
291		17.578125
292		15.625000
293		23.437500
294		17.578125
295		25.390625
296		21.484375
297		31.250000
298		25.390625
299		33.203125
300		31.250000
301		37.109375
302		35.156250
303		41.015625
304		37.109375
305		44.921875
306		41.015625
307		48.828125
308		44.921875
309		52.734375
310		48.828125
311		56.640625
312		50.781250
313		58.593750
314		52.734375
315		62.500000
316		56.640625
317		64.453125
318		62.500000
319		68.359375
320		64.453125
321		72.265625
322		66.406250
323		76.171875
324		70.312500
325		78.125000
326		72.265625
327		82.031250
328		76.171875
329		83.984375
330		80.078125
331		87.890625
332		82.031250
333		89.843750
334		85.937500
335		91.796875
336		89.843750
337		93.750000
338		91.796875
339		97.656250
340		93.750000
341		99.609375
342		95.703125
343		103.515625
344		97.656250
345		105.468750
346		101.562500
347		107.421875
348		101.562500
349		109.375000
350		105.468750
351		111.328125
352		109.375000
353		113.281250
354		111.328125
355		117.187500
356		111.328125
357		119.140625
358		113.281250
359		121.093750
360		115.234375
361		123.046875
362		117.187500
363		125.000000
364		119.140625
365		126.953125
366		121.093750
367		128.906250
368		123.046875
369		126.953125
370		125.000000
371		128.906250
372		125.000000
373		132.812500
374		126.953125
375		132.812500
376		126.953125
377		134.765625
378		128.906250
379		134.765625
380		130.859375
381		136.718750
382		130.859375
383		136.718750
384		132.812500
385		136.718750
386		134.765625
387		138.671875
388		132.812500
389		138.671875
390		134.765625
391		140.625000
392		134.765625
393		142.578125
394		134.765625
395		142.578125
396		136.718750
397		142.578125
398		136.718750
399		142.578125
400		136.718750
401		142.578125
402		138.671875
403		142.578125
404		138.671875
405		142.578125
406		136.718750
407		144.531250
408		136.718750
409		144.531250
410		136.718750
411		144.531250
412		136.718750
413		144.531250
414		136.718750
415		142.578125
416		136.718750
417		142.578125
418		138.671875
419		140.625000
420		136.718750
421		140.625000
422		134.765625
423		142.578125
424		134.765625
425		140.625000
426		132.812500
427		140.625000
428		132.812500
429		140.625000
430		132.812500
431		138.671875
432		130.859375
433		136.718750
434		130.859375
435		136.718750
436		130.859375
437		134.765625
438		128.906250
439		132.812500
440		126.953125
441		132.812500
442		125.000000
443		130.859375
444		123.046875
445		130.859375
446		121.093750
447		128.906250
448		119.140625
449		126.953125
450		119.140625
451		125.000000
452		117.187500
453		121.093750
454		117.187500
455		121.093750
456		113.281250
457		119.140625
458		111.328125
459		117.187500
460		109.375000
461		115.234375
462		105.468750
463		115.234375
464		103.515625
465		111.328125
466		101.562500
467		109.375000
468		101.562500
469		107.421875
470		99.609375
471		103.515625
472		93.750000
473		101.562500
474		91.796875
475		99.609375
476		89.843750
477		95.703125
478		85.937500
479		93.750000
480		83.984375
481		91.796875
482		80.078125
483		89.843750
484		78.125000
485		85.937500
486		76.171875
487		82.031250
488		72.265625
489		78.125000
490		68.359375
491		76.171875
492		64.453125
493		72.265625
494		62.500000
495		70.312500
496		58.593750
497		68.359375
498		54.687500
499		64.453125
500		50.781250
501		60.546875
502		48.828125
503		54.687500
504		46.875000
505		50.781250
506		41.015625
507		48.828125
508		37.109375
509		44.921875
510		33.203125
511		42.968750
512		29.296875
513		39.062500
514		25.390625
515		35.156250
516		23.437500
517		31.250000
518		19.531250
519		27.343750
520		15.625000
521		21.484375
522		9.765625
523		17.578125
524		5.859375
525		15.625000
526		3.906250
527		11.718750
528		0.000000
529		7.812500
530		-3.906250
531		3.906250
532		-7.812500
533		0.000000
534		-11.718750
535		-3.906250
536		-15.625000
537		-9.765625
538		-19.531250
539		-13.671875
540		-23.437500
541		-15.625000
542		-29.296875
543		-19.531250
544		-31.250000
545		-21.484375
546		-35.156250
547		-27.343750
548		-39.062500
549		-31.250000
550		-42.968750
551		-35.156250
552		-44.921875
553		-39.062500
554		-48.828125
555		-42.968750
556		-54.687500
557		-46.875000
558		-58.593750
559		-48.828125
560		-60.546875
561		-52.734375
562		-66.406250
563		-56.640625
564		-70.312500
565		-60.546875
566		-72.265625
567		-64.453125
568		-76.171875
569		-68.359375
570		-78.125000
571		-72.265625
572		-82.031250
573		-76.171875
574		-85.937500
575		-78.125000
576		-89.843750
577		-82.031250
578		-91.796875
579		-83.984375
580		-95.703125
581		-87.890625
582		-99.609375
583		-91.796875
584		-101.562500
585		-93.750000
586		-103.515625
587		-97.656250
588		-105.468750
589		-101.562500
590		-111.328125
591		-103.515625
592		-113.281250
593		-105.468750
594		-115.234375
595		-109.375000
596		-119.140625
597		-111.328125
598		-121.093750
599		-113.281250
600		-123.046875
601		-115.234375
602		-125.000000
603		-119.140625
604		-126.953125
605		-121.093750
606		-130.859375
607		-125.000000
608		-132.812500
609		-125.000000
610		-134.765625
611		-126.953125
612		-134.765625
613		-128.906250
614		-136.718750
615		-128.906250
616		-138.671875
617		-132.812500
618		-140.625000
619		-132.812500
620		-140.625000
621		-136.718750
622		-140.625000
623		-136.718750
624		-144.531250
625		-136.718750
626		-144.531250
627		-138.671875
628		-146.484375
629		-138.671875
630		-146.484375
631		-140.625000
632		-146.484375
633		-140.625000
634		-148.437500
635		-142.578125
636		-148.437500
637		-142.578125
638		-146.484375
639		-144.531250
640		-148.437500
641		-142.578125
642		-148.437500
643		-142.578125
644		-148.437500
645		-142.578125
646		-148.437500
647		-142.578125
648		-148.437500
649		-142.578125
650		-148.437500
651		-140.625000
652		-146.484375
653		-140.625000
654		-144.531250
655		-142.578125
656		-144.531250
657		-140.625000
658		-144.531250
659		-138.671875
660		-144.531250
661		-138.671875
662		-142.578125
663		-136.718750
664		-142.578125
665		-134.765625
666		-140.625000
667		-132.812500
668		-138.671875
669		-132.812500
670		-136.718750
671		-132.812500
672		-134.765625
673		-130.859375
674		-134.765625
675		-126.953125
676		-132.812500
677		-125.000000
678		-130.859375
679		-123.046875
680		-128.906250
681		-121.093750
682		-126.953125
683		-117.187500
684		-125.000000
685		-115.234375
686		-121.093750
687		-115.234375
688		-117.187500
689		-113.281250
690		-115.234375
691		-109.375000
692		-113.281250
693		-105.468750
694		-111.328125
695		-103.515625
696		-107.421875
697		-101.562500
698		-105.468750
699		-97.656250
700		-103.515625
701		-95.703125
702		-99.609375
703		-91.796875
704		-93.750000
705		-89.843750
706		-91.796875
707		-85.937500
708		-87.890625
709		-82.031250
710		-85.937500
711		-78.125000
712		-82.031250
713		-74.218750
714		-80.078125
715		-72.265625
716		-76.171875
717		-68.359375
718		-72.265625
719		-64.453125
720		-68.359375
721		-60.546875
722		-62.500000
723		-58.593750
724		-58.593750
725		-52.734375
726		-56.640625
727		-48.828125
728		-54.687500
729		-44.921875
730		-50.781250
731		-41.015625
732		-44.921875
733		-37.109375
734		-41.015625
735		-33.203125
736		-39.062500
737		-31.250000
738		-33.203125
739		-27.343750
740		-29.296875
741		-23.437500
742		-27.343750
743		-17.578125
744		-23.437500
745		-13.671875
746		-17.578125
747		-9.765625
748		-13.671875
749		-5.859375
750		-9.765625
751		-1.953125
752		-5.859375
753		1.953125
754		-3.906250
755		3.906250
756		1.953125
757		7.812500
758		5.859375
759		13.671875
760		9.765625
761		17.578125
762		11.718750
763		21.484375
764		15.625000
765		25.390625
766		19.531250
767		29.296875
768		25.390625
769		33.203125
770		29.296875
771		35.156250
772		33.203125
773		39.062500
774		37.109375
775		42.968750
776		39.062500
777		46.875000
778		41.015625
779		50.781250
780		46.875000
781		54.687500
782		48.828125
783		56.640625
784		52.734375
785		60.546875
786		56.640625
787		64.453125
788		60.546875
789		66.406250
790		64.453125
791		70.312500
792		68.359375
793		74.218750
794		70.312500
795		76.171875
796		72.265625
797		80.078125
798		74.218750
799		82.031250
800		78.125000
801		85.937500
802		82.031250
803		87.890625
804		83.984375
805		89.843750
806		87.890625
807		93.750000
808		91.796875
809		97.656250
810		93.750000
811		99.609375
812		95.703125
813		101.562500
814		97.656250
815		105.468750
816		99.609375
817		107.421875
818		101.562500
819		109.375000
820		103.515625
821		111.328125
822		107.421875
823		113.281250
824		111.328125
825		115.234375
826		111.328125
827		117.187500
828		113.281250
829		119.140625
830		115.234375
831		123.046875
832		117.187500
833		125.000000
834		119.140625
835		125.000000
836		121.093750
837		126.953125
838		121.093750
839		126.953125
840		125.000000
841		128.906250
842		125.000000
843		132.812500
844		126.953125
845		132.812500
846		126.953125
847		134.765625
848		128.906250
849		134.765625
850		130.859375
851		136.718750
852		130.859375
853		138.671875
854		132.812500
855		138.671875
856		134.765625
857		138.671875
858		134.765625
859		140.625000
860		134.765625
861		140.625000
862		134.765625
863		140.625000
864		134.765625
865		142.578125
866		136.718750
867		142.578125
868		136.718750
869		144.531250
870		136.718750
871		142.578125
872		138.671875
873		142.578125
874		138.671875
875		142.578125
876		136.718750
877		144.531250
878		136.718750
879		144.531250
880		138.671875
881		144.531250
882		136.718750
883		144.531250
884		136.718750
885		144.531250
886		136.718750
887		144.531250
888		138.671875
889		144.531250
890		138.671875
891		140.625000
892		136.718750
893		142.578125
894		134.765625
895		142.578125
896		134.765625
897		140.625000
898		134.765625
899		140.625000
900		132.812500
901		140.625000
902		132.812500
903		138.671875
904		130.859375
905		138.671875
906		132.812500
907		134.765625
908		130.859375
909		134.765625
910		128.906250
911		134.765625
912		126.953125
913		132.812500
914		125.000000
915		132.812500
916		125.000000
917		130.859375
918		121.093750
919		128.906250
920		121.093750
921		128.906250
922		121.093750
923		126.953125
924		119.140625
925		123.046875
926		115.234375
927		121.093750
928		113.281250
929		119.140625
930		111.328125
931		119.140625
932		109.375000
933		115.234375
934		107.421875
935		113.281250
936		103.515625
937		111.328125
938		103.515625
939		109.375000
940		101.562500
941		105.468750
942		97.656250
943		103.515625
944		95.703125
945		101.562500
946		91.796875
947		99.609375
948		89.843750
949		97.656250
950		85.937500
951		95.703125
952		83.984375
953		91.796875
954		82.031250
955		87.890625
956		80.078125
957		83.984375
958		76.171875
959		82.031250
960		72.265625
961		78.125000
962		68.359375
963		76.171875
964		64.453125
965		74.218750
966		60.546875
967		70.312500
968		58.593750
969		66.406250
970		54.687500
971		62.500000
972		52.734375
973		58.593750
974		48.828125
975		54.687500
976		44.921875
977		50.781250
978		41.015625
979		50.781250
980		37.109375
981		44.921875
982		33.203125
983		41.015625
984		29.296875
985		39.062500
986		25.390625
987		35.156250
988		23.437500
989		29.296875
990		19.531250
991		25.390625
992		15.625000
993		21.484375
994		9.765625
995		17.578125
996		7.812500
997		15.625000
998		1.953125
999		11.718750
1000		-1.953125
1001		7.812500
1002		-3.906250
1003		3.906250
1004		-7.812500
1005		0.000000
1006		-11.718750
1007		-3.906250
1008		-13.671875
1009		-9.765625
1010		-21.484375
1011		-13.671875
1012		-25.390625
1013		-15.625000
1014		-27.343750
1015		-17.578125
1016		-31.250000
1017		-23.437500
1018		-35.156250
1019		-27.343750
1020		-39.062500
1021		-31.250000
1022		-41.015625
1023		-35.156250
1024		-44.921875
1025		-39.062500
1026		-48.828125
1027		-42.968750
1028		-54.687500
1029		-46.875000
1030		-58.593750
1031		-48.828125
1032		-62.500000
1033		-54.687500
1034		-66.406250
1035		-56.640625
1036		-68.359375
1037		-60.546875
1038		-72.265625
1039		-64.453125
1040		-74.218750
1041		-70.312500
1042		-78.125000
1043		-72.265625
1044		-82.031250
1045		-76.171875
1046		-87.890625
1047		-78.125000
1048		-89.843750
1049		-82.031250
1050		-93.750000
1051		-83.984375
1052		-95.703125
1053		-87.890625
1054		-97.656250
1055		-89.843750
1056		-99.609375
1057		-93.750000
1058		-103.515625
1059		-97.656250
1060		-107.421875
1061		-101.562500
1062		-111.328125
1063		-103.515625
1064		-113.281250
1065		-105.468750
1066		-117.187500
1067		-107.421875
1068		-117.187500
1069		-111.328125
1070		-121.093750
1071		-113.281250
1072		-123.046875
1073		-115.234375
1074		-123.046875
1075		-119.140625
1076		-125.000000
1077		-121.093750
1078		-128.906250
1079		-123.046875
1080		-130.859375
1081		-123.046875
1082		-132.812500
1083		-125.000000
1084		-134.765625
1085		-126.953125
1086		-136.718750
1087		-128.906250
1088		-138.671875
1089		-130.859375
1090		-136.718750
1091		-132.812500
1092		-138.671875
1093		-134.765625
1094		-142.578125
1095		-136.718750
1096		-142.578125
1097		-136.718750
1098		-144.531250
1099		-136.718750
1100		-144.531250
1101		-138.671875
1102		-146.484375
1103		-138.671875
1104		-146.484375
1105		-138.671875
1106		-146.484375
1107		-140.625000
1108		-144.531250
1109		-140.625000
1110		-144.531250
1111		-142.578125
1112		-148.437500
1113		-140.625000
1114		-146.484375
1115		-140.625000
1116		-146.484375
1117		-140.625000
1118		-148.437500
1119		-140.625000
1120		-146.484375
1121		-140.625000
1122		-146.484375
1123		-140.625000
1124		-144.531250
1125		-140.625000
1126		-142.578125
1127		-140.625000
1128		-144.531250
1129		-138.671875
1130		-144.531250
1131		-136.718750
1132		-142.578125
1133		-136.718750
1134		-140.625000
1135		-134.765625
1136		-138.671875
1137		-132.812500
1138		-138.671875
1139		-132.812500
1140		-136.718750
1141		-130.859375
1142		-134.765625
1143		-130.859375
1144		-132.812500
1145		-125.000000
1146		-132.812500
1147		-125.000000
1148		-130.859375
1149		-123.046875
1150		-128.906250
1151		-121.093750
1152		-126.953125
1153		-119.140625
1154		-123.046875
1155		-115.234375
1156		-121.093750
1157		-113.281250
1158		-117.187500
1159		-113.281250
1160		-115.234375
1161		-109.375000
1162		-113.281250
1163		-107.421875
1164		-111.328125
1165		-103.515625
1166		-107.421875
1167		-99.609375
1168		-105.468750
1169		-95.703125
1170		-101.562500
1171		-95.703125
1172		-99.609375
1173		-91.796875
1174		-95.703125
1175		-89.843750
1176		-91.796875
1177		-85.937500
1178		-87.890625
1179		-82.031250
1180		-85.937500
1181		-78.125000
1182		-83.984375
1183		-76.171875
1184		-80.078125
1185		-70.312500
1186		-78.125000
1187		-66.406250
1188		-72.265625
1189		-64.453125
1190		-68.359375
1191		-60.546875
1192		-64.453125
1193		-58.593750
1194		-60.546875
1195		-54.687500
1196		-56.640625
1197		-50.781250
1198		-52.734375
1199		-44.921875
1200		-50.781250
1201		-42.968750
1202		-46.875000
1203		-37.109375
1204		-42.968750
1205		-33.203125
1206		-37.109375
1207		-31.250000
1208		-35.156250
1209		-27.343750
1210		-29.296875
1211		-23.437500
1212		-25.390625
1213		-17.578125
1214		-23.437500
1215		-13.671875
1216		-17.578125
1217		-11.718750
1218		-15.625000
1219		-5.859375
1220		-13.671875
1221		-3.906250
1222		-7.812500
1223		0.000000
1224		-3.906250
1225		3.906250
1226		1.953125
1227		7.812500
1228		5.859375
1229		11.718750
1230		7.812500
1231		15.625000
1232		11.718750
1233		21.484375
1234		15.625000
1235		23.437500
1236		19.531250
1237		27.343750
1238		23.437500
1239		31.250000
1240		27.343750
1241		35.156250
1242		33.203125
1243		37.109375
1244		35.156250
1245		41.015625
1246		39.062500
1247		46.875000
1248		41.015625
1249		50.781250
1250		44.921875
1251		52.734375
1252		48.828125
1253		58.593750
1254		50.781250
1255		60.546875
1256		54.687500
1257		62.500000
1258		58.593750
1259		64.453125
1260		64.453125
1261		68.359375
1262		66.406250
1263		72.265625
1264		68.359375
1265		76.171875
1266		70.312500
1267		80.078125
1268		74.218750
1269		82.031250
1270		76.171875
1271		85.937500
1272		80.078125
1273		87.890625
1274		82.031250
1275		89.843750
1276		87.890625
1277		91.796875
1278		89.843750
1279		95.703125
1280		91.796875
1281		99.609375
1282		93.750000
1283		101.562500
1284		97.656250
1285		103.515625
1286		99.609375
1287		107.421875
1288		101.562500
1289		109.375000
1290		105.468750
1291		111.328125
1292		105.468750
1293		111.328125
1294		109.375000
1295		113.281250
1296		111.328125
1297		117.187500
1298		113.281250
1299		121.093750
1300		113.281250
1301		121.093750
1302		117.187500
1303		123.046875
1304		117.187500
1305		125.000000
1306		121.093750
1307		126.953125
1308		121.093750
1309		128.906250
1310		125.000000
1311		128.906250
1312		126.953125
1313		130.859375
1314		125.000000
1315		132.812500
1316		126.953125
1317		134.765625
1318		128.906250
1319		134.765625
1320		128.906250
1321		136.718750
1322		130.859375
1323		138.671875
1324		130.859375
1325		138.671875
1326		134.765625
1327		138.671875
1328		134.765625
1329		138.671875
1330		134.765625
1331		142.578125
1332		134.765625
1333		142.578125
1334		136.718750
1335		142.578125
1336		136.718750
1337		142.578125
1338		136.718750
1339		144.531250
1340		136.718750
1341		144.531250
1342		138.671875
1343		144.531250
1344		140.625000
1345		142.578125
1346		138.671875
1347		144.531250
1348		138.671875
1349		144.531250
1350		138.671875
1351		144.531250
1352		138.671875
1353		144.531250
1354		136.718750
1355		144.531250
1356		138.671875
1357		144.531250
1358		138.671875
1359		144.531250
1360		138.671875
1361		142.578125
1362		138.671875
1363		142.578125
1364		136.718750
1365		142.578125
1366		134.765625
1367		142.578125
1368		134.765625
1369		140.625000
1370		134.765625
1371		140.625000
1372		132.812500
1373		140.625000
1374		132.812500
1375		138.671875
1376		132.812500
1377		136.718750
1378		132.812500
1379		134.765625
1380		128.906250
1381		134.765625
1382		126.953125
1383		134.765625
1384		126.953125
1385		134.765625
1386		123.046875
1387		132.812500
1388		123.046875
1389		130.859375
1390		121.093750
1391		128.906250
1392		121.093750
1393		126.953125
1394		121.093750
1395		125.000000
1396		117.187500
1397		123.046875
1398		115.234375
1399		121.093750
1400		113.281250
1401		121.093750
1402		111.328125
1403		117.187500
1404		107.421875
1405		115.234375
1406		105.468750
1407		115.234375
1408		103.515625
1409		111.328125
1410		103.515625
1411		107.421875
1412		101.562500
1413		105.468750
1414		97.656250
1415		103.515625
1416		93.750000
1417		101.562500
1418		91.796875
1419		99.609375
1420		89.843750
1421		97.656250
1422		85.937500
1423		93.750000
1424		83.984375
1425		91.796875
1426		82.031250
1427		87.890625
1428		78.125000
1429		83.984375
1430		74.218750
1431		80.078125
1432		70.312500
1433		78.125000
1434		66.406250
1435		76.171875
1436		64.453125
1437		72.265625
1438		60.546875
1439		70.312500
1440		58.593750
1441		66.406250
1442		54.687500
1443		62.500000
1444		52.734375
1445		56.640625
1446		48.828125
1447		54.687500
1448		44.921875
1449		52.734375
1450		41.015625
1451		48.828125
1452		35.156250
1453		44.921875
1454		31.250000
1455		41.015625
1456		29.296875
1457		37.109375
1458		23.437500
1459		33.203125
1460		23.437500
1461		29.296875
1462		17.578125
1463		25.390625
1464		15.625000
1465		21.484375
1466		9.765625
1467		17.578125
1468		5.859375
1469		13.671875
1470		1.953125
1471		11.718750
1472		-1.953125
1473		5.859375
1474		-5.859375
1475		1.953125
1476		-7.812500
1477		-1.953125
1478		-11.718750
1479		-5.859375
1480		-15.625000
1481		-9.765625
1482		-21.484375
1483		-11.718750
1484		-23.437500
1485		-17.578125
1486		-29.296875
1487		-19.531250
1488		-33.203125
1489		-25.390625
1490		-37.109375
1491		-27.343750
1492		-41.015625
1493		-33.203125
1494		-42.968750
1495		-37.109375
1496		-46.875000
1497		-41.015625
1498		-52.734375
1499		-44.921875
1500		-54.687500
1501		-46.875000
1502		-58.593750
1503		-50.781250
1504		-64.453125
1505		-54.687500
1506		-66.406250
1507		-58.593750
1508		-70.312500
1509		-60.546875
1510		-72.265625
1511		-66.406250
1512		-76.171875
1513		-70.312500
1514		-80.078125
1515		-74.218750
1516		-83.984375
1517		-76.171875
1518		-87.890625
1519		-80.078125
1520		-91.796875
1521		-82.031250
1522		-93.750000
1523		-85.937500
1524		-97.656250
1525		-87.890625
1526		-99.609375
1527		-91.796875
1528		-101.562500
1529		-95.703125
1530		-103.515625
1531		-99.609375
1532		-109.375000
1533		-99.609375
1534		-111.328125
1535		-103.515625
1536		-113.281250
1537		-105.468750
1538		-117.187500
1539		-109.375000
1540		-119.140625
1541		-111.328125
1542		-121.093750
1543		-115.234375
1544		-123.046875
1545		-117.187500
1546		-125.000000
1547		-119.140625
1548		-128.906250
1549		-121.093750
1550		-130.859375
1551		-123.046875
1552		-130.859375
1553		-125.000000
1554		-134.765625
1555		-126.953125
1556		-134.765625
1557		-126.953125
1558		-136.718750
1559		-130.859375
1560		-138.671875
1561		-130.859375
1562		-138.671875
1563		-134.765625
1564		-140.625000
1565		-134.765625
1566		-142.578125
1567		-134.765625
1568		-142.578125
1569		-134.765625
1570		-144.531250
1571		-138.671875
1572		-144.531250
1573		-138.671875
1574		-146.484375
1575		-138.671875
1576		-146.484375
1577		-140.625000
1578		-144.531250
1579		-142.578125
1580		-146.484375
1581		-142.578125
1582		-148.437500
1583		-140.625000
1584		-148.437500
1585		-140.625000
1586		-148.437500
1587		-140.625000
1588		-146.484375
1589		-140.625000
1590		-148.437500
1591		-140.625000
1592		-148.437500
1593		-140.625000
1594		-146.484375
1595		-140.625000
1596		-144.531250
1597		-140.625000
1598		-144.531250
1599		-138.671875
1600		-144.531250
1601		-138.671875
1602		-144.531250
1603		-136.718750
1604		-144.531250
1605		-136.718750
1606		-140.625000
1607		-134.765625
1608		-140.625000
1609		-132.812500
1610		-138.671875
1611		-132.812500
1612		-134.765625
1613		-132.812500
1614		-134.765625
1615		-130.859375
1616		-134.765625
1617		-126.953125
1618		-132.812500
1619		-125.000000
1620		-130.859375
1621		-123.046875
1622		-126.953125
1623		-121.093750
1624		-126.953125
1625		-119.140625
1626		-125.000000
1627		-117.187500
1628		-123.046875
1629		-115.234375
1630		-117.187500
1631		-113.281250
1632		-115.234375
1633		-109.375000
1634		-113.281250
1635		-105.468750
1636		-111.328125
1637		-103.515625
1638		-109.375000
1639		-101.562500
1640		-105.468750
1641		-97.656250
1642		-101.562500
1643		-93.750000
1644		-99.609375
1645		-91.796875
1646		-93.750000
1647		-89.843750
1648		-91.796875
1649		-85.937500
1650		-89.843750
1651		-82.031250
1652		-87.890625
1653		-78.125000
1654		-83.984375
1655		-74.218750
1656		-80.078125
1657		-72.265625
1658		-76.171875
1659		-68.359375
1660		-74.218750
1661		-64.453125
1662		-68.359375
1663		-62.500000
1664		-64.453125
1665		-58.593750
1666		-60.546875
1667		-52.734375
1668		-58.593750
1669		-48.828125
1670		-54.687500
1671		-44.921875
1672		-50.781250
1673		-41.015625
1674		-46.875000
1675		-37.109375
1676		-41.015625
1677		-33.203125
1678		-39.062500
1679		-31.250000
1680		-33.203125
1681		-27.343750
1682		-29.296875
1683		-23.437500
1684		-27.343750
1685		-17.578125
1686		-23.437500
1687		-13.671875
1688		-19.531250
1689		-11.718750
1690		-15.625000
1691		-5.859375
1692		-9.765625
1693		-1.953125
1694		-7.812500
1695		1.953125
1696		-1.953125
1697		3.906250
1698		1.953125
1699		7.812500
1700		3.906250
1701		13.671875
1702		7.812500
1703		17.578125
1704		11.718750
1705		19.531250
1706		15.625000
1707		25.390625
1708		21.484375
1709		27.343750
1710		23.437500
1711		31.250000
1712		27.343750
1713		35.156250
1714		33.203125
1715		37.109375
1716		37.109375
1717		42.968750
1718		37.109375
1719		46.875000
1720		42.968750
1721		50.781250
1722		44.921875
1723		54.687500
1724		48.828125
1725		56.640625
1726		52.734375
1727		60.546875
1728		56.640625
1729		62.500000
1730		60.546875
1731		66.406250
1732		64.453125
1733		70.312500
1734		66.406250
1735		72.265625
1736		68.359375
1737		76.171875
1738		72.265625
1739		80.078125
1740		74.218750
1741		82.031250
1742		78.125000
1743		85.937500
1744		80.078125
1745		87.890625
1746		85.937500
1747		89.843750
1748		87.890625
1749		93.750000
1750		89.843750
1751		95.703125
1752		91.796875
1753		99.609375
1754		93.750000
1755		103.515625
1756		95.703125
1757		103.515625
1758		99.609375
1759		107.421875
1760		101.562500
1761		109.375000
1762		103.515625
1763		111.328125
1764		107.421875
1765		111.328125
1766		109.375000
1767		115.234375
1768		109.375000
1769		117.187500
1770		113.281250
1771		119.140625
1772		113.281250
1773		121.093750
1774		117.187500
1775		123.046875
1776		117.187500
1777		125.000000
1778		119.140625
1779		126.953125
1780		123.046875
1781		126.953125
1782		125.000000
1783		128.906250
1784		125.000000
1785		130.859375
1786		126.953125
1787		132.812500
1788		126.953125
1789		134.765625
1790		128.906250
1791		134.765625
1792		130.859375
1793		136.718750
1794		130.859375
1795		138.671875
1796		130.859375
1797		138.671875
1798		134.765625
1799		138.671875
1800		134.765625
1801		140.625000
1802		134.765625
1803		140.625000
1804		134.765625
1805		142.578125
1806		134.765625
1807		142.578125
1808		136.718750
1809		144.531250
1810		136.718750
1811		142.578125
1812		136.718750
1813		144.531250
1814		138.671875
1815		142.578125
1816		138.671875
1817		142.578125
1818		138.671875
1819		144.531250
1820		138.671875
1821		144.531250
1822		136.718750
1823		144.531250
1824		138.671875
1825		144.531250
1826		138.671875
1827		144.531250
1828		136.718750
1829		144.531250
1830		138.671875
1831		142.578125
1832		138.671875
1833		142.578125
1834		136.718750
1835		142.578125
1836		134.765625
1837		142.578125
1838		134.765625
1839		140.625000
1840		134.765625
1841		140.625000
1842		134.765625
1843		140.625000
1844		132.812500
1845		138.671875
1846		132.812500
1847		138.671875
1848		132.812500
1849		136.718750
1850		130.859375
1851		134.765625
1852		128.906250
1853		136.718750
1854		126.953125
1855		134.765625
1856		125.000000
1857		132.812500
1858		123.046875
1859		130.859375
1860		121.093750
1861		128.906250
1862		121.093750
1863		128.906250
1864		121.093750
1865		125.000000
1866		119.140625
1867		123.046875
1868		115.234375
1869		123.046875
1870		113.281250
1871		121.093750
1872		111.328125
1873		119.140625
1874		109.375000
1875		117.187500
1876		107.421875
1877		113.281250
1878		105.468750
1879		113.281250
1880		103.515625
1881		109.375000
1882		101.562500
1883		105.468750
1884		99.609375
1885		103.515625
1886		95.703125
1887		101.562500
1888		93.750000
1889		99.609375
1890		91.796875
1891		97.656250
1892		87.890625
1893		93.750000
1894		83.984375
1895		91.796875
1896		82.031250
1897		87.890625
1898		80.078125
1899		85.937500
1900		76.171875
1901		82.031250
1902		72.265625
1903		80.078125
1904		68.359375
1905		78.125000
1906		66.406250
1907		74.218750
1908		62.500000
1909		70.312500
1910		58.593750
1911		68.359375
1912		54.687500
1913		64.453125
1914		52.734375
1915		60.546875
1916		48.828125
1917		54.687500
1918		44.921875
1919		52.734375
1920		41.015625
1921		48.828125
1922		37.109375
1923		44.921875
1924		35.156250
1925		42.968750
1926		31.250000
1927		39.062500
1928		27.343750
1929		35.156250
1930		25.390625
1931		31.250000
1932		21.484375
1933		25.390625
1934		17.578125
1935		23.437500
1936		11.718750
1937		19.531250
1938		7.812500
1939		17.578125
1940		3.906250
1941		11.718750
1942		0.000000
1943		9.765625
1944		-3.906250
1945		3.906250
1946		-7.812500
1947		0.000000
1948		-9.765625
1949		-3.906250
1950		-13.671875
1951		-7.812500
1952		-19.531250
1953		-11.718750
1954		-23.437500
1955		-15.625000
1956		-27.343750
1957		-19.531250
1958		-31.250000
1959		-23.437500
1960		-35.156250
1961		-27.343750
1962		-39.062500
1963		-29.296875
1964		-41.015625
1965		-33.203125
1966		-44.921875
1967		-39.062500
1968		-50.781250
1969		-42.968750
1970		-52.734375
1971		-46.875000
1972		-58.593750
1973		-48.828125
1974		-60.546875
1975		-52.734375
1976		-64.453125
1977		-56.640625
1978		-68.359375
1979		-60.546875
1980		-70.312500
1981		-62.500000
1982		-74.218750
1983		-68.359375
1984		-78.125000
1985		-72.265625
1986		-82.031250
1987		-74.218750
1988		-85.937500
1989		-78.125000
1990		-87.890625
1991		-80.078125
1992		-91.796875
1993		-83.984375
1994		-95.703125
1995		-87.890625
1996		-97.656250
1997		-89.843750
1998		-99.609375
1999		-93.750000
2000		-103.515625
2001		-97.656250
2002		-107.421875
2003		-99.609375
2004		-109.375000
2005		-103.515625
2006		-113.281250
2007		-105.468750
2008		-113.281250
2009		-107.421875
2010		-117.187500
2011		-109.375000
2012		-119.140625
2013		-113.281250
2014		-121.093750
2015		-113.281250
2016		-123.046875
2017		-119.140625
2018		-126.953125
2019		-121.093750
2020		-128.906250
2021		-121.093750
2022		-132.812500
2023		-123.046875
2024		-132.812500
2025		-125.000000
2026		-134.765625
2027		-128.906250
2028		-136.718750
2029		-128.906250
2030		-136.718750
2031		-130.859375
2032		-136.718750
2033		-132.812500
2034		-138.671875
2035		-134.765625
2036		-140.625000
2037		-134.765625
2038		-142.578125
2039		-136.718750
2040		-144.531250
2041		-136.718750
2042		-144.531250
2043		-138.671875
2044		-146.484375
2045		-138.671875
2046		-146.484375
2047		-138.671875
2048		-146.484375
2049		-140.625000
2050		-144.531250
2051		-140.625000
2052		-146.484375
2053		-140.625000
2054		-146.484375
2055		-140.625000
2056		-148.437500
2057		-140.625000
2058		-146.484375
2059		-140.625000
2060		-146.484375
2061		-140.625000
2062		-146.484375
2063		-140.625000
2064		-146.484375
2065		-140.625000
2066		-144.531250
2067		-140.625000
2068		-142.578125
2069		-140.625000
2070		-144.531250
2071		-136.718750
2072		-144.531250
2073		-136.718750
2074		-142.578125
2075		-134.765625
2076		-140.625000
2077		-134.765625
2078		-140.625000
2079		-132.812500
2080		-138.671875
2081		-130.859375
2082		-136.718750
2083		-130.859375
2084		-134.765625
2085		-128.906250
2086		-132.812500
2087		-126.953125
2088		-132.812500
2089		-125.000000
2090		-130.859375
2091		-123.046875
2092		-128.906250
2093		-121.093750
2094		-126.953125
2095		-119.140625
2096		-125.000000
2097		-117.187500
2098		-123.046875
2099		-115.234375
2100		-117.187500
2101		-113.281250
2102		-115.234375
2103		-109.375000
2104		-115.234375
2105		-107.421875
2106		-113.281250
2107		-103.515625
2108		-109.375000
2109		-101.562500
2110		-105.468750
2111		-97.656250
2112		-103.515625
2113		-95.703125
2114		-101.562500
2115		-93.750000
2116		-95.703125
2117		-89.843750
2118		-91.796875
2119		-87.890625
2120		-89.843750
2121		-82.031250
2122		-87.890625
2123		-78.125000
2124		-83.984375
2125		-76.171875
2126		-80.078125
2127		-72.265625
2128		-78.125000
2129		-68.359375
2130		-74.218750
2131		-66.406250
2132		-70.312500
2133		-62.500000
2134		-64.453125
2135		-58.593750
2136		-60.546875
2137		-56.640625
2138		-58.593750
2139		-50.781250
2140		-54.687500
2141		-44.921875
2142		-50.781250
2143		-42.968750
2144		-46.875000
2145		-39.062500
2146		-44.921875
2147		-35.156250
2148		-39.062500
2149		-31.250000
2150		-35.156250
2151		-29.296875
2152		-31.250000
2153		-25.390625
2154		-27.343750
2155		-19.531250
2156		-23.437500
2157		-15.625000
2158		-21.484375
2159		-11.718750
2160		-17.578125
2161		-7.812500
2162		-13.671875
2163		-3.906250
2164		-7.812500
2165		0.000000
2166		-3.906250
2167		1.953125
2168		0.000000
2169		5.859375
2170		3.906250
2171		13.671875
2172		7.812500
2173		15.625000
2174		11.718750
2175		19.531250
2176		13.671875
2177		23.437500
2178		17.578125
2179		27.343750
2180		23.437500
2181		31.250000
2182		27.343750
2183		33.203125
2184		31.250000
2185		37.109375
2186		35.156250
2187		41.015625
2188		37.109375
2189		44.921875
2190		41.015625
2191		48.828125
2192		44.921875
2193		52.734375
2194		48.828125
2195		56.640625
2196		50.781250
2197		58.593750
2198		54.687500
2199		62.500000
2200		58.593750
2201		64.453125
2202		62.500000
2203		68.359375
2204		66.406250
2205		72.265625
2206		66.406250
2207		76.171875
2208		70.312500
2209		78.125000
2210		74.218750
2211		82.031250
2212		76.171875
2213		83.984375
2214		80.078125
2215		87.890625
2216		82.031250
2217		89.843750
2218		87.890625
2219		91.796875
2220		89.843750
2221		93.750000
2222		91.796875
2223		99.609375
2224		91.796875
2225		101.562500
2226		95.703125
2227		103.515625
2228		99.609375
2229		107.421875
2230		101.562500
2231		109.375000
2232		103.515625
2233		109.375000
2234		107.421875
2235		111.328125
2236		109.375000
2237		113.281250
2238		111.328125
2239		117.187500
2240		111.328125
2241		119.140625
2242		113.281250
2243		121.093750
2244		115.234375
2245		123.046875
2246		117.187500
2247		125.000000
2248		119.140625
2249		126.953125
2250		121.093750
2251		126.953125
2252		125.000000
2253		128.906250
2254		125.000000
2255		132.812500
2256		125.000000
2257		132.812500
2258		126.953125
2259		134.765625
2260		128.906250
2261		134.765625
2262		130.859375
2263		136.718750
2264		130.859375
2265		136.718750
2266		132.812500
2267		138.671875
2268		134.765625
2269		138.671875
2270		136.718750
2271		138.671875
2272		134.765625
2273		142.578125
2274		136.718750
2275		142.578125
2276		136.718750
2277		142.578125
2278		136.718750
2279		144.531250
2280		136.718750
2281		144.531250
2282		138.671875
2283		144.531250
2284		140.625000
2285		142.578125
2286		140.625000
2287		144.531250
2288		138.671875
2289		144.531250
2290		138.671875
2291		146.484375
2292		138.671875
2293		144.531250
2294		138.671875
2295		146.484375
2296		138.671875
2297		144.531250
2298		138.671875
2299		144.531250
2300		138.671875
2301		144.531250
2302		140.625000
2303		142.578125
2304		138.671875
2305		142.578125
2306		136.718750
2307		144.531250
2308		136.718750
2309		142.578125
2310		134.765625
2311		142.578125
2312		134.765625
2313		142.578125
2314		134.765625
2315		140.625000
2316		132.812500
2317		140.625000
2318		134.765625
2319		136.718750
2320		132.812500
2321		136.718750
2322		128.906250
2323		136.718750
2324		128.906250
2325		136.718750
2326		126.953125
2327		134.765625
2328		126.953125
2329		132.812500
2330		125.000000
2331		130.859375
2332		123.046875
2333		130.859375
2334		123.046875
2335		128.906250
2336		121.093750
2337		125.000000
2338		119.140625
2339		125.000000
2340		117.187500
2341		123.046875
2342		113.281250
2343		123.046875
2344		111.328125
2345		119.140625
2346		111.328125
2347		117.187500
2348		107.421875
2349		115.234375
2350		105.468750
2351		113.281250
2352		105.468750
2353		109.375000
2354		101.562500
2355		107.421875
2356		97.656250
2357		105.468750
2358		95.703125
2359		103.515625
2360		91.796875
2361		101.562500
2362		89.843750
2363		97.656250
2364		87.890625
2365		95.703125
2366		85.937500
2367		91.796875
2368		83.984375
2369		87.890625
2370		80.078125
2371		85.937500
2372		76.171875
2373		82.031250
2374		72.265625
2375		80.078125
2376		70.312500
2377		78.125000
2378		66.406250
2379		74.218750
2380		62.500000
2381		70.312500
2382		58.593750
2383		66.406250
2384		56.640625
2385		64.453125
2386		54.687500
2387		60.546875
2388		48.828125
2389		56.640625
2390		44.921875
2391		54.687500
2392		41.015625
2393		48.828125
2394		39.062500
2395		46.875000
2396		35.156250
2397		42.968750
2398		31.250000
2399		39.062500
2400		27.343750
2401		35.156250
2402		25.390625
2403		29.296875
2404		21.484375
2405		27.343750
2406		15.625000
2407		23.437500
2408		11.718750
2409		19.531250
2410		7.812500
2411		15.625000
2412		3.906250
2413		11.718750
2414		0.000000
2415		9.765625
2416		-3.906250
2417		5.859375
2418		-5.859375
2419		1.953125
2420		-9.765625
2421		-3.906250
2422		-13.671875
2423		-7.812500
2424		-19.531250
2425		-9.765625
2426		-23.437500
2427		-13.671875
2428		-27.343750
2429		-19.531250
2430		-29.296875
2431		-23.437500
2432		-33.203125
2433		-27.343750
2434		-37.109375
2435		-31.250000
2436		-41.015625
2437		-35.156250
2438		-44.921875
2439		-39.062500
2440		-48.828125
2441		-42.968750
2442		-52.734375
2443		-44.921875
2444		-58.593750
2445		-48.828125
2446		-60.546875
2447		-52.734375
2448		-64.453125
2449		-56.640625
2450		-66.406250
2451		-60.546875
2452		-70.312500
2453		-64.453125
2454		-74.218750
2455		-68.359375
2456		-78.125000
2457		-72.265625
2458		-82.031250
2459		-74.218750
2460		-85.937500
2461		-76.171875
2462		-87.890625
2463		-80.078125
2464		-91.796875
2465		-82.031250
2466		-93.750000
2467		-87.890625
2468		-95.703125
2469		-89.843750
2470		-99.609375
2471		-93.750000
2472		-101.562500
2473		-95.703125
2474		-107.421875
2475		-97.656250
2476		-107.421875
2477		-101.562500
2478		-109.375000
2479		-103.515625
2480		-115.234375
2481		-105.468750
2482		-117.187500
2483		-109.375000
2484		-119.140625
2485		-111.328125
2486		-119.140625
2487		-115.234375
2488		-121.093750
2489		-117.187500
2490		-125.000000
2491		-119.140625
2492		-126.953125
2493		-119.140625
2494		-128.906250
2495		-121.093750
2496		-130.859375
2497		-125.000000
2498		-132.812500
2499		-125.000000
2500		-134.765625
2501		-126.953125
2502		-134.765625
2503		-128.906250
2504		-134.765625
2505		-132.812500
2506		-138.671875
2507		-132.812500
2508		-140.625000
2509		-132.812500
2510		-140.625000
2511		-134.765625
2512		-140.625000
2513		-136.718750
2514		-142.578125
2515		-134.765625
2516		-144.531250
2517		-136.718750
2518		-142.578125
2519		-136.718750
2520		-142.578125
2521		-138.671875
2522		-142.578125
2523		-138.671875
2524		-144.531250
2525		-138.671875
2526		-144.531250
2527		-138.671875
2528		-144.531250
2529		-138.671875
2530		-144.531250
2531		-138.671875
2532		-144.531250
2533		-138.671875
2534		-144.531250
2535		-138.671875
2536		-142.578125
2537		-138.671875
2538		-142.578125
2539		-138.671875
2540		-140.625000
2541		-136.718750
2542		-142.578125
2543		-136.718750
2544		-140.625000
2545		-134.765625
2546		-140.625000
2547		-132.812500
2548		-138.671875
2549		-132.812500
2550		-136.718750
2551		-128.906250
2552		-136.718750
2553		-130.859375
2554		-132.812500
2555		-128.906250
2556		-130.859375
2557		-126.953125
2558		-130.859375
2559		-125.000000
2560		-128.906250
2561		-123.046875
2562		-126.953125
2563		-121.093750
2564		-126.953125
2565		-117.187500
2566		-123.046875
2567		-115.234375
2568		-121.093750
2569		-113.281250
2570		-117.187500
2571		-113.281250
2572		-115.234375
2573		-109.375000
2574		-113.281250
2575		-105.468750
2576		-111.328125
2577		-103.515625
2578		-107.421875
2579		-101.562500
2580		-105.468750
2581		-97.656250
2582		-101.562500
2583		-95.703125
2584		-101.562500
2585		-91.796875
2586		-95.703125
2587		-89.843750
2588		-91.796875
2589		-87.890625
2590		-89.843750
2591		-82.031250
2592		-85.937500
2593		-80.078125
2594		-83.984375
2595		-76.171875
2596		-80.078125
2597		-72.265625
2598		-78.125000
2599		-70.312500
2600		-74.218750
2601		-66.406250
2602		-70.312500
2603		-62.500000
2604		-64.453125
2605		-60.546875
2606		-60.546875
2607		-56.640625
2608		-58.593750
2609		-50.781250
2610		-54.687500
2611		-46.875000
2612		-50.781250
2613		-42.968750
2614		-46.875000
2615		-41.015625
2616		-44.921875
2617		-37.109375
2618		-41.015625
2619		-31.250000
2620		-37.109375
2621		-29.296875
2622		-31.250000
2623		-25.390625
2624		-27.343750
2625		-21.484375
2626		-25.390625
2627		-15.625000
2628		-21.484375
2629		-11.718750
2630		-17.578125
2631		-7.812500
2632		-11.718750
2633		-3.906250
2634		-9.765625
2635		0.000000
2636		-5.859375
2637		1.953125
2638		0.000000
2639		5.859375
2640		3.906250
2641		9.765625
2642		7.812500
2643		15.625000
2644		9.765625
2645		17.578125
2646		11.718750
2647		21.484375
2648		17.578125
2649		27.343750
2650		23.437500
2651		29.296875
2652		25.390625
2653		33.203125
2654		29.296875
2655		35.156250
2656		33.203125
2657		39.062500
2658		37.109375
2659		44.921875
2660		39.062500
2661		48.828125
2662		42.968750
2663		52.734375
2664		46.875000
2665		54.687500
2666		48.828125
2667		58.593750
2668		54.687500
2669		60.546875
2670		58.593750
2671		64.453125
2672		62.500000
2673		66.406250
2674		64.453125
2675		72.265625
2676		66.406250
2677		76.171875
2678		70.312500
2679		78.125000
2680		72.265625
2681		82.031250
2682		76.171875
2683		83.984375
2684		78.125000
2685		87.890625
2686		83.984375
2687		89.843750
2688		85.937500
2689		91.796875
2690		89.843750
2691		93.750000
2692		91.796875
2693		97.656250
2694		93.750000
2695		101.562500
2696		95.703125
2697		103.515625
2698		99.609375
2699		105.468750
2700		101.562500
2701		107.421875
2702		103.515625
2703		111.328125
2704		105.468750
2705		111.328125
2706		109.375000
2707		113.281250
2708		111.328125
2709		117.187500
2710		113.281250
2711		119.140625
2712		113.281250
2713		121.093750
2714		117.187500
2715		123.046875
2716		117.187500
2717		125.000000
2718		119.140625
2719		126.953125
2720		121.093750
2721		126.953125
2722		125.000000
2723		128.906250
2724		126.953125
2725		130.859375
2726		126.953125
2727		132.812500
2728		128.906250
2729		132.812500
2730		128.906250
2731		134.765625
2732		130.859375
2733		136.718750
2734		132.812500
2735		136.718750
2736		132.812500
2737		138.671875
2738		134.765625
2739		138.671875
2740		136.718750
2741		138.671875
2742		136.718750
2743		142.578125
2744		136.718750
2745		142.578125
2746		136.718750
2747		142.578125
2748		136.718750
2749		144.531250
2750		138.671875
2751		144.531250
2752		138.671875
2753		144.531250
2754		138.671875
2755		144.531250
2756		140.625000
2757		144.531250
2758		140.625000
2759		144.531250
2760		140.625000
2761		146.484375
2762		138.671875
2763		146.484375
2764		138.671875
2765		146.484375
2766		138.671875
2767		146.484375
2768		138.671875
2769		144.531250
2770		138.671875
2771		144.531250
2772		140.625000
2773		144.531250
2774		140.625000
2775		144.531250
2776		136.718750
2777		144.531250
2778		136.718750
2779		144.531250
2780		136.718750
2781		142.578125
2782		136.718750
2783		142.578125
2784		134.765625
2785		140.625000
2786		134.765625
2787		140.625000
2788		134.765625
2789		140.625000
2790		134.765625
2791		136.718750
2792		130.859375
2793		136.718750
2794		128.906250
2795		136.718750
2796		128.906250
2797		136.718750
2798		126.953125
2799		134.765625
2800		125.000000
2801		132.812500
2802		123.046875
2803		132.812500
2804		123.046875
2805		130.859375
2806		123.046875
2807		126.953125
2808		121.093750
2809		125.000000
2810		117.187500
2811		125.000000
2812		115.234375
2813		123.046875
2814		113.281250
2815		121.093750
2816		111.328125
2817		119.140625
2818		109.375000
2819		115.234375
2820		105.468750
2821		115.234375
2822		105.468750
2823		111.328125
2824		103.515625
2825		107.421875
2826		101.562500
2827		105.468750
2828		95.703125
2829		105.468750
2830		93.750000
2831		101.562500
2832		91.796875
2833		99.609375
2834		89.843750
2835		97.656250
2836		87.890625
2837		93.750000
2838		83.984375
2839		91.796875
2840		82.031250
2841		87.890625
2842		80.078125
2843		83.984375
2844		74.218750
2845		82.031250
2846		70.312500
2847		80.078125
2848		68.359375
2849		76.171875
2850		64.453125
2851		74.218750
2852		62.500000
2853		68.359375
2854		58.593750
2855		66.406250
2856		56.640625
2857		62.500000
2858		52.734375
2859		58.593750
2860		48.828125
2861		54.687500
2862		42.968750
2863		52.734375
2864		39.062500
2865		50.781250
2866		35.156250
2867		44.921875
2868		31.250000
2869		41.015625
2870		29.296875
2871		37.109375
2872		27.343750
2873		33.203125
2874		23.437500
2875		29.296875
2876		17.578125
2877		25.390625
2878		13.671875
2879		21.484375
2880		11.718750
2881		19.531250
2882		5.859375
2883		13.671875
2884		1.953125
2885		11.718750
2886		-1.953125
2887		7.812500
2888		-3.906250
2889		3.906250
2890		-7.812500
2891		-1.953125
2892		-11.718750
2893		-5.859375
2894		-17.578125
2895		-7.812500
2896		-21.484375
2897		-11.718750
2898		-25.390625
2899		-15.625000
2900		-29.296875
2901		-19.531250
2902		-31.250000
2903		-23.437500
2904		-37.109375
2905		-27.343750
2906		-39.062500
2907		-33.203125
2908		-42.968750
2909		-37.109375
2910		-48.828125
2911		-41.015625
2912		-52.734375
2913		-42.968750
2914		-54.687500
2915		-46.875000
2916		-56.640625
2917		-50.781250
2918		-62.500000
2919		-54.687500
2920		-66.406250
2921		-56.640625
2922		-68.359375
2923		-62.500000
2924		-72.265625
2925		-66.406250
2926		-76.171875
2927		-70.312500
2928		-80.078125
2929		-72.265625
2930		-83.984375
2931		-74.218750
2932		-85.937500
2933		-78.125000
2934		-89.843750
2935		-80.078125
2936		-93.750000
2937		-85.937500
2938		-95.703125
2939		-89.843750
2940		-97.656250
2941		-91.796875
2942		-101.562500
2943		-95.703125
2944		-105.468750
2945		-97.656250
2946		-109.375000
2947		-99.609375
2948		-111.328125
2949		-101.562500
2950		-113.281250
2951		-105.468750
2952		-117.187500
2953		-109.375000
2954		-119.140625
2955		-111.328125
2956		-119.140625
2957		-113.281250
2958		-121.093750
2959		-117.187500
2960		-125.000000
2961		-119.140625
2962		-126.953125
2963		-121.093750
2964		-128.906250
2965		-123.046875
2966		-130.859375
2967		-123.046875
2968		-132.812500
2969		-126.953125
2970		-134.765625
2971		-126.953125
2972		-136.718750
2973		-128.906250
2974		-136.718750
2975		-132.812500
2976		-136.718750
2977		-134.765625
2978		-140.625000
2979		-134.765625
2980		-142.578125
2981		-134.765625
2982		-142.578125
2983		-136.718750
2984		-144.531250
2985		-136.718750
2986		-146.484375
2987		-138.671875
2988		-146.484375
2989		-138.671875
2990		-144.531250
2991		-140.625000
2992		-144.531250
2993		-140.625000
2994		-146.484375
2995		-140.625000
2996		-146.484375
2997		-140.625000
2998		-146.484375
2999		-140.625000
3000		-146.484375
3001		-140.625000
3002		-146.484375
3003		-140.625000
3004		-146.484375
3005		-140.625000
3006		-144.531250
3007		-140.625000
3008		-144.531250
3009		-140.625000
3010		-144.531250
3011		-138.671875
3012		-144.531250
3013		-136.718750
3014		-142.578125
3015		-136.718750
3016		-142.578125
3017		-136.718750
3018		-142.578125
3019		-134.765625
3020		-140.625000
3021		-132.812500
3022		-138.671875
3023		-132.812500
3024		-136.718750
3025		-132.812500
3026		-134.765625
3027		-130.859375
3028		-134.765625
3029		-126.953125
3030		-132.812500
3031		-125.000000
3032		-132.812500
3033		-125.000000
3034		-128.906250
3035		-121.093750
3036		-126.953125
3037		-119.140625
3038		-125.000000
3039		-117.187500
3040		-123.046875
3041		-117.187500
3042		-119.140625
3043		-115.234375
3044		-117.187500
3045		-111.328125
3046		-115.234375
3047		-107.421875
3048		-113.281250
3049		-105.468750
3050		-111.328125
3051		-101.562500
3052		-107.421875
3053		-99.609375
3054		-105.468750
3055		-97.656250
3056		-101.562500
3057		-93.750000
3058		-97.656250
3059		-91.796875
3060		-93.750000
3061		-89.843750
3062		-91.796875
3063		-83.984375
3064		-89.843750
3065		-80.078125
3066		-85.937500
3067		-78.125000
3068		-82.031250
3069		-74.218750
3070		-78.125000
3071		-70.312500
3072		-76.171875
3073		-66.406250
3074		-70.312500
3075		-64.453125
3076		-66.406250
3077		-60.546875
3078		-62.500000
3079		-56.640625
3080		-60.546875
3081		-52.734375
3082		-58.593750
3083		-48.828125
3084		-52.734375
3085		-44.921875
3086		-50.781250
3087		-41.015625
3088		-46.875000
3089		-37.109375
3090		-41.015625
3091		-35.156250
3092		-37.109375
3093		-31.250000
3094		-33.203125
3095		-25.390625
3096		-29.296875
3097		-21.484375
3098		-25.390625
3099		-17.578125
3100		-21.484375
3101		-13.671875
3102		-17.578125
3103		-9.765625
3104		-13.671875
3105		-5.859375
3106		-11.718750
3107		-1.953125
3108		-5.859375
3109		0.000000
3110		-1.953125
3111		3.906250
3112		1.953125
3113		9.765625
3114		3.906250
3115		13.671875
3116		7.812500
3117		17.578125
3118		13.671875
3119		21.484375
3120		15.625000
3121		25.390625
3122		19.531250
3123		27.343750
3124		23.437500
3125		31.250000
3126		29.296875
3127		35.156250
3128		33.203125
3129		41.015625
3130		33.203125
3131		42.968750
3132		39.062500
3133		46.875000
3134		42.968750
3135		50.781250
3136		46.875000
3137		52.734375
3138		48.828125
3139		56.640625
3140		52.734375
3141		60.546875
3142		58.593750
3143		62.500000
3144		60.546875
3145		66.406250
3146		64.453125
3147		70.312500
3148		66.406250
3149		74.218750
3150		68.359375
3151		76.171875
3152		72.265625
3153		80.078125
3154		76.171875
3155		82.031250
3156		78.125000
3157		85.937500
3158		82.031250
3159		87.890625
3160		85.937500
3161		89.843750
3162		87.890625
3163		93.750000
3164		89.843750
3165		97.656250
3166		91.796875
3167		99.609375
3168		93.750000
3169		101.562500
3170		97.656250
3171		105.468750
3172		99.609375
3173		107.421875
3174		101.562500
3175		109.375000
3176		105.468750
3177		111.328125
3178		107.421875
3179		115.234375
3180		109.375000
3181		117.187500
3182		109.375000
3183		117.187500
3184		111.328125
3185		119.140625
3186		115.234375
3187		123.046875
3188		117.187500
3189		123.046875
3190		117.187500
3191		125.000000
3192		121.093750
3193		125.000000
3194		123.046875
3195		126.953125
3196		125.000000
3197		130.859375
3198		125.000000
3199		132.812500
3200		126.953125
3201		134.765625
3202		128.906250
3203		134.765625
3204		128.906250
3205		136.718750
3206		130.859375
3207		136.718750
3208		132.812500
3209		136.718750
3210		134.765625
3211		136.718750
3212		134.765625
3213		140.625000
3214		134.765625
3215		142.578125
3216		134.765625
3217		142.578125
3218		134.765625
3219		142.578125
3220		136.718750
3221		142.578125
3222		136.718750
3223		144.531250
3224		138.671875
3225		144.531250
3226		140.625000
3227		142.578125
3228		140.625000
3229		142.578125
3230		138.671875
3231		146.484375
3232		138.671875
3233		144.531250
3234		138.671875
3235		144.531250
3236		138.671875
3237		144.531250
3238		138.671875
3239		144.531250
3240		136.718750
3241		146.484375
3242		140.625000
3243		144.531250
3244		140.625000
3245		142.578125
3246		138.671875
3247		144.531250
3248		136.718750
3249		144.531250
3250		136.718750
3251		142.578125
3252		136.718750
3253		142.578125
3254		134.765625
3255		140.625000
3256		134.765625
3257		140.625000
3258		132.812500
3259		140.625000
3260		134.765625
3261		136.718750
3262		132.812500
3263		136.718750
3264		130.859375
3265		136.718750
3266		128.906250
3267		136.718750
3268		126.953125
3269		134.765625
3270		126.953125
3271		132.812500
3272		125.000000
3273		130.859375
3274		123.046875
3275		130.859375
3276		123.046875
3277		126.953125
3278		121.093750
3279		125.000000
3280		119.140625
3281		125.000000
3282		117.187500
3283		123.046875
3284		113.281250
3285		123.046875
3286		111.328125
3287		119.140625
3288		111.328125
3289		119.140625
3290		107.421875
3291		115.234375
3292		107.421875
3293		113.281250
3294		105.468750
3295		109.375000
3296		101.562500
3297		107.421875
3298		97.656250
3299		107.421875
3300		95.703125
3301		103.515625
3302		91.796875
3303		101.562500
3304		91.796875
3305		99.609375
3306		87.890625
3307		97.656250
3308		85.937500
3309		93.750000
3310		83.984375
3311		89.843750
3312		80.078125
3313		85.937500
3314		76.171875
3315		83.984375
3316		72.265625
3317		82.031250
3318		70.312500
3319		78.125000
3320		66.406250
3321		76.171875
3322		62.500000
3323		72.265625
3324		60.546875
3325		68.359375
3326		58.593750
3327		64.453125
3328		54.687500
3329		60.546875
3330		50.781250
3331		56.640625
3332		44.921875
3333		54.687500
3334		42.968750
3335		50.781250
3336		37.109375
3337		46.875000
3338		35.156250
3339		44.921875
3340		31.250000
3341		41.015625
3342		29.296875
3343		37.109375
3344		25.390625
3345		31.250000
3346		21.484375
3347		27.343750
3348		15.625000
3349		25.390625
3350		11.718750
3351		21.484375
3352		7.812500
3353		17.578125
3354		3.906250
3355		13.671875
3356		1.953125
3357		9.765625
3358		-1.953125
3359		5.859375
3360		-5.859375
3361		0.000000
3362		-9.765625
3363		-3.906250
3364		-13.671875
3365		-7.812500
3366		-17.578125
3367		-7.812500
3368		-21.484375
3369		-13.671875
3370		-25.390625
3371		-17.578125
3372		-29.296875
3373		-21.484375
3374		-33.203125
3375		-25.390625
3376		-35.156250
3377		-29.296875
3378		-39.062500
3379		-33.203125
3380		-44.921875
3381		-39.062500
3382		-48.828125
3383		-41.015625
3384		-52.734375
3385		-42.968750
3386		-56.640625
3387		-46.875000
3388		-60.546875
3389		-50.781250
3390		-64.453125
3391		-56.640625
3392		-66.406250
3393		-60.546875
3394		-70.312500
3395		-64.453125
3396		-72.265625
3397		-68.359375
3398		-78.125000
3399		-70.312500
3400		-82.031250
3401		-74.218750
3402		-83.984375
3403		-76.171875
3404		-87.890625
3405		-80.078125
3406		-91.796875
3407		-82.031250
3408		-93.750000
3409		-87.890625
3410		-95.703125
3411		-87.890625
3412		-99.609375
3413		-93.750000
3414		-103.515625
3415		-97.656250
3416		-105.468750
3417		-99.609375
3418		-107.421875
3419		-101.562500
3420		-111.328125
3421		-103.515625
3422		-115.234375
3423		-107.421875
3424		-117.187500
3425		-111.328125
3426		-119.140625
3427		-111.328125
3428		-119.140625
3429		-115.234375
3430		-123.046875
3431		-117.187500
3432		-125.000000
3433		-119.140625
3434		-128.906250
3435		-119.140625
3436		-130.859375
3437		-123.046875
3438		-132.812500
3439		-125.000000
3440		-134.765625
3441		-126.953125
3442		-136.718750
3443		-126.953125
3444		-134.765625
3445		-132.812500
3446		-136.718750
3447		-132.812500
3448		-140.625000
3449		-134.765625
3450		-140.625000
3451		-132.812500
3452		-142.578125
3453		-136.718750
3454		-142.578125
3455		-136.718750
3456		-144.531250
3457		-138.671875
3458		-144.531250
3459		-138.671875
3460		-144.531250
3461		-138.671875
3462		-144.531250
3463		-140.625000
3464		-144.531250
3465		-142.578125
3466		-146.484375
3467		-140.625000
3468		-146.484375
3469		-140.625000
3470		-146.484375
3471		-140.625000
3472		-148.437500
3473		-140.625000
3474		-146.484375
3475		-140.625000
3476		-146.484375
3477		-140.625000
3478		-144.531250
3479		-142.578125
3480		-144.531250
3481		-140.625000
3482		-144.531250
3483		-138.671875
3484		-144.531250
3485		-138.671875
3486		-144.531250
3487		-136.718750
3488		-142.578125
3489		-136.718750
3490		-142.578125
3491		-134.765625
3492		-140.625000
3493		-134.765625
3494		-138.671875
3495		-134.765625
3496		-136.718750
3497		-132.812500
3498		-134.765625
3499		-128.906250
3500		-134.765625
3501		-126.953125
3502		-132.812500
3503		-126.953125
3504		-130.859375
3505		-123.046875
3506		-128.906250
3507		-121.093750
3508		-125.000000
3509		-119.140625
3510		-123.046875
3511		-119.140625
3512		-121.093750
3513		-115.234375
3514		-119.140625
3515		-113.281250
3516		-117.187500
3517		-109.375000
3518		-115.234375
3519		-107.421875
3520		-113.281250
3521		-103.515625
3522		-107.421875
3523		-103.515625
3524		-105.468750
3525		-99.609375
3526		-101.562500
3527		-95.703125
3528		-99.609375
3529		-93.750000
3530		-95.703125
3531		-89.843750
3532		-93.750000
3533		-85.937500
3534		-91.796875
3535		-83.984375
3536		-87.890625
3537		-80.078125
3538		-83.984375
3539		-78.125000
3540		-80.078125
3541		-74.218750
3542		-76.171875
3543		-70.312500
3544		-72.265625
3545		-66.406250
3546		-68.359375
3547		-62.500000
3548		-64.453125
3549		-60.546875
3550		-62.500000
3551		-54.687500
3552		-58.593750
3553		-50.781250
3554		-54.687500
3555		-48.828125
3556		-50.781250
3557		-44.921875
3558		-46.875000
3559		-41.015625
3560		-42.968750
3561		-37.109375
3562		-39.062500
3563		-33.203125
3564		-35.156250
3565		-29.296875
3566		-31.250000
3567		-25.390625
3568		-27.343750
3569		-21.484375
3570		-23.437500
3571		-17.578125
3572		-19.531250
3573		-13.671875
3574		-15.625000
3575		-9.765625
3576		-11.718750
3577		-5.859375
3578		-7.812500
3579		-1.953125
3580		-3.906250
3581		1.953125
3582		0.000000
3583		7.812500
3584		3.906250
3585		9.765625
3586		5.859375
3587		13.671875
3588		11.718750
3589		17.578125
3590		15.625000
3591		21.484375
3592		19.531250
3593		25.390625
3594		23.437500
3595		29.296875
3596		27.343750
3597		33.203125
3598		31.250000
3599		37.109375
3600		33.203125
3601		41.015625
3602		37.109375
3603		44.921875
3604		41.015625
3605		46.875000
3606		44.921875
3607		50.781250
3608		48.828125
3609		54.687500
3610		52.734375
3611		58.593750
3612		54.687500
3613		60.546875
3614		58.593750
3615		64.453125
3616		62.500000
3617		68.359375
3618		66.406250
3619		70.312500
3620		68.359375
3621		74.218750
3622		70.312500
3623		76.171875
3624		76.171875
3625		80.078125
3626		78.125000
3627		83.984375
3628		82.031250
3629		85.937500
3630		83.984375
3631		89.843750
3632		85.937500
3633		91.796875
3634		89.843750
3635		95.703125
3636		91.796875
3637		97.656250
3638		93.750000
3639		99.609375
3640		97.656250
3641		101.562500
3642		99.609375
3643		105.468750
3644		101.562500
3645		107.421875
3646		105.468750
3647		109.375000
3648		107.421875
3649		111.328125
3650		109.375000
3651		113.281250
3652		111.328125
3653		115.234375
3654		113.281250
3655		117.187500
3656		115.234375
3657		119.140625
3658		117.187500
3659		121.093750
3660		119.140625
3661		125.000000
3662		121.093750
3663		125.000000
3664		123.046875
3665		126.953125
3666		125.000000
3667		128.906250
3668		125.000000
3669		130.859375
3670		126.953125
3671		132.812500
3672		128.906250
3673		132.812500
3674		130.859375
3675		134.765625
3676		130.859375
3677		134.765625
3678		132.812500
3679		136.718750
3680		132.812500
3681		136.718750
3682		134.765625
3683		138.671875
3684		134.765625
3685		138.671875
3686		136.718750
3687		140.625000
3688		136.718750
3689		140.625000
3690		136.718750
3691		140.625000
3692		138.671875
3693		142.578125
3694		138.671875
3695		142.578125
3696		138.671875
3697		142.578125
3698		140.625000
3699		142.578125
3700		138.671875
3701		142.578125
3702		140.625000
3703		142.578125
3704		140.625000
3705		144.531250
3706		140.625000
3707		144.531250
3708		140.625000
3709		144.531250
3710		140.625000
3711		144.531250
3712		140.625000
3713		142.578125
3714		140.625000
3715		142.578125
3716		138.671875
3717		144.531250
3718		138.671875
3719		142.578125
3720		138.671875
3721		142.578125
3722		138.671875
3723		142.578125
3724		136.718750
3725		140.625000
3726		136.718750
3727		140.625000
3728		134.765625
3729		138.671875
3730		134.765625
3731		138.671875
3732		132.812500
3733		136.718750
3734		132.812500
3735		136.718750
3736		130.859375
3737		134.765625
3738		130.859375
3739		134.765625
3740		128.906250
3741		134.765625
3742		126.953125
3743		130.859375
3744		126.953125
3745		130.859375
3746		125.000000
3747		128.906250
3748		123.046875
3749		126.953125
3750		121.093750
3751		125.000000
3752		119.140625
3753		123.046875
3754		117.187500
3755		121.093750
3756		115.234375
3757		119.140625
3758		113.281250
3759		119.140625
3760		111.328125
3761		115.234375
3762		107.421875
3763		113.281250
3764		107.421875
3765		111.328125
3766		103.515625
3767		109.375000
3768		101.562500
3769		107.421875
3770		99.609375
3771		103.515625
3772		97.656250
3773		101.562500
3774		93.750000
3775		99.609375
3776		91.796875
3777		95.703125
3778		87.890625
3779		93.750000
3780		85.937500
3781		89.843750
3782		82.031250
3783		87.890625
3784		80.078125
3785		83.984375
3786		76.171875
3787		82.031250
3788		74.218750
3789		78.125000
3790		70.312500
3791		76.171875
3792		66.406250
3793		72.265625
3794		64.453125
3795		70.312500
3796		60.546875
3797		66.406250
3798		56.640625
3799		62.500000
3800		52.734375
3801		58.593750
3802		48.828125
3803		56.640625
3804		46.875000
3805		52.734375
3806		42.968750
3807		48.828125
3808		39.062500
3809		44.921875
3810		35.156250
3811		41.015625
3812		31.250000
3813		37.109375
3814		27.343750
3815		33.203125
3816		23.437500
3817		29.296875
3818		19.531250
3819		25.390625
3820		17.578125
3821		23.437500
3822		13.671875
3823		17.578125
3824		9.765625
3825		15.625000
3826		5.859375
3827		9.765625
3828		1.953125
3829		7.812500
3830		-3.906250
3831		3.906250
3832		-7.812500
3833		0.000000
3834		-11.718750
3835		-3.906250
3836		-13.671875
3837		-9.765625
3838		-19.531250
3839		-13.671875
3840		-21.484375
3841		-15.625000
3842		-27.343750
3843		-21.484375
3844		-29.296875
3845		-23.437500
3846		-33.203125
3847		-27.343750
3848		-37.109375
3849		-33.203125
3850		-41.015625
3851		-35.156250
3852		-44.921875
3853		-39.062500
3854		-50.781250
3855		-42.968750
3856		-52.734375
3857		-46.875000
3858		-56.640625
3859		-50.781250
3860		-60.546875
3861		-54.687500
3862		-64.453125
3863		-58.593750
3864		-68.359375
3865		-62.500000
3866		-72.265625
3867		-66.406250
3868		-74.218750
3869		-70.312500
3870		-78.125000
3871		-72.265625
3872		-82.031250
3873		-76.171875
3874		-83.984375
3875		-80.078125
3876		-87.890625
3877		-82.031250
3878		-91.796875
3879		-85.937500
3880		-95.703125
3881		-89.843750
3882		-97.656250
3883		-91.796875
3884		-101.562500
3885		-95.703125
3886		-103.515625
3887		-97.656250
3888		-105.468750
3889		-101.562500
3890		-109.375000
3891		-103.515625
3892		-113.281250
3893		-107.421875
3894		-115.234375
3895		-109.375000
3896		-117.187500
3897		-111.328125
3898		-119.140625
3899		-115.234375
3900		-121.093750
3901		-117.187500
3902		-123.046875
3903		-119.140625
3904		-125.000000
3905		-121.093750
3906		-128.906250
3907		-123.046875
3908		-128.906250
3909		-125.000000
3910		-132.812500
3911		-126.953125
3912		-132.812500
3913		-128.906250
3914		-134.765625
3915		-130.859375
3916		-136.718750
3917		-132.812500
3918		-138.671875
3919		-134.765625
3920		-138.671875
3921		-136.718750
3922		-140.625000
3923		-136.718750
3924		-142.578125
3925		-138.671875
3926		-142.578125
3927		-138.671875
3928		-142.578125
3929		-140.625000
3930		-144.531250
3931		-140.625000
3932		-144.531250
3933		-142.578125
3934		-146.484375
3935		-142.578125
3936		-146.484375
3937		-142.578125
3938		-146.484375
3939		-142.578125
3940		-146.484375
3941		-142.578125
3942		-146.484375
3943		-142.578125
3944		-146.484375
3945		-142.578125
3946		-146.484375
3947		-142.578125
3948		-146.484375
3949		-142.578125
3950		-144.531250
3951		-142.578125
3952		-144.531250
3953		-140.625000
3954		-144.531250
3955		-140.625000
3956		-142.578125
3957		-140.625000
3958		-142.578125
3959		-138.671875
3960		-140.625000
3961		-138.671875
3962		-140.625000
3963		-136.718750
3964		-138.671875
3965		-134.765625
3966		-138.671875
3967		-132.812500
3968		-136.718750
3969		-132.812500
3970		-134.765625
3971		-130.859375
3972		-132.812500
3973		-128.906250
3974		-130.859375
3975		-126.953125
3976		-128.906250
3977		-125.000000
3978		-126.953125
3979		-123.046875
3980		-125.000000
3981		-119.140625
3982		-123.046875
3983		-117.187500
3984		-121.093750
3985		-115.234375
3986		-119.140625
3987		-113.281250
3988		-117.187500
3989		-111.328125
3990		-113.281250
3991		-107.421875
3992		-111.328125
3993		-105.468750
3994		-107.421875
3995		-103.515625
3996		-105.468750
3997		-99.609375
3998		-101.562500
3999		-97.656250
4000		-99.609375
4001		-93.750000
4002		-95.703125
4003		-89.843750
4004		-91.796875
4005		-87.890625
4006		-89.843750
4007		-83.984375
4008		-85.937500
4009		-80.078125
4010		-82.031250
4011		-78.125000
4012		-80.078125
4013		-74.218750
4014		-76.171875
4015		-70.312500
4016		-72.265625
4017		-66.406250
4018		-68.359375
4019		-62.500000
4020		-64.453125
4021		-58.593750
4022		-60.546875
4023		-54.687500
4024		-56.640625
4025		-52.734375
4026		-54.687500
4027		-46.875000
4028		-50.781250
4029		-44.921875
4030		-46.875000
4031		-41.015625
4032		-42.968750
4033		-37.109375
4034		-39.062500
4035		-33.203125
4036		-35.156250
4037		-29.296875
4038		-31.250000
4039		-25.390625
4040		-27.343750
4041		-21.484375
4042		-23.437500
4043		-15.625000
4044		-19.531250
4045		-13.671875
4046		-15.625000
4047		-7.812500
4048		-11.718750
4049		-5.859375
4050		-7.812500
4051		0.000000
4052		-1.953125
4053		3.906250
4054		0.000000
4055		5.859375
4056		3.906250
4057		9.765625
4058		7.812500
4059		13.671875
4060		13.671875
4061		17.578125
4062		15.625000
4063		21.484375
4064		19.531250
4065		27.343750
4066		23.437500
4067		29.296875
4068		27.343750
4069		33.203125
4070		31.250000
4071		37.109375
4072		33.203125
4073		41.015625
4074		39.062500
4075		44.921875
4076		41.015625
4077		48.828125
4078		44.921875
4079		50.781250
4080		48.828125
4081		54.687500
4082		52.734375
4083		58.593750
4084		56.640625
4085		60.546875
4086		58.593750
4087		64.453125
4088		62.500000
4089		68.359375
4090		66.406250
4091		70.312500
4092		68.359375
4093		74.218750
4094		72.265625
4095		78.125000
4096		76.171875
4097		80.078125
4098		78.125000
4099		83.984375
4100		82.031250
4101		85.937500
4102		83.984375
4103		87.890625
4104		85.937500
4105		91.796875
4106		89.843750
4107		93.750000
4108		91.796875
4109		97.656250
4110		95.703125
4111		99.609375
4112		97.656250
4113		101.562500
4114		99.609375
4115		105.468750
4116		101.562500
4117		107.421875
4118		105.468750
4119		109.375000
4120		107.421875
4121		111.328125
4122		109.375000
4123		113.281250
4124		111.328125
4125		115.234375
4126		113.281250
4127		117.187500
4128		115.234375
4129		119.140625
4130		117.187500
4131		121.093750
4132		119.140625
4133		123.046875
4134		121.093750
4135		125.000000
4136		123.046875
4137		126.953125
4138		123.046875
4139		126.953125
4140		125.000000
4141		128.906250
4142		126.953125
4143		130.859375
4144		128.906250
4145		132.812500
4146		128.906250
4147		132.812500
4148		130.859375
4149		134.765625
4150		132.812500
4151		134.765625
4152		132.812500
4153		136.718750
4154		132.812500
4155		136.718750
4156		134.765625
4157		138.671875
4158		134.765625
4159		138.671875
4160		134.765625
4161		140.625000
4162		136.718750
4163		140.625000
4164		136.718750
4165		140.625000
4166		136.718750
4167		140.625000
4168		138.671875
4169		140.625000
4170		138.671875
4171		142.578125
4172		138.671875
4173		142.578125
4174		138.671875
4175		142.578125
4176		138.671875
4177		142.578125
4178		138.671875
4179		142.578125
4180		138.671875
4181		142.578125
4182		138.671875
4183		142.578125
4184		138.671875
4185		142.578125
4186		138.671875
4187		142.578125
4188		138.671875
4189		142.578125
4190		136.718750
4191		140.625000
4192		136.718750
4193		140.625000
4194		136.718750
4195		140.625000
4196		136.718750
4197		138.671875
4198		134.765625
4199		138.671875
4200		134.765625
4201		136.718750
4202		132.812500
4203		136.718750
4204		130.859375
4205		134.765625
4206		130.859375
4207		134.765625
4208		130.859375
4209		132.812500
4210		128.906250
4211		132.812500
4212		126.953125
4213		130.859375
4214		125.000000
4215		128.906250
4216		125.000000
4217		128.906250
4218		123.046875
4219		126.953125
4220		121.093750
4221		125.000000
4222		119.140625
4223		123.046875
4224		117.187500
4225		121.093750
4226		115.234375
4227		119.140625
4228		113.281250
4229		117.187500
4230		111.328125
4231		115.234375
4232		109.375000
4233		113.281250
4234		107.421875
4235		111.328125
4236		105.468750
4237		109.375000
4238		101.562500
4239		107.421875
4240		99.609375
4241		103.515625
4242		95.703125
4243		101.562500
4244		93.750000
4245		99.609375
4246		91.796875
4247		95.703125
4248		87.890625
4249		95.703125
4250		85.937500
4251		91.796875
4252		83.984375
4253		87.890625
4254		80.078125
4255		85.937500
4256		76.171875
4257		82.031250
4258		74.218750
4259		80.078125
4260		70.312500
4261		76.171875
4262		66.406250
4263		72.265625
4264		64.453125
4265		70.312500
4266		60.546875
4267		66.406250
4268		56.640625
4269		62.500000
4270		52.734375
4271		58.593750
4272		50.781250
4273		56.640625
4274		44.921875
4275		52.734375
4276		42.968750
4277		48.828125
4278		39.062500
4279		44.921875
4280		35.156250
4281		42.968750
4282		31.250000
4283		37.109375
4284		27.343750
4285		33.203125
4286		25.390625
4287		31.250000
4288		21.484375
4289		27.343750
4290		17.578125
4291		23.437500
4292		13.671875
4293		19.531250
4294		9.765625
4295		15.625000
4296		5.859375
4297		11.718750
4298		1.953125
4299		7.812500
4300		-1.953125
4301		3.906250
4302		-5.859375
4303		0.000000
4304		-9.765625
4305		-3.906250
4306		-13.671875
4307		-7.812500
4308		-17.578125
4309		-11.718750
4310		-21.484375
4311		-15.625000
4312		-27.343750
4313		-19.531250
4314		-29.296875
4315		-23.437500
4316		-35.156250
4317		-27.343750
4318		-39.062500
4319		-31.250000
4320		-41.015625
4321		-35.156250
4322		-44.921875
4323		-39.062500
4324		-50.781250
4325		-42.968750
4326		-52.734375
4327		-46.875000
4328		-56.640625
4329		-50.781250
4330		-60.546875
4331		-54.687500
4332		-64.453125
4333		-58.593750
4334		-72.265625
4335		-60.546875
4336		-72.265625
4337		-66.406250
4338		-76.171875
4339		-68.359375
4340		-78.125000
4341		-72.265625
4342		-82.031250
4343		-76.171875
4344		-85.937500
4345		-80.078125
4346		-89.843750
4347		-82.031250
4348		-91.796875
4349		-85.937500
4350		-95.703125
4351		-87.890625
4352		-97.656250
4353		-91.796875
4354		-101.562500
4355		-95.703125
4356		-103.515625
4357		-97.656250
4358		-107.421875
4359		-101.562500
4360		-109.375000
4361		-103.515625
4362		-113.281250
4363		-107.421875
4364		-115.234375
4365		-109.375000
4366		-119.140625
4367		-111.328125
4368		-119.140625
4369		-115.234375
4370		-123.046875
4371		-117.187500
4372		-125.000000
4373		-119.140625
4374		-126.953125
4375		-121.093750
4376		-130.859375
4377		-123.046875
4378		-130.859375
4379		-125.000000
4380		-132.812500
4381		-126.953125
4382		-134.765625
4383		-128.906250
4384		-136.718750
4385		-130.859375
4386		-136.718750
4387		-132.812500
4388		-138.671875
4389		-134.765625
4390		-140.625000
4391		-136.718750
4392		-142.578125
4393		-136.718750
4394		-144.531250
4395		-138.671875
4396		-144.531250
4397		-138.671875
4398		-146.484375
4399		-140.625000
4400		-146.484375
4401		-140.625000
4402		-146.484375
4403		-142.578125
4404		-146.484375
4405		-144.531250
4406		-148.437500
4407		-144.531250
4408		-148.437500
4409		-144.531250
4410		-148.437500
4411		-144.531250
4412		-148.437500
4413		-144.531250
4414		-148.437500
4415		-144.531250
4416		-148.437500
4417		-144.531250
4418		-148.437500
4419		-144.531250
4420		-148.437500
4421		-144.531250
4422		-146.484375
4423		-142.578125
4424		-146.484375
4425		-142.578125
4426		-146.484375
4427		-142.578125
4428		-146.484375
4429		-142.578125
4430		-144.531250
4431		-140.625000
4432		-142.578125
4433		-138.671875
4434		-142.578125
4435		-136.718750
4436		-140.625000
4437		-136.718750
4438		-138.671875
4439		-134.765625
4440		-136.718750
4441		-134.765625
4442		-136.718750
4443		-132.812500
4444		-134.765625
4445		-130.859375
4446		-132.812500
4447		-128.906250
4448		-130.859375
4449		-126.953125
4450		-128.906250
4451		-125.000000
4452		-126.953125
4453		-123.046875
4454		-123.046875
4455		-119.140625
4456		-121.093750
4457		-117.187500
4458		-119.140625
4459		-115.234375
4460		-117.187500
4461		-111.328125
4462		-113.281250
4463		-109.375000
4464		-111.328125
4465		-107.421875
4466		-109.375000
4467		-103.515625
4468		-105.468750
4469		-99.609375
4470		-103.515625
4471		-97.656250
4472		-99.609375
4473		-93.750000
4474		-95.703125
4475		-91.796875
4476		-93.750000
4477		-87.890625
4478		-89.843750
4479		-83.984375
4480		-87.890625
4481		-82.031250
4482		-83.984375
4483		-78.125000
4484		-80.078125
4485		-74.218750
4486		-76.171875
4487		-70.312500
4488		-72.265625
4489		-66.406250
4490		-68.359375
4491		-64.453125
4492		-64.453125
4493		-58.593750
4494		-62.500000
4495		-56.640625
4496		-58.593750
4497		-52.734375
4498		-54.687500
4499		-48.828125
4500		-50.781250
4501		-44.921875
4502		-46.875000
4503		-41.015625
4504		-42.968750
4505		-37.109375
4506		-39.062500
4507		-31.250000
4508		-37.109375
4509		-25.390625
4510		-33.203125
4511		-21.484375
4512		-29.296875
4513		-21.484375
4514		-23.437500
4515		-15.625000
4516		-19.531250
4517		-13.671875
4518		-15.625000
4519		-9.765625
4520		-11.718750
4521		-5.859375
4522		-7.812500
4523		-1.953125
4524		-3.906250
4525		3.906250
4526		-1.953125
4527		9.765625
4528		1.953125
4529		13.671875
4530		7.812500
4531		13.671875
4532		11.718750
4533		17.578125
4534		15.625000
4535		21.484375
4536		19.531250
4537		25.390625
4538		23.437500
4539		29.296875
4540		27.343750
4541		35.156250
4542		29.296875
4543		39.062500
4544		31.250000
4545		42.968750
4546		35.156250
4547		44.921875
4548		41.015625
4549		46.875000
4550		44.921875
4551		50.781250
4552		48.828125
4553		54.687500
4554		52.734375
4555		56.640625
4556		56.640625
4557		60.546875
4558		56.640625
4559		66.406250
4560		58.593750
4561		70.312500
4562		62.500000
4563		72.265625
4564		68.359375
4565		74.218750
4566		72.265625
4567		76.171875
4568		74.218750
4569		80.078125
4570		78.125000
4571		82.031250
4572		80.078125
4573		85.937500
4574		82.031250
4575		91.796875
4576		83.984375
4577		93.750000
4578		85.937500
4579		97.656250
4580		91.796875
4581		95.703125
4582		93.750000
4583		99.609375
4584		97.656250
4585		101.562500
4586		99.609375
4587		103.515625
4588		101.562500
4589		105.468750
4590		103.515625
4591		111.328125
4592		103.515625
4593		113.281250
4594		105.468750
4595		115.234375
4596		107.421875
4597		115.234375
4598		113.281250
4599		117.187500
4600		115.234375
4601		119.140625
4602		117.187500
4603		121.093750
4604		117.187500
4605		123.046875
4606		119.140625
4607		123.046875
4608		119.140625
4609		128.906250
4610		121.093750
4611		130.859375
4612		123.046875
4613		130.859375
4614		126.953125
4615		130.859375
4616		126.953125
4617		130.859375
4618		128.906250
4619		132.812500
4620		130.859375
4621		132.812500
4622		130.859375
4623		134.765625
4624		130.859375
4625		138.671875
4626		130.859375
4627		138.671875
4628		130.859375
4629		140.625000
4630		132.812500
4631		140.625000
4632		134.765625
4633		138.671875
4634		136.718750
4635		138.671875
4636		136.718750
4637		140.625000
4638		136.718750
4639		140.625000
4640		136.718750
4641		140.625000
4642		134.765625
4643		144.531250
4644		134.765625
4645		144.531250
4646		134.765625
4647		144.531250
4648		136.718750
4649		142.578125
4650		138.671875
4651		140.625000
4652		138.671875
4653		140.625000
4654		136.718750
4655		140.625000
4656		136.718750
4657		140.625000
4658		134.765625
4659		142.578125
4660		134.765625
4661		142.578125
4662		132.812500
4663		142.578125
4664		134.765625
4665		140.625000
4666		134.765625
4667		138.671875
4668		134.765625
4669		136.718750
4670		132.812500
4671		136.718750
4672		132.812500
4673		134.765625
4674		130.859375
4675		134.765625
4676		128.906250
4677		136.718750
4678		125.000000
4679		136.718750
4680		125.000000
4681		134.765625
4682		126.953125
4683		130.859375
4684		125.000000
4685		128.906250
4686		123.046875
4687		126.953125
4688		123.046875
4689		126.953125
4690		121.093750
4691		125.000000
4692		119.140625
4693		123.046875
4694		115.234375
4695		123.046875
4696		115.234375
4697		119.140625
4698		113.281250
4699		117.187500
4700		111.328125
4701		115.234375
4702		109.375000
4703		113.281250
4704		107.421875
4705		111.328125
4706		105.468750
4707		109.375000
4708		101.562500
4709		107.421875
4710		95.703125
4711		105.468750
4712		93.750000
4713		103.515625
4714		93.750000
4715		99.609375
4716		91.796875
4717		95.703125
4718		89.843750
4719		93.750000
4720		85.937500
4721		89.843750
4722		82.031250
4723		87.890625
4724		80.078125
4725		85.937500
4726		76.171875
4727		82.031250
4728		74.218750
4729		80.078125
4730		70.312500
4731		78.125000
4732		68.359375
4733		72.265625
4734		64.453125
4735		70.312500
4736		60.546875
4737		66.406250
4738		56.640625
4739		62.500000
4740		54.687500
4741		60.546875
4742		50.781250
4743		56.640625
4744		46.875000
4745		52.734375
4746		42.968750
4747		48.828125
4748		39.062500
4749		44.921875
4750		35.156250
4751		41.015625
4752		33.203125
4753		39.062500
4754		29.296875
4755		35.156250
4756		25.390625
4757		31.250000
4758		21.484375
4759		27.343750
4760		17.578125
4761		23.437500
4762		13.671875
4763		19.531250
4764		9.765625
4765		15.625000
4766		5.859375
4767		11.718750
4768		1.953125
4769		7.812500
4770		-1.953125
4771		3.906250
4772		-5.859375
4773		0.000000
4774		-9.765625
4775		-3.906250
4776		-13.671875
4777		-7.812500
4778		-17.578125
4779		-11.718750
4780		-21.484375
4781		-15.625000
4782		-25.390625
4783		-19.531250
4784		-29.296875
4785		-23.437500
4786		-33.203125
4787		-27.343750
4788		-37.109375
4789		-31.250000
4790		-41.015625
4791		-35.156250
4792		-44.921875
4793		-39.062500
4794		-48.828125
4795		-42.968750
4796		-52.734375
4797		-46.875000
4798		-56.640625
4799		-50.781250
4800		-60.546875
4801		-52.734375
4802		-62.500000
4803		-58.593750
4804		-68.359375
4805		-60.546875
4806		-70.312500
4807		-64.453125
4808		-74.218750
4809		-68.359375
4810		-78.125000
4811		-70.312500
4812		-82.031250
4813		-76.171875
4814		-83.984375
4815		-80.078125
4816		-87.890625
4817		-82.031250
4818		-91.796875
4819		-85.937500
4820		-93.750000
4821		-89.843750
4822		-97.656250
4823		-93.750000
4824		-101.562500
4825		-95.703125
4826		-103.515625
4827		-97.656250
4828		-105.468750
4829		-101.562500
4830		-109.375000
4831		-105.468750
4832		-113.281250
4833		-107.421875
4834		-115.234375
4835		-109.375000
4836		-117.187500
4837		-113.281250
4838		-119.140625
4839		-115.234375
4840		-123.046875
4841		-117.187500
4842		-125.000000
4843		-121.093750
4844		-126.953125
4845		-123.046875
4846		-128.906250
4847		-125.000000
4848		-130.859375
4849		-126.953125
4850		-132.812500
4851		-128.906250
4852		-134.765625
4853		-130.859375
4854		-136.718750
4855		-132.812500
4856		-138.671875
4857		-134.765625
4858		-140.625000
4859		-136.718750
4860		-142.578125
4861		-136.718750
4862		-142.578125
4863		-138.671875
4864		-144.531250
4865		-140.625000
4866		-146.484375
4867		-140.625000
4868		-146.484375
4869		-142.578125
4870		-146.484375
4871		-142.578125
4872		-148.437500
4873		-144.531250
4874		-148.437500
4875		-144.531250
4876		-148.437500
4877		-144.531250
4878		-150.390625
4879		-146.484375
4880		-148.437500
4881		-146.484375
4882		-150.390625
4883		-146.484375
4884		-150.390625
4885		-146.484375
4886		-150.390625
4887		-146.484375
4888		-150.390625
4889		-146.484375
4890		-148.437500
4891		-146.484375
4892		-148.437500
4893		-146.484375
4894		-150.390625
4895		-144.531250
4896		-148.437500
4897		-144.531250
4898		-146.484375
4899		-144.531250
4900		-146.484375
4901		-142.578125
4902		-144.531250
4903		-140.625000
4904		-144.531250
4905		-140.625000
4906		-142.578125
4907		-138.671875
4908		-142.578125
4909		-138.671875
4910		-140.625000
4911		-134.765625
4912		-138.671875
4913		-134.765625
4914		-136.718750
4915		-132.812500
4916		-134.765625
4917		-130.859375
4918		-132.812500
4919		-128.906250
4920		-130.859375
4921		-126.953125
4922		-128.906250
4923		-125.000000
4924		-126.953125
4925		-123.046875
4926		-125.000000
4927		-119.140625
4928		-123.046875
4929		-117.187500
4930		-119.140625
4931		-115.234375
4932		-117.187500
4933		-113.281250
4934		-115.234375
4935		-109.375000
4936		-111.328125
4937		-107.421875
4938		-109.375000
4939		-103.515625
4940		-105.468750
4941		-101.562500
4942		-103.515625
4943		-97.656250
4944		-99.609375
4945		-93.750000
4946		-95.703125
4947		-91.796875
4948		-93.750000
4949		-87.890625
4950		-89.843750
4951		-83.984375
4952		-87.890625
4953		-82.031250
4954		-83.984375
4955		-78.125000
4956		-80.078125
4957		-74.218750
4958		-76.171875
4959		-70.312500
4960		-72.265625
4961		-66.406250
4962		-70.312500
4963		-62.500000
4964		-64.453125
4965		-58.593750
4966		-60.546875
4967		-56.640625
4968		-58.593750
4969		-50.781250
4970		-54.687500
4971		-48.828125
4972		-48.828125
4973		-44.921875
4974		-46.875000
4975		-41.015625
4976		-42.968750
4977		-37.109375
4978		-39.062500
4979		-33.203125
4980		-35.156250
4981		-27.343750
4982		-31.250000
4983		-23.437500
4984		-25.390625
4985		-21.484375
4986		-23.437500
4987		-15.625000
4988		-19.531250
4989		-11.718750
4990		-15.625000
4991		-7.812500
4992		-11.718750
4993		-3.906250
4994		-5.859375
4995		0.000000
4996		-1.953125
4997		1.953125
4998		1.953125
4999		7.812500
5000		5.859375
5001		11.718750
5002		9.765625
5003		13.671875
5004		13.671875
5005		17.578125
5006		17.578125
5007		21.484375
5008		19.531250
5009		25.390625
5010		23.437500
5011		29.296875
5012		27.343750
5013		33.203125
5014		31.250000
5015		37.109375
5016		35.156250
5017		41.015625
5018		39.062500
5019		44.921875
5020		42.968750
5021		46.875000
5022		46.875000
5023		50.781250
5024		48.828125
5025		54.687500
5026		52.734375
5027		58.593750
5028		56.640625
5029		60.546875
5030		58.593750
5031		64.453125
5032		62.500000
5033		68.359375
5034		66.406250
5035		72.265625
5036		70.312500
5037		74.218750
5038		72.265625
5039		78.125000
5040		76.171875
5041		80.078125
5042		78.125000
5043		83.984375
5044		80.078125
5045		85.937500
5046		83.984375
5047		89.843750
5048		85.937500
5049		91.796875
5050		89.843750
5051		93.750000
5052		91.796875
5053		97.656250
5054		95.703125
5055		99.609375
5056		97.656250
5057		101.562500
5058		99.609375
5059		103.515625
5060		101.562500
5061		107.421875
5062		105.468750
5063		109.375000
5064		107.421875
5065		111.328125
5066		109.375000
5067		113.281250
5068		111.328125
5069		115.234375
5070		113.281250
5071		117.187500
5072		115.234375
5073		119.140625
5074		117.187500
5075		121.093750
5076		119.140625
5077		123.046875
5078		119.140625
5079		123.046875
5080		121.093750
5081		125.000000
5082		123.046875
5083		126.953125
5084		125.000000
5085		128.906250
5086		126.953125
5087		130.859375
5088		126.953125
5089		130.859375
5090		128.906250
5091		132.812500
5092		128.906250
5093		132.812500
5094		130.859375
5095		136.718750
5096		130.859375
5097		134.765625
5098		132.812500
5099		136.718750
5100		134.765625
5101		136.718750
5102		134.765625
5103		138.671875
5104		134.765625
5105		138.671875
5106		134.765625
5107		138.671875
5108		136.718750
5109		138.671875
5110		136.718750
5111		140.625000
5112		136.718750
5113		140.625000
5114		136.718750
5115		140.625000
5116		136.718750
5117		140.625000
5118		138.671875
5119		140.625000
5120		138.671875
5121		140.625000
5122		138.671875
5123		140.625000
5124		138.671875
5125		140.625000
5126		136.718750
5127		140.625000
5128		136.718750
5129		140.625000
5130		136.718750
5131		140.625000
5132		136.718750
5133		138.671875
5134		134.765625
5135		138.671875
5136		134.765625
5137		138.671875
5138		134.765625
5139		138.671875
5140		134.765625
5141		136.718750
5142		132.812500
5143		136.718750
5144		130.859375
5145		134.765625
5146		128.906250
5147		134.765625
5148		128.906250
5149		134.765625
5150		128.906250
5151		132.812500
5152		126.953125
5153		130.859375
5154		125.000000
5155		128.906250
5156		125.000000
5157		128.906250
5158		123.046875
5159		126.953125
5160		121.093750
5161		125.000000
5162		119.140625
5163		125.000000
5164		117.187500
5165		123.046875
5166		115.234375
5167		119.140625
5168		113.281250
5169		117.187500
5170		111.328125
5171		117.187500
5172		109.375000
5173		113.281250
5174		107.421875
5175		111.328125
5176		105.468750
5177		109.375000
5178		103.515625
5179		107.421875
5180		99.609375
5181		105.468750
5182		97.656250
5183		103.515625
5184		95.703125
5185		99.609375
5186		93.750000
5187		97.656250
5188		89.843750
5189		95.703125
5190		87.890625
5191		91.796875
5192		83.984375
5193		89.843750
5194		82.031250
5195		85.937500
5196		76.171875
5197		83.984375
5198		76.171875
5199		82.031250
5200		72.265625
5201		78.125000
5202		70.312500
5203		74.218750
5204		66.406250
5205		72.265625
5206		62.500000
5207		68.359375
5208		58.593750
5209		66.406250
5210		56.640625
5211		62.500000
5212		50.781250
5213		58.593750
5214		46.875000
5215		56.640625
5216		44.921875
5217		52.734375
5218		42.968750
5219		46.875000
5220		39.062500
5221		44.921875
5222		35.156250
5223		41.015625
5224		31.250000
5225		37.109375
5226		27.343750
5227		33.203125
5228		23.437500
5229		29.296875
5230		19.531250
5231		25.390625
5232		15.625000
5233		21.484375
5234		11.718750
5235		17.578125
5236		7.812500
5237		13.671875
5238		3.906250
5239		9.765625
5240		0.000000
5241		5.859375
5242		-3.906250
5243		1.953125
5244		-7.812500
5245		-1.953125
5246		-11.718750
5247		-5.859375
5248		-15.625000
5249		-7.812500
5250		-19.531250
5251		-13.671875
5252		-23.437500
5253		-17.578125
5254		-27.343750
5255		-21.484375
5256		-31.250000
5257		-25.390625
5258		-35.156250
5259		-29.296875
5260		-39.062500
5261		-33.203125
5262		-42.968750
5263		-37.109375
5264		-46.875000
5265		-39.062500
5266		-50.781250
5267		-42.968750
5268		-54.687500
5269		-48.828125
5270		-58.593750
5271		-52.734375
5272		-60.546875
5273		-56.640625
5274		-64.453125
5275		-58.593750
5276		-68.359375
5277		-62.500000
5278		-72.265625
5279		-66.406250
5280		-78.125000
5281		-70.312500
5282		-80.078125
5283		-74.218750
5284		-82.031250
5285		-78.125000
5286		-85.937500
5287		-80.078125
5288		-89.843750
5289		-83.984375
5290		-91.796875
5291		-87.890625
5292		-95.703125
5293		-89.843750
5294		-99.609375
5295		-93.750000
5296		-103.515625
5297		-97.656250
5298		-105.468750
5299		-99.609375
5300		-107.421875
5301		-101.562500
5302		-111.328125
5303		-105.468750
5304		-113.281250
5305		-109.375000
5306		-117.187500
5307		-111.328125
5308		-119.140625
5309		-113.281250
5310		-121.093750
5311		-117.187500
5312		-123.046875
5313		-119.140625
5314		-126.953125
5315		-121.093750
5316		-128.906250
5317		-123.046875
5318		-130.859375
5319		-126.953125
5320		-132.812500
5321		-128.906250
5322		-134.765625
5323		-130.859375
5324		-136.718750
5325		-132.812500
5326		-138.671875
5327		-134.765625
5328		-138.671875
5329		-134.765625
5330		-142.578125
5331		-136.718750
5332		-142.578125
5333		-138.671875
5334		-142.578125
5335		-140.625000
5336		-144.531250
5337		-140.625000
5338		-146.484375
5339		-142.578125
5340		-146.484375
5341		-142.578125
5342		-148.437500
5343		-144.531250
5344		-148.437500
5345		-144.531250
5346		-148.437500
5347		-146.484375
5348		-150.390625
5349		-144.531250
5350		-150.390625
5351		-146.484375
5352		-150.390625
5353		-146.484375
5354		-150.390625
5355		-146.484375
5356		-150.390625
5357		-146.484375
5358		-150.390625
5359		-146.484375
5360		-148.437500
5361		-146.484375
5362		-148.437500
5363		-146.484375
5364		-148.437500
5365		-146.484375
5366		-148.437500
5367		-144.531250
5368		-148.437500
5369		-144.531250
5370		-146.484375
5371		-142.578125
5372		-146.484375
5373		-142.578125
5374		-144.531250
5375		-140.625000
5376		-144.531250
5377		-140.625000
5378		-142.578125
5379		-138.671875
5380		-140.625000
5381		-136.718750
5382		-138.671875
5383		-136.718750
5384		-138.671875
5385		-134.765625
5386		-136.718750
5387		-132.812500
5388		-136.718750
5389		-130.859375
5390		-132.812500
5391		-128.906250
5392		-130.859375
5393		-126.953125
5394		-126.953125
5395		-123.046875
5396		-126.953125
5397		-121.093750
5398		-123.046875
5399		-119.140625
5400		-121.093750
5401		-117.187500
5402		-119.140625
5403		-113.281250
5404		-115.234375
5405		-111.328125
5406		-113.281250
5407		-109.375000
5408		-111.328125
5409		-105.468750
5410		-107.421875
5411		-101.562500
5412		-105.468750
5413		-99.609375
5414		-101.562500
5415		-95.703125
5416		-97.656250
5417		-93.750000
5418		-95.703125
5419		-89.843750
5420		-91.796875
5421		-85.937500
5422		-87.890625
5423		-83.984375
5424		-85.937500
5425		-80.078125
5426		-82.031250
5427		-76.171875
5428		-78.125000
5429		-72.265625
5430		-74.218750
5431		-68.359375
5432		-70.312500
5433		-66.406250
5434		-66.406250
5435		-60.546875
5436		-62.500000
5437		-58.593750
5438		-60.546875
5439		-54.687500
5440		-56.640625
5441		-50.781250
5442		-52.734375
5443		-46.875000
5444		-48.828125
5445		-42.968750
5446		-44.921875
5447		-39.062500
5448		-41.015625
5449		-35.156250
5450		-37.109375
5451		-31.250000
5452		-33.203125
5453		-27.343750
5454		-29.296875
5455		-23.437500
5456		-25.390625
5457		-19.531250
5458		-21.484375
5459		-15.625000
5460		-17.578125
5461		-11.718750
5462		-13.671875
5463		-7.812500
5464		-9.765625
5465		-1.953125
5466		-5.859375
5467		0.000000
5468		-1.953125
5469		3.906250
5470		1.953125
5471		7.812500
5472		5.859375
5473		11.718750
5474		9.765625
5475		17.578125
5476		13.671875
5477		19.531250
5478		17.578125
5479		23.437500
5480		21.484375
5481		27.343750
5482		25.390625
5483		31.250000
5484		29.296875
5485		35.156250
5486		33.203125
5487		39.062500
5488		37.109375
5489		42.968750
5490		41.015625
5491		46.875000
5492		42.968750
5493		48.828125
5494		46.875000
5495		52.734375
5496		50.781250
5497		56.640625
5498		54.687500
5499		58.593750
5500		58.593750
5501		62.500000
5502		60.546875
5503		66.406250
5504		64.453125
5505		68.359375
5506		66.406250
5507		72.265625
5508		70.312500
5509		76.171875
5510		72.265625
5511		78.125000
5512		76.171875
5513		82.031250
5514		80.078125
5515		83.984375
5516		82.031250
5517		87.890625
5518		83.984375
5519		89.843750
5520		87.890625
5521		91.796875
5522		89.843750
5523		95.703125
5524		93.750000
5525		97.656250
5526		95.703125
5527		99.609375
5528		97.656250
5529		103.515625
5530		99.609375
5531		105.468750
5532		103.515625
5533		107.421875
5534		105.468750
5535		109.375000
5536		107.421875
5537		111.328125
5538		109.375000
5539		113.281250
5540		111.328125
5541		115.234375
5542		111.328125
5543		117.187500
5544		115.234375
5545		119.140625
5546		117.187500
5547		121.093750
5548		119.140625
5549		123.046875
5550		121.093750
5551		125.000000
5552		123.046875
5553		126.953125
5554		123.046875
5555		126.953125
5556		125.000000
5557		128.906250
5558		126.953125
5559		130.859375
5560		126.953125
5561		130.859375
5562		128.906250
5563		132.812500
5564		128.906250
5565		132.812500
5566		130.859375
5567		134.765625
5568		130.859375
5569		134.765625
5570		132.812500
5571		136.718750
5572		132.812500
5573		136.718750
5574		134.765625
5575		136.718750
5576		134.765625
5577		138.671875
5578		134.765625
5579		138.671875
5580		136.718750
5581		138.671875
5582		136.718750
5583		138.671875
5584		136.718750
5585		140.625000
5586		136.718750
5587		138.671875
5588		136.718750
5589		140.625000
5590		136.718750
5591		140.625000
5592		136.718750
5593		140.625000
5594		136.718750
5595		140.625000
5596		136.718750
5597		140.625000
5598		136.718750
5599		140.625000
5600		136.718750
5601		138.671875
5602		134.765625
5603		138.671875
5604		134.765625
5605		138.671875
5606		134.765625
5607		138.671875
5608		134.765625
5609		138.671875
5610		132.812500
5611		136.718750
5612		132.812500
5613		136.718750
5614		132.812500
5615		134.765625
5616		130.859375
5617		134.765625
5618		128.906250
5619		132.812500
5620		128.906250
5621		132.812500
5622		126.953125
5623		130.859375
5624		126.953125
5625		130.859375
5626		125.000000
5627		128.906250
5628		123.046875
5629		126.953125
5630		121.093750
5631		125.000000
5632		121.093750
5633		123.046875
5634		119.140625
5635		123.046875
5636		117.187500
5637		121.093750
5638		115.234375
5639		119.140625
5640		113.281250
5641		117.187500
5642		111.328125
5643		115.234375
5644		109.375000
5645		113.281250
5646		105.468750
5647		111.328125
5648		103.515625
5649		109.375000
5650		101.562500
5651		105.468750
5652		99.609375
5653		103.515625
5654		97.656250
5655		101.562500
5656		93.750000
5657		99.609375
5658		91.796875
5659		95.703125
5660		87.890625
5661		93.750000
5662		85.937500
5663		91.796875
5664		83.984375
5665		87.890625
5666		80.078125
5667		85.937500
5668		78.125000
5669		82.031250
5670		74.218750
5671		80.078125
5672		72.265625
5673		76.171875
5674		68.359375
5675		72.265625
5676		64.453125
5677		70.312500
5678		60.546875
5679		66.406250
5680		58.593750
5681		62.500000
5682		54.687500
5683		60.546875
5684		50.781250
5685		56.640625
5686		46.875000
5687		52.734375
5688		42.968750
5689		48.828125
5690		41.015625
5691		46.875000
5692		37.109375
5693		42.968750
5694		33.203125
5695		39.062500
5696		29.296875
5697		35.156250
5698		25.390625
5699		31.250000
5700		21.484375
5701		27.343750
5702		17.578125
5703		23.437500
5704		13.671875
5705		19.531250
5706		9.765625
5707		15.625000
5708		5.859375
5709		11.718750
5710		1.953125
5711		7.812500
5712		-1.953125
5713		3.906250
5714		-5.859375
5715		0.000000
5716		-9.765625
5717		-3.906250
5718		-13.671875
5719		-7.812500
5720		-17.578125
5721		-11.718750
5722		-21.484375
5723		-15.625000
5724		-25.390625
5725		-19.531250
5726		-29.296875
5727		-23.437500
5728		-33.203125
5729		-27.343750
5730		-37.109375
5731		-31.250000
5732		-41.015625
5733		-35.156250
5734		-44.921875
5735		-39.062500
5736		-46.875000
5737		-42.968750
5738		-52.734375
5739		-46.875000
5740		-54.687500
5741		-48.828125
5742		-58.593750
5743		-52.734375
5744		-62.500000
5745		-56.640625
5746		-66.406250
5747		-60.546875
5748		-70.312500
5749		-64.453125
5750		-74.218750
5751		-68.359375
5752		-78.125000
5753		-72.265625
5754		-80.078125
5755		-76.171875
5756		-83.984375
5757		-78.125000
5758		-87.890625
5759		-82.031250
5760		-89.843750
5761		-83.984375
5762		-93.750000
5763		-87.890625
5764		-97.656250
5765		-91.796875
5766		-99.609375
5767		-95.703125
5768		-103.515625
5769		-97.656250
5770		-105.468750
5771		-99.609375
5772		-109.375000
5773		-103.515625
5774		-111.328125
5775		-105.468750
5776		-113.281250
5777		-109.375000
5778		-117.187500
5779		-111.328125
5780		-119.140625
5781		-115.234375
5782		-121.093750
5783		-117.187500
5784		-123.046875
5785		-119.140625
5786		-126.953125
5787		-121.093750
5788		-128.906250
5789		-125.000000
5790		-130.859375
5791		-126.953125
5792		-132.812500
5793		-128.906250
5794		-134.765625
5795		-130.859375
5796		-136.718750
5797		-132.812500
5798		-138.671875
5799		-134.765625
5800		-138.671875
5801		-134.765625
5802		-140.625000
5803		-136.718750
5804		-142.578125
5805		-138.671875
5806		-142.578125
5807		-138.671875
5808		-144.531250
5809		-140.625000
5810		-144.531250
5811		-142.578125
5812		-146.484375
5813		-142.578125
5814		-146.484375
5815		-144.531250
5816		-148.437500
5817		-144.531250
5818		-148.437500
5819		-144.531250
5820		-148.437500
5821		-144.531250
5822		-148.437500
5823		-146.484375
5824		-148.437500
5825		-146.484375
5826		-148.437500
5827		-146.484375
5828		-148.437500
5829		-146.484375
5830		-148.437500
5831		-146.484375
5832		-148.437500
5833		-146.484375
5834		-148.437500
5835		-144.531250
5836		-148.437500
5837		-144.531250
5838		-146.484375
5839		-144.531250
5840		-146.484375
5841		-142.578125
5842		-146.484375
5843		-142.578125
5844		-144.531250
5845		-140.625000
5846		-144.531250
5847		-140.625000
5848		-142.578125
5849		-138.671875
5850		-140.625000
5851		-136.718750
5852		-140.625000
5853		-136.718750
5854		-138.671875
5855		-134.765625
5856		-136.718750
5857		-132.812500
5858		-134.765625
5859		-130.859375
5860		-132.812500
5861		-128.906250
5862		-130.859375
5863		-126.953125
5864		-128.906250
5865		-125.000000
5866		-126.953125
5867		-123.046875
5868		-125.000000
5869		-121.093750
5870		-123.046875
5871		-117.187500
5872		-119.140625
5873		-115.234375
5874		-117.187500
5875		-113.281250
5876		-115.234375
5877		-109.375000
5878		-111.328125
5879		-107.421875
5880		-109.375000
5881		-103.515625
5882		-105.468750
5883		-101.562500
5884		-103.515625
5885		-97.656250
5886		-99.609375
5887		-95.703125
5888		-97.656250
5889		-91.796875
5890		-93.750000
5891		-87.890625
5892		-89.843750
5893		-85.937500
5894		-87.890625
5895		-82.031250
5896		-83.984375
5897		-78.125000
5898		-80.078125
5899		-74.218750
5900		-76.171875
5901		-70.312500
5902		-72.265625
5903		-66.406250
5904		-68.359375
5905		-64.453125
5906		-66.406250
5907		-60.546875
5908		-62.500000
5909		-56.640625
5910		-58.593750
5911		-52.734375
5912		-54.687500
5913		-48.828125
5914		-50.781250
5915		-44.921875
5916		-46.875000
5917		-41.015625
5918		-42.968750
5919		-37.109375
5920		-39.062500
5921		-33.203125
5922		-35.156250
5923		-29.296875
5924		-31.250000
5925		-25.390625
5926		-27.343750
5927		-21.484375
5928		-23.437500
5929		-17.578125
5930		-19.531250
5931		-13.671875
5932		-15.625000
5933		-9.765625
5934		-11.718750
5935		-5.859375
5936		-7.812500
5937		-1.953125
5938		-3.906250
5939		1.953125
5940		0.000000
5941		5.859375
5942		3.906250
5943		9.765625
5944		7.812500
5945		13.671875
5946		11.718750
5947		17.578125
5948		15.625000
5949		21.484375
5950		19.531250
5951		25.390625
5952		23.437500
5953		29.296875
5954		27.343750
5955		33.203125
5956		31.250000
5957		37.109375
5958		35.156250
5959		41.015625
5960		37.109375
5961		42.968750
5962		41.015625
5963		46.875000
5964		44.921875
5965		50.781250
5966		48.828125
5967		54.687500
5968		52.734375
5969		58.593750
5970		56.640625
5971		60.546875
5972		58.593750
5973		64.453125
5974		62.500000
5975		68.359375
5976		66.406250
5977		70.312500
5978		68.359375
5979		74.218750
5980		72.265625
5981		78.125000
5982		74.218750
5983		80.078125
5984		78.125000
5985		82.031250
5986		80.078125
5987		85.937500
5988		83.984375
5989		87.890625
5990		85.937500
5991		91.796875
5992		89.843750
5993		93.750000
5994		91.796875
5995		97.656250
5996		95.703125
5997		99.609375
5998		97.656250
5999		101.562500
6000		99.609375
6001		103.515625
6002		101.562500
6003		107.421875
6004		103.515625
6005		109.375000
6006		107.421875
6007		111.328125
6008		109.375000
6009		113.281250
6010		111.328125
6011		115.234375
6012		113.281250
6013		117.187500
6014		115.234375
6015		119.140625
6016		117.187500
6017		121.093750
6018		119.140625
6019		123.046875
6020		121.093750
6021		125.000000
6022		123.046875
6023		125.000000
6024		123.046875
6025		126.953125
6026		125.000000
6027		128.906250
6028		126.953125
6029		128.906250
6030		126.953125
6031		130.859375
6032		128.906250
6033		132.812500
6034		130.859375
6035		132.812500
6036		130.859375
6037		134.765625
6038		132.812500
6039		134.765625
6040		132.812500
6041		136.718750
6042		134.765625
6043		136.718750
6044		134.765625
6045		138.671875
6046		134.765625
6047		138.671875
6048		136.718750
6049		138.671875
6050		136.718750
6051		140.625000
6052		136.718750
6053		140.625000
6054		136.718750
6055		140.625000
6056		138.671875
6057		140.625000
6058		138.671875
6059		140.625000
6060		138.671875
6061		140.625000
6062		138.671875
6063		140.625000
6064		138.671875
6065		140.625000
6066		138.671875
6067		142.578125
6068		138.671875
6069		140.625000
6070		136.718750
6071		140.625000
6072		136.718750
6073		140.625000
6074		136.718750
6075		140.625000
6076		136.718750
6077		138.671875
6078		134.765625
6079		138.671875
6080		134.765625
6081		138.671875
6082		134.765625
6083		138.671875
6084		132.812500
6085		136.718750
6086		132.812500
6087		136.718750
6088		130.859375
6089		134.765625
6090		130.859375
6091		134.765625
6092		128.906250
6093		132.812500
6094		128.906250
6095		132.812500
6096		126.953125
6097		130.859375
6098		125.000000
6099		128.906250
6100		123.046875
6101		126.953125
6102		123.046875
6103		126.953125
6104		121.093750
6105		125.000000
6106		119.140625
6107		123.046875
6108		117.187500
6109		121.093750
6110		115.234375
6111		119.140625
6112		113.281250
6113		117.187500
6114		111.328125
6115		115.234375
6116		109.375000
6117		113.281250
6118		107.421875
6119		111.328125
6120		103.515625
6121		109.375000
6122		101.562500
6123		107.421875
6124		99.609375
6125		105.468750
6126		97.656250
6127		101.562500
6128		93.750000
6129		99.609375
6130		91.796875
6131		95.703125
6132		89.843750
6133		93.750000
6134		85.937500
6135		91.796875
6136		83.984375
6137		87.890625
6138		80.078125
6139		85.937500
6140		78.125000
6141		82.031250
6142		74.218750
6143		80.078125
6144		72.265625
6145		76.171875
6146		68.359375
6147		74.218750
6148		64.453125
6149		70.312500
6150		60.546875
6151		66.406250
6152		58.593750
6153		64.453125
6154		54.687500
6155		60.546875
6156		50.781250
6157		56.640625
6158		46.875000
6159		54.687500
6160		44.921875
6161		48.828125
6162		39.062500
6163		46.875000
6164		37.109375
6165		42.968750
6166		33.203125
6167		39.062500
6168		29.296875
6169		35.156250
6170		25.390625
6171		31.250000
6172		21.484375
6173		27.343750
6174		17.578125
6175		23.437500
6176		13.671875
6177		19.531250
6178		9.765625
6179		15.625000
6180		5.859375
6181		13.671875
6182		0.000000
6183		7.812500
6184		-1.953125
6185		3.906250
6186		-5.859375
6187		0.000000
6188		-9.765625
6189		-3.906250
6190		-13.671875
6191		-7.812500
6192		-17.578125
6193		-9.765625
6194		-21.484375
6195		-15.625000
6196		-25.390625
6197		-17.578125
6198		-29.296875
6199		-23.437500
6200		-33.203125
6201		-23.437500
6202		-37.109375
6203		-31.250000
6204		-41.015625
6205		-35.156250
6206		-42.968750
6207		-37.109375
6208		-46.875000
6209		-41.015625
6210		-50.781250
6211		-44.921875
6212		-56.640625
6213		-48.828125
6214		-58.593750
6215		-52.734375
6216		-64.453125
6217		-56.640625
6218		-66.406250
6219		-60.546875
6220		-70.312500
6221		-64.453125
6222		-74.218750
6223		-68.359375
6224		-76.171875
6225		-70.312500
6226		-80.078125
6227		-72.265625
6228		-83.984375
6229		-78.125000
6230		-87.890625
6231		-80.078125
6232		-89.843750
6233		-85.937500
6234		-93.750000
6235		-85.937500
6236		-95.703125
6237		-91.796875
6238		-101.562500
6239		-93.750000
6240		-103.515625
6241		-97.656250
6242		-105.468750
6243		-99.609375
6244		-109.375000
6245		-103.515625
6246		-113.281250
6247		-107.421875
6248		-115.234375
6249		-107.421875
6250		-117.187500
6251		-111.328125
6252		-119.140625
6253		-115.234375
6254		-121.093750
6255		-117.187500
6256		-125.000000
6257		-119.140625
6258		-128.906250
6259		-121.093750
6260		-128.906250
6261		-123.046875
6262		-130.859375
6263		-126.953125
6264		-136.718750
6265		-125.000000
6266		-136.718750
6267		-128.906250
6268		-136.718750
6269		-132.812500
6270		-136.718750
6271		-132.812500
6272		-140.625000
6273		-134.765625
6274		-142.578125
6275		-134.765625
6276		-142.578125
6277		-136.718750
6278		-142.578125
6279		-138.671875
6280		-146.484375
6281		-138.671875
6282		-146.484375
6283		-138.671875
6284		-146.484375
6285		-138.671875
6286		-146.484375
6287		-142.578125
6288		-148.437500
6289		-142.578125
6290		-150.390625
6291		-142.578125
6292		-150.390625
6293		-142.578125
6294		-148.437500
6295		-144.531250
6296		-148.437500
6297		-144.531250
6298		-150.390625
6299		-142.578125
6300		-150.390625
6301		-142.578125
6302		-148.437500
6303		-144.531250
6304		-148.437500
6305		-144.531250
6306		-148.437500
6307		-144.531250
6308		-148.437500
6309		-140.625000
6310		-148.437500
6311		-142.578125
6312		-146.484375
6313		-142.578125
6314		-146.484375
6315		-138.671875
6316		-146.484375
6317		-138.671875
6318		-146.484375
6319		-136.718750
6320		-140.625000
6321		-138.671875
6322		-140.625000
6323		-134.765625
6324		-140.625000
6325		-132.812500
6326		-138.671875
6327		-132.812500
6328		-134.765625
6329		-130.859375
6330		-134.765625
6331		-126.953125
6332		-134.765625
6333		-125.000000
6334		-130.859375
6335		-123.046875
6336		-126.953125
6337		-123.046875
6338		-125.000000
6339		-121.093750
6340		-125.000000
6341		-117.187500
6342		-123.046875
6343		-115.234375
6344		-119.140625
6345		-113.281250
6346		-115.234375
6347		-109.375000
6348		-115.234375
6349		-105.468750
6350		-111.328125
6351		-103.515625
6352		-107.421875
6353		-103.515625
6354		-105.468750
6355		-99.609375
6356		-101.562500
6357		-95.703125
6358		-99.609375
6359		-91.796875
6360		-97.656250
6361		-89.843750
6362		-91.796875
6363		-85.937500
6364		-89.843750
6365		-80.078125
6366		-87.890625
6367		-80.078125
6368		-83.984375
6369		-76.171875
6370		-78.125000
6371		-72.265625
6372		-74.218750
6373		-70.312500
6374		-72.265625
6375		-62.500000
6376		-72.265625
6377		-60.546875
6378		-64.453125
6379		-58.593750
6380		-60.546875
6381		-54.687500
6382		-58.593750
6383		-48.828125
6384		-52.734375
6385		-44.921875
6386		-48.828125
6387		-42.968750
6388		-44.921875
6389		-39.062500
6390		-41.015625
6391		-35.156250
6392		-39.062500
6393		-29.296875
6394		-35.156250
6395		-27.343750
6396		-29.296875
6397		-23.437500
6398		-25.390625
6399		-17.578125
6400		-23.437500
6401		-15.625000
6402		-19.531250
6403		-11.718750
6404		-13.671875
6405		-7.812500
6406		-9.765625
6407		-3.906250
6408		-5.859375
6409		3.906250
6410		-1.953125
6411		3.906250
6412		1.953125
6413		7.812500
6414		5.859375
6415		11.718750
6416		7.812500
6417		15.625000
6418		13.671875
6419		19.531250
6420		17.578125
6421		23.437500
6422		21.484375
6423		27.343750
6424		25.390625
6425		31.250000
6426		27.343750
6427		35.156250
6428		33.203125
6429		37.109375
6430		35.156250
6431		42.968750
6432		37.109375
6433		44.921875
6434		42.968750
6435		50.781250
6436		46.875000
6437		52.734375
6438		50.781250
6439		56.640625
6440		52.734375
6441		58.593750
6442		56.640625
6443		64.453125
6444		60.546875
6445		66.406250
6446		64.453125
6447		68.359375
6448		66.406250
6449		72.265625
6450		70.312500
6451		74.218750
6452		72.265625
6453		78.125000
6454		76.171875
6455		80.078125
6456		78.125000
6457		83.984375
6458		82.031250
6459		87.890625
6460		83.984375
6461		91.796875
6462		85.937500
6463		91.796875
6464		89.843750
6465		95.703125
6466		89.843750
6467		97.656250
6468		95.703125
6469		99.609375
6470		97.656250
6471		101.562500
6472		99.609375
6473		105.468750
6474		101.562500
6475		107.421875
6476		105.468750
6477		109.375000
6478		107.421875
6479		111.328125
6480		109.375000
6481		113.281250
6482		111.328125
6483		115.234375
6484		113.281250
6485		117.187500
6486		115.234375
6487		119.140625
6488		117.187500
6489		121.093750
6490		119.140625
6491		123.046875
6492		121.093750
6493		125.000000
6494		123.046875
6495		125.000000
6496		123.046875
6497		126.953125
6498		125.000000
6499		128.906250
6500		126.953125
6501		130.859375
6502		126.953125
6503		130.859375
6504		128.906250
6505		132.812500
6506		130.859375
6507		132.812500
6508		128.906250
6509		134.765625
6510		130.859375
6511		136.718750
6512		130.859375
6513		136.718750
6514		132.812500
6515		138.671875
6516		132.812500
6517		138.671875
6518		134.765625
6519		138.671875
6520		134.765625
6521		138.671875
6522		136.718750
6523		138.671875
6524		136.718750
6525		140.625000
6526		134.765625
6527		140.625000
6528		136.718750
6529		142.578125
6530		136.718750
6531		140.625000
6532		136.718750
6533		142.578125
6534		136.718750
6535		140.625000
6536		136.718750
6537		140.625000
6538		136.718750
6539		140.625000
6540		136.718750
6541		140.625000
6542		134.765625
6543		140.625000
6544		134.765625
6545		140.625000
6546		134.765625
6547		140.625000
6548		132.812500
6549		140.625000
6550		134.765625
6551		138.671875
6552		132.812500
6553		138.671875
6554		132.812500
6555		136.718750
6556		132.812500
6557		134.765625
6558		130.859375
6559		134.765625
6560		128.906250
6561		134.765625
6562		128.906250
6563		132.812500
6564		126.953125
6565		132.812500
6566		125.000000
6567		130.859375
6568		125.000000
6569		128.906250
6570		123.046875
6571		128.906250
6572		123.046875
6573		126.953125
6574		119.140625
6575		125.000000
6576		119.140625
6577		123.046875
6578		117.187500
6579		121.093750
6580		113.281250
6581		119.140625
6582		111.328125
6583		117.187500
6584		111.328125
6585		115.234375
6586		109.375000
6587		115.234375
6588		107.421875
6589		111.328125
6590		105.468750
6591		109.375000
6592		101.562500
6593		107.421875
6594		99.609375
6595		105.468750
6596		97.656250
6597		103.515625
6598		93.750000
6599		99.609375
6600		91.796875
6601		97.656250
6602		89.843750
6603		93.750000
6604		85.937500
6605		91.796875
6606		83.984375
6607		89.843750
6608		80.078125
6609		85.937500
6610		78.125000
6611		83.984375
6612		74.218750
6613		80.078125
6614		72.265625
6615		76.171875
6616		68.359375
6617		74.218750
6618		64.453125
6619		70.312500
6620		62.500000
6621		66.406250
6622		58.593750
6623		64.453125
6624		54.687500
6625		60.546875
6626		52.734375
6627		56.640625
6628		48.828125
6629		54.687500
6630		42.968750
6631		50.781250
6632		41.015625
6633		48.828125
6634		37.109375
6635		42.968750
6636		33.203125
6637		39.062500
6638		29.296875
6639		35.156250
6640		25.390625
6641		33.203125
6642		21.484375
6643		29.296875
6644		19.531250
6645		25.390625
6646		15.625000
6647		21.484375
6648		11.718750
6649		17.578125
6650		5.859375
6651		13.671875
6652		3.906250
6653		9.765625
6654		0.000000
6655		5.859375
6656		-3.906250
6657		1.953125
6658		-7.812500
6659		-1.953125
6660		-11.718750
6661		-5.859375
6662		-15.625000
6663		-9.765625
6664		-21.484375
6665		-13.671875
6666		-23.437500
6667		-17.578125
6668		-27.343750
6669		-21.484375
6670		-31.250000
6671		-25.390625
6672		-35.156250
6673		-31.250000
6674		-39.062500
6675		-33.203125
6676		-42.968750
6677		-37.109375
6678		-46.875000
6679		-41.015625
6680		-50.781250
6681		-44.921875
6682		-54.687500
6683		-48.828125
6684		-58.593750
6685		-52.734375
6686		-62.500000
6687		-56.640625
6688		-66.406250
6689		-60.546875
6690		-70.312500
6691		-64.453125
6692		-72.265625
6693		-68.359375
6694		-76.171875
6695		-72.265625
6696		-80.078125
6697		-74.218750
6698		-83.984375
6699		-78.125000
6700		-87.890625
6701		-82.031250
6702		-89.843750
6703		-85.937500
6704		-93.750000
6705		-87.890625
6706		-95.703125
6707		-91.796875
6708		-99.609375
6709		-95.703125
6710		-103.515625
6711		-97.656250
6712		-105.468750
6713		-101.562500
6714		-109.375000
6715		-103.515625
6716		-111.328125
6717		-105.468750
6718		-115.234375
6719		-109.375000
6720		-117.187500
6721		-111.328125
6722		-119.140625
6723		-115.234375
6724		-121.093750
6725		-117.187500
6726		-125.000000
6727		-119.140625
6728		-126.953125
6729		-121.093750
6730		-128.906250
6731		-123.046875
6732		-130.859375
6733		-126.953125
6734		-132.812500
6735		-128.906250
6736		-134.765625
6737		-130.859375
6738		-136.718750
6739		-132.812500
6740		-138.671875
6741		-134.765625
6742		-140.625000
6743		-136.718750
6744		-142.578125
6745		-136.718750
6746		-142.578125
6747		-138.671875
6748		-144.531250
6749		-140.625000
6750		-146.484375
6751		-140.625000
6752		-146.484375
6753		-142.578125
6754		-148.437500
6755		-144.531250
6756		-148.437500
6757		-144.531250
6758		-148.437500
6759		-146.484375
6760		-150.390625
6761		-146.484375
6762		-150.390625
6763		-146.484375
6764		-150.390625
6765		-146.484375
6766		-150.390625
6767		-146.484375
6768		-150.390625
6769		-146.484375
6770		-150.390625
6771		-146.484375
6772		-150.390625
6773		-146.484375
6774		-150.390625
6775		-146.484375
6776		-150.390625
6777		-146.484375
6778		-150.390625
6779		-146.484375
6780		-148.437500
6781		-144.531250
6782		-148.437500
6783		-144.531250
6784		-148.437500
6785		-144.531250
6786		-146.484375
6787		-142.578125
6788		-146.484375
6789		-142.578125
6790		-144.531250
6791		-140.625000
6792		-142.578125
6793		-138.671875
6794		-142.578125
6795		-136.718750
6796		-140.625000
6797		-136.718750
6798		-138.671875
6799		-134.765625
6800		-136.718750
6801		-132.812500
6802		-134.765625
6803		-130.859375
6804		-132.812500
6805		-128.906250
6806		-132.812500
6807		-126.953125
6808		-128.906250
6809		-125.000000
6810		-126.953125
6811		-123.046875
6812		-125.000000
6813		-119.140625
6814		-121.093750
6815		-117.187500
6816		-119.140625
6817		-115.234375
6818		-117.187500
6819		-113.281250
6820		-115.234375
6821		-109.375000
6822		-111.328125
6823		-105.468750
6824		-107.421875
6825		-103.515625
6826		-105.468750
6827		-99.609375
6828		-103.515625
6829		-97.656250
6830		-99.609375
6831		-93.750000
6832		-95.703125
6833		-89.843750
6834		-93.750000
6835		-87.890625
6836		-89.843750
6837		-83.984375
6838		-85.937500
6839		-80.078125
6840		-82.031250
6841		-76.171875
6842		-78.125000
6843		-72.265625
6844		-76.171875
6845		-68.359375
6846		-72.265625
6847		-66.406250
6848		-68.359375
6849		-62.500000
6850		-64.453125
6851		-58.593750
6852		-60.546875
6853		-54.687500
6854		-56.640625
6855		-50.781250
6856		-52.734375
6857		-46.875000
6858		-48.828125
6859		-42.968750
6860		-44.921875
6861		-39.062500
6862		-41.015625
6863		-35.156250
6864		-37.109375
6865		-31.250000
6866		-33.203125
6867		-27.343750
6868		-29.296875
6869		-23.437500
6870		-25.390625
6871		-19.531250
6872		-21.484375
6873		-15.625000
6874		-17.578125
6875		-11.718750
6876		-13.671875
6877		-7.812500
6878		-9.765625
6879		-3.906250
6880		-5.859375
6881		0.000000
6882		-1.953125
6883		3.906250
6884		1.953125
6885		7.812500
6886		5.859375
6887		11.718750
6888		9.765625
6889		15.625000
6890		11.718750
6891		19.531250
6892		17.578125
6893		23.437500
6894		21.484375
6895		27.343750
6896		25.390625
6897		31.250000
6898		29.296875
6899		35.156250
6900		33.203125
6901		39.062500
6902		35.156250
6903		41.015625
6904		39.062500
6905		44.921875
6906		42.968750
6907		48.828125
6908		46.875000
6909		52.734375
6910		50.781250
6911		56.640625
6912		54.687500
6913		58.593750
6914		56.640625
6915		62.500000
6916		60.546875
6917		64.453125
6918		64.453125
6919		68.359375
6920		66.406250
6921		72.265625
6922		70.312500
6923		74.218750
6924		72.265625
6925		78.125000
6926		76.171875
6927		82.031250
6928		78.125000
6929		83.984375
6930		82.031250
6931		85.937500
6932		83.984375
6933		89.843750
6934		87.890625
6935		91.796875
6936		89.843750
6937		95.703125
6938		91.796875
6939		97.656250
6940		95.703125
6941		99.609375
6942		97.656250
6943		101.562500
6944		99.609375
6945		105.468750
6946		101.562500
6947		107.421875
6948		105.468750
6949		109.375000
6950		107.421875
6951		111.328125
6952		109.375000
6953		113.281250
6954		111.328125
6955		115.234375
6956		113.281250
6957		117.187500
6958		115.234375
6959		119.140625
6960		117.187500
6961		121.093750
6962		119.140625
6963		123.046875
6964		119.140625
6965		125.000000
6966		121.093750
6967		125.000000
6968		123.046875
6969		126.953125
6970		125.000000
6971		128.906250
6972		125.000000
6973		130.859375
6974		126.953125
6975		130.859375
6976		128.906250
6977		132.812500
6978		128.906250
6979		132.812500
6980		130.859375
6981		134.765625
6982		130.859375
6983		134.765625
6984		132.812500
6985		136.718750
6986		132.812500
6987		136.718750
6988		132.812500
6989		138.671875
6990		134.765625
6991		138.671875
6992		134.765625
6993		138.671875
6994		134.765625
6995		140.625000
6996		136.718750
6997		138.671875
6998		136.718750
6999		140.625000
7000		136.718750
7001		140.625000
7002		136.718750
7003		140.625000
7004		136.718750
7005		140.625000
7006		136.718750
7007		140.625000
7008		136.718750
7009		140.625000
7010		136.718750
7011		140.625000
7012		136.718750
7013		140.625000
7014		136.718750
7015		140.625000
7016		136.718750
7017		138.671875
7018		134.765625
7019		138.671875
7020		134.765625
7021		138.671875
7022		134.765625
7023		136.718750
7024		132.812500
7025		136.718750
7026		132.812500
7027		136.718750
7028		130.859375
7029		134.765625
7030		130.859375
7031		134.765625
7032		128.906250
7033		132.812500
7034		128.906250
7035		132.812500
7036		126.953125
7037		130.859375
7038		126.953125
7039		128.906250
7040		125.000000
7041		128.906250
7042		123.046875
7043		126.953125
7044		121.093750
7045		125.000000
7046		119.140625
7047		123.046875
7048		117.187500
7049		123.046875
7050		117.187500
7051		121.093750
7052		113.281250
7053		119.140625
7054		113.281250
7055		117.187500
7056		109.375000
7057		115.234375
7058		109.375000
7059		113.281250
7060		105.468750
7061		111.328125
7062		103.515625
7063		107.421875
7064		101.562500
7065		105.468750
7066		99.609375
7067		103.515625
7068		95.703125
7069		101.562500
7070		93.750000
7071		99.609375
7072		91.796875
7073		95.703125
7074		87.890625
7075		93.750000
7076		85.937500
7077		89.843750
7078		82.031250
7079		87.890625
7080		80.078125
7081		85.937500
7082		76.171875
7083		82.031250
7084		74.218750
7085		80.078125
7086		70.312500
7087		76.171875
7088		66.406250
7089		72.265625
7090		64.453125
7091		70.312500
7092		60.546875
7093		66.406250
7094		58.593750
7095		62.500000
7096		54.687500
7097		60.546875
7098		50.781250
7099		56.640625
7100		46.875000
7101		52.734375
7102		42.968750
7103		48.828125
7104		39.062500
7105		46.875000
7106		35.156250
7107		41.015625
7108		33.203125
7109		39.062500
7110		29.296875
7111		35.156250
7112		25.390625
7113		31.250000
7114		21.484375
7115		27.343750
7116		17.578125
7117		23.437500
7118		13.671875
7119		19.531250
7120		9.765625
7121		15.625000
7122		5.859375
7123		11.718750
7124		1.953125
7125		7.812500
7126		-1.953125
7127		3.906250
7128		-5.859375
7129		0.000000
7130		-9.765625
7131		-3.906250
7132		-13.671875
7133		-7.812500
7134		-17.578125
7135		-11.718750
7136		-21.484375
7137		-15.625000
7138		-25.390625
7139		-19.531250
7140		-29.296875
7141		-23.437500
7142		-33.203125
7143		-27.343750
7144		-37.109375
7145		-31.250000
7146		-41.015625
7147		-35.156250
7148		-44.921875
7149		-39.062500
7150		-48.828125
7151		-42.968750
7152		-52.734375
7153		-46.875000
7154		-56.640625
7155		-50.781250
7156		-60.546875
7157		-54.687500
7158		-64.453125
7159		-58.593750
7160		-66.406250
7161		-62.500000
7162		-70.312500
7163		-64.453125
7164		-74.218750
7165		-68.359375
7166		-78.125000
7167		-72.265625
7168		-82.031250
7169		-76.171875
7170		-83.984375
7171		-80.078125
7172		-87.890625
7173		-82.031250
7174		-91.796875
7175		-85.937500
7176		-93.750000
7177		-89.843750
7178		-97.656250
7179		-91.796875
7180		-101.562500
7181		-95.703125
7182		-105.468750
7183		-97.656250
7184		-107.421875
7185		-101.562500
7186		-109.375000
7187		-103.515625
7188		-113.281250
7189		-107.421875
7190		-115.234375
7191		-111.328125
7192		-117.187500
7193		-113.281250
7194		-119.140625
7195		-115.234375
7196		-125.000000
7197		-117.187500
7198		-125.000000
7199		-119.140625
7200		-126.953125
7201		-123.046875
7202		-128.906250
7203		-125.000000
7204		-132.812500
7205		-126.953125
7206		-132.812500
7207		-128.906250
7208		-134.765625
7209		-130.859375
7210		-136.718750
7211		-132.812500
7212		-138.671875
7213		-134.765625
7214		-140.625000
7215		-136.718750
7216		-142.578125
7217		-138.671875
7218		-142.578125
7219		-138.671875
7220		-144.531250
7221		-140.625000
7222		-146.484375
7223		-142.578125
7224		-148.437500
7225		-142.578125
7226		-148.437500
7227		-144.531250
7228		-148.437500
7229		-144.531250
7230		-148.437500
7231		-146.484375
7232		-150.390625
7233		-146.484375
7234		-150.390625
7235		-146.484375
7236		-150.390625
7237		-146.484375
7238		-150.390625
7239		-146.484375
7240		-150.390625
7241		-146.484375
7242		-150.390625
7243		-146.484375
7244		-150.390625
7245		-148.437500
7246		-150.390625
7247		-146.484375
7248		-150.390625
7249		-146.484375
7250		-150.390625
7251		-146.484375
7252		-148.437500
7253		-144.531250
7254		-148.437500
7255		-144.531250
7256		-146.484375
7257		-142.578125
7258		-146.484375
7259		-142.578125
7260		-144.531250
7261		-142.578125
7262		-144.531250
7263		-140.625000
7264		-142.578125
7265		-138.671875
7266		-142.578125
7267		-136.718750
7268		-140.625000
7269		-134.765625
7270		-138.671875
7271		-134.765625
7272		-136.718750
7273		-132.812500
7274		-134.765625
7275		-130.859375
7276		-132.812500
7277		-128.906250
7278		-130.859375
7279		-126.953125
7280		-128.906250
7281		-123.046875
7282		-126.953125
7283		-121.093750
7284		-123.046875
7285		-119.140625
7286		-121.093750
7287		-115.234375
7288		-119.140625
7289		-113.281250
7290		-117.187500
7291		-111.328125
7292		-113.281250
7293		-107.421875
7294		-109.375000
7295		-105.468750
7296		-107.421875
7297		-101.562500
7298		-103.515625
7299		-99.609375
7300		-101.562500
7301		-95.703125
7302		-99.609375
7303		-93.750000
7304		-95.703125
7305		-89.843750
7306		-91.796875
7307		-85.937500
7308		-87.890625
7309		-82.031250
7310		-85.937500
7311		-80.078125
7312		-82.031250
7313		-76.171875
7314		-78.125000
7315		-72.265625
7316		-74.218750
7317		-68.359375
7318		-70.312500
7319		-64.453125
7320		-66.406250
7321		-60.546875
7322		-62.500000
7323		-56.640625
7324		-58.593750
7325		-54.687500
7326		-56.640625
7327		-48.828125
7328		-52.734375
7329		-44.921875
7330		-46.875000
7331		-42.968750
7332		-44.921875
7333		-39.062500
7334		-41.015625
7335		-35.156250
7336		-37.109375
7337		-29.296875
7338		-33.203125
7339		-25.390625
7340		-27.343750
7341		-21.484375
7342		-25.390625
7343		-17.578125
7344		-19.531250
7345		-13.671875
7346		-15.625000
7347		-9.765625
7348		-11.718750
7349		-5.859375
7350		-7.812500
7351		-1.953125
7352		-3.906250
7353		1.953125
7354		0.000000
7355		5.859375
7356		3.906250
7357		9.765625
7358		7.812500
7359		13.671875
7360		11.718750
7361		17.578125
7362		15.625000
7363		21.484375
7364		19.531250
7365		25.390625
7366		21.484375
7367		27.343750
7368		27.343750
7369		31.250000
7370		29.296875
7371		35.156250
7372		33.203125
7373		39.062500
7374		37.109375
7375		42.968750
7376		41.015625
7377		46.875000
7378		44.921875
7379		50.781250
7380		46.875000
7381		52.734375
7382		50.781250
7383		56.640625
7384		54.687500
7385		60.546875
7386		58.593750
7387		64.453125
7388		60.546875
7389		66.406250
7390		64.453125
7391		70.312500
7392		68.359375
7393		72.265625
7394		70.312500
7395		76.171875
7396		74.218750
7397		80.078125
7398		78.125000
7399		82.031250
7400		80.078125
7401		83.984375
7402		82.031250
7403		87.890625
7404		85.937500
7405		89.843750
7406		87.890625
7407		93.750000
7408		91.796875
7409		95.703125
7410		91.796875
7411		97.656250
7412		95.703125
7413		101.562500
7414		99.609375
7415		103.515625
7416		99.609375
7417		105.468750
7418		103.515625
7419		107.421875
7420		105.468750
7421		109.375000
7422		107.421875
7423		113.281250
7424		109.375000
7425		113.281250
7426		111.328125
7427		117.187500
7428		113.281250
7429		119.140625
7430		115.234375
7431		119.140625
7432		117.187500
7433		121.093750
7434		119.140625
7435		123.046875
7436		121.093750
7437		125.000000
7438		123.046875
7439		126.953125
7440		121.093750
7441		128.906250
7442		125.000000
7443		130.859375
7444		125.000000
7445		130.859375
7446		126.953125
7447		130.859375
7448		128.906250
7449		132.812500
7450		130.859375
7451		134.765625
7452		130.859375
7453		134.765625
7454		130.859375
7455		136.718750
7456		132.812500
7457		138.671875
7458		132.812500
7459		136.718750
7460		132.812500
7461		138.671875
7462		134.765625
7463		138.671875
7464		134.765625
7465		138.671875
7466		134.765625
7467		140.625000
7468		134.765625
7469		142.578125
7470		134.765625
7471		140.625000
7472		134.765625
7473		142.578125
7474		134.765625
7475		142.578125
7476		134.765625
7477		142.578125
7478		136.718750
7479		140.625000
7480		136.718750
7481		140.625000
7482		136.718750
7483		140.625000
7484		134.765625
7485		142.578125
7486		134.765625
7487		140.625000
7488		134.765625
7489		140.625000
7490		132.812500
7491		140.625000
7492		132.812500
7493		140.625000
7494		132.812500
7495		138.671875
7496		132.812500
7497		136.718750
7498		132.812500
7499		136.718750
7500		128.906250
7501		136.718750
7502		128.906250
7503		134.765625
7504		128.906250
7505		134.765625
7506		126.953125
7507		132.812500
7508		125.000000
7509		132.812500
7510		125.000000
7511		132.812500
7512		125.000000
7513		128.906250
7514		123.046875
7515		126.953125
7516		119.140625
7517		125.000000
7518		117.187500
7519		125.000000
7520		117.187500
7521		123.046875
7522		115.234375
7523		121.093750
7524		113.281250
7525		119.140625
7526		111.328125
7527		117.187500
7528		109.375000
7529		115.234375
7530		107.421875
7531		113.281250
7532		105.468750
7533		109.375000
7534		101.562500
7535		109.375000
7536		97.656250
7537		107.421875
7538		97.656250
7539		105.468750
7540		95.703125
7541		101.562500
7542		91.796875
7543		99.609375
7544		89.843750
7545		97.656250
7546		87.890625
7547		93.750000
7548		85.937500
7549		89.843750
7550		82.031250
7551		87.890625
7552		78.125000
7553		85.937500
7554		76.171875
7555		82.031250
7556		72.265625
7557		80.078125
7558		68.359375
7559		76.171875
7560		64.453125
7561		74.218750
7562		64.453125
7563		70.312500
7564		60.546875
7565		66.406250
7566		56.640625
7567		62.500000
7568		52.734375
7569		60.546875
7570		48.828125
7571		56.640625
7572		44.921875
7573		54.687500
7574		41.015625
7575		48.828125
7576		39.062500
7577		44.921875
7578		35.156250
7579		44.921875
7580		31.250000
7581		37.109375
7582		27.343750
7583		33.203125
7584		21.484375
7585		31.250000
7586		19.531250
7587		27.343750
7588		15.625000
7589		23.437500
7590		11.718750
7591		19.531250
7592		7.812500
7593		15.625000
7594		3.906250
7595		11.718750
7596		1.953125
7597		7.812500
7598		-1.953125
7599		3.906250
7600		-7.812500
7601		0.000000
7602		-11.718750
7603		-1.953125
7604		-15.625000
7605		-7.812500
7606		-19.531250
7607		-11.718750
7608		-23.437500
7609		-13.671875
7610		-27.343750
7611		-17.578125
7612		-29.296875
7613		-23.437500
7614		-33.203125
7615		-27.343750
7616		-39.062500
7617		-31.250000
7618		-41.015625
7619		-33.203125
7620		-46.875000
7621		-37.109375
7622		-48.828125
7623		-42.968750
7624		-54.687500
7625		-44.921875
7626		-58.593750
7627		-48.828125
7628		-60.546875
7629		-54.687500
7630		-64.453125
7631		-58.593750
7632		-68.359375
7633		-62.500000
7634		-72.265625
7635		-66.406250
7636		-76.171875
7637		-68.359375
7638		-78.125000
7639		-70.312500
7640		-83.984375
7641		-74.218750
7642		-87.890625
7643		-78.125000
7644		-89.843750
7645		-82.031250
7646		-91.796875
7647		-83.984375
7648		-95.703125
7649		-89.843750
7650		-99.609375
7651		-91.796875
7652		-103.515625
7653		-93.750000
7654		-105.468750
7655		-97.656250
7656		-109.375000
7657		-99.609375
7658		-111.328125
7659		-101.562500
7660		-113.281250
7661		-105.468750
7662		-115.234375
7663		-107.421875
7664		-117.187500
7665		-113.281250
7666		-119.140625
7667		-115.234375
7668		-125.000000
7669		-117.187500
7670		-126.953125
7671		-119.140625
7672		-128.906250
7673		-121.093750
7674		-130.859375
7675		-123.046875
7676		-132.812500
7677		-125.000000
7678		-134.765625
7679		-126.953125
7680		-134.765625
7681		-128.906250
7682		-136.718750
7683		-132.812500
7684		-140.625000
7685		-132.812500
7686		-142.578125
7687		-134.765625
7688		-142.578125
7689		-134.765625
7690		-144.531250
7691		-136.718750
7692		-146.484375
7693		-138.671875
7694		-146.484375
7695		-138.671875
7696		-146.484375
7697		-140.625000
7698		-146.484375
7699		-142.578125
7700		-148.437500
7701		-144.531250
7702		-150.390625
7703		-142.578125
7704		-150.390625
7705		-142.578125
7706		-150.390625
7707		-144.531250
7708		-152.343750
7709		-144.531250
7710		-150.390625
7711		-144.531250
7712		-150.390625
7713		-144.531250
7714		-148.437500
7715		-146.484375
7716		-148.437500
7717		-146.484375
7718		-150.390625
7719		-142.578125
7720		-150.390625
7721		-142.578125
7722		-150.390625
7723		-142.578125
7724		-150.390625
7725		-142.578125
7726		-148.437500
7727		-140.625000
7728		-146.484375
7729		-140.625000
7730		-146.484375
7731		-140.625000
7732		-142.578125
7733		-140.625000
7734		-142.578125
7735		-136.718750
7736		-142.578125
7737		-136.718750
7738		-142.578125
7739		-132.812500
7740		-140.625000
7741		-132.812500
7742		-136.718750
7743		-130.859375
7744		-136.718750
7745		-128.906250
7746		-134.765625
7747		-126.953125
7748		-130.859375
7749		-126.953125
7750		-128.906250
7751		-123.046875
7752		-126.953125
7753		-121.093750
7754		-126.953125
7755		-117.187500
7756		-123.046875
7757		-115.234375
7758		-121.093750
7759		-113.281250
7760		-117.187500
7761		-111.328125
7762		-115.234375
7763		-107.421875
7764		-111.328125
7765		-105.468750
7766		-107.421875
7767		-103.515625
7768		-105.468750
7769		-99.609375
7770		-103.515625
7771		-95.703125
7772		-101.562500
7773		-91.796875
7774		-95.703125
7775		-89.843750
7776		-95.703125
7777		-85.937500
7778		-89.843750
7779		-82.031250
7780		-87.890625
7781		-80.078125
7782		-82.031250
7783		-76.171875
7784		-78.125000
7785		-72.265625
7786		-76.171875
7787		-68.359375
7788		-72.265625
7789		-64.453125
7790		-68.359375
7791		-62.500000
7792		-66.406250
7793		-58.593750
7794		-62.500000
7795		-52.734375
7796		-56.640625
7797		-50.781250
7798		-52.734375
7799		-46.875000
7800		-48.828125
7801		-42.968750
7802		-44.921875
7803		-37.109375
7804		-41.015625
7805		-35.156250
7806		-39.062500
7807		-31.250000
7808		-35.156250
7809		-27.343750
7810		-31.250000
7811		-21.484375
7812		-27.343750
7813		-17.578125
7814		-23.437500
7815		-15.625000
7816		-17.578125
7817		-11.718750
7818		-13.671875
7819		-5.859375
7820		-11.718750
7821		-1.953125
7822		-7.812500
7823		1.953125
7824		-1.953125
7825		5.859375
7826		0.000000
7827		9.765625
7828		5.859375
7829		11.718750
7830		7.812500
7831		17.578125
7832		13.671875
7833		19.531250
7834		17.578125
7835		23.437500
7836		21.484375
7837		27.343750
7838		23.437500
7839		31.250000
7840		27.343750
7841		35.156250
7842		31.250000
7843		39.062500
7844		35.156250
7845		42.968750
7846		37.109375
7847		46.875000
7848		42.968750
7849		48.828125
7850		46.875000
7851		52.734375
7852		50.781250
7853		58.593750
7854		50.781250
7855		60.546875
7856		56.640625
7857		64.453125
7858		58.593750
7859		66.406250
7860		62.500000
7861		70.312500
7862		66.406250
7863		72.265625
7864		68.359375
7865		76.171875
7866		72.265625
7867		78.125000
7868		76.171875
7869		82.031250
7870		78.125000
7871		85.937500
7872		80.078125
7873		87.890625
7874		83.984375
7875		91.796875
7876		85.937500
7877		93.750000
7878		89.843750
7879		95.703125
7880		91.796875
7881		99.609375
7882		95.703125
7883		99.609375
7884		97.656250
7885		103.515625
7886		99.609375
7887		107.421875
7888		101.562500
7889		107.421875
7890		103.515625
7891		111.328125
7892		105.468750
7893		113.281250
7894		107.421875
7895		115.234375
7896		109.375000
7897		117.187500
7898		113.281250
7899		119.140625
7900		115.234375
7901		119.140625
7902		117.187500
7903		123.046875
7904		117.187500
7905		125.000000
7906		119.140625
7907		126.953125
7908		121.093750
7909		128.906250
7910		123.046875
7911		128.906250
7912		123.046875
7913		130.859375
7914		125.000000
7915		130.859375
7916		128.906250
7917		132.812500
7918		128.906250
7919		132.812500
7920		128.906250
7921		134.765625
7922		128.906250
7923		136.718750
7924		130.859375
7925		136.718750
7926		132.812500
7927		138.671875
7928		132.812500
7929		140.625000
7930		132.812500
7931		140.625000
7932		134.765625
7933		140.625000
7934		136.718750
7935		140.625000
7936		136.718750
7937		140.625000
7938		134.765625
7939		142.578125
7940		136.718750
7941		142.578125
7942		136.718750
7943		142.578125
7944		136.718750
7945		144.531250
7946		136.718750
7947		142.578125
7948		136.718750
7949		142.578125
7950		138.671875
7951		140.625000
7952		138.671875
7953		140.625000
7954		136.718750
7955		142.578125
7956		136.718750
7957		142.578125
7958		134.765625
7959		142.578125
7960		136.718750
7961		142.578125
7962		134.765625
7963		142.578125
7964		132.812500
7965		140.625000
7966		134.765625
7967		138.671875
7968		134.765625
7969		138.671875
7970		130.859375
7971		138.671875
7972		130.859375
7973		136.718750
7974		128.906250
7975		136.718750
7976		128.906250
7977		134.765625
7978		126.953125
7979		134.765625
7980		126.953125
7981		132.812500
7982		126.953125
7983		130.859375
7984		125.000000
7985		128.906250
7986		123.046875
7987		128.906250
7988		121.093750
7989		126.953125
7990		119.140625
7991		126.953125
7992		117.187500
7993		125.000000
7994		115.234375
7995		123.046875
7996		113.281250
7997		121.093750
7998		111.328125
7999		119.140625
8000		111.328125
8001		115.234375
8002		109.375000
8003		113.281250
8004		103.515625
8005		111.328125
8006		103.515625
8007		109.375000
8008		99.609375
8009		107.421875
8010		97.656250
8011		105.468750
8012		95.703125
8013		103.515625
8014		91.796875
8015		99.609375
8016		91.796875
8017		97.656250
8018		87.890625
8019		93.750000
8020		83.984375
8021		89.843750
8022		80.078125
8023		89.843750
8024		78.125000
8025		85.937500
8026		76.171875
8027		83.984375
8028		72.265625
8029		80.078125
8030		68.359375
8031		78.125000
8032		68.359375
8033		74.218750
8034		64.453125
8035		70.312500
8036		60.546875
8037		66.406250
8038		54.687500
8039		64.453125
8040		52.734375
8041		60.546875
8042		48.828125
8043		58.593750
8044		44.921875
8045		54.687500
8046		41.015625
8047		48.828125
8048		39.062500
8049		46.875000
8050		35.156250
8051		42.968750
8052		31.250000
8053		37.109375
8054		27.343750
8055		35.156250
8056		23.437500
8057		31.250000
8058		19.531250
8059		27.343750
8060		13.671875
8061		23.437500
8062		11.718750
8063		19.531250
8064		7.812500
8065		17.578125
8066		5.859375
8067		11.718750
8068		1.953125
8069		7.812500
8070		-1.953125
8071		3.906250
8072		-7.812500
8073		0.000000
8074		-11.718750
8075		-3.906250
8076		-15.625000
8077		-7.812500
8078		-19.531250
8079		-11.718750
8080		-23.437500
8081		-13.671875
8082		-27.343750
8083		-19.531250
8084		-29.296875
8085		-23.437500
8086		-33.203125
8087		-27.343750
8088		-39.062500
8089		-31.250000
8090		-42.968750
8091		-33.203125
8092		-46.875000
8093		-39.062500
8094		-48.828125
8095		-41.015625
8096		-54.687500
8097		-44.921875
8098		-58.593750
8099		-48.828125
8100		-60.546875
8101		-52.734375
8102		-64.453125
8103		-58.593750
8104		-70.312500
8105		-62.500000
8106		-72.265625
8107		-64.453125
8108		-76.171875
8109		-68.359375
8110		-78.125000
8111		-70.312500
8112		-83.984375
8113		-74.218750
8114		-85.937500
8115		-78.125000
8116		-87.890625
8117		-82.031250
8118		-91.796875
8119		-85.937500
8120		-93.750000
8121		-89.843750
8122		-99.609375
8123		-91.796875
8124		-101.562500
8125		-93.750000
8126		-105.468750
8127		-97.656250
8128		-107.421875
8129		-99.609375
8130		-111.328125
8131		-103.515625
8132		-113.281250
8133		-103.515625
8134		-115.234375
8135		-109.375000
8136		-117.187500
8137		-113.281250
8138		-123.046875
8139		-115.234375
8140		-123.046875
8141		-115.234375
8142		-126.953125
8143		-117.187500
8144		-126.953125
8145		-121.093750
8146		-130.859375
8147		-123.046875
8148		-132.812500
8149		-125.000000
8150		-132.812500
8151		-126.953125
8152		-134.765625
8153		-130.859375
8154		-136.718750
8155		-132.812500
8156		-140.625000
8157		-132.812500
8158		-140.625000
8159		-132.812500
8160		-142.578125
8161		-136.718750
8162		-144.531250
8163		-136.718750
8164		-144.531250
8165		-138.671875
8166		-146.484375
8167		-138.671875
8168		-144.531250
8169		-142.578125
8170		-146.484375
8171		-142.578125
8172		-148.437500
8173		-142.578125
8174		-150.390625
8175		-142.578125
8176		-150.390625
8177		-142.578125
8178		-150.390625
8179		-144.531250
8180		-150.390625
8181		-142.578125
8182		-150.390625
8183		-144.531250
8184		-148.437500
8185		-144.531250
8186		-148.437500
8187		-146.484375
8188		-150.390625
8189		-144.531250
8190		-148.437500
8191		-144.531250
8192		-148.437500
8193		-144.531250
8194		-148.437500
8195		-142.578125
8196		-146.484375
8197		-142.578125
8198		-146.484375
8199		-140.625000
8200		-144.531250
8201		-140.625000
8202		-144.531250
8203		-140.625000
8204		-142.578125
8205		-138.671875
8206		-142.578125
8207		-136.718750
8208		-140.625000
8209		-134.765625
8210		-140.625000
8211		-132.812500
8212		-138.671875
8213		-130.859375
8214		-136.718750
8215		-130.859375
8216		-134.765625
8217		-126.953125
8218		-132.812500
8219		-126.953125
8220		-128.906250
8221		-125.000000
8222		-126.953125
8223		-121.093750
8224		-126.953125
8225		-119.140625
8226		-123.046875
8227		-117.187500
8228		-121.093750
8229		-115.234375
8230		-119.140625
8231		-111.328125
8232		-117.187500
8233		-109.375000
8234		-113.281250
8235		-107.421875
8236		-109.375000
8237		-103.515625
8238		-105.468750
8239		-99.609375
8240		-105.468750
8241		-97.656250
8242		-101.562500
8243		-93.750000
8244		-97.656250
8245		-89.843750
8246		-95.703125
8247		-87.890625
8248		-93.750000
8249		-83.984375
8250		-87.890625
8251		-82.031250
8252		-83.984375
8253		-78.125000
8254		-80.078125
8255		-76.171875
8256		-78.125000
8257		-70.312500
8258		-76.171875
8259		-66.406250
8260		-72.265625
8261		-62.500000
8262		-68.359375
8263		-60.546875
8264		-62.500000
8265		-56.640625
8266		-60.546875
8267		-50.781250
8268		-56.640625
8269		-48.828125
8270		-50.781250
8271		-44.921875
8272		-46.875000
8273		-41.015625
8274		-44.921875
8275		-37.109375
8276		-41.015625
8277		-33.203125
8278		-37.109375
8279		-29.296875
8280		-33.203125
8281		-23.437500
8282		-29.296875
8283		-21.484375
8284		-25.390625
8285		-17.578125
8286		-19.531250
8287		-13.671875
8288		-15.625000
8289		-9.765625
8290		-13.671875
8291		-3.906250
8292		-9.765625
8293		-1.953125
8294		-5.859375
8295		1.953125
8296		-1.953125
8297		7.812500
8298		1.953125
8299		9.765625
8300		5.859375
8301		15.625000
8302		11.718750
8303		17.578125
8304		15.625000
8305		21.484375
8306		19.531250
8307		25.390625
8308		21.484375
8309		29.296875
8310		25.390625
8311		33.203125
8312		29.296875
8313		37.109375
8314		33.203125
8315		41.015625
8316		35.156250
8317		44.921875
8318		39.062500
8319		46.875000
8320		44.921875
8321		50.781250
8322		48.828125
8323		54.687500
8324		50.781250
8325		58.593750
8326		52.734375
8327		62.500000
8328		58.593750
8329		64.453125
8330		60.546875
8331		68.359375
8332		64.453125
8333		72.265625
8334		66.406250
8335		74.218750
8336		72.265625
8337		76.171875
8338		74.218750
8339		80.078125
8340		76.171875
8341		83.984375
8342		78.125000
8343		85.937500
8344		82.031250
8345		89.843750
8346		83.984375
8347		91.796875
8348		87.890625
8349		95.703125
8350		89.843750
8351		97.656250
8352		93.750000
8353		99.609375
8354		97.656250
8355		101.562500
8356		99.609375
8357		105.468750
8358		99.609375
8359		107.421875
8360		101.562500
8361		109.375000
8362		103.515625
8363		111.328125
8364		107.421875
8365		113.281250
8366		109.375000
8367		115.234375
8368		111.328125
8369		117.187500
8370		113.281250
8371		119.140625
8372		117.187500
8373		121.093750
8374		117.187500
8375		123.046875
8376		117.187500
8377		125.000000
8378		119.140625
8379		126.953125
8380		121.093750
8381		128.906250
8382		123.046875
8383		128.906250
8384		125.000000
8385		130.859375
8386		126.953125
8387		130.859375
8388		128.906250
8389		132.812500
8390		128.906250
8391		134.765625
8392		128.906250
8393		136.718750
8394		130.859375
8395		136.718750
8396		130.859375
8397		138.671875
8398		132.812500
8399		138.671875
8400		132.812500
8401		138.671875
8402		132.812500
8403		140.625000
8404		136.718750
8405		138.671875
8406		136.718750
8407		140.625000
8408		134.765625
8409		142.578125
8410		134.765625
8411		142.578125
8412		136.718750
8413		142.578125
8414		136.718750
8415		142.578125
8416		136.718750
8417		142.578125
8418		136.718750
8419		142.578125
8420		138.671875
8421		140.625000
8422		138.671875
8423		140.625000
8424		136.718750
8425		142.578125
8426		136.718750
8427		142.578125
8428		134.765625
8429		142.578125
8430		134.765625
8431		142.578125
8432		134.765625
8433		140.625000
8434		134.765625
8435		140.625000
8436		134.765625
8437		140.625000
8438		134.765625
8439		138.671875
8440		132.812500
8441		136.718750
8442		130.859375
8443		138.671875
8444		130.859375
8445		136.718750
8446		128.906250
8447		134.765625
8448		128.906250
8449		134.765625
8450		126.953125
8451		132.812500
8452		126.953125
8453		132.812500
8454		125.000000
8455		128.906250
8456		125.000000
8457		128.906250
8458		121.093750
8459		128.906250
8460		119.140625
8461		126.953125
8462		117.187500
8463		125.000000
8464		117.187500
8465		123.046875
8466		115.234375
8467		121.093750
8468		113.281250
8469		119.140625
8470		111.328125
8471		117.187500
8472		109.375000
8473		115.234375
8474		105.468750
8475		111.328125
8476		103.515625
8477		111.328125
8478		101.562500
8479		109.375000
8480		99.609375
8481		107.421875
8482		97.656250
8483		103.515625
8484		93.750000
8485		101.562500
8486		91.796875
8487		99.609375
8488		89.843750
8489		93.750000
8490		87.890625
8491		91.796875
8492		82.031250
8493		91.796875
8494		80.078125
8495		87.890625
8496		76.171875
8497		83.984375
8498		74.218750
8499		82.031250
8500		70.312500
8501		78.125000
8502		68.359375
8503		76.171875
8504		66.406250
8505		72.265625
8506		62.500000
8507		68.359375
8508		56.640625
8509		64.453125
8510		54.687500
8511		62.500000
8512		50.781250
8513		58.593750
8514		46.875000
8515		54.687500
8516		42.968750
8517		50.781250
8518		39.062500
8519		48.828125
8520		37.109375
8521		44.921875
8522		33.203125
8523		41.015625
8524		29.296875
8525		35.156250
8526		25.390625
8527		35.156250
8528		21.484375
8529		29.296875
8530		17.578125
8531		25.390625
8532		13.671875
8533		21.484375
8534		9.765625
8535		17.578125
8536		5.859375
8537		13.671875
8538		3.906250
8539		9.765625
8540		0.000000
8541		5.859375
8542		-3.906250
8543		1.953125
8544		-9.765625
8545		0.000000
8546		-13.671875
8547		-3.906250
8548		-15.625000
8549		-9.765625
8550		-21.484375
8551		-11.718750
8552		-25.390625
8553		-15.625000
8554		-27.343750
8555		-21.484375
8556		-31.250000
8557		-25.390625
8558		-37.109375
8559		-29.296875
8560		-41.015625
8561		-31.250000
8562		-44.921875
8563		-35.156250
8564		-48.828125
8565		-39.062500
8566		-52.734375
8567		-42.968750
8568		-54.687500
8569		-48.828125
8570		-58.593750
8571		-50.781250
8572		-62.500000
8573		-56.640625
8574		-64.453125
8575		-60.546875
8576		-70.312500
8577		-62.500000
8578		-74.218750
8579		-66.406250
8580		-78.125000
8581		-68.359375
8582		-82.031250
8583		-72.265625
8584		-83.984375
8585		-76.171875
8586		-87.890625
8587		-80.078125
8588		-89.843750
8589		-83.984375
8590		-91.796875
8591		-87.890625
8592		-97.656250
8593		-89.843750
8594		-99.609375
8595		-91.796875
8596		-103.515625
8597		-95.703125
8598		-105.468750
8599		-99.609375
8600		-109.375000
8601		-101.562500
8602		-111.328125
8603		-105.468750
8604		-113.281250
8605		-107.421875
8606		-115.234375
8607		-111.328125
8608		-121.093750
8609		-113.281250
8610		-121.093750
8611		-115.234375
8612		-125.000000
8613		-117.187500
8614		-126.953125
8615		-119.140625
8616		-130.859375
8617		-121.093750
8618		-130.859375
8619		-125.000000
8620		-132.812500
8621		-126.953125
8622		-134.765625
8623		-128.906250
8624		-134.765625
8625		-130.859375
8626		-138.671875
8627		-132.812500
8628		-140.625000
8629		-132.812500
8630		-142.578125
8631		-134.765625
8632		-142.578125
8633		-136.718750
8634		-144.531250
8635		-136.718750
8636		-144.531250
8637		-138.671875
8638		-144.531250
8639		-138.671875
8640		-144.531250
8641		-142.578125
8642		-148.437500
8643		-142.578125
8644		-148.437500
8645		-142.578125
8646		-150.390625
8647		-142.578125
8648		-150.390625
8649		-142.578125
8650		-150.390625
8651		-144.531250
8652		-150.390625
8653		-144.531250
8654		-150.390625
8655		-144.531250
8656		-148.437500
8657		-146.484375
8658		-148.437500
8659		-146.484375
8660		-150.390625
8661		-142.578125
8662		-148.437500
8663		-142.578125
8664		-150.390625
8665		-142.578125
8666		-150.390625
8667		-142.578125
8668		-148.437500
8669		-140.625000
8670		-146.484375
8671		-140.625000
8672		-144.531250
8673		-140.625000
8674		-142.578125
8675		-140.625000
8676		-142.578125
8677		-136.718750
8678		-142.578125
8679		-136.718750
8680		-140.625000
8681		-134.765625
8682		-138.671875
8683		-132.812500
8684		-138.671875
8685		-130.859375
8686		-136.718750
8687		-128.906250
8688		-134.765625
8689		-128.906250
8690		-130.859375
8691		-126.953125
8692		-128.906250
8693		-123.046875
8694		-126.953125
8695		-121.093750
8696		-125.000000
8697		-119.140625
8698		-123.046875
8699		-115.234375
8700		-121.093750
8701		-113.281250
8702		-119.140625
8703		-111.328125
8704		-115.234375
8705		-109.375000
8706		-111.328125
8707		-107.421875
8708		-109.375000
8709		-103.515625
8710		-105.468750
8711		-99.609375
8712		-103.515625
8713		-95.703125
8714		-99.609375
8715		-91.796875
8716		-99.609375
8717		-89.843750
8718		-95.703125
8719		-85.937500
8720		-91.796875
8721		-83.984375
8722		-85.937500
8723		-82.031250
8724		-83.984375
8725		-78.125000
8726		-80.078125
8727		-72.265625
8728		-78.125000
8729		-68.359375
8730		-72.265625
8731		-66.406250
8732		-72.265625
8733		-62.500000
8734		-66.406250
8735		-56.640625
8736		-62.500000
8737		-54.687500
8738		-58.593750
8739		-50.781250
8740		-54.687500
8741		-48.828125
8742		-50.781250
8743		-44.921875
8744		-46.875000
8745		-39.062500
8746		-42.968750
8747		-35.156250
8748		-41.015625
8749		-31.250000
8750		-35.156250
8751		-27.343750
8752		-33.203125
8753		-23.437500
8754		-27.343750
8755		-19.531250
8756		-23.437500
8757		-17.578125
8758		-19.531250
8759		-13.671875
8760		-15.625000
8761		-5.859375
8762		-11.718750
8763		-3.906250
8764		-9.765625
8765		0.000000
8766		-3.906250
8767		3.906250
8768		0.000000
8769		7.812500
8770		3.906250
8771		11.718750
8772		7.812500
8773		15.625000
8774		13.671875
8775		17.578125
8776		15.625000
8777		23.437500
8778		19.531250
8779		27.343750
8780		21.484375
8781		31.250000
8782		27.343750
8783		35.156250
8784		31.250000
8785		39.062500
8786		33.203125
8787		41.015625
8788		39.062500
8789		44.921875
8790		42.968750
8791		48.828125
8792		46.875000
8793		50.781250
8794		48.828125
8795		56.640625
8796		52.734375
8797		60.546875
8798		54.687500
8799		62.500000
8800		58.593750
8801		66.406250
8802		60.546875
8803		68.359375
8804		64.453125
8805		72.265625
8806		68.359375
8807		74.218750
8808		72.265625
8809		78.125000
8810		76.171875
8811		82.031250
8812		76.171875
8813		85.937500
8814		80.078125
8815		87.890625
8816		82.031250
8817		89.843750
8818		85.937500
8819		93.750000
8820		87.890625
8821		95.703125
8822		91.796875
8823		97.656250
8824		95.703125
8825		99.609375
8826		97.656250
8827		101.562500
8828		97.656250
8829		105.468750
8830		101.562500
8831		107.421875
8832		103.515625
8833		109.375000
8834		105.468750
8835		113.281250
8836		107.421875
8837		115.234375
8838		109.375000
8839		117.187500
8840		111.328125
8841		117.187500
8842		115.234375
8843		119.140625
8844		117.187500
8845		123.046875
8846		117.187500
8847		125.000000
8848		119.140625
8849		126.953125
8850		121.093750
8851		126.953125
8852		121.093750
8853		128.906250
8854		125.000000
8855		130.859375
8856		125.000000
8857		130.859375
8858		128.906250
8859		132.812500
8860		128.906250
8861		132.812500
8862		128.906250
8863		134.765625
8864		130.859375
8865		136.718750
8866		130.859375
8867		138.671875
8868		132.812500
8869		138.671875
8870		132.812500
8871		140.625000
8872		134.765625
8873		140.625000
8874		134.765625
8875		140.625000
8876		136.718750
8877		140.625000
8878		134.765625
8879		142.578125
8880		134.765625
8881		142.578125
8882		136.718750
8883		142.578125
8884		136.718750
8885		142.578125
8886		136.718750
8887		142.578125
8888		136.718750
8889		142.578125
8890		136.718750
8891		142.578125
8892		138.671875
8893		140.625000
8894		136.718750
8895		142.578125
8896		136.718750
8897		142.578125
8898		136.718750
8899		142.578125
8900		136.718750
8901		142.578125
8902		134.765625
8903		142.578125
8904		134.765625
8905		140.625000
8906		134.765625
8907		140.625000
8908		134.765625
8909		138.671875
8910		134.765625
8911		138.671875
8912		132.812500
8913		138.671875
8914		130.859375
8915		138.671875
8916		128.906250
8917		136.718750
8918		128.906250
8919		134.765625
8920		128.906250
8921		134.765625
8922		126.953125
8923		132.812500
8924		126.953125
8925		130.859375
8926		125.000000
8927		128.906250
8928		123.046875
8929		128.906250
8930		121.093750
8931		128.906250
8932		119.140625
8933		126.953125
8934		117.187500
8935		125.000000
8936		115.234375
8937		123.046875
8938		113.281250
8939		121.093750
8940		113.281250
8941		119.140625
8942		111.328125
8943		115.234375
8944		109.375000
8945		113.281250
8946		105.468750
8947		113.281250
8948		103.515625
8949		111.328125
8950		99.609375
8951		107.421875
8952		97.656250
8953		105.468750
8954		95.703125
8955		103.515625
8956		91.796875
8957		99.609375
8958		91.796875
8959		97.656250
8960		89.843750
8961		93.750000
8962		83.984375
8963		91.796875
8964		82.031250
8965		89.843750
8966		80.078125
8967		87.890625
8968		76.171875
8969		83.984375
8970		72.265625
8971		82.031250
8972		70.312500
8973		78.125000
8974		68.359375
8975		74.218750
8976		64.453125
8977		70.312500
8978		60.546875
8979		66.406250
8980		56.640625
8981		64.453125
8982		54.687500
8983		62.500000
8984		50.781250
8985		58.593750
8986		46.875000
8987		54.687500
8988		42.968750
8989		50.781250
8990		41.015625
8991		48.828125
8992		37.109375
8993		42.968750
8994		33.203125
8995		39.062500
8996		29.296875
8997		37.109375
8998		23.437500
8999		33.203125
9000		19.531250
9001		29.296875
9002		17.578125
9003		25.390625
9004		13.671875
9005		21.484375
9006		7.812500
9007		17.578125
9008		7.812500
9009		13.671875
9010		1.953125
9011		7.812500
9012		-1.953125
9013		3.906250
9014		-5.859375
9015		1.953125
9016		-9.765625
9017		-1.953125
9018		-13.671875
9019		-3.906250
9020		-17.578125
9021		-9.765625
9022		-21.484375
9023		-13.671875
9024		-23.437500
9025		-17.578125
9026		-29.296875
9027		-23.437500
9028		-33.203125
9029		-25.390625
9030		-37.109375
9031		-29.296875
9032		-41.015625
9033		-33.203125
9034		-44.921875
9035		-39.062500
9036		-48.828125
9037		-41.015625
9038		-52.734375
9039		-44.921875
9040		-56.640625
9041		-48.828125
9042		-58.593750
9043		-52.734375
9044		-62.500000
9045		-56.640625
9046		-66.406250
9047		-60.546875
9048		-72.265625
9049		-62.500000
9050		-74.218750
9051		-68.359375
9052		-78.125000
9053		-70.312500
9054		-82.031250
9055		-74.218750
9056		-85.937500
9057		-76.171875
9058		-87.890625
9059		-82.031250
9060		-89.843750
9061		-85.937500
9062		-95.703125
9063		-87.890625
9064		-97.656250
9065		-89.843750
9066		-99.609375
9067		-93.750000
9068		-105.468750
9069		-95.703125
9070		-107.421875
9071		-99.609375
9072		-111.328125
9073		-101.562500
9074		-111.328125
9075		-105.468750
9076		-113.281250
9077		-109.375000
9078		-117.187500
9079		-111.328125
9080		-121.093750
9081		-115.234375
9082		-123.046875
9083		-115.234375
9084		-125.000000
9085		-119.140625
9086		-128.906250
9087		-119.140625
9088		-130.859375
9089		-123.046875
9090		-132.812500
9091		-125.000000
9092		-132.812500
9093		-126.953125
9094		-134.765625
9095		-130.859375
9096		-136.718750
9097		-132.812500
9098		-140.625000
9099		-132.812500
9100		-140.625000
9101		-134.765625
9102		-142.578125
9103		-134.765625
9104		-144.531250
9105		-136.718750
9106		-146.484375
9107		-138.671875
9108		-146.484375
9109		-138.671875
9110		-146.484375
9111		-142.578125
9112		-146.484375
9113		-142.578125
9114		-148.437500
9115		-142.578125
9116		-148.437500
9117		-142.578125
9118		-150.390625
9119		-142.578125
9120		-150.390625
9121		-144.531250
9122		-150.390625
9123		-144.531250
9124		-150.390625
9125		-144.531250
9126		-148.437500
9127		-146.484375
9128		-150.390625
9129		-146.484375
9130		-150.390625
9131		-144.531250
9132		-150.390625
9133		-144.531250
9134		-150.390625
9135		-142.578125
9136		-150.390625
9137		-142.578125
9138		-148.437500
9139		-142.578125
9140		-148.437500
9141		-140.625000
9142		-146.484375
9143		-140.625000
9144		-144.531250
9145		-140.625000
9146		-142.578125
9147		-138.671875
9148		-144.531250
9149		-136.718750
9150		-142.578125
9151		-134.765625
9152		-140.625000
9153		-134.765625
9154		-138.671875
9155		-132.812500
9156		-138.671875
9157		-130.859375
9158		-136.718750
9159		-128.906250
9160		-132.812500
9161		-128.906250
9162		-130.859375
9163		-126.953125
9164		-130.859375
9165		-123.046875
9166		-126.953125
9167		-121.093750
9168		-126.953125
9169		-119.140625
9170		-123.046875
9171		-115.234375
9172		-121.093750
9173		-113.281250
9174		-117.187500
9175		-109.375000
9176		-117.187500
9177		-109.375000
9178		-111.328125
9179		-105.468750
9180		-109.375000
9181		-101.562500
9182		-107.421875
9183		-99.609375
9184		-103.515625
9185		-95.703125
9186		-101.562500
9187		-93.750000
9188		-99.609375
9189		-89.843750
9190		-95.703125
9191		-85.937500
9192		-93.750000
9193		-83.984375
9194		-85.937500
9195		-82.031250
9196		-83.984375
9197		-78.125000
9198		-80.078125
9199		-72.265625
9200		-78.125000
9201		-68.359375
9202		-74.218750
9203		-64.453125
9204		-70.312500
9205		-62.500000
9206		-66.406250
9207		-58.593750
9208		-62.500000
9209		-54.687500
9210		-58.593750
9211		-50.781250
9212		-54.687500
9213		-48.828125
9214		-50.781250
9215		-42.968750
9216		-48.828125
9217		-39.062500
9218		-42.968750
9219		-35.156250
9220		-39.062500
9221		-31.250000
9222		-35.156250
9223		-27.343750
9224		-31.250000
9225		-23.437500
9226		-29.296875
9227		-19.531250
9228		-23.437500
9229		-17.578125
9230		-17.578125
9231		-11.718750
9232		-15.625000
9233		-7.812500
9234		-11.718750
9235		-1.953125
9236		-7.812500
9237		0.000000
9238		-3.906250
9239		3.906250
9240		0.000000
9241		7.812500
9242		3.906250
9243		11.718750
9244		9.765625
9245		15.625000
9246		13.671875
9247		17.578125
9248		15.625000
9249		23.437500
9250		17.578125
9251		27.343750
9252		23.437500
9253		31.250000
9254		25.390625
9255		35.156250
9256		29.296875
9257		39.062500
9258		35.156250
9259		41.015625
9260		37.109375
9261		44.921875
9262		42.968750
9263		46.875000
9264		46.875000
9265		52.734375
9266		48.828125
9267		54.687500
9268		50.781250
9269		60.546875
9270		54.687500
9271		62.500000
9272		56.640625
9273		66.406250
9274		62.500000
9275		70.312500
9276		64.453125
9277		72.265625
9278		68.359375
9279		74.218750
9280		72.265625
9281		78.125000
9282		74.218750
9283		82.031250
9284		76.171875
9285		83.984375
9286		80.078125
9287		87.890625
9288		82.031250
9289		89.843750
9290		83.984375
9291		91.796875
9292		87.890625
9293		95.703125
9294		89.843750
9295		97.656250
9296		93.750000
9297		99.609375
9298		97.656250
9299		103.515625
9300		97.656250
9301		105.468750
9302		99.609375
9303		107.421875
9304		103.515625
9305		109.375000
9306		105.468750
9307		113.281250
9308		105.468750
9309		115.234375
9310		109.375000
9311		115.234375
9312		111.328125
9313		117.187500
9314		113.281250
9315		121.093750
9316		115.234375
9317		121.093750
9318		115.234375
9319		125.000000
9320		119.140625
9321		125.000000
9322		119.140625
9323		126.953125
9324		121.093750
9325		126.953125
9326		121.093750
9327		130.859375
9328		125.000000
9329		128.906250
9330		126.953125
9331		130.859375
9332		126.953125
9333		132.812500
9334		126.953125
9335		134.765625
9336		128.906250
9337		136.718750
9338		130.859375
9339		136.718750
9340		130.859375
9341		136.718750
9342		130.859375
9343		138.671875
9344		130.859375
9345		138.671875
9346		134.765625
9347		138.671875
9348		134.765625
9349		140.625000
9350		134.765625
9351		140.625000
9352		134.765625
9353		140.625000
9354		134.765625
9355		142.578125
9356		134.765625
9357		142.578125
9358		136.718750
9359		142.578125
9360		136.718750
9361		142.578125
9362		136.718750
9363		140.625000
9364		134.765625
9365		142.578125
9366		134.765625
9367		142.578125
9368		134.765625
9369		140.625000
9370		134.765625
9371		142.578125
9372		134.765625
9373		140.625000
9374		134.765625
9375		140.625000
9376		132.812500
9377		140.625000
9378		134.765625
9379		138.671875
9380		134.765625
9381		136.718750
9382		130.859375
9383		136.718750
9384		130.859375
9385		138.671875
9386		128.906250
9387		136.718750
9388		128.906250
9389		134.765625
9390		126.953125
9391		134.765625
9392		126.953125
9393		132.812500
9394		126.953125
9395		132.812500
9396		125.000000
9397		128.906250
9398		123.046875
9399		126.953125
9400		121.093750
9401		128.906250
9402		119.140625
9403		126.953125
9404		117.187500
9405		125.000000
9406		117.187500
9407		123.046875
9408		113.281250
9409		121.093750
9410		111.328125
9411		119.140625
9412		111.328125
9413		115.234375
9414		109.375000
9415		113.281250
9416		105.468750
9417		111.328125
9418		103.515625
9419		111.328125
9420		101.562500
9421		109.375000
9422		97.656250
9423		105.468750
9424		95.703125
9425		103.515625
9426		91.796875
9427		101.562500
9428		93.750000
9429		99.609375
9430		89.843750
9431		93.750000
9432		85.937500
9433		91.796875
9434		82.031250
9435		89.843750
9436		80.078125
9437		87.890625
9438		76.171875
9439		85.937500
9440		74.218750
9441		82.031250
9442		70.312500
9443		78.125000
9444		68.359375
9445		76.171875
9446		66.406250
9447		70.312500
9448		62.500000
9449		68.359375
9450		58.593750
9451		64.453125
9452		54.687500
9453		62.500000
9454		50.781250
9455		60.546875
9456		46.875000
9457		54.687500
9458		42.968750
9459		52.734375
9460		41.015625
9461		48.828125
9462		37.109375
9463		44.921875
9464		35.156250
9465		39.062500
9466		29.296875
9467		37.109375
9468		25.390625
9469		33.203125
9470		19.531250
9471		29.296875
9472		17.578125
9473		25.390625
9474		13.671875
9475		21.484375
9476		9.765625
9477		19.531250
9478		7.812500
9479		13.671875
9480		3.906250
9481		9.765625
9482		-1.953125
9483		5.859375
9484		-5.859375
9485		3.906250
9486		-9.765625
9487		-1.953125
9488		-13.671875
9489		-5.859375
9490		-15.625000
9491		-9.765625
9492		-21.484375
9493		-11.718750
9494		-25.390625
9495		-17.578125
9496		-27.343750
9497		-19.531250
9498		-31.250000
9499		-25.390625
9500		-37.109375
9501		-29.296875
9502		-41.015625
9503		-33.203125
9504		-44.921875
9505		-35.156250
9506		-48.828125
9507		-41.015625
9508		-50.781250
9509		-44.921875
9510		-56.640625
9511		-46.875000
9512		-58.593750
9513		-50.781250
9514		-62.500000
9515		-56.640625
9516		-66.406250
9517		-60.546875
9518		-70.312500
9519		-62.500000
9520		-74.218750
9521		-64.453125
9522		-78.125000
9523		-68.359375
9524		-80.078125
9525		-72.265625
9526		-85.937500
9527		-76.171875
9528		-87.890625
9529		-80.078125
9530		-89.843750
9531		-83.984375
9532		-93.750000
9533		-87.890625
9534		-97.656250
9535		-89.843750
9536		-99.609375
9537		-93.750000
9538		-103.515625
9539		-95.703125
9540		-107.421875
9541		-99.609375
9542		-109.375000
9543		-101.562500
9544		-111.328125
9545		-103.515625
9546		-113.281250
9547		-107.421875
9548		-115.234375
9549		-111.328125
9550		-121.093750
9551		-113.281250
9552		-123.046875
9553		-115.234375
9554		-125.000000
9555		-117.187500
9556		-126.953125
9557		-119.140625
9558		-130.859375
9559		-121.093750
9560		-132.812500
9561		-125.000000
9562		-132.812500
9563		-126.953125
9564		-134.765625
9565		-130.859375
9566		-138.671875
9567		-132.812500
9568		-138.671875
9569		-132.812500
9570		-140.625000
9571		-134.765625
9572		-142.578125
9573		-134.765625
9574		-144.531250
9575		-136.718750
9576		-146.484375
9577		-138.671875
9578		-146.484375
9579		-138.671875
9580		-146.484375
9581		-142.578125
9582		-146.484375
9583		-142.578125
9584		-148.437500
9585		-142.578125
9586		-150.390625
9587		-144.531250
9588		-150.390625
9589		-144.531250
9590		-152.343750
9591		-142.578125
9592		-152.343750
9593		-144.531250
9594		-152.343750
9595		-146.484375
9596		-150.390625
9597		-146.484375
9598		-150.390625
9599		-146.484375
9600		-152.343750
9601		-146.484375
9602		-152.343750
9603		-146.484375
9604		-152.343750
9605		-146.484375
9606		-152.343750
9607		-144.531250
9608		-152.343750
9609		-144.531250
9610		-150.390625
9611		-144.531250
9612		-150.390625
9613		-142.578125
9614		-148.437500
9615		-144.531250
9616		-146.484375
9617		-142.578125
9618		-146.484375
9619		-140.625000
9620		-146.484375
9621		-138.671875
9622		-144.531250
9623		-138.671875
9624		-142.578125
9625		-134.765625
9626		-140.625000
9627		-134.765625
9628		-140.625000
9629		-132.812500
9630		-138.671875
9631		-130.859375
9632		-134.765625
9633		-128.906250
9634		-132.812500
9635		-126.953125
9636		-130.859375
9637		-125.000000
9638		-128.906250
9639		-121.093750
9640		-126.953125
9641		-119.140625
9642		-125.000000
9643		-117.187500
9644		-121.093750
9645		-113.281250
9646		-119.140625
9647		-111.328125
9648		-115.234375
9649		-109.375000
9650		-111.328125
9651		-107.421875
9652		-109.375000
9653		-103.515625
9654		-107.421875
9655		-99.609375
9656		-105.468750
9657		-95.703125
9658		-101.562500
9659		-93.750000
9660		-97.656250
9661		-89.843750
9662		-95.703125
9663		-85.937500
9664		-89.843750
9665		-83.984375
9666		-87.890625
9667		-80.078125
9668		-83.984375
9669		-76.171875
9670		-82.031250
9671		-72.265625
9672		-78.125000
9673		-70.312500
9674		-74.218750
9675		-64.453125
9676		-70.312500
9677		-60.546875
9678		-66.406250
9679		-58.593750
9680		-62.500000
9681		-56.640625
9682		-58.593750
9683		-52.734375
9684		-52.734375
9685		-46.875000
9686		-52.734375
9687		-42.968750
9688		-46.875000
9689		-39.062500
9690		-42.968750
9691		-35.156250
9692		-39.062500
9693		-31.250000
9694		-37.109375
9695		-27.343750
9696		-33.203125
9697		-23.437500
9698		-25.390625
9699		-19.531250
9700		-21.484375
9701		-15.625000
9702		-19.531250
9703		-11.718750
9704		-17.578125
9705		-5.859375
9706		-11.718750
9707		-3.906250
9708		-7.812500
9709		1.953125
9710		-3.906250
9711		3.906250
9712		0.000000
9713		9.765625
9714		3.906250
9715		11.718750
9716		9.765625
9717		15.625000
9718		13.671875
9719		19.531250
9720		15.625000
9721		23.437500
9722		19.531250
9723		27.343750
9724		23.437500
9725		31.250000
9726		27.343750
9727		35.156250
9728		29.296875
9729		39.062500
9730		33.203125
9731		41.015625
9732		39.062500
9733		44.921875
9734		42.968750
9735		48.828125
9736		44.921875
9737		52.734375
9738		48.828125
9739		56.640625
9740		52.734375
9741		60.546875
9742		54.687500
9743		64.453125
9744		58.593750
9745		66.406250
9746		62.500000
9747		70.312500
9748		66.406250
9749		72.265625
9750		70.312500
9751		74.218750
9752		72.265625
9753		78.125000
9754		74.218750
9755		82.031250
9756		76.171875
9757		83.984375
9758		80.078125
9759		87.890625
9760		82.031250
9761		89.843750
9762		85.937500
9763		93.750000
9764		87.890625
9765		93.750000
9766		91.796875
9767		97.656250
9768		95.703125
9769		101.562500
9770		95.703125
9771		103.515625
9772		97.656250
9773		105.468750
9774		101.562500
9775		107.421875
9776		103.515625
9777		109.375000
9778		105.468750
9779		113.281250
9780		107.421875
9781		115.234375
9782		111.328125
9783		115.234375
9784		113.281250
9785		117.187500
9786		113.281250
9787		121.093750
9788		115.234375
9789		123.046875
9790		117.187500
9791		123.046875
9792		117.187500
9793		125.000000
9794		121.093750
9795		126.953125
9796		121.093750
9797		128.906250
9798		123.046875
9799		128.906250
9800		126.953125
9801		130.859375
9802		125.000000
9803		132.812500
9804		126.953125
9805		132.812500
9806		126.953125
9807		134.765625
9808		128.906250
9809		134.765625
9810		128.906250
9811		136.718750
9812		130.859375
9813		136.718750
9814		132.812500
9815		138.671875
9816		134.765625
9817		138.671875
9818		134.765625
9819		138.671875
9820		132.812500
9821		140.625000
9822		134.765625
9823		140.625000
9824		134.765625
9825		140.625000
9826		134.765625
9827		140.625000
9828		136.718750
9829		142.578125
9830		134.765625
9831		142.578125
9832		134.765625
9833		142.578125
9834		136.718750
9835		140.625000
9836		136.718750
9837		142.578125
9838		134.765625
9839		142.578125
9840		134.765625
9841		142.578125
9842		134.765625
9843		142.578125
9844		134.765625
9845		140.625000
9846		134.765625
9847		140.625000
9848		132.812500
9849		138.671875
9850		134.765625
9851		136.718750
9852		132.812500
9853		138.671875
9854		130.859375
9855		138.671875
9856		130.859375
9857		136.718750
9858		128.906250
9859		134.765625
9860		128.906250
9861		136.718750
9862		126.953125
9863		134.765625
9864		125.000000
9865		132.812500
9866		126.953125
9867		130.859375
9868		125.000000
9869		128.906250
9870		121.093750
9871		128.906250
9872		119.140625
9873		126.953125
9874		119.140625
9875		125.000000
9876		117.187500
9877		123.046875
9878		115.234375
9879		123.046875
9880		113.281250
9881		121.093750
9882		113.281250
9883		117.187500
9884		111.328125
9885		115.234375
9886		107.421875
9887		113.281250
9888		105.468750
9889		111.328125
9890		103.515625
9891		109.375000
9892		99.609375
9893		107.421875
9894		97.656250
9895		105.468750
9896		95.703125
9897		103.515625
9898		93.750000
9899		99.609375
9900		91.796875
9901		95.703125
9902		89.843750
9903		93.750000
9904		83.984375
9905		91.796875
9906		82.031250
9907		89.843750
9908		80.078125
9909		85.937500
9910		76.171875
9911		83.984375
9912		72.265625
9913		80.078125
9914		70.312500
9915		78.125000
9916		68.359375
9917		74.218750
9918		64.453125
9919		70.312500
9920		58.593750
9921		66.406250
9922		56.640625
9923		64.453125
9924		52.734375
9925		62.500000
9926		50.781250
9927		58.593750
9928		46.875000
9929		54.687500
9930		42.968750
9931		50.781250
9932		41.015625
9933		46.875000
9934		37.109375
9935		42.968750
9936		33.203125
9937		39.062500
9938		27.343750
9939		35.156250
9940		23.437500
9941		33.203125
9942		19.531250
9943		29.296875
9944		17.578125
9945		25.390625
9946		11.718750
9947		21.484375
9948		9.765625
9949		17.578125
9950		5.859375
9951		11.718750
9952		1.953125
9953		7.812500
9954		-1.953125
9955		5.859375
9956		-5.859375
9957		1.953125
9958		-11.718750
9959		-1.953125
9960		-13.671875
9961		-5.859375
9962		-19.531250
9963		-9.765625
9964		-21.484375
9965		-13.671875
9966		-25.390625
9967		-17.578125
9968		-29.296875
9969		-23.437500
9970		-33.203125
9971		-27.343750
9972		-37.109375
9973		-29.296875
9974		-41.015625
9975		-33.203125
9976		-46.875000
9977		-37.109375
9978		-48.828125
9979		-41.015625
9980		-52.734375
9981		-44.921875
9982		-56.640625
9983		-48.828125
9984		-58.593750
9985		-52.734375
9986		-62.500000
9987		-56.640625
9988		-68.359375
9989		-60.546875
9990		-70.312500
9991		-64.453125
9992		-76.171875
9993		-66.406250
9994		-78.125000
9995		-70.312500
9996		-82.031250
9997		-72.265625
9998		-85.937500
9999		-78.125000
10000		-85.937500
