Channel              :		CH1
Frequency            :		1.238kHz
Period               :		0.808ms
PK-PK                :		312.5mV
Probe attenuation    :		1X
Voltage per ADC value:		0.244141mV
Time interval        :		2.00000us

index		CH1_Voltage(mV)
1		-62.500000
2		-62.500000
3		-54.687500
4		-66.406250
5		-58.593750
6		-70.312500
7		-62.500000
8		-74.218750
9		-66.406250
10		-78.125000
11		-70.312500
12		-82.031250
13		-74.218750
14		-85.937500
15		-78.125000
16		-89.843750
17		-82.031250
18		-93.750000
19		-85.937500
20		-97.656250
21		-89.843750
22		-101.562500
23		-93.750000
24		-105.468750
25		-97.656250
26		-105.468750
27		-101.562500
28		-109.375000
29		-105.468750
30		-113.281250
31		-109.375000
32		-117.187500
33		-109.375000
34		-117.187500
35		-113.281250
36		-121.093750
37		-117.187500
38		-125.000000
39		-117.187500
40		-125.000000
41		-121.093750
42		-128.906250
43		-121.093750
44		-128.906250
45		-125.000000
46		-132.812500
47		-128.906250
48		-132.812500
49		-128.906250
50		-132.812500
51		-128.906250
52		-136.718750
53		-132.812500
54		-136.718750
55		-132.812500
56		-136.718750
57		-132.812500
58		-140.625000
59		-136.718750
60		-140.625000
61		-136.718750
62		-140.625000
63		-136.718750
64		-140.625000
65		-136.718750
66		-140.625000
67		-136.718750
68		-140.625000
69		-136.718750
70		-140.625000
71		-136.718750
72		-140.625000
73		-136.718750
74		-140.625000
75		-136.718750
76		-140.625000
77		-136.718750
78		-140.625000
79		-136.718750
80		-136.718750
81		-132.812500
82		-136.718750
83		-132.812500
84		-136.718750
85		-132.812500
86		-132.812500
87		-128.906250
88		-132.812500
89		-128.906250
90		-132.812500
91		-128.906250
92		-128.906250
93		-125.000000
94		-128.906250
95		-121.093750
96		-125.000000
97		-121.093750
98		-121.093750
99		-117.187500
100		-121.093750
101		-113.281250
102		-117.187500
103		-113.281250
104		-113.281250
105		-109.375000
106		-113.281250
107		-105.468750
108		-109.375000
109		-105.468750
110		-105.468750
111		-101.562500
112		-101.562500
113		-97.656250
114		-97.656250
115		-93.750000
116		-97.656250
117		-89.843750
118		-89.843750
119		-85.937500
120		-89.843750
121		-82.031250
122		-85.937500
123		-78.125000
124		-78.125000
125		-74.218750
126		-78.125000
127		-70.312500
128		-70.312500
129		-66.406250
130		-66.406250
131		-58.593750
132		-62.500000
133		-54.687500
134		-58.593750
135		-50.781250
136		-54.687500
137		-46.875000
138		-50.781250
139		-42.968750
140		-46.875000
141		-39.062500
142		-39.062500
143		-35.156250
144		-35.156250
145		-27.343750
146		-31.250000
147		-23.437500
148		-27.343750
149		-19.531250
150		-23.437500
151		-15.625000
152		-19.531250
153		-11.718750
154		-11.718750
155		-3.906250
156		-7.812500
157		0.000000
158		-3.906250
159		3.906250
160		3.906250
161		7.812500
162		7.812500
163		15.625000
164		11.718750
165		19.531250
166		15.625000
167		23.437500
168		19.531250
169		27.343750
170		27.343750
171		31.250000
172		31.250000
173		39.062500
174		35.156250
175		42.968750
176		39.062500
177		46.875000
178		42.968750
179		50.781250
180		46.875000
181		54.687500
182		54.687500
183		58.593750
184		58.593750
185		66.406250
186		62.500000
187		70.312500
188		66.406250
189		74.218750
190		70.312500
191		78.125000
192		74.218750
193		82.031250
194		78.125000
195		85.937500
196		82.031250
197		89.843750
198		85.937500
199		93.750000
200		89.843750
201		97.656250
202		93.750000
203		101.562500
204		97.656250
205		101.562500
206		101.562500
207		105.468750
208		105.468750
209		109.375000
210		105.468750
211		113.281250
212		109.375000
213		117.187500
214		113.281250
215		117.187500
216		117.187500
217		121.093750
218		121.093750
219		125.000000
220		121.093750
221		128.906250
222		125.000000
223		132.812500
224		128.906250
225		132.812500
226		132.812500
227		136.718750
228		132.812500
229		136.718750
230		136.718750
231		140.625000
232		136.718750
233		140.625000
234		140.625000
235		144.531250
236		140.625000
237		144.531250
238		144.531250
239		148.437500
240		144.531250
241		148.437500
242		148.437500
243		152.343750
244		148.437500
245		152.343750
246		148.437500
247		152.343750
248		152.343750
249		156.250000
250		152.343750
251		156.250000
252		152.343750
253		156.250000
254		152.343750
255		156.250000
256		156.250000
257		160.156250
258		156.250000
259		160.156250
260		156.250000
261		160.156250
262		156.250000
263		160.156250
264		156.250000
265		160.156250
266		156.250000
267		160.156250
268		156.250000
269		164.062500
270		156.250000
271		160.156250
272		156.250000
273		160.156250
274		156.250000
275		160.156250
276		156.250000
277		160.156250
278		156.250000
279		160.156250
280		156.250000
281		160.156250
282		156.250000
283		160.156250
284		156.250000
285		160.156250
286		152.343750
287		160.156250
288		152.343750
289		156.250000
290		152.343750
291		156.250000
292		152.343750
293		156.250000
294		152.343750
295		152.343750
296		148.437500
297		152.343750
298		148.437500
299		152.343750
300		144.531250
301		148.437500
302		144.531250
303		148.437500
304		140.625000
305		148.437500
306		140.625000
307		144.531250
308		136.718750
309		144.531250
310		136.718750
311		140.625000
312		132.812500
313		140.625000
314		128.906250
315		136.718750
316		128.906250
317		132.812500
318		125.000000
319		132.812500
320		121.093750
321		128.906250
322		121.093750
323		125.000000
324		117.187500
325		125.000000
326		113.281250
327		121.093750
328		109.375000
329		117.187500
330		105.468750
331		113.281250
332		105.468750
333		109.375000
334		101.562500
335		105.468750
336		97.656250
337		101.562500
338		93.750000
339		97.656250
340		89.843750
341		93.750000
342		85.937500
343		89.843750
344		82.031250
345		85.937500
346		78.125000
347		82.031250
348		74.218750
349		78.125000
350		70.312500
351		74.218750
352		62.500000
353		70.312500
354		58.593750
355		66.406250
356		54.687500
357		62.500000
358		50.781250
359		58.593750
360		46.875000
361		54.687500
362		42.968750
363		50.781250
364		39.062500
365		42.968750
366		31.250000
367		39.062500
368		27.343750
369		35.156250
370		23.437500
371		31.250000
372		19.531250
373		27.343750
374		11.718750
375		19.531250
376		7.812500
377		15.625000
378		3.906250
379		11.718750
380		0.000000
381		7.812500
382		-3.906250
383		0.000000
384		-7.812500
385		-3.906250
386		-15.625000
387		-7.812500
388		-19.531250
389		-11.718750
390		-23.437500
391		-15.625000
392		-31.250000
393		-23.437500
394		-35.156250
395		-27.343750
396		-39.062500
397		-31.250000
398		-42.968750
399		-35.156250
400		-46.875000
401		-42.968750
402		-50.781250
403		-46.875000
404		-54.687500
405		-50.781250
406		-62.500000
407		-54.687500
408		-66.406250
409		-58.593750
410		-70.312500
411		-62.500000
412		-74.218750
413		-66.406250
414		-78.125000
415		-70.312500
416		-82.031250
417		-74.218750
418		-85.937500
419		-78.125000
420		-89.843750
421		-82.031250
422		-93.750000
423		-85.937500
424		-97.656250
425		-89.843750
426		-101.562500
427		-93.750000
428		-101.562500
429		-97.656250
430		-105.468750
431		-101.562500
432		-109.375000
433		-105.468750
434		-113.281250
435		-109.375000
436		-117.187500
437		-109.375000
438		-117.187500
439		-113.281250
440		-121.093750
441		-117.187500
442		-125.000000
443		-117.187500
444		-125.000000
445		-121.093750
446		-128.906250
447		-125.000000
448		-128.906250
449		-125.000000
450		-132.812500
451		-128.906250
452		-132.812500
453		-128.906250
454		-132.812500
455		-128.906250
456		-136.718750
457		-132.812500
458		-136.718750
459		-132.812500
460		-136.718750
461		-132.812500
462		-136.718750
463		-136.718750
464		-140.625000
465		-136.718750
466		-140.625000
467		-136.718750
468		-140.625000
469		-136.718750
470		-140.625000
471		-136.718750
472		-140.625000
473		-136.718750
474		-140.625000
475		-136.718750
476		-140.625000
477		-136.718750
478		-140.625000
479		-136.718750
480		-140.625000
481		-136.718750
482		-140.625000
483		-132.812500
484		-136.718750
485		-132.812500
486		-136.718750
487		-132.812500
488		-136.718750
489		-132.812500
490		-132.812500
491		-128.906250
492		-132.812500
493		-128.906250
494		-128.906250
495		-125.000000
496		-128.906250
497		-125.000000
498		-125.000000
499		-121.093750
500		-125.000000
501		-121.093750
502		-121.093750
503		-117.187500
504		-121.093750
505		-113.281250
506		-117.187500
507		-113.281250
508		-113.281250
509		-109.375000
510		-109.375000
511		-105.468750
512		-109.375000
513		-101.562500
514		-105.468750
515		-97.656250
516		-101.562500
517		-97.656250
518		-97.656250
519		-93.750000
520		-93.750000
521		-89.843750
522		-89.843750
523		-85.937500
524		-85.937500
525		-82.031250
526		-82.031250
527		-78.125000
528		-78.125000
529		-74.218750
530		-74.218750
531		-70.312500
532		-70.312500
533		-62.500000
534		-66.406250
535		-58.593750
536		-62.500000
537		-54.687500
538		-58.593750
539		-50.781250
540		-54.687500
541		-46.875000
542		-50.781250
543		-42.968750
544		-42.968750
545		-39.062500
546		-39.062500
547		-31.250000
548		-35.156250
549		-27.343750
550		-31.250000
551		-23.437500
552		-27.343750
553		-19.531250
554		-19.531250
555		-15.625000
556		-15.625000
557		-7.812500
558		-11.718750
559		-3.906250
560		-7.812500
561		0.000000
562		0.000000
563		3.906250
564		3.906250
565		7.812500
566		7.812500
567		15.625000
568		11.718750
569		19.531250
570		15.625000
571		23.437500
572		19.531250
573		27.343750
574		27.343750
575		35.156250
576		31.250000
577		39.062500
578		35.156250
579		42.968750
580		39.062500
581		46.875000
582		46.875000
583		50.781250
584		46.875000
585		54.687500
586		54.687500
587		62.500000
588		58.593750
589		66.406250
590		62.500000
591		70.312500
592		66.406250
593		74.218750
594		70.312500
595		78.125000
596		74.218750
597		82.031250
598		78.125000
599		85.937500
600		82.031250
601		89.843750
602		85.937500
603		93.750000
604		89.843750
605		97.656250
606		93.750000
607		101.562500
608		97.656250
609		105.468750
610		101.562500
611		105.468750
612		105.468750
613		109.375000
614		109.375000
615		113.281250
616		109.375000
617		117.187500
618		113.281250
619		121.093750
620		117.187500
621		121.093750
622		121.093750
623		125.000000
624		125.000000
625		128.906250
626		125.000000
627		128.906250
628		128.906250
629		132.812500
630		128.906250
631		136.718750
632		132.812500
633		136.718750
634		136.718750
635		140.625000
636		136.718750
637		140.625000
638		140.625000
639		144.531250
640		140.625000
641		144.531250
642		144.531250
643		148.437500
644		144.531250
645		148.437500
646		148.437500
647		152.343750
648		148.437500
649		152.343750
650		148.437500
651		152.343750
652		152.343750
653		156.250000
654		152.343750
655		156.250000
656		152.343750
657		156.250000
658		156.250000
659		156.250000
660		156.250000
661		160.156250
662		156.250000
663		160.156250
664		156.250000
665		160.156250
666		156.250000
667		160.156250
668		156.250000
669		160.156250
670		156.250000
671		160.156250
672		156.250000
673		160.156250
674		156.250000
675		160.156250
676		160.156250
677		160.156250
678		156.250000
679		160.156250
680		156.250000
681		160.156250
682		156.250000
683		160.156250
684		156.250000
685		160.156250
686		156.250000
687		160.156250
688		156.250000
689		160.156250
690		152.343750
691		156.250000
692		152.343750
693		156.250000
694		152.343750
695		156.250000
696		148.437500
697		156.250000
698		148.437500
699		152.343750
700		148.437500
701		152.343750
702		148.437500
703		152.343750
704		144.531250
705		148.437500
706		144.531250
707		148.437500
708		140.625000
709		144.531250
710		140.625000
711		144.531250
712		136.718750
713		140.625000
714		136.718750
715		140.625000
716		132.812500
717		136.718750
718		128.906250
719		136.718750
720		128.906250
721		132.812500
722		125.000000
723		128.906250
724		121.093750
725		128.906250
726		117.187500
727		125.000000
728		117.187500
729		121.093750
730		113.281250
731		117.187500
732		109.375000
733		117.187500
734		105.468750
735		113.281250
736		101.562500
737		109.375000
738		97.656250
739		105.468750
740		93.750000
741		101.562500
742		89.843750
743		97.656250
744		85.937500
745		93.750000
746		85.937500
747		89.843750
748		82.031250
749		85.937500
750		74.218750
751		82.031250
752		70.312500
753		78.125000
754		66.406250
755		74.218750
756		62.500000
757		70.312500
758		58.593750
759		66.406250
760		54.687500
761		62.500000
762		50.781250
763		54.687500
764		46.875000
765		50.781250
766		39.062500
767		46.875000
768		35.156250
769		42.968750
770		31.250000
771		39.062500
772		27.343750
773		35.156250
774		23.437500
775		31.250000
776		15.625000
777		23.437500
778		11.718750
779		19.531250
780		7.812500
781		15.625000
782		3.906250
783		7.812500
784		0.000000
785		3.906250
786		-7.812500
787		0.000000
788		-11.718750
789		-3.906250
790		-15.625000
791		-7.812500
792		-19.531250
793		-15.625000
794		-27.343750
795		-19.531250
796		-31.250000
797		-23.437500
798		-35.156250
799		-27.343750
800		-39.062500
801		-31.250000
802		-42.968750
803		-39.062500
804		-50.781250
805		-42.968750
806		-54.687500
807		-46.875000
808		-58.593750
809		-50.781250
810		-62.500000
811		-54.687500
812		-66.406250
813		-58.593750
814		-70.312500
815		-66.406250
816		-74.218750
817		-70.312500
818		-82.031250
819		-74.218750
820		-82.031250
821		-78.125000
822		-85.937500
823		-82.031250
824		-89.843750
825		-85.937500
826		-93.750000
827		-89.843750
828		-97.656250
829		-93.750000
830		-101.562500
831		-97.656250
832		-105.468750
833		-97.656250
834		-109.375000
835		-101.562500
836		-109.375000
837		-105.468750
838		-113.281250
839		-109.375000
840		-117.187500
841		-113.281250
842		-121.093750
843		-113.281250
844		-121.093750
845		-117.187500
846		-125.000000
847		-121.093750
848		-128.906250
849		-121.093750
850		-128.906250
851		-125.000000
852		-132.812500
853		-125.000000
854		-132.812500
855		-128.906250
856		-132.812500
857		-128.906250
858		-136.718750
859		-132.812500
860		-136.718750
861		-132.812500
862		-136.718750
863		-136.718750
864		-140.625000
865		-136.718750
866		-140.625000
867		-136.718750
868		-140.625000
869		-136.718750
870		-140.625000
871		-136.718750
872		-140.625000
873		-140.625000
874		-144.531250
875		-136.718750
876		-140.625000
877		-140.625000
878		-140.625000
879		-140.625000
880		-140.625000
881		-136.718750
882		-140.625000
883		-136.718750
884		-140.625000
885		-136.718750
886		-140.625000
887		-136.718750
888		-140.625000
889		-136.718750
890		-136.718750
891		-132.812500
892		-136.718750
893		-132.812500
894		-136.718750
895		-132.812500
896		-132.812500
897		-128.906250
898		-132.812500
899		-128.906250
900		-128.906250
901		-125.000000
902		-128.906250
903		-125.000000
904		-125.000000
905		-121.093750
906		-125.000000
907		-121.093750
908		-121.093750
909		-117.187500
910		-117.187500
911		-113.281250
912		-117.187500
913		-109.375000
914		-113.281250
915		-105.468750
916		-109.375000
917		-105.468750
918		-105.468750
919		-101.562500
920		-105.468750
921		-97.656250
922		-97.656250
923		-93.750000
924		-97.656250
925		-89.843750
926		-93.750000
927		-85.937500
928		-89.843750
929		-82.031250
930		-85.937500
931		-78.125000
932		-82.031250
933		-74.218750
934		-78.125000
935		-70.312500
936		-74.218750
937		-66.406250
938		-66.406250
939		-62.500000
940		-62.500000
941		-58.593750
942		-58.593750
943		-54.687500
944		-54.687500
945		-46.875000
946		-50.781250
947		-42.968750
948		-46.875000
949		-39.062500
950		-39.062500
951		-35.156250
952		-35.156250
953		-27.343750
954		-31.250000
955		-23.437500
956		-27.343750
957		-19.531250
958		-23.437500
959		-15.625000
960		-19.531250
961		-7.812500
962		-11.718750
963		-3.906250
964		-7.812500
965		0.000000
966		-3.906250
967		3.906250
968		3.906250
969		11.718750
970		7.812500
971		11.718750
972		11.718750
973		19.531250
974		15.625000
975		23.437500
976		23.437500
977		27.343750
978		23.437500
979		31.250000
980		31.250000
981		39.062500
982		35.156250
983		42.968750
984		39.062500
985		46.875000
986		42.968750
987		50.781250
988		50.781250
989		54.687500
990		54.687500
991		58.593750
992		58.593750
993		66.406250
994		62.500000
995		70.312500
996		66.406250
997		74.218750
998		70.312500
999		78.125000
1000		74.218750
1001		82.031250
1002		78.125000
1003		85.937500
1004		82.031250
1005		89.843750
1006		85.937500
1007		93.750000
1008		89.843750
1009		97.656250
1010		93.750000
1011		101.562500
1012		97.656250
1013		105.468750
1014		101.562500
1015		109.375000
1016		101.562500
1017		109.375000
1018		105.468750
1019		113.281250
1020		109.375000
1021		117.187500
1022		113.281250
1023		117.187500
1024		117.187500
1025		121.093750
1026		117.187500
1027		125.000000
1028		121.093750
1029		128.906250
1030		125.000000
1031		132.812500
1032		128.906250
1033		132.812500
1034		128.906250
1035		136.718750
1036		132.812500
1037		136.718750
1038		132.812500
1039		140.625000
1040		136.718750
1041		140.625000
1042		136.718750
1043		144.531250
1044		140.625000
1045		148.437500
1046		140.625000
1047		148.437500
1048		144.531250
1049		148.437500
1050		144.531250
1051		152.343750
1052		144.531250
1053		152.343750
1054		148.437500
1055		152.343750
1056		152.343750
1057		152.343750
1058		152.343750
1059		156.250000
1060		152.343750
1061		156.250000
1062		152.343750
1063		160.156250
1064		152.343750
1065		160.156250
1066		152.343750
1067		160.156250
1068		152.343750
1069		160.156250
1070		156.250000
1071		160.156250
1072		156.250000
1073		160.156250
1074		156.250000
1075		160.156250
1076		156.250000
1077		160.156250
1078		156.250000
1079		160.156250
1080		156.250000
1081		160.156250
1082		156.250000
1083		160.156250
1084		156.250000
1085		160.156250
1086		152.343750
1087		160.156250
1088		152.343750
1089		160.156250
1090		156.250000
1091		160.156250
1092		152.343750
1093		156.250000
1094		152.343750
1095		160.156250
1096		148.437500
1097		156.250000
1098		148.437500
1099		156.250000
1100		148.437500
1101		156.250000
1102		148.437500
1103		152.343750
1104		144.531250
1105		152.343750
1106		144.531250
1107		148.437500
1108		144.531250
1109		148.437500
1110		140.625000
1111		148.437500
1112		136.718750
1113		144.531250
1114		136.718750
1115		144.531250
1116		132.812500
1117		140.625000
1118		132.812500
1119		140.625000
1120		128.906250
1121		136.718750
1122		128.906250
1123		136.718750
1124		125.000000
1125		132.812500
1126		121.093750
1127		128.906250
1128		121.093750
1129		128.906250
1130		117.187500
1131		125.000000
1132		113.281250
1133		121.093750
1134		109.375000
1135		117.187500
1136		105.468750
1137		113.281250
1138		105.468750
1139		109.375000
1140		101.562500
1141		105.468750
1142		97.656250
1143		101.562500
1144		93.750000
1145		101.562500
1146		89.843750
1147		97.656250
1148		85.937500
1149		93.750000
1150		82.031250
1151		89.843750
1152		78.125000
1153		85.937500
1154		74.218750
1155		82.031250
1156		70.312500
1157		78.125000
1158		66.406250
1159		70.312500
1160		58.593750
1161		66.406250
1162		54.687500
1163		66.406250
1164		50.781250
1165		58.593750
1166		46.875000
1167		54.687500
1168		42.968750
1169		50.781250
1170		39.062500
1171		46.875000
1172		35.156250
1173		42.968750
1174		31.250000
1175		35.156250
1176		23.437500
1177		31.250000
1178		19.531250
1179		31.250000
1180		11.718750
1181		23.437500
1182		7.812500
1183		19.531250
1184		3.906250
1185		15.625000
1186		0.000000
1187		7.812500
1188		-3.906250
1189		3.906250
1190		-7.812500
1191		-3.906250
1192		-11.718750
1193		-7.812500
1194		-19.531250
1195		-11.718750
1196		-23.437500
1197		-15.625000
1198		-31.250000
1199		-19.531250
1200		-35.156250
1201		-23.437500
1202		-39.062500
1203		-31.250000
1204		-42.968750
1205		-35.156250
1206		-46.875000
1207		-39.062500
1208		-50.781250
1209		-42.968750
1210		-54.687500
1211		-50.781250
1212		-62.500000
1213		-50.781250
1214		-66.406250
1215		-54.687500
1216		-70.312500
1217		-62.500000
1218		-74.218750
1219		-62.500000
1220		-78.125000
1221		-70.312500
1222		-82.031250
1223		-74.218750
1224		-85.937500
1225		-78.125000
1226		-89.843750
1227		-82.031250
1228		-93.750000
1229		-85.937500
1230		-97.656250
1231		-89.843750
1232		-101.562500
1233		-93.750000
1234		-105.468750
1235		-93.750000
1236		-109.375000
1237		-97.656250
1238		-113.281250
1239		-101.562500
1240		-113.281250
1241		-105.468750
1242		-113.281250
1243		-109.375000
1244		-121.093750
1245		-113.281250
1246		-121.093750
1247		-113.281250
1248		-125.000000
1249		-117.187500
1250		-128.906250
1251		-121.093750
1252		-128.906250
1253		-121.093750
1254		-132.812500
1255		-125.000000
1256		-132.812500
1257		-125.000000
1258		-132.812500
1259		-128.906250
1260		-136.718750
1261		-132.812500
1262		-136.718750
1263		-132.812500
1264		-140.625000
1265		-132.812500
1266		-140.625000
1267		-132.812500
1268		-140.625000
1269		-132.812500
1270		-140.625000
1271		-136.718750
1272		-144.531250
1273		-136.718750
1274		-140.625000
1275		-140.625000
1276		-140.625000
1277		-136.718750
1278		-144.531250
1279		-136.718750
1280		-144.531250
1281		-136.718750
1282		-144.531250
1283		-136.718750
1284		-144.531250
1285		-136.718750
1286		-144.531250
1287		-136.718750
1288		-140.625000
1289		-136.718750
1290		-140.625000
1291		-136.718750
1292		-140.625000
1293		-136.718750
1294		-136.718750
1295		-132.812500
1296		-136.718750
1297		-128.906250
1298		-136.718750
1299		-128.906250
1300		-136.718750
1301		-128.906250
1302		-132.812500
1303		-125.000000
1304		-132.812500
1305		-121.093750
1306		-128.906250
1307		-121.093750
1308		-125.000000
1309		-121.093750
1310		-121.093750
1311		-117.187500
1312		-121.093750
1313		-113.281250
1314		-117.187500
1315		-109.375000
1316		-117.187500
1317		-109.375000
1318		-113.281250
1319		-105.468750
1320		-109.375000
1321		-101.562500
1322		-105.468750
1323		-97.656250
1324		-101.562500
1325		-97.656250
1326		-97.656250
1327		-93.750000
1328		-93.750000
1329		-85.937500
1330		-93.750000
1331		-82.031250
1332		-85.937500
1333		-78.125000
1334		-85.937500
1335		-74.218750
1336		-82.031250
1337		-74.218750
1338		-74.218750
1339		-66.406250
1340		-74.218750
1341		-66.406250
1342		-66.406250
1343		-58.593750
1344		-62.500000
1345		-54.687500
1346		-58.593750
1347		-50.781250
1348		-54.687500
1349		-46.875000
1350		-50.781250
1351		-42.968750
1352		-42.968750
1353		-35.156250
1354		-39.062500
1355		-31.250000
1356		-35.156250
1357		-27.343750
1358		-31.250000
1359		-23.437500
1360		-23.437500
1361		-19.531250
1362		-19.531250
1363		-11.718750
1364		-15.625000
1365		-7.812500
1366		-11.718750
1367		-3.906250
1368		-7.812500
1369		3.906250
1370		-3.906250
1371		7.812500
1372		3.906250
1373		11.718750
1374		7.812500
1375		15.625000
1376		15.625000
1377		19.531250
1378		19.531250
1379		27.343750
1380		19.531250
1381		31.250000
1382		27.343750
1383		35.156250
1384		31.250000
1385		39.062500
1386		35.156250
1387		46.875000
1388		39.062500
1389		50.781250
1390		42.968750
1391		54.687500
1392		50.781250
1393		54.687500
1394		54.687500
1395		62.500000
1396		58.593750
1397		66.406250
1398		62.500000
1399		70.312500
1400		66.406250
1401		74.218750
1402		70.312500
1403		78.125000
1404		74.218750
1405		82.031250
1406		78.125000
1407		85.937500
1408		82.031250
1409		89.843750
1410		85.937500
1411		93.750000
1412		89.843750
1413		97.656250
1414		93.750000
1415		101.562500
1416		97.656250
1417		105.468750
1418		101.562500
1419		109.375000
1420		101.562500
1421		113.281250
1422		105.468750
1423		117.187500
1424		109.375000
1425		117.187500
1426		113.281250
1427		121.093750
1428		117.187500
1429		125.000000
1430		117.187500
1431		125.000000
1432		121.093750
1433		128.906250
1434		125.000000
1435		132.812500
1436		125.000000
1437		136.718750
1438		128.906250
1439		136.718750
1440		132.812500
1441		140.625000
1442		136.718750
1443		140.625000
1444		136.718750
1445		140.625000
1446		136.718750
1447		144.531250
1448		140.625000
1449		148.437500
1450		140.625000
1451		148.437500
1452		144.531250
1453		152.343750
1454		144.531250
1455		152.343750
1456		144.531250
1457		152.343750
1458		148.437500
1459		152.343750
1460		152.343750
1461		156.250000
1462		152.343750
1463		156.250000
1464		152.343750
1465		160.156250
1466		152.343750
1467		160.156250
1468		152.343750
1469		160.156250
1470		152.343750
1471		160.156250
1472		156.250000
1473		160.156250
1474		152.343750
1475		160.156250
1476		156.250000
1477		160.156250
1478		156.250000
1479		160.156250
1480		156.250000
1481		164.062500
1482		156.250000
1483		164.062500
1484		156.250000
1485		164.062500
1486		156.250000
1487		164.062500
1488		156.250000
1489		160.156250
1490		156.250000
1491		160.156250
1492		156.250000
1493		160.156250
1494		156.250000
1495		160.156250
1496		152.343750
1497		160.156250
1498		152.343750
1499		160.156250
1500		148.437500
1501		156.250000
1502		148.437500
1503		156.250000
1504		148.437500
1505		156.250000
1506		148.437500
1507		156.250000
1508		144.531250
1509		152.343750
1510		144.531250
1511		148.437500
1512		144.531250
1513		148.437500
1514		140.625000
1515		148.437500
1516		140.625000
1517		144.531250
1518		136.718750
1519		144.531250
1520		136.718750
1521		140.625000
1522		132.812500
1523		140.625000
1524		128.906250
1525		136.718750
1526		128.906250
1527		132.812500
1528		125.000000
1529		128.906250
1530		121.093750
1531		128.906250
1532		117.187500
1533		128.906250
1534		117.187500
1535		125.000000
1536		113.281250
1537		121.093750
1538		109.375000
1539		117.187500
1540		105.468750
1541		117.187500
1542		105.468750
1543		113.281250
1544		101.562500
1545		105.468750
1546		97.656250
1547		105.468750
1548		89.843750
1549		101.562500
1550		89.843750
1551		97.656250
1552		85.937500
1553		93.750000
1554		82.031250
1555		89.843750
1556		74.218750
1557		85.937500
1558		74.218750
1559		82.031250
1560		70.312500
1561		78.125000
1562		66.406250
1563		74.218750
1564		58.593750
1565		70.312500
1566		54.687500
1567		66.406250
1568		50.781250
1569		62.500000
1570		46.875000
1571		54.687500
1572		42.968750
1573		50.781250
1574		35.156250
1575		46.875000
1576		35.156250
1577		42.968750
1578		31.250000
1579		35.156250
1580		23.437500
1581		31.250000
1582		19.531250
1583		27.343750
1584		15.625000
1585		23.437500
1586		7.812500
1587		19.531250
1588		3.906250
1589		11.718750
1590		0.000000
1591		7.812500
1592		-3.906250
1593		3.906250
1594		-7.812500
1595		0.000000
1596		-15.625000
1597		-7.812500
1598		-19.531250
1599		-11.718750
1600		-23.437500
1601		-15.625000
1602		-31.250000
1603		-19.531250
1604		-31.250000
1605		-23.437500
1606		-39.062500
1607		-27.343750
1608		-42.968750
1609		-35.156250
1610		-46.875000
1611		-39.062500
1612		-50.781250
1613		-42.968750
1614		-58.593750
1615		-46.875000
1616		-62.500000
1617		-50.781250
1618		-66.406250
1619		-54.687500
1620		-70.312500
1621		-58.593750
1622		-74.218750
1623		-66.406250
1624		-78.125000
1625		-66.406250
1626		-82.031250
1627		-70.312500
1628		-85.937500
1629		-78.125000
1630		-89.843750
1631		-82.031250
1632		-93.750000
1633		-85.937500
1634		-97.656250
1635		-89.843750
1636		-101.562500
1637		-93.750000
1638		-105.468750
1639		-93.750000
1640		-109.375000
1641		-97.656250
1642		-109.375000
1643		-101.562500
1644		-113.281250
1645		-105.468750
1646		-113.281250
1647		-109.375000
1648		-121.093750
1649		-113.281250
1650		-121.093750
1651		-113.281250
1652		-125.000000
1653		-117.187500
1654		-128.906250
1655		-117.187500
1656		-128.906250
1657		-121.093750
1658		-132.812500
1659		-125.000000
1660		-132.812500
1661		-125.000000
1662		-132.812500
1663		-128.906250
1664		-136.718750
1665		-128.906250
1666		-136.718750
1667		-128.906250
1668		-140.625000
1669		-132.812500
1670		-140.625000
1671		-132.812500
1672		-140.625000
1673		-132.812500
1674		-140.625000
1675		-136.718750
1676		-144.531250
1677		-136.718750
1678		-140.625000
1679		-136.718750
1680		-140.625000
1681		-136.718750
1682		-144.531250
1683		-136.718750
1684		-144.531250
1685		-136.718750
1686		-144.531250
1687		-136.718750
1688		-144.531250
1689		-136.718750
1690		-144.531250
1691		-136.718750
1692		-140.625000
1693		-132.812500
1694		-140.625000
1695		-136.718750
1696		-136.718750
1697		-132.812500
1698		-136.718750
1699		-132.812500
1700		-136.718750
1701		-128.906250
1702		-136.718750
1703		-128.906250
1704		-132.812500
1705		-125.000000
1706		-132.812500
1707		-125.000000
1708		-128.906250
1709		-121.093750
1710		-128.906250
1711		-121.093750
1712		-125.000000
1713		-121.093750
1714		-121.093750
1715		-117.187500
1716		-121.093750
1717		-113.281250
1718		-117.187500
1719		-109.375000
1720		-117.187500
1721		-105.468750
1722		-113.281250
1723		-105.468750
1724		-109.375000
1725		-101.562500
1726		-105.468750
1727		-97.656250
1728		-101.562500
1729		-97.656250
1730		-97.656250
1731		-89.843750
1732		-93.750000
1733		-85.937500
1734		-89.843750
1735		-82.031250
1736		-85.937500
1737		-78.125000
1738		-85.937500
1739		-74.218750
1740		-78.125000
1741		-70.312500
1742		-74.218750
1743		-66.406250
1744		-70.312500
1745		-62.500000
1746		-66.406250
1747		-58.593750
1748		-62.500000
1749		-54.687500
1750		-58.593750
1751		-46.875000
1752		-54.687500
1753		-42.968750
1754		-50.781250
1755		-39.062500
1756		-46.875000
1757		-35.156250
1758		-39.062500
1759		-31.250000
1760		-35.156250
1761		-27.343750
1762		-27.343750
1763		-23.437500
1764		-23.437500
1765		-15.625000
1766		-19.531250
1767		-11.718750
1768		-15.625000
1769		-7.812500
1770		-11.718750
1771		0.000000
1772		-7.812500
1773		3.906250
1774		0.000000
1775		7.812500
1776		3.906250
1777		11.718750
1778		11.718750
1779		15.625000
1780		15.625000
1781		23.437500
1782		19.531250
1783		27.343750
1784		19.531250
1785		31.250000
1786		27.343750
1787		39.062500
1788		31.250000
1789		42.968750
1790		35.156250
1791		46.875000
1792		42.968750
1793		50.781250
1794		46.875000
1795		54.687500
1796		50.781250
1797		58.593750
1798		54.687500
1799		62.500000
1800		58.593750
1801		66.406250
1802		62.500000
1803		70.312500
1804		66.406250
1805		78.125000
1806		70.312500
1807		82.031250
1808		74.218750
1809		82.031250
1810		78.125000
1811		85.937500
1812		85.937500
1813		89.843750
1814		89.843750
1815		93.750000
1816		89.843750
1817		101.562500
1818		93.750000
1819		101.562500
1820		97.656250
1821		105.468750
1822		101.562500
1823		109.375000
1824		105.468750
1825		113.281250
1826		109.375000
1827		117.187500
1828		113.281250
1829		117.187500
1830		117.187500
1831		121.093750
1832		117.187500
1833		125.000000
1834		121.093750
1835		128.906250
1836		121.093750
1837		128.906250
1838		125.000000
1839		132.812500
1840		128.906250
1841		136.718750
1842		128.906250
1843		136.718750
1844		132.812500
1845		140.625000
1846		136.718750
1847		140.625000
1848		136.718750
1849		140.625000
1850		140.625000
1851		148.437500
1852		140.625000
1853		148.437500
1854		140.625000
1855		148.437500
1856		144.531250
1857		152.343750
1858		144.531250
1859		152.343750
1860		148.437500
1861		152.343750
1862		152.343750
1863		152.343750
1864		152.343750
1865		156.250000
1866		152.343750
1867		156.250000
1868		152.343750
1869		160.156250
1870		152.343750
1871		160.156250
1872		152.343750
1873		160.156250
1874		156.250000
1875		160.156250
1876		156.250000
1877		164.062500
1878		156.250000
1879		160.156250
1880		156.250000
1881		160.156250
1882		156.250000
1883		160.156250
1884		156.250000
1885		164.062500
1886		156.250000
1887		164.062500
1888		156.250000
1889		164.062500
1890		156.250000
1891		164.062500
1892		156.250000
1893		164.062500
1894		156.250000
1895		160.156250
1896		156.250000
1897		160.156250
1898		156.250000
1899		160.156250
1900		152.343750
1901		160.156250
1902		152.343750
1903		160.156250
1904		152.343750
1905		156.250000
1906		148.437500
1907		156.250000
1908		148.437500
1909		156.250000
1910		148.437500
1911		156.250000
1912		148.437500
1913		152.343750
1914		144.531250
1915		148.437500
1916		140.625000
1917		148.437500
1918		140.625000
1919		148.437500
1920		140.625000
1921		144.531250
1922		136.718750
1923		144.531250
1924		132.812500
1925		144.531250
1926		132.812500
1927		140.625000
1928		128.906250
1929		136.718750
1930		128.906250
1931		132.812500
1932		125.000000
1933		132.812500
1934		121.093750
1935		128.906250
1936		121.093750
1937		128.906250
1938		117.187500
1939		125.000000
1940		113.281250
1941		121.093750
1942		109.375000
1943		117.187500
1944		105.468750
1945		117.187500
1946		105.468750
1947		109.375000
1948		101.562500
1949		105.468750
1950		97.656250
1951		101.562500
1952		93.750000
1953		101.562500
1954		85.937500
1955		97.656250
1956		82.031250
1957		93.750000
1958		82.031250
1959		89.843750
1960		78.125000
1961		85.937500
1962		74.218750
1963		82.031250
1964		70.312500
1965		78.125000
1966		66.406250
1967		70.312500
1968		58.593750
1969		70.312500
1970		54.687500
1971		62.500000
1972		50.781250
1973		58.593750
1974		46.875000
1975		54.687500
1976		42.968750
1977		50.781250
1978		39.062500
1979		46.875000
1980		35.156250
1981		39.062500
1982		27.343750
1983		35.156250
1984		23.437500
1985		31.250000
1986		19.531250
1987		27.343750
1988		11.718750
1989		23.437500
1990		7.812500
1991		19.531250
1992		3.906250
1993		15.625000
1994		0.000000
1995		7.812500
1996		-3.906250
1997		3.906250
1998		-7.812500
1999		-3.906250
2000		-15.625000
2001		-7.812500
2002		-23.437500
2003		-11.718750
2004		-23.437500
2005		-15.625000
2006		-27.343750
2007		-19.531250
2008		-35.156250
2009		-23.437500
2010		-39.062500
2011		-31.250000
2012		-42.968750
2013		-35.156250
2014		-46.875000
2015		-39.062500
2016		-50.781250
2017		-46.875000
2018		-54.687500
2019		-46.875000
2020		-62.500000
2021		-50.781250
2022		-66.406250
2023		-58.593750
2024		-70.312500
2025		-62.500000
2026		-74.218750
2027		-66.406250
2028		-78.125000
2029		-70.312500
2030		-82.031250
2031		-74.218750
2032		-85.937500
2033		-78.125000
2034		-89.843750
2035		-82.031250
2036		-93.750000
2037		-85.937500
2038		-97.656250
2039		-89.843750
2040		-101.562500
2041		-93.750000
2042		-105.468750
2043		-97.656250
2044		-109.375000
2045		-97.656250
2046		-109.375000
2047		-105.468750
2048		-113.281250
2049		-109.375000
2050		-117.187500
2051		-109.375000
2052		-121.093750
2053		-113.281250
2054		-125.000000
2055		-117.187500
2056		-125.000000
2057		-117.187500
2058		-128.906250
2059		-121.093750
2060		-128.906250
2061		-121.093750
2062		-132.812500
2063		-125.000000
2064		-132.812500
2065		-128.906250
2066		-132.812500
2067		-128.906250
2068		-136.718750
2069		-132.812500
2070		-140.625000
2071		-132.812500
2072		-140.625000
2073		-132.812500
2074		-140.625000
2075		-132.812500
2076		-140.625000
2077		-136.718750
2078		-144.531250
2079		-136.718750
2080		-144.531250
2081		-136.718750
2082		-140.625000
2083		-140.625000
2084		-144.531250
2085		-136.718750
2086		-144.531250
2087		-136.718750
2088		-144.531250
2089		-136.718750
2090		-144.531250
2091		-136.718750
2092		-144.531250
2093		-136.718750
2094		-144.531250
2095		-136.718750
2096		-140.625000
2097		-132.812500
2098		-140.625000
2099		-136.718750
2100		-140.625000
2101		-132.812500
2102		-140.625000
2103		-132.812500
2104		-136.718750
2105		-128.906250
2106		-136.718750
2107		-128.906250
2108		-136.718750
2109		-128.906250
2110		-132.812500
2111		-125.000000
2112		-132.812500
2113		-121.093750
2114		-128.906250
2115		-121.093750
2116		-125.000000
2117		-121.093750
2118		-125.000000
2119		-117.187500
2120		-121.093750
2121		-113.281250
2122		-117.187500
2123		-109.375000
2124		-113.281250
2125		-105.468750
2126		-113.281250
2127		-105.468750
2128		-109.375000
2129		-101.562500
2130		-105.468750
2131		-97.656250
2132		-101.562500
2133		-93.750000
2134		-97.656250
2135		-89.843750
2136		-93.750000
2137		-85.937500
2138		-93.750000
2139		-82.031250
2140		-85.937500
2141		-78.125000
2142		-82.031250
2143		-74.218750
2144		-78.125000
2145		-70.312500
2146		-74.218750
2147		-66.406250
2148		-70.312500
2149		-62.500000
2150		-66.406250
2151		-58.593750
2152		-62.500000
2153		-54.687500
2154		-58.593750
2155		-46.875000
2156		-54.687500
2157		-42.968750
2158		-50.781250
2159		-39.062500
2160		-42.968750
2161		-35.156250
2162		-39.062500
2163		-31.250000
2164		-35.156250
2165		-27.343750
2166		-31.250000
2167		-23.437500
2168		-23.437500
2169		-15.625000
2170		-23.437500
2171		-11.718750
2172		-15.625000
2173		-7.812500
2174		-11.718750
2175		0.000000
2176		-7.812500
2177		3.906250
2178		0.000000
2179		7.812500
2180		3.906250
2181		11.718750
2182		11.718750
2183		15.625000
2184		15.625000
2185		19.531250
2186		19.531250
2187		27.343750
2188		23.437500
2189		31.250000
2190		27.343750
2191		35.156250
2192		31.250000
2193		42.968750
2194		35.156250
2195		46.875000
2196		39.062500
2197		50.781250
2198		46.875000
2199		54.687500
2200		50.781250
2201		58.593750
2202		54.687500
2203		62.500000
2204		58.593750
2205		66.406250
2206		62.500000
2207		74.218750
2208		66.406250
2209		78.125000
2210		70.312500
2211		82.031250
2212		74.218750
2213		85.937500
2214		78.125000
2215		85.937500
2216		82.031250
2217		89.843750
2218		89.843750
2219		93.750000
2220		89.843750
2221		97.656250
2222		93.750000
2223		105.468750
2224		97.656250
2225		105.468750
2226		101.562500
2227		109.375000
2228		105.468750
2229		113.281250
2230		109.375000
2231		117.187500
2232		109.375000
2233		117.187500
2234		117.187500
2235		121.093750
2236		117.187500
2237		125.000000
2238		121.093750
2239		128.906250
2240		121.093750
2241		128.906250
2242		125.000000
2243		132.812500
2244		128.906250
2245		136.718750
2246		128.906250
2247		136.718750
2248		132.812500
2249		140.625000
2250		136.718750
2251		140.625000
2252		136.718750
2253		144.531250
2254		136.718750
2255		148.437500
2256		140.625000
2257		148.437500
2258		140.625000
2259		148.437500
2260		144.531250
2261		152.343750
2262		144.531250
2263		152.343750
2264		144.531250
2265		152.343750
2266		148.437500
2267		152.343750
2268		152.343750
2269		156.250000
2270		152.343750
2271		156.250000
2272		152.343750
2273		160.156250
2274		152.343750
2275		160.156250
2276		152.343750
2277		160.156250
2278		152.343750
2279		160.156250
2280		152.343750
2281		160.156250
2282		156.250000
2283		160.156250
2284		156.250000
2285		160.156250
2286		156.250000
2287		160.156250
2288		156.250000
2289		164.062500
2290		156.250000
2291		160.156250
2292		156.250000
2293		160.156250
2294		156.250000
2295		160.156250
2296		156.250000
2297		160.156250
2298		152.343750
2299		160.156250
2300		156.250000
2301		160.156250
2302		152.343750
2303		160.156250
2304		152.343750
2305		160.156250
2306		148.437500
2307		160.156250
2308		148.437500
2309		156.250000
2310		148.437500
2311		156.250000
2312		148.437500
2313		156.250000
2314		144.531250
2315		152.343750
2316		144.531250
2317		152.343750
2318		144.531250
2319		148.437500
2320		140.625000
2321		148.437500
2322		140.625000
2323		148.437500
2324		136.718750
2325		144.531250
2326		136.718750
2327		144.531250
2328		132.812500
2329		140.625000
2330		132.812500
2331		136.718750
2332		128.906250
2333		136.718750
2334		128.906250
2335		132.812500
2336		121.093750
2337		128.906250
2338		121.093750
2339		128.906250
2340		117.187500
2341		125.000000
2342		113.281250
2343		125.000000
2344		109.375000
2345		121.093750
2346		105.468750
2347		117.187500
2348		105.468750
2349		113.281250
2350		101.562500
2351		109.375000
2352		97.656250
2353		105.468750
2354		93.750000
2355		101.562500
2356		89.843750
2357		101.562500
2358		85.937500
2359		93.750000
2360		82.031250
2361		89.843750
2362		78.125000
2363		89.843750
2364		74.218750
2365		82.031250
2366		74.218750
2367		82.031250
2368		66.406250
2369		74.218750
2370		62.500000
2371		70.312500
2372		58.593750
2373		66.406250
2374		54.687500
2375		62.500000
2376		50.781250
2377		58.593750
2378		42.968750
2379		54.687500
2380		39.062500
2381		50.781250
2382		35.156250
2383		46.875000
2384		31.250000
2385		39.062500
2386		27.343750
2387		35.156250
2388		23.437500
2389		31.250000
2390		15.625000
2391		27.343750
2392		11.718750
2393		19.531250
2394		7.812500
2395		15.625000
2396		0.000000
2397		11.718750
2398		-3.906250
2399		7.812500
2400		-3.906250
2401		0.000000
2402		-11.718750
2403		-3.906250
2404		-15.625000
2405		-7.812500
2406		-23.437500
2407		-11.718750
2408		-27.343750
2409		-15.625000
2410		-31.250000
2411		-23.437500
2412		-35.156250
2413		-27.343750
2414		-42.968750
2415		-31.250000
2416		-42.968750
2417		-35.156250
2418		-46.875000
2419		-42.968750
2420		-54.687500
2421		-46.875000
2422		-58.593750
2423		-50.781250
2424		-62.500000
2425		-54.687500
2426		-70.312500
2427		-58.593750
2428		-74.218750
2429		-62.500000
2430		-74.218750
2431		-66.406250
2432		-82.031250
2433		-70.312500
2434		-82.031250
2435		-74.218750
2436		-85.937500
2437		-82.031250
2438		-89.843750
2439		-85.937500
2440		-97.656250
2441		-85.937500
2442		-101.562500
2443		-89.843750
2444		-101.562500
2445		-93.750000
2446		-105.468750
2447		-97.656250
2448		-109.375000
2449		-101.562500
2450		-109.375000
2451		-105.468750
2452		-113.281250
2453		-109.375000
2454		-117.187500
2455		-113.281250
2456		-121.093750
2457		-113.281250
2458		-125.000000
2459		-117.187500
2460		-128.906250
2461		-117.187500
2462		-128.906250
2463		-121.093750
2464		-132.812500
2465		-121.093750
2466		-132.812500
2467		-125.000000
2468		-132.812500
2469		-128.906250
2470		-136.718750
2471		-128.906250
2472		-136.718750
2473		-128.906250
2474		-140.625000
2475		-132.812500
2476		-140.625000
2477		-132.812500
2478		-140.625000
2479		-132.812500
2480		-140.625000
2481		-136.718750
2482		-144.531250
2483		-136.718750
2484		-140.625000
2485		-136.718750
2486		-144.531250
2487		-140.625000
2488		-144.531250
2489		-136.718750
2490		-144.531250
2491		-136.718750
2492		-144.531250
2493		-136.718750
2494		-144.531250
2495		-136.718750
2496		-144.531250
2497		-136.718750
2498		-144.531250
2499		-136.718750
2500		-144.531250
2501		-136.718750
2502		-140.625000
2503		-136.718750
2504		-140.625000
2505		-132.812500
2506		-140.625000
2507		-132.812500
2508		-136.718750
2509		-128.906250
2510		-136.718750
2511		-128.906250
2512		-136.718750
2513		-128.906250
2514		-132.812500
2515		-125.000000
2516		-128.906250
2517		-125.000000
2518		-128.906250
2519		-121.093750
2520		-125.000000
2521		-121.093750
2522		-125.000000
2523		-117.187500
2524		-121.093750
2525		-113.281250
2526		-117.187500
2527		-109.375000
2528		-117.187500
2529		-105.468750
2530		-113.281250
2531		-105.468750
2532		-109.375000
2533		-101.562500
2534		-105.468750
2535		-97.656250
2536		-101.562500
2537		-93.750000
2538		-97.656250
2539		-89.843750
2540		-93.750000
2541		-85.937500
2542		-93.750000
2543		-82.031250
2544		-85.937500
2545		-78.125000
2546		-82.031250
2547		-74.218750
2548		-82.031250
2549		-70.312500
2550		-74.218750
2551		-66.406250
2552		-70.312500
2553		-62.500000
2554		-66.406250
2555		-54.687500
2556		-62.500000
2557		-54.687500
2558		-58.593750
2559		-46.875000
2560		-54.687500
2561		-42.968750
2562		-46.875000
2563		-39.062500
2564		-42.968750
2565		-35.156250
2566		-39.062500
2567		-31.250000
2568		-31.250000
2569		-27.343750
2570		-27.343750
2571		-23.437500
2572		-23.437500
2573		-15.625000
2574		-19.531250
2575		-11.718750
2576		-15.625000
2577		-3.906250
2578		-11.718750
2579		0.000000
2580		-3.906250
2581		3.906250
2582		0.000000
2583		7.812500
2584		3.906250
2585		11.718750
2586		11.718750
2587		15.625000
2588		15.625000
2589		23.437500
2590		15.625000
2591		27.343750
2592		23.437500
2593		31.250000
2594		27.343750
2595		35.156250
2596		31.250000
2597		42.968750
2598		35.156250
2599		46.875000
2600		42.968750
2601		50.781250
2602		46.875000
2603		54.687500
2604		50.781250
2605		58.593750
2606		54.687500
2607		62.500000
2608		58.593750
2609		66.406250
2610		62.500000
2611		74.218750
2612		66.406250
2613		78.125000
2614		70.312500
2615		82.031250
2616		74.218750
2617		85.937500
2618		82.031250
2619		85.937500
2620		85.937500
2621		89.843750
2622		85.937500
2623		93.750000
2624		89.843750
2625		101.562500
2626		93.750000
2627		101.562500
2628		97.656250
2629		105.468750
2630		101.562500
2631		109.375000
2632		105.468750
2633		113.281250
2634		109.375000
2635		113.281250
2636		113.281250
2637		117.187500
2638		117.187500
2639		121.093750
2640		117.187500
2641		125.000000
2642		121.093750
2643		128.906250
2644		121.093750
2645		132.812500
2646		125.000000
2647		132.812500
2648		128.906250
2649		136.718750
2650		128.906250
2651		136.718750
2652		132.812500
2653		136.718750
2654		136.718750
2655		140.625000
2656		136.718750
2657		144.531250
2658		140.625000
2659		144.531250
2660		140.625000
2661		148.437500
2662		140.625000
2663		148.437500
2664		144.531250
2665		152.343750
2666		144.531250
2667		152.343750
2668		148.437500
2669		152.343750
2670		148.437500
2671		152.343750
2672		152.343750
2673		156.250000
2674		148.437500
2675		156.250000
2676		152.343750
2677		160.156250
2678		152.343750
2679		160.156250
2680		152.343750
2681		160.156250
2682		152.343750
2683		160.156250
2684		152.343750
2685		160.156250
2686		156.250000
2687		160.156250
2688		156.250000
2689		160.156250
2690		156.250000
2691		164.062500
2692		156.250000
2693		164.062500
2694		156.250000
2695		164.062500
2696		156.250000
2697		160.156250
2698		156.250000
2699		164.062500
2700		152.343750
2701		160.156250
2702		156.250000
2703		160.156250
2704		156.250000
2705		160.156250
2706		152.343750
2707		160.156250
2708		152.343750
2709		160.156250
2710		148.437500
2711		156.250000
2712		148.437500
2713		156.250000
2714		148.437500
2715		156.250000
2716		148.437500
2717		156.250000
2718		144.531250
2719		152.343750
2720		144.531250
2721		148.437500
2722		144.531250
2723		148.437500
2724		140.625000
2725		148.437500
2726		140.625000
2727		148.437500
2728		136.718750
2729		144.531250
2730		132.812500
2731		144.531250
2732		132.812500
2733		140.625000
2734		128.906250
2735		136.718750
2736		128.906250
2737		132.812500
2738		125.000000
2739		132.812500
2740		121.093750
2741		128.906250
2742		121.093750
2743		128.906250
2744		117.187500
2745		125.000000
2746		113.281250
2747		121.093750
2748		109.375000
2749		121.093750
2750		109.375000
2751		117.187500
2752		105.468750
2753		113.281250
2754		101.562500
2755		109.375000
2756		97.656250
2757		105.468750
2758		93.750000
2759		101.562500
2760		89.843750
2761		97.656250
2762		85.937500
2763		93.750000
2764		82.031250
2765		89.843750
2766		78.125000
2767		85.937500
2768		74.218750
2769		82.031250
2770		70.312500
2771		78.125000
2772		66.406250
2773		74.218750
2774		62.500000
2775		70.312500
2776		54.687500
2777		66.406250
2778		50.781250
2779		62.500000
2780		46.875000
2781		58.593750
2782		42.968750
2783		50.781250
2784		39.062500
2785		46.875000
2786		35.156250
2787		42.968750
2788		31.250000
2789		35.156250
2790		23.437500
2791		31.250000
2792		19.531250
2793		27.343750
2794		15.625000
2795		23.437500
2796		11.718750
2797		19.531250
2798		3.906250
2799		15.625000
2800		0.000000
2801		7.812500
2802		-3.906250
2803		3.906250
2804		-7.812500
2805		0.000000
2806		-11.718750
2807		-7.812500
2808		-19.531250
2809		-7.812500
2810		-23.437500
2811		-11.718750
2812		-27.343750
2813		-19.531250
2814		-35.156250
2815		-23.437500
2816		-39.062500
2817		-27.343750
2818		-42.968750
2819		-31.250000
2820		-46.875000
2821		-39.062500
2822		-50.781250
2823		-42.968750
2824		-58.593750
2825		-46.875000
2826		-62.500000
2827		-50.781250
2828		-66.406250
2829		-54.687500
2830		-70.312500
2831		-58.593750
2832		-74.218750
2833		-62.500000
2834		-78.125000
2835		-66.406250
2836		-82.031250
2837		-74.218750
2838		-85.937500
2839		-78.125000
2840		-89.843750
2841		-82.031250
2842		-93.750000
2843		-85.937500
2844		-97.656250
2845		-85.937500
2846		-101.562500
2847		-93.750000
2848		-105.468750
2849		-93.750000
2850		-105.468750
2851		-97.656250
2852		-109.375000
2853		-101.562500
2854		-113.281250
2855		-105.468750
2856		-117.187500
2857		-109.375000
2858		-117.187500
2859		-113.281250
2860		-121.093750
2861		-113.281250
2862		-125.000000
2863		-117.187500
2864		-125.000000
2865		-117.187500
2866		-128.906250
2867		-121.093750
2868		-132.812500
2869		-125.000000
2870		-132.812500
2871		-125.000000
2872		-132.812500
2873		-128.906250
2874		-136.718750
2875		-132.812500
2876		-140.625000
2877		-132.812500
2878		-140.625000
2879		-132.812500
2880		-140.625000
2881		-132.812500
2882		-144.531250
2883		-136.718750
2884		-144.531250
2885		-136.718750
2886		-144.531250
2887		-136.718750
2888		-140.625000
2889		-140.625000
2890		-140.625000
2891		-140.625000
2892		-144.531250
2893		-136.718750
2894		-144.531250
2895		-136.718750
2896		-144.531250
2897		-136.718750
2898		-144.531250
2899		-136.718750
2900		-144.531250
2901		-136.718750
2902		-144.531250
2903		-136.718750
2904		-140.625000
2905		-136.718750
2906		-140.625000
2907		-136.718750
2908		-140.625000
2909		-132.812500
2910		-140.625000
2911		-132.812500
2912		-136.718750
2913		-128.906250
2914		-136.718750
2915		-128.906250
2916		-132.812500
2917		-128.906250
2918		-132.812500
2919		-125.000000
2920		-128.906250
2921		-125.000000
2922		-125.000000
2923		-121.093750
2924		-125.000000
2925		-117.187500
2926		-121.093750
2927		-113.281250
2928		-121.093750
2929		-113.281250
2930		-117.187500
2931		-109.375000
2932		-113.281250
2933		-105.468750
2934		-109.375000
2935		-101.562500
2936		-109.375000
2937		-101.562500
2938		-101.562500
2939		-97.656250
2940		-101.562500
2941		-93.750000
2942		-97.656250
2943		-89.843750
2944		-93.750000
2945		-85.937500
2946		-89.843750
2947		-82.031250
2948		-85.937500
2949		-78.125000
2950		-82.031250
2951		-74.218750
2952		-78.125000
2953		-70.312500
2954		-74.218750
2955		-66.406250
2956		-66.406250
2957		-62.500000
2958		-62.500000
2959		-54.687500
2960		-58.593750
2961		-50.781250
2962		-54.687500
2963		-46.875000
2964		-50.781250
2965		-42.968750
2966		-46.875000
2967		-39.062500
2968		-42.968750
2969		-31.250000
2970		-35.156250
2971		-27.343750
2972		-31.250000
2973		-23.437500
2974		-27.343750
2975		-19.531250
2976		-23.437500
2977		-11.718750
2978		-19.531250
2979		-7.812500
2980		-15.625000
2981		-3.906250
2982		-7.812500
2983		0.000000
2984		-3.906250
2985		7.812500
2986		0.000000
2987		11.718750
2988		7.812500
2989		15.625000
2990		11.718750
2991		19.531250
2992		15.625000
2993		27.343750
2994		19.531250
2995		27.343750
2996		23.437500
2997		35.156250
2998		31.250000
2999		39.062500
3000		35.156250
3001		42.968750
3002		39.062500
3003		46.875000
3004		42.968750
3005		50.781250
3006		50.781250
3007		54.687500
3008		54.687500
3009		58.593750
3010		58.593750
3011		66.406250
3012		58.593750
3013		70.312500
3014		66.406250
3015		74.218750
3016		70.312500
3017		78.125000
3018		74.218750
3019		82.031250
3020		78.125000
3021		85.937500
3022		82.031250
3023		89.843750
3024		85.937500
3025		93.750000
3026		89.843750
3027		97.656250
3028		93.750000
3029		101.562500
3030		93.750000
3031		105.468750
3032		101.562500
3033		109.375000
3034		101.562500
3035		113.281250
3036		105.468750
3037		113.281250
3038		109.375000
3039		117.187500
3040		113.281250
3041		121.093750
3042		117.187500
3043		125.000000
3044		117.187500
3045		128.906250
3046		121.093750
3047		128.906250
3048		125.000000
3049		132.812500
3050		125.000000
3051		132.812500
3052		128.906250
3053		136.718750
3054		132.812500
3055		140.625000
3056		136.718750
3057		140.625000
3058		136.718750
3059		140.625000
3060		136.718750
3061		144.531250
3062		140.625000
3063		148.437500
3064		140.625000
3065		148.437500
3066		144.531250
3067		152.343750
3068		144.531250
3069		152.343750
3070		148.437500
3071		152.343750
3072		148.437500
3073		152.343750
3074		152.343750
3075		156.250000
3076		152.343750
3077		156.250000
3078		152.343750
3079		160.156250
3080		152.343750
3081		160.156250
3082		152.343750
3083		160.156250
3084		152.343750
3085		160.156250
3086		156.250000
3087		160.156250
3088		156.250000
3089		164.062500
3090		156.250000
3091		160.156250
3092		156.250000
3093		160.156250
3094		156.250000
3095		164.062500
3096		156.250000
3097		164.062500
3098		156.250000
3099		164.062500
3100		156.250000
3101		164.062500
3102		156.250000
3103		164.062500
3104		156.250000
3105		160.156250
3106		156.250000
3107		160.156250
3108		156.250000
3109		160.156250
3110		152.343750
3111		160.156250
3112		152.343750
3113		160.156250
3114		152.343750
3115		156.250000
3116		148.437500
3117		160.156250
3118		148.437500
3119		156.250000
3120		148.437500
3121		156.250000
3122		148.437500
3123		152.343750
3124		144.531250
3125		148.437500
3126		144.531250
3127		148.437500
3128		140.625000
3129		148.437500
3130		140.625000
3131		148.437500
3132		136.718750
3133		144.531250
3134		136.718750
3135		144.531250
3136		132.812500
3137		140.625000
3138		132.812500
3139		136.718750
3140		128.906250
3141		132.812500
3142		128.906250
3143		132.812500
3144		121.093750
3145		128.906250
3146		121.093750
3147		128.906250
3148		117.187500
3149		125.000000
3150		113.281250
3151		121.093750
3152		109.375000
3153		121.093750
3154		105.468750
3155		117.187500
3156		105.468750
3157		113.281250
3158		101.562500
3159		109.375000
3160		97.656250
3161		105.468750
3162		93.750000
3163		101.562500
3164		89.843750
3165		97.656250
3166		85.937500
3167		93.750000
3168		82.031250
3169		89.843750
3170		78.125000
3171		89.843750
3172		74.218750
3173		82.031250
3174		70.312500
3175		78.125000
3176		66.406250
3177		74.218750
3178		62.500000
3179		70.312500
3180		54.687500
3181		66.406250
3182		54.687500
3183		62.500000
3184		46.875000
3185		58.593750
3186		42.968750
3187		50.781250
3188		39.062500
3189		46.875000
3190		35.156250
3191		42.968750
3192		31.250000
3193		39.062500
3194		23.437500
3195		31.250000
3196		23.437500
3197		27.343750
3198		15.625000
3199		23.437500
3200		11.718750
3201		19.531250
3202		7.812500
3203		15.625000
3204		0.000000
3205		7.812500
3206		-3.906250
3207		3.906250
3208		-7.812500
3209		0.000000
3210		-11.718750
3211		-3.906250
3212		-19.531250
3213		-7.812500
3214		-23.437500
3215		-15.625000
3216		-27.343750
3217		-19.531250
3218		-31.250000
3219		-23.437500
3220		-35.156250
3221		-27.343750
3222		-39.062500
3223		-31.250000
3224		-42.968750
3225		-39.062500
3226		-50.781250
3227		-42.968750
3228		-54.687500
3229		-46.875000
3230		-62.500000
3231		-50.781250
3232		-66.406250
3233		-54.687500
3234		-70.312500
3235		-58.593750
3236		-74.218750
3237		-62.500000
3238		-74.218750
3239		-66.406250
3240		-78.125000
3241		-70.312500
3242		-82.031250
3243		-78.125000
3244		-89.843750
3245		-82.031250
3246		-93.750000
3247		-82.031250
3248		-97.656250
3249		-85.937500
3250		-101.562500
3251		-89.843750
3252		-101.562500
3253		-93.750000
3254		-105.468750
3255		-97.656250
3256		-109.375000
3257		-101.562500
3258		-113.281250
3259		-105.468750
3260		-113.281250
3261		-109.375000
3262		-117.187500
3263		-109.375000
3264		-121.093750
3265		-113.281250
3266		-125.000000
3267		-117.187500
3268		-128.906250
3269		-117.187500
3270		-128.906250
3271		-121.093750
3272		-128.906250
3273		-125.000000
3274		-132.812500
3275		-125.000000
3276		-132.812500
3277		-128.906250
3278		-136.718750
3279		-128.906250
3280		-136.718750
3281		-128.906250
3282		-140.625000
3283		-132.812500
3284		-140.625000
3285		-132.812500
3286		-140.625000
3287		-132.812500
3288		-140.625000
3289		-136.718750
3290		-140.625000
3291		-136.718750
3292		-140.625000
3293		-136.718750
3294		-144.531250
3295		-136.718750
3296		-144.531250
3297		-136.718750
3298		-144.531250
3299		-136.718750
3300		-144.531250
3301		-136.718750
3302		-144.531250
3303		-136.718750
3304		-144.531250
3305		-136.718750
3306		-140.625000
3307		-136.718750
3308		-140.625000
3309		-136.718750
3310		-140.625000
3311		-136.718750
3312		-140.625000
3313		-132.812500
3314		-136.718750
3315		-128.906250
3316		-136.718750
3317		-128.906250
3318		-136.718750
3319		-128.906250
3320		-132.812500
3321		-125.000000
3322		-132.812500
3323		-125.000000
3324		-128.906250
3325		-125.000000
3326		-125.000000
3327		-121.093750
3328		-121.093750
3329		-117.187500
3330		-121.093750
3331		-113.281250
3332		-117.187500
3333		-109.375000
3334		-117.187500
3335		-105.468750
3336		-113.281250
3337		-105.468750
3338		-109.375000
3339		-101.562500
3340		-109.375000
3341		-101.562500
3342		-101.562500
3343		-97.656250
3344		-97.656250
3345		-93.750000
3346		-97.656250
3347		-85.937500
3348		-93.750000
3349		-85.937500
3350		-89.843750
3351		-82.031250
3352		-85.937500
3353		-74.218750
3354		-82.031250
3355		-70.312500
3356		-78.125000
3357		-66.406250
3358		-70.312500
3359		-66.406250
3360		-66.406250
3361		-58.593750
3362		-62.500000
3363		-54.687500
3364		-58.593750
3365		-50.781250
3366		-54.687500
3367		-46.875000
3368		-50.781250
3369		-42.968750
3370		-46.875000
3371		-35.156250
3372		-42.968750
3373		-31.250000
3374		-35.156250
3375		-27.343750
3376		-31.250000
3377		-23.437500
3378		-27.343750
3379		-15.625000
3380		-23.437500
3381		-11.718750
3382		-19.531250
3383		-7.812500
3384		-11.718750
3385		-3.906250
3386		-7.812500
3387		0.000000
3388		-3.906250
3389		3.906250
3390		0.000000
3391		11.718750
3392		7.812500
3393		15.625000
3394		11.718750
3395		19.531250
3396		15.625000
3397		27.343750
3398		19.531250
3399		31.250000
3400		23.437500
3401		35.156250
3402		31.250000
3403		39.062500
3404		35.156250
3405		42.968750
3406		39.062500
3407		46.875000
3408		42.968750
3409		50.781250
3410		50.781250
3411		54.687500
3412		54.687500
3413		62.500000
3414		58.593750
3415		66.406250
3416		58.593750
3417		70.312500
3418		66.406250
3419		74.218750
3420		70.312500
3421		78.125000
3422		74.218750
3423		82.031250
3424		78.125000
3425		85.937500
3426		82.031250
3427		89.843750
3428		85.937500
3429		93.750000
3430		89.843750
3431		97.656250
3432		93.750000
3433		101.562500
3434		97.656250
3435		105.468750
3436		97.656250
3437		109.375000
3438		101.562500
3439		113.281250
3440		105.468750
3441		117.187500
3442		109.375000
3443		117.187500
3444		113.281250
3445		121.093750
3446		117.187500
3447		125.000000
3448		117.187500
3449		128.906250
3450		121.093750
3451		128.906250
3452		125.000000
3453		132.812500
3454		125.000000
3455		132.812500
3456		128.906250
3457		136.718750
3458		132.812500
3459		136.718750
3460		136.718750
3461		140.625000
3462		136.718750
3463		144.531250
3464		136.718750
3465		144.531250
3466		140.625000
3467		148.437500
3468		140.625000
3469		148.437500
3470		144.531250
3471		152.343750
3472		144.531250
3473		152.343750
3474		144.531250
3475		152.343750
3476		148.437500
3477		152.343750
3478		152.343750
3479		156.250000
3480		152.343750
3481		156.250000
3482		152.343750
3483		160.156250
3484		152.343750
3485		160.156250
3486		152.343750
3487		160.156250
3488		156.250000
3489		160.156250
3490		152.343750
3491		160.156250
3492		152.343750
3493		164.062500
3494		156.250000
3495		160.156250
3496		156.250000
3497		164.062500
3498		156.250000
3499		164.062500
3500		156.250000
3501		164.062500
3502		156.250000
3503		164.062500
3504		156.250000
3505		164.062500
3506		156.250000
3507		160.156250
3508		156.250000
3509		160.156250
3510		156.250000
3511		160.156250
3512		156.250000
3513		160.156250
3514		152.343750
3515		160.156250
3516		152.343750
3517		160.156250
3518		152.343750
3519		160.156250
3520		148.437500
3521		156.250000
3522		148.437500
3523		156.250000
3524		148.437500
3525		156.250000
3526		148.437500
3527		152.343750
3528		144.531250
3529		148.437500
3530		144.531250
3531		148.437500
3532		140.625000
3533		148.437500
3534		140.625000
3535		148.437500
3536		136.718750
3537		144.531250
3538		136.718750
3539		144.531250
3540		132.812500
3541		140.625000
3542		132.812500
3543		136.718750
3544		128.906250
3545		132.812500
3546		125.000000
3547		132.812500
3548		125.000000
3549		128.906250
3550		121.093750
3551		128.906250
3552		117.187500
3553		125.000000
3554		113.281250
3555		121.093750
3556		109.375000
3557		117.187500
3558		105.468750
3559		117.187500
3560		105.468750
3561		109.375000
3562		101.562500
3563		105.468750
3564		97.656250
3565		105.468750
3566		93.750000
3567		101.562500
3568		89.843750
3569		97.656250
3570		85.937500
3571		93.750000
3572		82.031250
3573		89.843750
3574		78.125000
3575		85.937500
3576		74.218750
3577		82.031250
3578		70.312500
3579		78.125000
3580		66.406250
3581		74.218750
3582		62.500000
3583		70.312500
3584		58.593750
3585		62.500000
3586		54.687500
3587		58.593750
3588		46.875000
3589		54.687500
3590		42.968750
3591		50.781250
3592		39.062500
3593		46.875000
3594		35.156250
3595		42.968750
3596		31.250000
3597		35.156250
3598		27.343750
3599		31.250000
3600		19.531250
3601		27.343750
3602		15.625000
3603		23.437500
3604		11.718750
3605		19.531250
3606		3.906250
3607		11.718750
3608		0.000000
3609		7.812500
3610		-3.906250
3611		3.906250
3612		-7.812500
3613		0.000000
3614		-11.718750
3615		-7.812500
3616		-19.531250
3617		-11.718750
3618		-23.437500
3619		-15.625000
3620		-27.343750
3621		-19.531250
3622		-31.250000
3623		-23.437500
3624		-35.156250
3625		-31.250000
3626		-42.968750
3627		-35.156250
3628		-46.875000
3629		-39.062500
3630		-50.781250
3631		-42.968750
3632		-54.687500
3633		-46.875000
3634		-58.593750
3635		-50.781250
3636		-62.500000
3637		-58.593750
3638		-66.406250
3639		-62.500000
3640		-74.218750
3641		-66.406250
3642		-78.125000
3643		-70.312500
3644		-82.031250
3645		-74.218750
3646		-85.937500
3647		-78.125000
3648		-89.843750
3649		-82.031250
3650		-93.750000
3651		-85.937500
3652		-93.750000
3653		-89.843750
3654		-97.656250
3655		-93.750000
3656		-101.562500
3657		-97.656250
3658		-105.468750
3659		-101.562500
3660		-109.375000
3661		-105.468750
3662		-113.281250
3663		-105.468750
3664		-117.187500
3665		-109.375000
3666		-117.187500
3667		-113.281250
3668		-121.093750
3669		-113.281250
3670		-121.093750
3671		-117.187500
3672		-125.000000
3673		-121.093750
3674		-128.906250
3675		-121.093750
3676		-128.906250
3677		-125.000000
3678		-132.812500
3679		-128.906250
3680		-132.812500
3681		-128.906250
3682		-132.812500
3683		-128.906250
3684		-136.718750
3685		-132.812500
3686		-136.718750
3687		-132.812500
3688		-136.718750
3689		-136.718750
3690		-140.625000
3691		-136.718750
3692		-140.625000
3693		-136.718750
3694		-140.625000
3695		-136.718750
3696		-140.625000
3697		-136.718750
3698		-140.625000
3699		-136.718750
3700		-140.625000
3701		-136.718750
3702		-140.625000
3703		-136.718750
3704		-144.531250
3705		-136.718750
3706		-140.625000
3707		-136.718750
3708		-140.625000
3709		-136.718750
3710		-140.625000
3711		-136.718750
3712		-140.625000
3713		-136.718750
3714		-136.718750
3715		-136.718750
3716		-136.718750
3717		-132.812500
3718		-136.718750
3719		-132.812500
3720		-132.812500
3721		-128.906250
3722		-132.812500
3723		-128.906250
3724		-132.812500
3725		-125.000000
3726		-128.906250
3727		-125.000000
3728		-125.000000
3729		-121.093750
3730		-125.000000
3731		-121.093750
3732		-121.093750
3733		-117.187500
3734		-121.093750
3735		-113.281250
3736		-117.187500
3737		-113.281250
3738		-113.281250
3739		-109.375000
3740		-109.375000
3741		-105.468750
3742		-105.468750
3743		-101.562500
3744		-105.468750
3745		-97.656250
3746		-101.562500
3747		-93.750000
3748		-97.656250
3749		-89.843750
3750		-93.750000
3751		-85.937500
3752		-89.843750
3753		-82.031250
3754		-85.937500
3755		-82.031250
3756		-82.031250
3757		-74.218750
3758		-78.125000
3759		-70.312500
3760		-74.218750
3761		-66.406250
3762		-70.312500
3763		-62.500000
3764		-66.406250
3765		-58.593750
3766		-62.500000
3767		-54.687500
3768		-54.687500
3769		-50.781250
3770		-50.781250
3771		-46.875000
3772		-46.875000
3773		-39.062500
3774		-42.968750
3775		-35.156250
3776		-39.062500
3777		-31.250000
3778		-35.156250
3779		-27.343750
3780		-27.343750
3781		-23.437500
3782		-23.437500
3783		-15.625000
3784		-19.531250
3785		-11.718750
3786		-15.625000
3787		-7.812500
3788		-7.812500
3789		-3.906250
3790		-3.906250
3791		0.000000
3792		0.000000
3793		7.812500
3794		3.906250
3795		11.718750
3796		11.718750
3797		15.625000
3798		15.625000
3799		23.437500
3800		19.531250
3801		27.343750
3802		23.437500
3803		31.250000
3804		27.343750
3805		35.156250
3806		35.156250
3807		39.062500
3808		39.062500
3809		42.968750
3810		42.968750
3811		50.781250
3812		46.875000
3813		54.687500
3814		50.781250
3815		58.593750
3816		54.687500
3817		62.500000
3818		58.593750
3819		66.406250
3820		66.406250
3821		70.312500
3822		70.312500
3823		74.218750
3824		74.218750
3825		78.125000
3826		74.218750
3827		82.031250
3828		82.031250
3829		85.937500
3830		85.937500
3831		89.843750
3832		89.843750
3833		93.750000
3834		93.750000
3835		97.656250
3836		97.656250
3837		101.562500
3838		101.562500
3839		105.468750
3840		101.562500
3841		109.375000
3842		105.468750
3843		113.281250
3844		109.375000
3845		117.187500
3846		113.281250
3847		117.187500
3848		117.187500
3849		121.093750
3850		121.093750
3851		125.000000
3852		121.093750
3853		125.000000
3854		125.000000
3855		128.906250
3856		128.906250
3857		132.812500
3858		128.906250
3859		136.718750
3860		132.812500
3861		136.718750
3862		132.812500
3863		140.625000
3864		136.718750
3865		140.625000
3866		140.625000
3867		144.531250
3868		140.625000
3869		144.531250
3870		140.625000
3871		148.437500
3872		144.531250
3873		148.437500
3874		144.531250
3875		152.343750
3876		148.437500
3877		152.343750
3878		148.437500
3879		152.343750
3880		152.343750
3881		156.250000
3882		152.343750
3883		156.250000
3884		152.343750
3885		156.250000
3886		152.343750
3887		160.156250
3888		156.250000
3889		160.156250
3890		156.250000
3891		160.156250
3892		156.250000
3893		160.156250
3894		156.250000
3895		160.156250
3896		156.250000
3897		160.156250
3898		156.250000
3899		160.156250
3900		160.156250
3901		160.156250
3902		160.156250
3903		164.062500
3904		156.250000
3905		164.062500
3906		156.250000
3907		160.156250
3908		160.156250
3909		160.156250
3910		156.250000
3911		160.156250
3912		156.250000
3913		160.156250
3914		156.250000
3915		160.156250
3916		156.250000
3917		160.156250
3918		156.250000
3919		160.156250
3920		156.250000
3921		156.250000
3922		152.343750
3923		156.250000
3924		152.343750
3925		156.250000
3926		152.343750
3927		156.250000
3928		148.437500
3929		152.343750
3930		148.437500
3931		152.343750
3932		144.531250
3933		152.343750
3934		144.531250
3935		148.437500
3936		144.531250
3937		148.437500
3938		140.625000
3939		148.437500
3940		140.625000
3941		144.531250
3942		136.718750
3943		140.625000
3944		132.812500
3945		140.625000
3946		132.812500
3947		136.718750
3948		128.906250
3949		132.812500
3950		125.000000
3951		132.812500
3952		125.000000
3953		128.906250
3954		121.093750
3955		125.000000
3956		117.187500
3957		125.000000
3958		113.281250
3959		121.093750
3960		113.281250
3961		117.187500
3962		109.375000
3963		113.281250
3964		105.468750
3965		109.375000
3966		101.562500
3967		105.468750
3968		97.656250
3969		105.468750
3970		93.750000
3971		101.562500
3972		89.843750
3973		97.656250
3974		85.937500
3975		93.750000
3976		82.031250
3977		89.843750
3978		78.125000
3979		85.937500
3980		74.218750
3981		82.031250
3982		70.312500
3983		78.125000
3984		66.406250
3985		74.218750
3986		62.500000
3987		70.312500
3988		58.593750
3989		62.500000
3990		50.781250
3991		58.593750
3992		46.875000
3993		54.687500
3994		42.968750
3995		50.781250
3996		39.062500
3997		46.875000
3998		35.156250
3999		42.968750
4000		27.343750
4001		39.062500
4002		23.437500
4003		31.250000
4004		19.531250
4005		27.343750
4006		15.625000
4007		23.437500
4008		11.718750
4009		15.625000
4010		7.812500
4011		11.718750
4012		0.000000
4013		7.812500
4014		-3.906250
4015		3.906250
4016		-7.812500
4017		0.000000
4018		-11.718750
4019		-7.812500
4020		-15.625000
4021		-11.718750
4022		-23.437500
4023		-15.625000
4024		-27.343750
4025		-19.531250
4026		-31.250000
4027		-23.437500
4028		-35.156250
4029		-31.250000
4030		-42.968750
4031		-35.156250
4032		-46.875000
4033		-39.062500
4034		-50.781250
4035		-42.968750
4036		-54.687500
4037		-46.875000
4038		-58.593750
4039		-54.687500
4040		-62.500000
4041		-58.593750
4042		-66.406250
4043		-62.500000
4044		-70.312500
4045		-66.406250
4046		-78.125000
4047		-70.312500
4048		-82.031250
4049		-74.218750
4050		-85.937500
4051		-78.125000
4052		-89.843750
4053		-82.031250
4054		-93.750000
4055		-85.937500
4056		-93.750000
4057		-89.843750
4058		-97.656250
4059		-93.750000
4060		-101.562500
4061		-97.656250
4062		-105.468750
4063		-101.562500
4064		-109.375000
4065		-101.562500
4066		-113.281250
4067		-105.468750
4068		-113.281250
4069		-109.375000
4070		-117.187500
4071		-113.281250
4072		-121.093750
4073		-113.281250
4074		-121.093750
4075		-117.187500
4076		-125.000000
4077		-121.093750
4078		-128.906250
4079		-121.093750
4080		-128.906250
4081		-125.000000
4082		-132.812500
4083		-128.906250
4084		-132.812500
4085		-128.906250
4086		-132.812500
4087		-128.906250
4088		-136.718750
4089		-132.812500
4090		-136.718750
4091		-132.812500
4092		-136.718750
4093		-132.812500
4094		-140.625000
4095		-136.718750
4096		-140.625000
4097		-136.718750
4098		-140.625000
4099		-136.718750
4100		-140.625000
4101		-136.718750
4102		-140.625000
4103		-136.718750
4104		-140.625000
4105		-136.718750
4106		-140.625000
4107		-136.718750
4108		-140.625000
4109		-136.718750
4110		-140.625000
4111		-136.718750
4112		-140.625000
4113		-136.718750
4114		-140.625000
4115		-136.718750
4116		-136.718750
4117		-132.812500
4118		-136.718750
4119		-132.812500
4120		-136.718750
4121		-132.812500
4122		-136.718750
4123		-132.812500
4124		-132.812500
4125		-128.906250
4126		-132.812500
4127		-125.000000
4128		-128.906250
4129		-125.000000
4130		-128.906250
4131		-125.000000
4132		-125.000000
4133		-121.093750
4134		-125.000000
4135		-117.187500
4136		-121.093750
4137		-117.187500
4138		-117.187500
4139		-113.281250
4140		-117.187500
4141		-109.375000
4142		-113.281250
4143		-105.468750
4144		-109.375000
4145		-105.468750
4146		-105.468750
4147		-101.562500
4148		-105.468750
4149		-97.656250
4150		-101.562500
4151		-93.750000
4152		-97.656250
4153		-89.843750
4154		-93.750000
4155		-85.937500
4156		-89.843750
4157		-82.031250
4158		-85.937500
4159		-78.125000
4160		-82.031250
4161		-74.218750
4162		-78.125000
4163		-70.312500
4164		-74.218750
4165		-66.406250
4166		-70.312500
4167		-62.500000
4168		-66.406250
4169		-58.593750
4170		-62.500000
4171		-54.687500
4172		-54.687500
4173		-50.781250
4174		-50.781250
4175		-42.968750
4176		-46.875000
4177		-39.062500
4178		-42.968750
4179		-35.156250
4180		-39.062500
4181		-31.250000
4182		-31.250000
4183		-27.343750
4184		-27.343750
4185		-23.437500
4186		-23.437500
4187		-15.625000
4188		-19.531250
4189		-11.718750
4190		-11.718750
4191		-7.812500
4192		-7.812500
4193		-3.906250
4194		-3.906250
4195		3.906250
4196		0.000000
4197		7.812500
4198		3.906250
4199		11.718750
4200		11.718750
4201		15.625000
4202		15.625000
4203		23.437500
4204		19.531250
4205		27.343750
4206		23.437500
4207		31.250000
4208		27.343750
4209		35.156250
4210		35.156250
4211		39.062500
4212		39.062500
4213		42.968750
4214		42.968750
4215		50.781250
4216		46.875000
4217		54.687500
4218		50.781250
4219		58.593750
4220		54.687500
4221		62.500000
4222		62.500000
4223		66.406250
4224		66.406250
4225		70.312500
4226		70.312500
4227		74.218750
4228		74.218750
4229		78.125000
4230		78.125000
4231		82.031250
4232		82.031250
4233		85.937500
4234		85.937500
4235		89.843750
4236		89.843750
4237		93.750000
4238		93.750000
4239		97.656250
4240		97.656250
4241		101.562500
4242		101.562500
4243		105.468750
4244		101.562500
4245		109.375000
4246		105.468750
4247		113.281250
4248		109.375000
4249		117.187500
4250		113.281250
4251		117.187500
4252		117.187500
4253		121.093750
4254		117.187500
4255		125.000000
4256		121.093750
4257		125.000000
4258		125.000000
4259		128.906250
4260		128.906250
4261		132.812500
4262		128.906250
4263		136.718750
4264		132.812500
4265		136.718750
4266		132.812500
4267		140.625000
4268		136.718750
4269		140.625000
4270		140.625000
4271		144.531250
4272		140.625000
4273		144.531250
4274		144.531250
4275		148.437500
4276		144.531250
4277		148.437500
4278		148.437500
4279		152.343750
4280		148.437500
4281		152.343750
4282		148.437500
4283		152.343750
4284		152.343750
4285		156.250000
4286		152.343750
4287		156.250000
4288		152.343750
4289		156.250000
4290		152.343750
4291		156.250000
4292		156.250000
4293		160.156250
4294		156.250000
4295		160.156250
4296		156.250000
4297		160.156250
4298		156.250000
4299		160.156250
4300		156.250000
4301		160.156250
4302		156.250000
4303		160.156250
4304		156.250000
4305		164.062500
4306		160.156250
4307		160.156250
4308		160.156250
4309		160.156250
4310		160.156250
4311		164.062500
4312		160.156250
4313		160.156250
4314		156.250000
4315		160.156250
4316		156.250000
4317		160.156250
4318		156.250000
4319		160.156250
4320		156.250000
4321		160.156250
4322		156.250000
4323		160.156250
4324		152.343750
4325		156.250000
4326		152.343750
4327		156.250000
4328		152.343750
4329		156.250000
4330		152.343750
4331		156.250000
4332		148.437500
4333		152.343750
4334		148.437500
4335		152.343750
4336		148.437500
4337		148.437500
4338		144.531250
4339		148.437500
4340		144.531250
4341		148.437500
4342		140.625000
4343		144.531250
4344		140.625000
4345		144.531250
4346		136.718750
4347		140.625000
4348		132.812500
4349		140.625000
4350		132.812500
4351		136.718750
4352		128.906250
4353		132.812500
4354		125.000000
4355		132.812500
4356		125.000000
4357		128.906250
4358		121.093750
4359		125.000000
4360		117.187500
4361		125.000000
4362		117.187500
4363		121.093750
4364		113.281250
4365		117.187500
4366		109.375000
4367		113.281250
4368		105.468750
4369		109.375000
4370		101.562500
4371		105.468750
4372		97.656250
4373		105.468750
4374		93.750000
4375		101.562500
4376		89.843750
4377		97.656250
4378		85.937500
4379		93.750000
4380		82.031250
4381		89.843750
4382		78.125000
4383		85.937500
4384		74.218750
4385		82.031250
4386		70.312500
4387		78.125000
4388		66.406250
4389		74.218750
4390		62.500000
4391		66.406250
4392		58.593750
4393		62.500000
4394		54.687500
4395		58.593750
4396		46.875000
4397		54.687500
4398		42.968750
4399		50.781250
4400		39.062500
4401		46.875000
4402		35.156250
4403		42.968750
4404		31.250000
4405		35.156250
4406		23.437500
4407		31.250000
4408		19.531250
4409		27.343750
4410		15.625000
4411		23.437500
4412		11.718750
4413		19.531250
4414		7.812500
4415		11.718750
4416		0.000000
4417		7.812500
4418		-3.906250
4419		3.906250
4420		-7.812500
4421		0.000000
4422		-11.718750
4423		-7.812500
4424		-19.531250
4425		-11.718750
4426		-23.437500
4427		-15.625000
4428		-27.343750
4429		-19.531250
4430		-31.250000
4431		-27.343750
4432		-35.156250
4433		-31.250000
4434		-42.968750
4435		-35.156250
4436		-46.875000
4437		-39.062500
4438		-50.781250
4439		-42.968750
4440		-54.687500
4441		-46.875000
4442		-58.593750
4443		-54.687500
4444		-62.500000
4445		-58.593750
4446		-70.312500
4447		-62.500000
4448		-70.312500
4449		-66.406250
4450		-78.125000
4451		-70.312500
4452		-82.031250
4453		-74.218750
4454		-85.937500
4455		-78.125000
4456		-89.843750
4457		-82.031250
4458		-93.750000
4459		-85.937500
4460		-93.750000
4461		-89.843750
4462		-101.562500
4463		-93.750000
4464		-101.562500
4465		-97.656250
4466		-105.468750
4467		-101.562500
4468		-109.375000
4469		-105.468750
4470		-113.281250
4471		-105.468750
4472		-117.187500
4473		-109.375000
4474		-117.187500
4475		-113.281250
4476		-121.093750
4477		-117.187500
4478		-121.093750
4479		-117.187500
4480		-125.000000
4481		-121.093750
4482		-128.906250
4483		-121.093750
4484		-128.906250
4485		-125.000000
4486		-132.812500
4487		-128.906250
4488		-132.812500
4489		-128.906250
4490		-132.812500
4491		-128.906250
4492		-136.718750
4493		-132.812500
4494		-136.718750
4495		-132.812500
4496		-136.718750
4497		-132.812500
4498		-140.625000
4499		-136.718750
4500		-140.625000
4501		-136.718750
4502		-140.625000
4503		-136.718750
4504		-140.625000
4505		-136.718750
4506		-140.625000
4507		-136.718750
4508		-140.625000
4509		-136.718750
4510		-140.625000
4511		-136.718750
4512		-140.625000
4513		-136.718750
4514		-140.625000
4515		-136.718750
4516		-140.625000
4517		-136.718750
4518		-140.625000
4519		-136.718750
4520		-136.718750
4521		-132.812500
4522		-136.718750
4523		-132.812500
4524		-136.718750
4525		-132.812500
4526		-132.812500
4527		-128.906250
4528		-132.812500
4529		-128.906250
4530		-132.812500
4531		-125.000000
4532		-128.906250
4533		-125.000000
4534		-128.906250
4535		-125.000000
4536		-125.000000
4537		-121.093750
4538		-125.000000
4539		-117.187500
4540		-121.093750
4541		-117.187500
4542		-117.187500
4543		-113.281250
4544		-117.187500
4545		-109.375000
4546		-113.281250
4547		-105.468750
4548		-109.375000
4549		-105.468750
4550		-105.468750
4551		-101.562500
4552		-101.562500
4553		-97.656250
4554		-97.656250
4555		-93.750000
4556		-97.656250
4557		-89.843750
4558		-89.843750
4559		-85.937500
4560		-89.843750
4561		-82.031250
4562		-85.937500
4563		-78.125000
4564		-82.031250
4565		-74.218750
4566		-78.125000
4567		-70.312500
4568		-74.218750
4569		-66.406250
4570		-66.406250
4571		-62.500000
4572		-62.500000
4573		-54.687500
4574		-58.593750
4575		-50.781250
4576		-54.687500
4577		-46.875000
4578		-50.781250
4579		-42.968750
4580		-46.875000
4581		-39.062500
4582		-39.062500
4583		-35.156250
4584		-35.156250
4585		-31.250000
4586		-31.250000
4587		-23.437500
4588		-27.343750
4589		-19.531250
4590		-23.437500
4591		-15.625000
4592		-19.531250
4593		-11.718750
4594		-11.718750
4595		-3.906250
4596		-7.812500
4597		0.000000
4598		-3.906250
4599		3.906250
4600		0.000000
4601		7.812500
4602		7.812500
4603		11.718750
4604		11.718750
4605		19.531250
4606		15.625000
4607		23.437500
4608		19.531250
4609		27.343750
4610		27.343750
4611		31.250000
4612		31.250000
4613		39.062500
4614		35.156250
4615		42.968750
4616		39.062500
4617		46.875000
4618		42.968750
4619		50.781250
4620		50.781250
4621		54.687500
4622		54.687500
4623		58.593750
4624		58.593750
4625		66.406250
4626		62.500000
4627		66.406250
4628		66.406250
4629		74.218750
4630		70.312500
4631		78.125000
4632		74.218750
4633		82.031250
4634		78.125000
4635		85.937500
4636		82.031250
4637		89.843750
4638		85.937500
4639		93.750000
4640		89.843750
4641		97.656250
4642		93.750000
4643		97.656250
4644		97.656250
4645		105.468750
4646		101.562500
4647		105.468750
4648		105.468750
4649		109.375000
4650		109.375000
4651		113.281250
4652		109.375000
4653		117.187500
4654		113.281250
4655		121.093750
4656		117.187500
4657		121.093750
4658		121.093750
4659		125.000000
4660		125.000000
4661		128.906250
4662		125.000000
4663		132.812500
4664		128.906250
4665		132.812500
4666		132.812500
4667		136.718750
4668		132.812500
4669		136.718750
4670		136.718750
4671		140.625000
4672		136.718750
4673		140.625000
4674		140.625000
4675		144.531250
4676		140.625000
4677		148.437500
4678		144.531250
4679		148.437500
4680		144.531250
4681		148.437500
4682		148.437500
4683		152.343750
4684		148.437500
4685		152.343750
4686		148.437500
4687		152.343750
4688		152.343750
4689		156.250000
4690		152.343750
4691		156.250000
4692		152.343750
4693		156.250000
4694		156.250000
4695		160.156250
4696		156.250000
4697		160.156250
4698		156.250000
4699		160.156250
4700		156.250000
4701		160.156250
4702		156.250000
4703		160.156250
4704		160.156250
4705		160.156250
4706		160.156250
4707		160.156250
4708		160.156250
4709		164.062500
4710		160.156250
4711		164.062500
4712		160.156250
4713		164.062500
4714		160.156250
4715		160.156250
4716		160.156250
4717		160.156250
4718		156.250000
4719		160.156250
4720		156.250000
4721		160.156250
4722		156.250000
4723		160.156250
4724		156.250000
4725		160.156250
4726		156.250000
4727		160.156250
4728		156.250000
4729		160.156250
4730		152.343750
4731		156.250000
4732		152.343750
4733		156.250000
4734		152.343750
4735		156.250000
4736		148.437500
4737		156.250000
4738		148.437500
4739		152.343750
4740		148.437500
4741		148.437500
4742		144.531250
4743		148.437500
4744		144.531250
4745		148.437500
4746		140.625000
4747		144.531250
4748		140.625000
4749		144.531250
4750		136.718750
4751		140.625000
4752		132.812500
4753		140.625000
4754		132.812500
4755		136.718750
4756		128.906250
4757		132.812500
4758		125.000000
4759		132.812500
4760		125.000000
4761		128.906250
4762		121.093750
4763		125.000000
4764		117.187500
4765		125.000000
4766		113.281250
4767		121.093750
4768		113.281250
4769		117.187500
4770		109.375000
4771		113.281250
4772		105.468750
4773		109.375000
4774		101.562500
4775		109.375000
4776		97.656250
4777		101.562500
4778		93.750000
4779		101.562500
4780		89.843750
4781		97.656250
4782		85.937500
4783		93.750000
4784		82.031250
4785		89.843750
4786		78.125000
4787		85.937500
4788		74.218750
4789		82.031250
4790		70.312500
4791		78.125000
4792		66.406250
4793		74.218750
4794		62.500000
4795		66.406250
4796		58.593750
4797		62.500000
4798		50.781250
4799		58.593750
4800		46.875000
4801		54.687500
4802		42.968750
4803		50.781250
4804		39.062500
4805		46.875000
4806		35.156250
4807		42.968750
4808		31.250000
4809		35.156250
4810		23.437500
4811		31.250000
4812		19.531250
4813		27.343750
4814		15.625000
4815		23.437500
4816		11.718750
4817		15.625000
4818		3.906250
4819		11.718750
4820		0.000000
4821		7.812500
4822		-3.906250
4823		3.906250
4824		-7.812500
4825		-3.906250
4826		-15.625000
4827		-3.906250
4828		-19.531250
4829		-11.718750
4830		-23.437500
4831		-15.625000
4832		-27.343750
4833		-19.531250
4834		-35.156250
4835		-27.343750
4836		-39.062500
4837		-31.250000
4838		-42.968750
4839		-35.156250
4840		-46.875000
4841		-39.062500
4842		-50.781250
4843		-42.968750
4844		-54.687500
4845		-50.781250
4846		-58.593750
4847		-54.687500
4848		-66.406250
4849		-58.593750
4850		-66.406250
4851		-62.500000
4852		-74.218750
4853		-66.406250
4854		-78.125000
4855		-70.312500
4856		-82.031250
4857		-74.218750
4858		-85.937500
4859		-78.125000
4860		-89.843750
4861		-82.031250
4862		-93.750000
4863		-85.937500
4864		-93.750000
4865		-89.843750
4866		-101.562500
4867		-93.750000
4868		-101.562500
4869		-97.656250
4870		-105.468750
4871		-101.562500
4872		-109.375000
4873		-101.562500
4874		-113.281250
4875		-105.468750
4876		-113.281250
4877		-109.375000
4878		-117.187500
4879		-113.281250
4880		-121.093750
4881		-117.187500
4882		-121.093750
4883		-117.187500
4884		-125.000000
4885		-121.093750
4886		-128.906250
4887		-121.093750
4888		-128.906250
4889		-125.000000
4890		-128.906250
4891		-125.000000
4892		-132.812500
4893		-128.906250
4894		-132.812500
4895		-128.906250
4896		-136.718750
4897		-132.812500
4898		-136.718750
4899		-132.812500
4900		-136.718750
4901		-132.812500
4902		-136.718750
4903		-132.812500
4904		-140.625000
4905		-136.718750
4906		-140.625000
4907		-136.718750
4908		-140.625000
4909		-136.718750
4910		-140.625000
4911		-136.718750
4912		-140.625000
4913		-136.718750
4914		-140.625000
4915		-136.718750
4916		-140.625000
4917		-136.718750
4918		-140.625000
4919		-136.718750
4920		-140.625000
4921		-136.718750
4922		-136.718750
4923		-136.718750
4924		-136.718750
4925		-132.812500
4926		-136.718750
4927		-132.812500
4928		-136.718750
4929		-132.812500
4930		-132.812500
4931		-128.906250
4932		-132.812500
4933		-128.906250
4934		-128.906250
4935		-125.000000
4936		-128.906250
4937		-125.000000
4938		-128.906250
4939		-121.093750
4940		-125.000000
4941		-121.093750
4942		-121.093750
4943		-117.187500
4944		-121.093750
4945		-113.281250
4946		-117.187500
4947		-113.281250
4948		-113.281250
4949		-109.375000
4950		-113.281250
4951		-105.468750
4952		-109.375000
4953		-101.562500
4954		-105.468750
4955		-97.656250
4956		-101.562500
4957		-97.656250
4958		-97.656250
4959		-93.750000
4960		-93.750000
4961		-89.843750
4962		-89.843750
4963		-85.937500
4964		-85.937500
4965		-82.031250
4966		-82.031250
4967		-78.125000
4968		-78.125000
4969		-74.218750
4970		-74.218750
4971		-70.312500
4972		-74.218750
4973		-66.406250
4974		-66.406250
4975		-62.500000
4976		-62.500000
4977		-54.687500
4978		-58.593750
4979		-50.781250
4980		-54.687500
4981		-46.875000
4982		-50.781250
4983		-42.968750
4984		-42.968750
4985		-39.062500
4986		-39.062500
4987		-35.156250
4988		-35.156250
4989		-27.343750
4990		-31.250000
4991		-23.437500
4992		-27.343750
4993		-19.531250
4994		-19.531250
4995		-15.625000
4996		-15.625000
4997		-7.812500
4998		-11.718750
4999		-3.906250
5000		-7.812500
5001		0.000000
5002		-3.906250
5003		3.906250
5004		3.906250
5005		7.812500
5006		7.812500
5007		15.625000
5008		11.718750
5009		19.531250
5010		19.531250
5011		23.437500
5012		23.437500
5013		27.343750
5014		27.343750
5015		35.156250
5016		31.250000
5017		39.062500
5018		35.156250
5019		42.968750
5020		42.968750
5021		46.875000
5022		42.968750
5023		50.781250
5024		50.781250
5025		54.687500
5026		54.687500
5027		62.500000
5028		58.593750
5029		66.406250
5030		62.500000
5031		70.312500
5032		66.406250
5033		74.218750
5034		70.312500
5035		78.125000
5036		74.218750
5037		82.031250
5038		78.125000
5039		85.937500
5040		82.031250
5041		89.843750
5042		85.937500
5043		93.750000
5044		89.843750
5045		97.656250
5046		93.750000
5047		101.562500
5048		97.656250
5049		105.468750
5050		101.562500
5051		109.375000
5052		105.468750
5053		109.375000
5054		109.375000
5055		113.281250
5056		109.375000
5057		117.187500
5058		113.281250
5059		121.093750
5060		117.187500
5061		121.093750
5062		121.093750
5063		125.000000
5064		125.000000
5065		128.906250
5066		125.000000
5067		128.906250
5068		128.906250
5069		132.812500
5070		132.812500
5071		136.718750
5072		132.812500
5073		140.625000
5074		136.718750
5075		140.625000
5076		136.718750
5077		144.531250
5078		140.625000
5079		144.531250
5080		140.625000
5081		144.531250
5082		144.531250
5083		148.437500
5084		144.531250
5085		148.437500
5086		148.437500
5087		152.343750
5088		148.437500
5089		152.343750
5090		148.437500
5091		156.250000
5092		152.343750
5093		156.250000
5094		152.343750
5095		156.250000
5096		152.343750
5097		156.250000
5098		156.250000
5099		160.156250
5100		156.250000
5101		160.156250
5102		156.250000
5103		160.156250
5104		156.250000
5105		160.156250
5106		156.250000
5107		160.156250
5108		156.250000
5109		160.156250
5110		156.250000
5111		160.156250
5112		160.156250
5113		160.156250
5114		160.156250
5115		164.062500
5116		160.156250
5117		164.062500
5118		160.156250
5119		160.156250
5120		160.156250
5121		160.156250
5122		156.250000
5123		160.156250
5124		156.250000
5125		160.156250
5126		156.250000
5127		160.156250
5128		156.250000
5129		160.156250
5130		156.250000
5131		160.156250
5132		156.250000
5133		156.250000
5134		152.343750
5135		156.250000
5136		152.343750
5137		156.250000
5138		152.343750
5139		156.250000
5140		148.437500
5141		152.343750
5142		148.437500
5143		152.343750
5144		144.531250
5145		148.437500
5146		144.531250
5147		148.437500
5148		144.531250
5149		148.437500
5150		140.625000
5151		144.531250
5152		136.718750
5153		144.531250
5154		136.718750
5155		140.625000
5156		132.812500
5157		136.718750
5158		132.812500
5159		136.718750
5160		128.906250
5161		132.812500
5162		125.000000
5163		132.812500
5164		125.000000
5165		128.906250
5166		121.093750
5167		125.000000
5168		117.187500
5169		125.000000
5170		113.281250
5171		121.093750
5172		109.375000
5173		117.187500
5174		109.375000
5175		113.281250
5176		105.468750
5177		109.375000
5178		101.562500
5179		105.468750
5180		97.656250
5181		101.562500
5182		93.750000
5183		97.656250
5184		89.843750
5185		93.750000
5186		85.937500
5187		93.750000
5188		82.031250
5189		85.937500
5190		78.125000
5191		82.031250
5192		74.218750
5193		78.125000
5194		70.312500
5195		74.218750
5196		66.406250
5197		70.312500
5198		62.500000
5199		66.406250
5200		54.687500
5201		62.500000
5202		50.781250
5203		58.593750
5204		46.875000
5205		54.687500
5206		42.968750
5207		50.781250
5208		39.062500
5209		42.968750
5210		35.156250
5211		39.062500
5212		27.343750
5213		35.156250
5214		23.437500
5215		31.250000
5216		19.531250
5217		27.343750
5218		15.625000
5219		23.437500
5220		11.718750
5221		15.625000
5222		3.906250
5223		11.718750
5224		0.000000
5225		7.812500
5226		-3.906250
5227		0.000000
5228		-11.718750
5229		-3.906250
5230		-15.625000
5231		-7.812500
5232		-19.531250
5233		-11.718750
5234		-23.437500
5235		-15.625000
5236		-27.343750
5237		-23.437500
5238		-31.250000
5239		-27.343750
5240		-39.062500
5241		-31.250000
5242		-42.968750
5243		-35.156250
5244		-46.875000
5245		-39.062500
5246		-50.781250
5247		-46.875000
5248		-54.687500
5249		-50.781250
5250		-62.500000
5251		-54.687500
5252		-66.406250
5253		-58.593750
5254		-70.312500
5255		-62.500000
5256		-74.218750
5257		-66.406250
5258		-78.125000
5259		-70.312500
5260		-82.031250
5261		-74.218750
5262		-85.937500
5263		-78.125000
5264		-89.843750
5265		-82.031250
5266		-93.750000
5267		-85.937500
5268		-97.656250
5269		-89.843750
5270		-101.562500
5271		-93.750000
5272		-105.468750
5273		-97.656250
5274		-105.468750
5275		-101.562500
5276		-109.375000
5277		-105.468750
5278		-113.281250
5279		-105.468750
5280		-113.281250
5281		-109.375000
5282		-117.187500
5283		-113.281250
5284		-121.093750
5285		-117.187500
5286		-125.000000
5287		-117.187500
5288		-125.000000
5289		-121.093750
5290		-128.906250
5291		-121.093750
5292		-128.906250
5293		-125.000000
5294		-128.906250
5295		-125.000000
5296		-132.812500
5297		-128.906250
5298		-132.812500
5299		-128.906250
5300		-136.718750
5301		-132.812500
5302		-136.718750
5303		-132.812500
5304		-136.718750
5305		-132.812500
5306		-136.718750
5307		-136.718750
5308		-140.625000
5309		-136.718750
5310		-140.625000
5311		-136.718750
5312		-140.625000
5313		-136.718750
5314		-140.625000
5315		-136.718750
5316		-140.625000
5317		-136.718750
5318		-140.625000
5319		-136.718750
5320		-140.625000
5321		-136.718750
5322		-140.625000
5323		-136.718750
5324		-136.718750
5325		-136.718750
5326		-136.718750
5327		-132.812500
5328		-136.718750
5329		-132.812500
5330		-136.718750
5331		-132.812500
5332		-132.812500
5333		-132.812500
5334		-132.812500
5335		-128.906250
5336		-132.812500
5337		-128.906250
5338		-128.906250
5339		-125.000000
5340		-128.906250
5341		-125.000000
5342		-125.000000
5343		-121.093750
5344		-125.000000
5345		-121.093750
5346		-121.093750
5347		-117.187500
5348		-121.093750
5349		-113.281250
5350		-117.187500
5351		-113.281250
5352		-113.281250
5353		-109.375000
5354		-109.375000
5355		-105.468750
5356		-109.375000
5357		-101.562500
5358		-105.468750
5359		-97.656250
5360		-101.562500
5361		-97.656250
5362		-97.656250
5363		-93.750000
5364		-93.750000
5365		-89.843750
5366		-89.843750
5367		-82.031250
5368		-85.937500
5369		-78.125000
5370		-82.031250
5371		-78.125000
5372		-78.125000
5373		-74.218750
5374		-74.218750
5375		-70.312500
5376		-70.312500
5377		-66.406250
5378		-66.406250
5379		-58.593750
5380		-62.500000
5381		-54.687500
5382		-58.593750
5383		-50.781250
5384		-54.687500
5385		-46.875000
5386		-50.781250
5387		-42.968750
5388		-42.968750
5389		-39.062500
5390		-39.062500
5391		-31.250000
5392		-35.156250
5393		-27.343750
5394		-31.250000
5395		-23.437500
5396		-23.437500
5397		-19.531250
5398		-19.531250
5399		-15.625000
5400		-15.625000
5401		-7.812500
5402		-11.718750
5403		-3.906250
5404		-7.812500
5405		0.000000
5406		0.000000
5407		7.812500
5408		3.906250
5409		11.718750
5410		7.812500
5411		15.625000
5412		11.718750
5413		19.531250
5414		15.625000
5415		23.437500
5416		23.437500
5417		31.250000
5418		27.343750
5419		35.156250
5420		31.250000
5421		39.062500
5422		35.156250
5423		42.968750
5424		42.968750
5425		46.875000
5426		46.875000
5427		50.781250
5428		50.781250
5429		58.593750
5430		54.687500
5431		62.500000
5432		58.593750
5433		66.406250
5434		62.500000
5435		70.312500
5436		66.406250
5437		74.218750
5438		70.312500
5439		78.125000
5440		74.218750
5441		82.031250
5442		78.125000
5443		85.937500
5444		82.031250
5445		89.843750
5446		85.937500
5447		93.750000
5448		89.843750
5449		97.656250
5450		93.750000
5451		101.562500
5452		97.656250
5453		105.468750
5454		101.562500
5455		109.375000
5456		105.468750
5457		109.375000
5458		109.375000
5459		113.281250
5460		113.281250
5461		117.187500
5462		117.187500
5463		121.093750
5464		117.187500
5465		121.093750
5466		121.093750
5467		125.000000
5468		125.000000
5469		128.906250
5470		125.000000
5471		132.812500
5472		128.906250
5473		132.812500
5474		132.812500
5475		136.718750
5476		132.812500
5477		140.625000
5478		136.718750
5479		140.625000
5480		136.718750
5481		144.531250
5482		140.625000
5483		144.531250
5484		140.625000
5485		148.437500
5486		144.531250
5487		148.437500
5488		144.531250
5489		152.343750
5490		148.437500
5491		152.343750
5492		148.437500
5493		152.343750
5494		152.343750
5495		152.343750
5496		152.343750
5497		156.250000
5498		152.343750
5499		156.250000
5500		152.343750
5501		156.250000
5502		156.250000
5503		160.156250
5504		156.250000
5505		160.156250
5506		156.250000
5507		160.156250
5508		156.250000
5509		160.156250
5510		156.250000
5511		160.156250
5512		156.250000
5513		160.156250
5514		156.250000
5515		160.156250
5516		156.250000
5517		164.062500
5518		160.156250
5519		160.156250
5520		160.156250
5521		160.156250
5522		160.156250
5523		160.156250
5524		156.250000
5525		160.156250
5526		156.250000
5527		160.156250
5528		156.250000
5529		160.156250
5530		156.250000
5531		160.156250
5532		156.250000
5533		160.156250
5534		156.250000
5535		160.156250
5536		152.343750
5537		156.250000
5538		152.343750
5539		156.250000
5540		152.343750
5541		156.250000
5542		148.437500
5543		152.343750
5544		148.437500
5545		152.343750
5546		148.437500
5547		152.343750
5548		144.531250
5549		148.437500
5550		144.531250
5551		148.437500
5552		140.625000
5553		144.531250
5554		140.625000
5555		144.531250
5556		136.718750
5557		140.625000
5558		136.718750
5559		140.625000
5560		132.812500
5561		136.718750
5562		128.906250
5563		136.718750
5564		128.906250
5565		132.812500
5566		125.000000
5567		128.906250
5568		121.093750
5569		128.906250
5570		121.093750
5571		125.000000
5572		117.187500
5573		121.093750
5574		113.281250
5575		117.187500
5576		109.375000
5577		117.187500
5578		105.468750
5579		113.281250
5580		101.562500
5581		109.375000
5582		101.562500
5583		105.468750
5584		97.656250
5585		101.562500
5586		89.843750
5587		97.656250
5588		89.843750
5589		93.750000
5590		85.937500
5591		89.843750
5592		78.125000
5593		85.937500
5594		74.218750
5595		82.031250
5596		70.312500
5597		78.125000
5598		66.406250
5599		74.218750
5600		62.500000
5601		70.312500
5602		58.593750
5603		66.406250
5604		54.687500
5605		62.500000
5606		50.781250
5607		58.593750
5608		46.875000
5609		50.781250
5610		42.968750
5611		46.875000
5612		35.156250
5613		42.968750
5614		31.250000
5615		39.062500
5616		27.343750
5617		35.156250
5618		23.437500
5619		27.343750
5620		15.625000
5621		23.437500
5622		11.718750
5623		19.531250
5624		7.812500
5625		15.625000
5626		3.906250
5627		11.718750
5628		-3.906250
5629		3.906250
5630		-7.812500
5631		0.000000
5632		-11.718750
5633		-3.906250
5634		-15.625000
5635		-11.718750
5636		-19.531250
5637		-11.718750
5638		-27.343750
5639		-19.531250
5640		-31.250000
5641		-23.437500
5642		-35.156250
5643		-27.343750
5644		-39.062500
5645		-31.250000
5646		-42.968750
5647		-39.062500
5648		-50.781250
5649		-42.968750
5650		-54.687500
5651		-46.875000
5652		-58.593750
5653		-50.781250
5654		-62.500000
5655		-54.687500
5656		-66.406250
5657		-58.593750
5658		-74.218750
5659		-62.500000
5660		-74.218750
5661		-66.406250
5662		-78.125000
5663		-74.218750
5664		-82.031250
5665		-78.125000
5666		-89.843750
5667		-82.031250
5668		-89.843750
5669		-82.031250
5670		-93.750000
5671		-89.843750
5672		-97.656250
5673		-89.843750
5674		-101.562500
5675		-93.750000
5676		-105.468750
5677		-97.656250
5678		-109.375000
5679		-101.562500
5680		-109.375000
5681		-105.468750
5682		-117.187500
5683		-109.375000
5684		-117.187500
5685		-109.375000
5686		-121.093750
5687		-113.281250
5688		-121.093750
5689		-117.187500
5690		-125.000000
5691		-121.093750
5692		-128.906250
5693		-121.093750
5694		-128.906250
5695		-125.000000
5696		-128.906250
5697		-125.000000
5698		-132.812500
5699		-128.906250
5700		-136.718750
5701		-128.906250
5702		-136.718750
5703		-132.812500
5704		-136.718750
5705		-132.812500
5706		-140.625000
5707		-132.812500
5708		-140.625000
5709		-132.812500
5710		-140.625000
5711		-136.718750
5712		-140.625000
5713		-136.718750
5714		-140.625000
5715		-136.718750
5716		-140.625000
5717		-136.718750
5718		-140.625000
5719		-136.718750
5720		-140.625000
5721		-140.625000
5722		-140.625000
5723		-136.718750
5724		-140.625000
5725		-136.718750
5726		-140.625000
5727		-136.718750
5728		-140.625000
5729		-136.718750
5730		-140.625000
5731		-136.718750
5732		-136.718750
5733		-132.812500
5734		-136.718750
5735		-132.812500
5736		-136.718750
5737		-132.812500
5738		-132.812500
5739		-128.906250
5740		-132.812500
5741		-128.906250
5742		-132.812500
5743		-125.000000
5744		-128.906250
5745		-125.000000
5746		-125.000000
5747		-121.093750
5748		-125.000000
5749		-121.093750
5750		-121.093750
5751		-117.187500
5752		-121.093750
5753		-113.281250
5754		-117.187500
5755		-113.281250
5756		-113.281250
5757		-109.375000
5758		-113.281250
5759		-105.468750
5760		-109.375000
5761		-101.562500
5762		-105.468750
5763		-101.562500
5764		-101.562500
5765		-97.656250
5766		-97.656250
5767		-93.750000
5768		-93.750000
5769		-89.843750
5770		-89.843750
5771		-85.937500
5772		-85.937500
5773		-82.031250
5774		-82.031250
5775		-78.125000
5776		-78.125000
5777		-74.218750
5778		-74.218750
5779		-70.312500
5780		-70.312500
5781		-66.406250
5782		-66.406250
5783		-62.500000
5784		-62.500000
5785		-54.687500
5786		-58.593750
5787		-50.781250
5788		-54.687500
5789		-46.875000
5790		-50.781250
5791		-42.968750
5792		-42.968750
5793		-39.062500
5794		-39.062500
5795		-31.250000
5796		-35.156250
5797		-27.343750
5798		-31.250000
5799		-23.437500
5800		-27.343750
5801		-19.531250
5802		-19.531250
5803		-15.625000
5804		-15.625000
5805		-7.812500
5806		-11.718750
5807		-3.906250
5808		-7.812500
5809		0.000000
5810		0.000000
5811		3.906250
5812		3.906250
5813		11.718750
5814		7.812500
5815		15.625000
5816		11.718750
5817		23.437500
5818		15.625000
5819		27.343750
5820		19.531250
5821		31.250000
5822		23.437500
5823		35.156250
5824		31.250000
5825		39.062500
5826		35.156250
5827		42.968750
5828		39.062500
5829		46.875000
5830		46.875000
5831		50.781250
5832		50.781250
5833		54.687500
5834		50.781250
5835		62.500000
5836		58.593750
5837		66.406250
5838		58.593750
5839		70.312500
5840		66.406250
5841		74.218750
5842		70.312500
5843		78.125000
5844		74.218750
5845		82.031250
5846		78.125000
5847		85.937500
5848		82.031250
5849		89.843750
5850		85.937500
5851		93.750000
5852		89.843750
5853		97.656250
5854		93.750000
5855		105.468750
5856		97.656250
5857		101.562500
5858		101.562500
5859		105.468750
5860		105.468750
5861		109.375000
5862		109.375000
5863		113.281250
5864		113.281250
5865		117.187500
5866		113.281250
5867		121.093750
5868		113.281250
5869		125.000000
5870		117.187500
5871		128.906250
5872		121.093750
5873		128.906250
5874		125.000000
5875		128.906250
5876		128.906250
5877		132.812500
5878		128.906250
5879		136.718750
5880		132.812500
5881		136.718750
5882		136.718750
5883		140.625000
5884		132.812500
5885		144.531250
5886		136.718750
5887		148.437500
5888		140.625000
5889		148.437500
5890		144.531250
5891		148.437500
5892		144.531250
5893		148.437500
5894		148.437500
5895		152.343750
5896		148.437500
5897		152.343750
5898		148.437500
5899		152.343750
5900		148.437500
5901		156.250000
5902		148.437500
5903		160.156250
5904		148.437500
5905		160.156250
5906		152.343750
5907		160.156250
5908		156.250000
5909		156.250000
5910		156.250000
5911		160.156250
5912		156.250000
5913		160.156250
5914		156.250000
5915		160.156250
5916		156.250000
5917		160.156250
5918		152.343750
5919		164.062500
5920		152.343750
5921		164.062500
5922		152.343750
5923		164.062500
5924		156.250000
5925		160.156250
5926		156.250000
5927		160.156250
5928		156.250000
5929		160.156250
5930		156.250000
5931		160.156250
5932		156.250000
5933		156.250000
5934		148.437500
5935		160.156250
5936		148.437500
5937		160.156250
5938		148.437500
5939		160.156250
5940		152.343750
5941		156.250000
5942		148.437500
5943		152.343750
5944		148.437500
5945		152.343750
5946		148.437500
5947		152.343750
5948		144.531250
5949		148.437500
5950		144.531250
5951		148.437500
5952		140.625000
5953		148.437500
5954		136.718750
5955		148.437500
5956		136.718750
5957		144.531250
5958		136.718750
5959		140.625000
5960		132.812500
5961		136.718750
5962		132.812500
5963		136.718750
5964		128.906250
5965		132.812500
5966		125.000000
5967		132.812500
5968		121.093750
5969		132.812500
5970		117.187500
5971		128.906250
5972		113.281250
5973		125.000000
5974		117.187500
5975		121.093750
5976		113.281250
5977		117.187500
5978		109.375000
5979		113.281250
5980		105.468750
5981		109.375000
5982		101.562500
5983		105.468750
5984		97.656250
5985		105.468750
5986		93.750000
5987		105.468750
5988		89.843750
5989		101.562500
5990		85.937500
5991		97.656250
5992		82.031250
5993		89.843750
5994		78.125000
5995		85.937500
5996		74.218750
5997		82.031250
5998		70.312500
5999		78.125000
6000		66.406250
6001		74.218750
6002		62.500000
6003		70.312500
6004		58.593750
6005		66.406250
6006		54.687500
6007		62.500000
6008		50.781250
6009		54.687500
6010		42.968750
6011		50.781250
6012		39.062500
6013		46.875000
6014		35.156250
6015		42.968750
6016		31.250000
6017		39.062500
6018		27.343750
6019		35.156250
6020		19.531250
6021		27.343750
6022		15.625000
6023		23.437500
6024		11.718750
6025		19.531250
6026		7.812500
6027		11.718750
6028		3.906250
6029		7.812500
6030		-3.906250
6031		3.906250
6032		-7.812500
6033		0.000000
6034		-11.718750
6035		-3.906250
6036		-19.531250
6037		-11.718750
6038		-19.531250
6039		-15.625000
6040		-27.343750
6041		-19.531250
6042		-31.250000
6043		-23.437500
6044		-35.156250
6045		-31.250000
6046		-39.062500
6047		-35.156250
6048		-46.875000
6049		-39.062500
6050		-50.781250
6051		-42.968750
6052		-54.687500
6053		-46.875000
6054		-58.593750
6055		-50.781250
6056		-62.500000
6057		-58.593750
6058		-66.406250
6059		-62.500000
6060		-70.312500
6061		-66.406250
6062		-78.125000
6063		-70.312500
6064		-82.031250
6065		-74.218750
6066		-85.937500
6067		-78.125000
6068		-89.843750
6069		-82.031250
6070		-93.750000
6071		-85.937500
6072		-93.750000
6073		-89.843750
6074		-97.656250
6075		-93.750000
6076		-101.562500
6077		-97.656250
6078		-105.468750
6079		-101.562500
6080		-109.375000
6081		-105.468750
6082		-113.281250
6083		-105.468750
6084		-117.187500
6085		-109.375000
6086		-117.187500
6087		-113.281250
6088		-121.093750
6089		-117.187500
6090		-125.000000
6091		-121.093750
6092		-125.000000
6093		-121.093750
6094		-128.906250
6095		-125.000000
6096		-132.812500
6097		-125.000000
6098		-132.812500
6099		-128.906250
6100		-136.718750
6101		-132.812500
6102		-136.718750
6103		-132.812500
6104		-140.625000
6105		-132.812500
6106		-140.625000
6107		-136.718750
6108		-140.625000
6109		-136.718750
6110		-144.531250
6111		-136.718750
6112		-144.531250
6113		-140.625000
6114		-144.531250
6115		-140.625000
6116		-144.531250
6117		-140.625000
6118		-148.437500
6119		-140.625000
6120		-144.531250
6121		-140.625000
6122		-144.531250
6123		-140.625000
6124		-144.531250
6125		-144.531250
6126		-148.437500
6127		-140.625000
6128		-144.531250
6129		-140.625000
6130		-144.531250
6131		-140.625000
6132		-144.531250
6133		-140.625000
6134		-144.531250
6135		-140.625000
6136		-144.531250
6137		-136.718750
6138		-140.625000
6139		-136.718750
6140		-140.625000
6141		-136.718750
6142		-136.718750
6143		-132.812500
6144		-136.718750
6145		-132.812500
6146		-136.718750
6147		-128.906250
6148		-132.812500
6149		-128.906250
6150		-128.906250
6151		-125.000000
6152		-128.906250
6153		-125.000000
6154		-128.906250
6155		-121.093750
6156		-125.000000
6157		-117.187500
6158		-121.093750
6159		-117.187500
6160		-117.187500
6161		-113.281250
6162		-117.187500
6163		-109.375000
6164		-113.281250
6165		-105.468750
6166		-109.375000
6167		-105.468750
6168		-105.468750
6169		-101.562500
6170		-105.468750
6171		-97.656250
6172		-97.656250
6173		-93.750000
6174		-93.750000
6175		-89.843750
6176		-89.843750
6177		-85.937500
6178		-85.937500
6179		-82.031250
6180		-82.031250
6181		-78.125000
6182		-78.125000
6183		-74.218750
6184		-74.218750
6185		-66.406250
6186		-70.312500
6187		-62.500000
6188		-66.406250
6189		-58.593750
6190		-62.500000
6191		-54.687500
6192		-58.593750
6193		-50.781250
6194		-50.781250
6195		-46.875000
6196		-46.875000
6197		-39.062500
6198		-42.968750
6199		-35.156250
6200		-39.062500
6201		-31.250000
6202		-31.250000
6203		-27.343750
6204		-27.343750
6205		-19.531250
6206		-23.437500
6207		-15.625000
6208		-19.531250
6209		-11.718750
6210		-15.625000
6211		-7.812500
6212		-7.812500
6213		-3.906250
6214		-3.906250
6215		3.906250
6216		0.000000
6217		7.812500
6218		3.906250
6219		11.718750
6220		11.718750
6221		15.625000
6222		15.625000
6223		23.437500
6224		19.531250
6225		27.343750
6226		23.437500
6227		31.250000
6228		31.250000
6229		35.156250
6230		35.156250
6231		39.062500
6232		39.062500
6233		46.875000
6234		42.968750
6235		50.781250
6236		46.875000
6237		54.687500
6238		50.781250
6239		58.593750
6240		54.687500
6241		62.500000
6242		62.500000
6243		66.406250
6244		62.500000
6245		74.218750
6246		66.406250
6247		74.218750
6248		74.218750
6249		78.125000
6250		78.125000
6251		82.031250
6252		82.031250
6253		85.937500
6254		85.937500
6255		89.843750
6256		89.843750
6257		93.750000
6258		93.750000
6259		97.656250
6260		97.656250
6261		101.562500
6262		97.656250
6263		105.468750
6264		101.562500
6265		109.375000
6266		105.468750
6267		113.281250
6268		109.375000
6269		113.281250
6270		113.281250
6271		117.187500
6272		117.187500
6273		121.093750
6274		117.187500
6275		121.093750
6276		121.093750
6277		125.000000
6278		125.000000
6279		128.906250
6280		125.000000
6281		132.812500
6282		128.906250
6283		132.812500
6284		132.812500
6285		136.718750
6286		132.812500
6287		136.718750
6288		136.718750
6289		140.625000
6290		136.718750
6291		140.625000
6292		140.625000
6293		144.531250
6294		140.625000
6295		144.531250
6296		144.531250
6297		148.437500
6298		144.531250
6299		148.437500
6300		144.531250
6301		148.437500
6302		148.437500
6303		152.343750
6304		148.437500
6305		152.343750
6306		148.437500
6307		152.343750
6308		152.343750
6309		156.250000
6310		152.343750
6311		156.250000
6312		152.343750
6313		156.250000
6314		152.343750
6315		156.250000
6316		152.343750
6317		156.250000
6318		156.250000
6319		156.250000
6320		156.250000
6321		160.156250
6322		156.250000
6323		160.156250
6324		156.250000
6325		156.250000
6326		156.250000
6327		160.156250
6328		156.250000
6329		160.156250
6330		156.250000
6331		156.250000
6332		156.250000
6333		160.156250
6334		156.250000
6335		156.250000
6336		152.343750
6337		156.250000
6338		152.343750
6339		156.250000
6340		152.343750
6341		156.250000
6342		152.343750
6343		156.250000
6344		148.437500
6345		152.343750
6346		148.437500
6347		152.343750
6348		148.437500
6349		152.343750
6350		148.437500
6351		152.343750
6352		144.531250
6353		148.437500
6354		144.531250
6355		148.437500
6356		140.625000
6357		144.531250
6358		140.625000
6359		144.531250
6360		136.718750
6361		140.625000
6362		136.718750
6363		140.625000
6364		132.812500
6365		140.625000
6366		128.906250
6367		136.718750
6368		128.906250
6369		132.812500
6370		125.000000
6371		128.906250
6372		125.000000
6373		128.906250
6374		121.093750
6375		125.000000
6376		117.187500
6377		121.093750
6378		113.281250
6379		121.093750
6380		113.281250
6381		117.187500
6382		109.375000
6383		113.281250
6384		105.468750
6385		109.375000
6386		101.562500
6387		105.468750
6388		97.656250
6389		105.468750
6390		93.750000
6391		101.562500
6392		89.843750
6393		97.656250
6394		85.937500
6395		93.750000
6396		82.031250
6397		89.843750
6398		78.125000
6399		85.937500
6400		74.218750
6401		82.031250
6402		70.312500
6403		78.125000
6404		66.406250
6405		74.218750
6406		62.500000
6407		70.312500
6408		58.593750
6409		66.406250
6410		54.687500
6411		58.593750
6412		50.781250
6413		54.687500
6414		42.968750
6415		50.781250
6416		39.062500
6417		46.875000
6418		35.156250
6419		42.968750
6420		31.250000
6421		39.062500
6422		27.343750
6423		31.250000
6424		23.437500
6425		27.343750
6426		15.625000
6427		23.437500
6428		11.718750
6429		19.531250
6430		7.812500
6431		11.718750
6432		3.906250
6433		7.812500
6434		-3.906250
6435		3.906250
6436		-7.812500
6437		0.000000
6438		-11.718750
6439		-3.906250
6440		-15.625000
6441		-11.718750
6442		-23.437500
6443		-15.625000
6444		-27.343750
6445		-19.531250
6446		-31.250000
6447		-27.343750
6448		-35.156250
6449		-31.250000
6450		-42.968750
6451		-35.156250
6452		-46.875000
6453		-39.062500
6454		-50.781250
6455		-42.968750
6456		-54.687500
6457		-46.875000
6458		-58.593750
6459		-50.781250
6460		-62.500000
6461		-58.593750
6462		-70.312500
6463		-62.500000
6464		-74.218750
6465		-66.406250
6466		-78.125000
6467		-70.312500
6468		-82.031250
6469		-74.218750
6470		-85.937500
6471		-78.125000
6472		-89.843750
6473		-82.031250
6474		-93.750000
6475		-85.937500
6476		-97.656250
6477		-89.843750
6478		-101.562500
6479		-93.750000
6480		-105.468750
6481		-97.656250
6482		-109.375000
6483		-101.562500
6484		-109.375000
6485		-105.468750
6486		-113.281250
6487		-109.375000
6488		-117.187500
6489		-113.281250
6490		-121.093750
6491		-113.281250
6492		-121.093750
6493		-117.187500
6494		-125.000000
6495		-121.093750
6496		-125.000000
6497		-121.093750
6498		-128.906250
6499		-125.000000
6500		-132.812500
6501		-128.906250
6502		-132.812500
6503		-128.906250
6504		-136.718750
6505		-132.812500
6506		-136.718750
6507		-132.812500
6508		-140.625000
6509		-132.812500
6510		-140.625000
6511		-136.718750
6512		-140.625000
6513		-136.718750
6514		-144.531250
6515		-140.625000
6516		-144.531250
6517		-140.625000
6518		-144.531250
6519		-140.625000
6520		-144.531250
6521		-140.625000
6522		-144.531250
6523		-140.625000
6524		-148.437500
6525		-140.625000
6526		-144.531250
6527		-140.625000
6528		-144.531250
6529		-140.625000
6530		-144.531250
6531		-140.625000
6532		-144.531250
6533		-140.625000
6534		-144.531250
6535		-140.625000
6536		-144.531250
6537		-140.625000
6538		-140.625000
6539		-140.625000
6540		-144.531250
6541		-136.718750
6542		-140.625000
6543		-136.718750
6544		-140.625000
6545		-136.718750
6546		-136.718750
6547		-132.812500
6548		-136.718750
6549		-132.812500
6550		-132.812500
6551		-128.906250
6552		-132.812500
6553		-128.906250
6554		-128.906250
6555		-125.000000
6556		-128.906250
6557		-121.093750
6558		-125.000000
6559		-121.093750
6560		-121.093750
6561		-117.187500
6562		-121.093750
6563		-113.281250
6564		-117.187500
6565		-113.281250
6566		-113.281250
6567		-109.375000
6568		-109.375000
6569		-105.468750
6570		-105.468750
6571		-101.562500
6572		-105.468750
6573		-97.656250
6574		-101.562500
6575		-93.750000
6576		-97.656250
6577		-89.843750
6578		-93.750000
6579		-85.937500
6580		-89.843750
6581		-82.031250
6582		-85.937500
6583		-78.125000
6584		-82.031250
6585		-74.218750
6586		-78.125000
6587		-70.312500
6588		-74.218750
6589		-66.406250
6590		-70.312500
6591		-62.500000
6592		-62.500000
6593		-58.593750
6594		-58.593750
6595		-54.687500
6596		-54.687500
6597		-46.875000
6598		-50.781250
6599		-42.968750
6600		-46.875000
6601		-39.062500
6602		-39.062500
6603		-35.156250
6604		-35.156250
6605		-31.250000
6606		-31.250000
6607		-23.437500
6608		-27.343750
6609		-19.531250
6610		-23.437500
6611		-15.625000
6612		-15.625000
6613		-11.718750
6614		-11.718750
6615		-3.906250
6616		-7.812500
6617		0.000000
6618		-3.906250
6619		3.906250
6620		0.000000
6621		7.812500
6622		7.812500
6623		15.625000
6624		11.718750
6625		19.531250
6626		15.625000
6627		23.437500
6628		19.531250
6629		27.343750
6630		27.343750
6631		31.250000
6632		31.250000
6633		39.062500
6634		35.156250
6635		42.968750
6636		39.062500
6637		46.875000
6638		42.968750
6639		50.781250
6640		50.781250
6641		54.687500
6642		54.687500
6643		62.500000
6644		58.593750
6645		62.500000
6646		62.500000
6647		66.406250
6648		66.406250
6649		74.218750
6650		70.312500
6651		78.125000
6652		74.218750
6653		82.031250
6654		78.125000
6655		85.937500
6656		82.031250
6657		89.843750
6658		85.937500
6659		93.750000
6660		89.843750
6661		93.750000
6662		93.750000
6663		97.656250
6664		97.656250
6665		101.562500
6666		97.656250
6667		105.468750
6668		105.468750
6669		109.375000
6670		105.468750
6671		113.281250
6672		109.375000
6673		117.187500
6674		113.281250
6675		117.187500
6676		117.187500
6677		121.093750
6678		121.093750
6679		125.000000
6680		121.093750
6681		128.906250
6682		125.000000
6683		128.906250
6684		128.906250
6685		132.812500
6686		128.906250
6687		132.812500
6688		132.812500
6689		136.718750
6690		132.812500
6691		140.625000
6692		136.718750
6693		140.625000
6694		140.625000
6695		144.531250
6696		140.625000
6697		144.531250
6698		140.625000
6699		144.531250
6700		144.531250
6701		148.437500
6702		144.531250
6703		148.437500
6704		148.437500
6705		148.437500
6706		148.437500
6707		152.343750
6708		148.437500
6709		152.343750
6710		152.343750
6711		152.343750
6712		152.343750
6713		156.250000
6714		152.343750
6715		156.250000
6716		152.343750
6717		156.250000
6718		156.250000
6719		156.250000
6720		156.250000
6721		156.250000
6722		156.250000
6723		156.250000
6724		156.250000
6725		160.156250
6726		156.250000
6727		160.156250
6728		156.250000
6729		160.156250
6730		156.250000
6731		160.156250
6732		156.250000
6733		160.156250
6734		156.250000
6735		160.156250
6736		156.250000
6737		160.156250
6738		156.250000
6739		160.156250
6740		152.343750
6741		156.250000
6742		152.343750
6743		156.250000
6744		152.343750
6745		156.250000
6746		152.343750
6747		156.250000
6748		148.437500
6749		152.343750
6750		148.437500
6751		152.343750
6752		148.437500
6753		152.343750
6754		148.437500
6755		148.437500
6756		144.531250
6757		148.437500
6758		144.531250
6759		148.437500
6760		140.625000
6761		144.531250
6762		140.625000
6763		144.531250
6764		136.718750
6765		140.625000
6766		136.718750
6767		140.625000
6768		132.812500
6769		136.718750
6770		128.906250
6771		136.718750
6772		128.906250
6773		132.812500
6774		125.000000
6775		132.812500
6776		125.000000
6777		128.906250
6778		121.093750
6779		125.000000
6780		117.187500
6781		121.093750
6782		113.281250
6783		121.093750
6784		109.375000
6785		117.187500
6786		109.375000
6787		113.281250
6788		105.468750
6789		109.375000
6790		101.562500
6791		105.468750
6792		97.656250
6793		101.562500
6794		93.750000
6795		101.562500
6796		89.843750
6797		97.656250
6798		85.937500
6799		93.750000
6800		82.031250
6801		89.843750
6802		78.125000
6803		85.937500
6804		74.218750
6805		82.031250
6806		70.312500
6807		78.125000
6808		66.406250
6809		74.218750
6810		62.500000
6811		66.406250
6812		58.593750
6813		62.500000
6814		54.687500
6815		58.593750
6816		50.781250
6817		54.687500
6818		42.968750
6819		50.781250
6820		39.062500
6821		46.875000
6822		35.156250
6823		42.968750
6824		31.250000
6825		35.156250
6826		23.437500
6827		31.250000
6828		19.531250
6829		27.343750
6830		15.625000
6831		23.437500
6832		11.718750
6833		19.531250
6834		7.812500
6835		11.718750
6836		0.000000
6837		7.812500
6838		-3.906250
6839		3.906250
6840		-7.812500
6841		0.000000
6842		-11.718750
6843		-7.812500
6844		-19.531250
6845		-11.718750
6846		-23.437500
6847		-15.625000
6848		-27.343750
6849		-19.531250
6850		-31.250000
6851		-23.437500
6852		-35.156250
6853		-31.250000
6854		-42.968750
6855		-35.156250
6856		-46.875000
6857		-39.062500
6858		-50.781250
6859		-42.968750
6860		-54.687500
6861		-50.781250
6862		-58.593750
6863		-54.687500
6864		-62.500000
6865		-58.593750
6866		-70.312500
6867		-62.500000
6868		-74.218750
6869		-66.406250
6870		-78.125000
6871		-70.312500
6872		-82.031250
6873		-74.218750
6874		-85.937500
6875		-78.125000
6876		-89.843750
6877		-82.031250
6878		-93.750000
6879		-85.937500
6880		-97.656250
6881		-89.843750
6882		-101.562500
6883		-93.750000
6884		-101.562500
6885		-97.656250
6886		-105.468750
6887		-101.562500
6888		-109.375000
6889		-105.468750
6890		-113.281250
6891		-109.375000
6892		-117.187500
6893		-113.281250
6894		-117.187500
6895		-113.281250
6896		-121.093750
6897		-117.187500
6898		-125.000000
6899		-121.093750
6900		-125.000000
6901		-121.093750
6902		-128.906250
6903		-125.000000
6904		-132.812500
6905		-125.000000
6906		-132.812500
6907		-128.906250
6908		-136.718750
6909		-132.812500
6910		-136.718750
6911		-132.812500
6912		-136.718750
6913		-132.812500
6914		-140.625000
6915		-136.718750
6916		-140.625000
6917		-136.718750
6918		-140.625000
6919		-136.718750
6920		-140.625000
6921		-140.625000
6922		-144.531250
6923		-140.625000
6924		-144.531250
6925		-140.625000
6926		-144.531250
6927		-140.625000
6928		-144.531250
6929		-140.625000
6930		-144.531250
6931		-140.625000
6932		-144.531250
6933		-140.625000
6934		-144.531250
6935		-140.625000
6936		-144.531250
6937		-140.625000
6938		-144.531250
6939		-140.625000
6940		-144.531250
6941		-140.625000
6942		-140.625000
6943		-136.718750
6944		-140.625000
6945		-136.718750
6946		-140.625000
6947		-136.718750
6948		-136.718750
6949		-132.812500
6950		-136.718750
6951		-132.812500
6952		-136.718750
6953		-132.812500
6954		-132.812500
6955		-128.906250
6956		-132.812500
6957		-125.000000
6958		-128.906250
6959		-125.000000
6960		-125.000000
6961		-121.093750
6962		-125.000000
6963		-121.093750
6964		-121.093750
6965		-117.187500
6966		-117.187500
6967		-113.281250
6968		-117.187500
6969		-109.375000
6970		-113.281250
6971		-105.468750
6972		-109.375000
6973		-105.468750
6974		-105.468750
6975		-101.562500
6976		-101.562500
6977		-97.656250
6978		-97.656250
6979		-93.750000
6980		-93.750000
6981		-89.843750
6982		-89.843750
6983		-85.937500
6984		-89.843750
6985		-82.031250
6986		-82.031250
6987		-78.125000
6988		-78.125000
6989		-74.218750
6990		-74.218750
6991		-70.312500
6992		-70.312500
6993		-66.406250
6994		-66.406250
6995		-58.593750
6996		-62.500000
6997		-54.687500
6998		-58.593750
6999		-50.781250
7000		-54.687500
7001		-46.875000
7002		-46.875000
7003		-42.968750
7004		-42.968750
7005		-39.062500
7006		-39.062500
7007		-31.250000
7008		-35.156250
7009		-27.343750
7010		-31.250000
7011		-23.437500
7012		-23.437500
7013		-19.531250
7014		-19.531250
7015		-11.718750
7016		-15.625000
7017		-7.812500
7018		-11.718750
7019		-3.906250
7020		-3.906250
7021		0.000000
7022		0.000000
7023		7.812500
7024		3.906250
7025		11.718750
7026		7.812500
7027		15.625000
7028		15.625000
7029		19.531250
7030		19.531250
7031		23.437500
7032		23.437500
7033		31.250000
7034		27.343750
7035		35.156250
7036		31.250000
7037		39.062500
7038		35.156250
7039		42.968750
7040		42.968750
7041		46.875000
7042		46.875000
7043		50.781250
7044		50.781250
7045		58.593750
7046		54.687500
7047		62.500000
7048		58.593750
7049		66.406250
7050		62.500000
7051		70.312500
7052		66.406250
7053		74.218750
7054		70.312500
7055		78.125000
7056		74.218750
7057		82.031250
7058		78.125000
7059		85.937500
7060		82.031250
7061		89.843750
7062		85.937500
7063		93.750000
7064		89.843750
7065		97.656250
7066		93.750000
7067		101.562500
7068		97.656250
7069		105.468750
7070		101.562500
7071		105.468750
7072		105.468750
7073		109.375000
7074		109.375000
7075		113.281250
7076		113.281250
7077		117.187500
7078		113.281250
7079		121.093750
7080		117.187500
7081		121.093750
7082		121.093750
7083		125.000000
7084		125.000000
7085		128.906250
7086		125.000000
7087		128.906250
7088		128.906250
7089		132.812500
7090		128.906250
7091		136.718750
7092		132.812500
7093		136.718750
7094		136.718750
7095		140.625000
7096		136.718750
7097		140.625000
7098		140.625000
7099		144.531250
7100		140.625000
7101		144.531250
7102		144.531250
7103		148.437500
7104		144.531250
7105		148.437500
7106		144.531250
7107		148.437500
7108		148.437500
7109		152.343750
7110		148.437500
7111		152.343750
7112		152.343750
7113		152.343750
7114		152.343750
7115		156.250000
7116		152.343750
7117		156.250000
7118		152.343750
7119		156.250000
7120		152.343750
7121		156.250000
7122		156.250000
7123		156.250000
7124		156.250000
7125		160.156250
7126		156.250000
7127		160.156250
7128		156.250000
7129		160.156250
7130		156.250000
7131		160.156250
7132		156.250000
7133		160.156250
7134		156.250000
7135		160.156250
7136		156.250000
7137		160.156250
7138		156.250000
7139		160.156250
7140		156.250000
7141		160.156250
7142		156.250000
7143		160.156250
7144		156.250000
7145		156.250000
7146		152.343750
7147		156.250000
7148		152.343750
7149		156.250000
7150		152.343750
7151		156.250000
7152		152.343750
7153		152.343750
7154		148.437500
7155		152.343750
7156		148.437500
7157		152.343750
7158		148.437500
7159		148.437500
7160		144.531250
7161		148.437500
7162		144.531250
7163		148.437500
7164		140.625000
7165		144.531250
7166		140.625000
7167		144.531250
7168		136.718750
7169		140.625000
7170		136.718750
7171		140.625000
7172		132.812500
7173		136.718750
7174		132.812500
7175		136.718750
7176		128.906250
7177		132.812500
7178		125.000000
7179		128.906250
7180		125.000000
7181		128.906250
7182		121.093750
7183		125.000000
7184		117.187500
7185		121.093750
7186		113.281250
7187		121.093750
7188		113.281250
7189		117.187500
7190		109.375000
7191		113.281250
7192		105.468750
7193		109.375000
7194		101.562500
7195		105.468750
7196		97.656250
7197		105.468750
7198		93.750000
7199		101.562500
7200		89.843750
7201		97.656250
7202		85.937500
7203		93.750000
7204		82.031250
7205		89.843750
7206		78.125000
7207		85.937500
7208		74.218750
7209		82.031250
7210		70.312500
7211		78.125000
7212		66.406250
7213		74.218750
7214		62.500000
7215		70.312500
7216		58.593750
7217		62.500000
7218		54.687500
7219		58.593750
7220		46.875000
7221		54.687500
7222		42.968750
7223		50.781250
7224		39.062500
7225		46.875000
7226		35.156250
7227		42.968750
7228		31.250000
7229		35.156250
7230		27.343750
7231		31.250000
7232		19.531250
7233		27.343750
7234		15.625000
7235		23.437500
7236		11.718750
7237		19.531250
7238		7.812500
7239		11.718750
7240		0.000000
7241		7.812500
7242		-3.906250
7243		3.906250
7244		-7.812500
7245		0.000000
7246		-11.718750
7247		-7.812500
7248		-19.531250
7249		-11.718750
7250		-23.437500
7251		-15.625000
7252		-27.343750
7253		-19.531250
7254		-31.250000
7255		-27.343750
7256		-35.156250
7257		-31.250000
7258		-42.968750
7259		-35.156250
7260		-46.875000
7261		-39.062500
7262		-50.781250
7263		-42.968750
7264		-54.687500
7265		-46.875000
7266		-58.593750
7267		-54.687500
7268		-62.500000
7269		-58.593750
7270		-70.312500
7271		-62.500000
7272		-74.218750
7273		-66.406250
7274		-78.125000
7275		-70.312500
7276		-82.031250
7277		-74.218750
7278		-85.937500
7279		-78.125000
7280		-89.843750
7281		-82.031250
7282		-93.750000
7283		-85.937500
7284		-97.656250
7285		-89.843750
7286		-101.562500
7287		-93.750000
7288		-101.562500
7289		-97.656250
7290		-105.468750
7291		-101.562500
7292		-109.375000
7293		-105.468750
7294		-113.281250
7295		-109.375000
7296		-117.187500
7297		-109.375000
7298		-117.187500
7299		-113.281250
7300		-121.093750
7301		-117.187500
7302		-125.000000
7303		-121.093750
7304		-125.000000
7305		-121.093750
7306		-128.906250
7307		-125.000000
7308		-132.812500
7309		-125.000000
7310		-132.812500
7311		-128.906250
7312		-132.812500
7313		-128.906250
7314		-136.718750
7315		-132.812500
7316		-136.718750
7317		-132.812500
7318		-140.625000
7319		-136.718750
7320		-140.625000
7321		-136.718750
7322		-140.625000
7323		-136.718750
7324		-140.625000
7325		-140.625000
7326		-144.531250
7327		-140.625000
7328		-144.531250
7329		-140.625000
7330		-144.531250
7331		-140.625000
7332		-144.531250
7333		-140.625000
7334		-144.531250
7335		-140.625000
7336		-144.531250
7337		-140.625000
7338		-144.531250
7339		-140.625000
7340		-144.531250
7341		-140.625000
7342		-144.531250
7343		-140.625000
7344		-140.625000
7345		-136.718750
7346		-140.625000
7347		-136.718750
7348		-140.625000
7349		-136.718750
7350		-136.718750
7351		-136.718750
7352		-136.718750
7353		-132.812500
7354		-136.718750
7355		-132.812500
7356		-132.812500
7357		-128.906250
7358		-132.812500
7359		-128.906250
7360		-128.906250
7361		-125.000000
7362		-128.906250
7363		-125.000000
7364		-125.000000
7365		-121.093750
7366		-121.093750
7367		-117.187500
7368		-121.093750
7369		-113.281250
7370		-117.187500
7371		-113.281250
7372		-113.281250
7373		-109.375000
7374		-113.281250
7375		-105.468750
7376		-109.375000
7377		-101.562500
7378		-105.468750
7379		-97.656250
7380		-101.562500
7381		-97.656250
7382		-97.656250
7383		-93.750000
7384		-93.750000
7385		-89.843750
7386		-89.843750
7387		-82.031250
7388		-85.937500
7389		-82.031250
7390		-82.031250
7391		-78.125000
7392		-78.125000
7393		-70.312500
7394		-74.218750
7395		-66.406250
7396		-70.312500
7397		-62.500000
7398		-66.406250
7399		-58.593750
7400		-62.500000
7401		-54.687500
7402		-54.687500
7403		-50.781250
7404		-50.781250
7405		-46.875000
7406		-46.875000
7407		-39.062500
7408		-42.968750
7409		-35.156250
7410		-39.062500
7411		-31.250000
7412		-35.156250
7413		-27.343750
7414		-27.343750
7415		-23.437500
7416		-23.437500
7417		-15.625000
7418		-19.531250
7419		-11.718750
7420		-15.625000
7421		-7.812500
7422		-7.812500
7423		-3.906250
7424		-3.906250
7425		3.906250
7426		0.000000
7427		7.812500
7428		3.906250
7429		11.718750
7430		11.718750
7431		15.625000
7432		15.625000
7433		23.437500
7434		19.531250
7435		27.343750
7436		23.437500
7437		31.250000
7438		31.250000
7439		35.156250
7440		35.156250
7441		39.062500
7442		39.062500
7443		46.875000
7444		42.968750
7445		50.781250
7446		46.875000
7447		54.687500
7448		50.781250
7449		58.593750
7450		58.593750
7451		62.500000
7452		62.500000
7453		66.406250
7454		66.406250
7455		70.312500
7456		70.312500
7457		74.218750
7458		74.218750
7459		78.125000
7460		78.125000
7461		82.031250
7462		82.031250
7463		85.937500
7464		82.031250
7465		89.843750
7466		89.843750
7467		93.750000
7468		89.843750
7469		97.656250
7470		93.750000
7471		101.562500
7472		97.656250
7473		105.468750
7474		101.562500
7475		109.375000
7476		105.468750
7477		113.281250
7478		109.375000
7479		113.281250
7480		113.281250
7481		117.187500
7482		113.281250
7483		121.093750
7484		117.187500
7485		125.000000
7486		121.093750
7487		125.000000
7488		125.000000
7489		128.906250
7490		125.000000
7491		132.812500
7492		128.906250
7493		136.718750
7494		132.812500
7495		136.718750
7496		132.812500
7497		136.718750
7498		136.718750
7499		140.625000
7500		136.718750
7501		140.625000
7502		140.625000
7503		144.531250
7504		140.625000
7505		144.531250
7506		140.625000
7507		148.437500
7508		144.531250
7509		148.437500
7510		144.531250
7511		152.343750
7512		148.437500
7513		152.343750
7514		148.437500
7515		152.343750
7516		148.437500
7517		156.250000
7518		152.343750
7519		156.250000
7520		152.343750
7521		156.250000
7522		152.343750
7523		160.156250
7524		152.343750
7525		160.156250
7526		152.343750
7527		160.156250
7528		156.250000
7529		160.156250
7530		156.250000
7531		160.156250
7532		156.250000
7533		160.156250
7534		156.250000
7535		164.062500
7536		156.250000
7537		160.156250
7538		156.250000
7539		160.156250
7540		156.250000
7541		160.156250
7542		156.250000
7543		160.156250
7544		156.250000
7545		160.156250
7546		156.250000
7547		160.156250
7548		152.343750
7549		160.156250
7550		152.343750
7551		160.156250
7552		152.343750
7553		156.250000
7554		152.343750
7555		156.250000
7556		148.437500
7557		156.250000
7558		148.437500
7559		156.250000
7560		144.531250
7561		156.250000
7562		148.437500
7563		152.343750
7564		144.531250
7565		148.437500
7566		140.625000
7567		148.437500
7568		140.625000
7569		148.437500
7570		140.625000
7571		144.531250
7572		136.718750
7573		140.625000
7574		132.812500
7575		144.531250
7576		128.906250
7577		140.625000
7578		132.812500
7579		136.718750
7580		128.906250
7581		132.812500
7582		125.000000
7583		132.812500
7584		121.093750
7585		128.906250
7586		121.093750
7587		128.906250
7588		117.187500
7589		121.093750
7590		113.281250
7591		121.093750
7592		113.281250
7593		117.187500
7594		109.375000
7595		117.187500
7596		105.468750
7597		109.375000
7598		101.562500
7599		105.468750
7600		93.750000
7601		105.468750
7602		93.750000
7603		101.562500
7604		89.843750
7605		97.656250
7606		85.937500
7607		93.750000
7608		82.031250
7609		89.843750
7610		74.218750
7611		85.937500
7612		74.218750
7613		82.031250
7614		70.312500
7615		78.125000
7616		66.406250
7617		74.218750
7618		58.593750
7619		70.312500
7620		58.593750
7621		62.500000
7622		54.687500
7623		58.593750
7624		42.968750
7625		58.593750
7626		39.062500
7627		50.781250
7628		39.062500
7629		46.875000
7630		35.156250
7631		42.968750
7632		27.343750
7633		35.156250
7634		23.437500
7635		35.156250
7636		19.531250
7637		27.343750
7638		15.625000
7639		23.437500
7640		7.812500
7641		19.531250
7642		7.812500
7643		15.625000
7644		0.000000
7645		7.812500
7646		-3.906250
7647		3.906250
7648		-7.812500
7649		0.000000
7650		-15.625000
7651		-3.906250
7652		-19.531250
7653		-7.812500
7654		-23.437500
7655		-15.625000
7656		-27.343750
7657		-19.531250
7658		-35.156250
7659		-23.437500
7660		-39.062500
7661		-31.250000
7662		-42.968750
7663		-35.156250
7664		-46.875000
7665		-39.062500
7666		-50.781250
7667		-42.968750
7668		-58.593750
7669		-46.875000
7670		-58.593750
7671		-50.781250
7672		-66.406250
7673		-58.593750
7674		-70.312500
7675		-62.500000
7676		-74.218750
7677		-66.406250
7678		-78.125000
7679		-70.312500
7680		-82.031250
7681		-74.218750
7682		-85.937500
7683		-78.125000
7684		-93.750000
7685		-82.031250
7686		-93.750000
7687		-85.937500
7688		-97.656250
7689		-89.843750
7690		-101.562500
7691		-93.750000
7692		-105.468750
7693		-93.750000
7694		-109.375000
7695		-101.562500
7696		-109.375000
7697		-105.468750
7698		-113.281250
7699		-109.375000
7700		-117.187500
7701		-113.281250
7702		-121.093750
7703		-113.281250
7704		-121.093750
7705		-117.187500
7706		-125.000000
7707		-121.093750
7708		-128.906250
7709		-121.093750
7710		-132.812500
7711		-125.000000
7712		-132.812500
7713		-128.906250
7714		-132.812500
7715		-128.906250
7716		-136.718750
7717		-132.812500
7718		-136.718750
7719		-132.812500
7720		-140.625000
7721		-132.812500
7722		-140.625000
7723		-136.718750
7724		-144.531250
7725		-136.718750
7726		-144.531250
7727		-136.718750
7728		-144.531250
7729		-136.718750
7730		-144.531250
7731		-140.625000
7732		-144.531250
7733		-140.625000
7734		-144.531250
7735		-140.625000
7736		-144.531250
7737		-140.625000
7738		-144.531250
7739		-140.625000
7740		-144.531250
7741		-140.625000
7742		-144.531250
7743		-140.625000
7744		-144.531250
7745		-136.718750
7746		-144.531250
7747		-140.625000
7748		-140.625000
7749		-136.718750
7750		-140.625000
7751		-136.718750
7752		-144.531250
7753		-132.812500
7754		-140.625000
7755		-136.718750
7756		-136.718750
7757		-132.812500
7758		-136.718750
7759		-132.812500
7760		-132.812500
7761		-128.906250
7762		-132.812500
7763		-128.906250
7764		-128.906250
7765		-125.000000
7766		-128.906250
7767		-125.000000
7768		-125.000000
7769		-121.093750
7770		-125.000000
7771		-117.187500
7772		-121.093750
7773		-117.187500
7774		-117.187500
7775		-109.375000
7776		-113.281250
7777		-109.375000
7778		-109.375000
7779		-105.468750
7780		-109.375000
7781		-101.562500
7782		-105.468750
7783		-97.656250
7784		-101.562500
7785		-97.656250
7786		-97.656250
7787		-89.843750
7788		-93.750000
7789		-89.843750
7790		-89.843750
7791		-85.937500
7792		-85.937500
7793		-78.125000
7794		-82.031250
7795		-78.125000
7796		-78.125000
7797		-70.312500
7798		-74.218750
7799		-66.406250
7800		-70.312500
7801		-62.500000
7802		-66.406250
7803		-58.593750
7804		-58.593750
7805		-54.687500
7806		-54.687500
7807		-50.781250
7808		-50.781250
7809		-46.875000
7810		-46.875000
7811		-39.062500
7812		-42.968750
7813		-35.156250
7814		-39.062500
7815		-31.250000
7816		-31.250000
7817		-27.343750
7818		-31.250000
7819		-19.531250
7820		-23.437500
7821		-15.625000
7822		-19.531250
7823		-11.718750
7824		-15.625000
7825		-3.906250
7826		-11.718750
7827		0.000000
7828		-3.906250
7829		3.906250
7830		0.000000
7831		7.812500
7832		3.906250
7833		11.718750
7834		11.718750
7835		19.531250
7836		15.625000
7837		23.437500
7838		19.531250
7839		27.343750
7840		23.437500
7841		31.250000
7842		27.343750
7843		35.156250
7844		35.156250
7845		42.968750
7846		39.062500
7847		46.875000
7848		42.968750
7849		50.781250
7850		46.875000
7851		54.687500
7852		50.781250
7853		58.593750
7854		54.687500
7855		62.500000
7856		58.593750
7857		66.406250
7858		62.500000
7859		70.312500
7860		70.312500
7861		74.218750
7862		70.312500
7863		78.125000
7864		78.125000
7865		82.031250
7866		82.031250
7867		85.937500
7868		85.937500
7869		89.843750
7870		89.843750
7871		93.750000
7872		93.750000
7873		97.656250
7874		93.750000
7875		101.562500
7876		97.656250
7877		105.468750
7878		101.562500
7879		109.375000
7880		105.468750
7881		113.281250
7882		109.375000
7883		113.281250
7884		113.281250
7885		117.187500
7886		117.187500
7887		121.093750
7888		117.187500
7889		125.000000
7890		121.093750
7891		128.906250
7892		125.000000
7893		128.906250
7894		125.000000
7895		132.812500
7896		128.906250
7897		132.812500
7898		132.812500
7899		136.718750
7900		132.812500
7901		136.718750
7902		136.718750
7903		140.625000
7904		136.718750
7905		144.531250
7906		140.625000
7907		144.531250
7908		140.625000
7909		148.437500
7910		144.531250
7911		148.437500
7912		144.531250
7913		148.437500
7914		148.437500
7915		152.343750
7916		148.437500
7917		152.343750
7918		148.437500
7919		152.343750
7920		148.437500
7921		156.250000
7922		152.343750
7923		156.250000
7924		152.343750
7925		156.250000
7926		152.343750
7927		156.250000
7928		152.343750
7929		156.250000
7930		152.343750
7931		160.156250
7932		156.250000
7933		160.156250
7934		156.250000
7935		160.156250
7936		156.250000
7937		160.156250
7938		156.250000
7939		160.156250
7940		156.250000
7941		160.156250
7942		156.250000
7943		160.156250
7944		156.250000
7945		160.156250
7946		156.250000
7947		160.156250
7948		156.250000
7949		160.156250
7950		156.250000
7951		156.250000
7952		152.343750
7953		156.250000
7954		152.343750
7955		156.250000
7956		152.343750
7957		156.250000
7958		148.437500
7959		156.250000
7960		148.437500
7961		156.250000
7962		148.437500
7963		152.343750
7964		148.437500
7965		152.343750
7966		144.531250
7967		148.437500
7968		144.531250
7969		148.437500
7970		144.531250
7971		148.437500
7972		140.625000
7973		144.531250
7974		136.718750
7975		144.531250
7976		136.718750
7977		140.625000
7978		136.718750
7979		140.625000
7980		132.812500
7981		136.718750
7982		128.906250
7983		136.718750
7984		128.906250
7985		132.812500
7986		125.000000
7987		128.906250
7988		121.093750
7989		128.906250
7990		117.187500
7991		125.000000
7992		117.187500
7993		125.000000
7994		113.281250
7995		121.093750
7996		109.375000
7997		117.187500
7998		105.468750
7999		113.281250
8000		105.468750
8001		109.375000
8002		101.562500
8003		105.468750
8004		97.656250
8005		101.562500
8006		93.750000
8007		97.656250
8008		89.843750
8009		97.656250
8010		85.937500
8011		89.843750
8012		82.031250
8013		85.937500
8014		78.125000
8015		82.031250
8016		74.218750
8017		78.125000
8018		66.406250
8019		74.218750
8020		66.406250
8021		70.312500
8022		62.500000
8023		66.406250
8024		54.687500
8025		62.500000
8026		50.781250
8027		58.593750
8028		46.875000
8029		54.687500
8030		42.968750
8031		46.875000
8032		39.062500
8033		42.968750
8034		35.156250
8035		39.062500
8036		27.343750
8037		35.156250
8038		23.437500
8039		31.250000
8040		19.531250
8041		27.343750
8042		15.625000
8043		19.531250
8044		7.812500
8045		15.625000
8046		3.906250
8047		11.718750
8048		0.000000
8049		7.812500
8050		-3.906250
8051		0.000000
8052		-11.718750
8053		-3.906250
8054		-15.625000
8055		-7.812500
8056		-19.531250
8057		-11.718750
8058		-23.437500
8059		-15.625000
8060		-31.250000
8061		-23.437500
8062		-35.156250
8063		-27.343750
8064		-39.062500
8065		-31.250000
8066		-42.968750
8067		-35.156250
8068		-46.875000
8069		-42.968750
8070		-54.687500
8071		-46.875000
8072		-58.593750
8073		-50.781250
8074		-62.500000
8075		-54.687500
8076		-66.406250
8077		-58.593750
8078		-70.312500
8079		-62.500000
8080		-74.218750
8081		-66.406250
8082		-78.125000
8083		-70.312500
8084		-82.031250
8085		-78.125000
8086		-85.937500
8087		-82.031250
8088		-89.843750
8089		-85.937500
8090		-93.750000
8091		-89.843750
8092		-97.656250
8093		-89.843750
8094		-101.562500
8095		-93.750000
8096		-105.468750
8097		-97.656250
8098		-105.468750
8099		-101.562500
8100		-109.375000
8101		-105.468750
8102		-113.281250
8103		-109.375000
8104		-117.187500
8105		-113.281250
8106		-121.093750
8107		-113.281250
8108		-121.093750
8109		-117.187500
8110		-125.000000
8111		-121.093750
8112		-125.000000
8113		-121.093750
8114		-128.906250
8115		-125.000000
8116		-132.812500
8117		-125.000000
8118		-132.812500
8119		-128.906250
8120		-136.718750
8121		-128.906250
8122		-136.718750
8123		-132.812500
8124		-136.718750
8125		-132.812500
8126		-140.625000
8127		-136.718750
8128		-140.625000
8129		-136.718750
8130		-140.625000
8131		-136.718750
8132		-144.531250
8133		-136.718750
8134		-144.531250
8135		-140.625000
8136		-144.531250
8137		-140.625000
8138		-144.531250
8139		-140.625000
8140		-144.531250
8141		-140.625000
8142		-144.531250
8143		-140.625000
8144		-144.531250
8145		-140.625000
8146		-144.531250
8147		-140.625000
8148		-144.531250
8149		-140.625000
8150		-140.625000
8151		-140.625000
8152		-140.625000
8153		-136.718750
8154		-140.625000
8155		-136.718750
8156		-140.625000
8157		-136.718750
8158		-136.718750
8159		-132.812500
8160		-136.718750
8161		-132.812500
8162		-136.718750
8163		-132.812500
8164		-132.812500
8165		-128.906250
8166		-132.812500
8167		-128.906250
8168		-128.906250
8169		-125.000000
8170		-128.906250
8171		-121.093750
8172		-125.000000
8173		-121.093750
8174		-121.093750
8175		-117.187500
8176		-121.093750
8177		-113.281250
8178		-117.187500
8179		-113.281250
8180		-113.281250
8181		-109.375000
8182		-109.375000
8183		-105.468750
8184		-105.468750
8185		-101.562500
8186		-105.468750
8187		-97.656250
8188		-101.562500
8189		-93.750000
8190		-97.656250
8191		-89.843750
8192		-93.750000
8193		-85.937500
8194		-89.843750
8195		-82.031250
8196		-85.937500
8197		-78.125000
8198		-82.031250
8199		-74.218750
8200		-78.125000
8201		-70.312500
8202		-74.218750
8203		-66.406250
8204		-70.312500
8205		-62.500000
8206		-62.500000
8207		-58.593750
8208		-58.593750
8209		-54.687500
8210		-54.687500
8211		-46.875000
8212		-50.781250
8213		-42.968750
8214		-46.875000
8215		-39.062500
8216		-42.968750
8217		-35.156250
8218		-35.156250
8219		-31.250000
8220		-31.250000
8221		-23.437500
8222		-27.343750
8223		-19.531250
8224		-23.437500
8225		-15.625000
8226		-15.625000
8227		-11.718750
8228		-11.718750
8229		-3.906250
8230		-7.812500
8231		0.000000
8232		-3.906250
8233		3.906250
8234		0.000000
8235		7.812500
8236		7.812500
8237		11.718750
8238		11.718750
8239		19.531250
8240		15.625000
8241		23.437500
8242		19.531250
8243		27.343750
8244		27.343750
8245		31.250000
8246		31.250000
8247		35.156250
8248		35.156250
8249		42.968750
8250		39.062500
8251		46.875000
8252		42.968750
8253		50.781250
8254		46.875000
8255		54.687500
8256		54.687500
8257		58.593750
8258		58.593750
8259		62.500000
8260		62.500000
8261		66.406250
8262		66.406250
8263		70.312500
8264		70.312500
8265		78.125000
8266		74.218750
8267		78.125000
8268		78.125000
8269		85.937500
8270		82.031250
8271		89.843750
8272		85.937500
8273		93.750000
8274		89.843750
8275		93.750000
8276		93.750000
8277		97.656250
8278		97.656250
8279		101.562500
8280		101.562500
8281		105.468750
8282		101.562500
8283		109.375000
8284		105.468750
8285		113.281250
8286		109.375000
8287		117.187500
8288		113.281250
8289		117.187500
8290		117.187500
8291		121.093750
8292		121.093750
8293		125.000000
8294		121.093750
8295		125.000000
8296		125.000000
8297		128.906250
8298		128.906250
8299		132.812500
8300		128.906250
8301		132.812500
8302		132.812500
8303		136.718750
8304		132.812500
8305		140.625000
8306		136.718750
8307		140.625000
8308		136.718750
8309		144.531250
8310		140.625000
8311		144.531250
8312		140.625000
8313		148.437500
8314		144.531250
8315		148.437500
8316		144.531250
8317		148.437500
8318		148.437500
8319		152.343750
8320		148.437500
8321		152.343750
8322		148.437500
8323		156.250000
8324		152.343750
8325		156.250000
8326		152.343750
8327		156.250000
8328		152.343750
8329		156.250000
8330		152.343750
8331		156.250000
8332		152.343750
8333		156.250000
8334		152.343750
8335		160.156250
8336		156.250000
8337		160.156250
8338		156.250000
8339		160.156250
8340		156.250000
8341		160.156250
8342		156.250000
8343		160.156250
8344		156.250000
8345		160.156250
8346		156.250000
8347		160.156250
8348		156.250000
8349		160.156250
8350		156.250000
8351		160.156250
8352		156.250000
8353		156.250000
8354		152.343750
8355		156.250000
8356		152.343750
8357		156.250000
8358		152.343750
8359		156.250000
8360		152.343750
8361		156.250000
8362		152.343750
8363		152.343750
8364		148.437500
8365		156.250000
8366		148.437500
8367		152.343750
8368		148.437500
8369		152.343750
8370		144.531250
8371		148.437500
8372		144.531250
8373		148.437500
8374		140.625000
8375		148.437500
8376		140.625000
8377		144.531250
8378		136.718750
8379		144.531250
8380		136.718750
8381		140.625000
8382		132.812500
8383		136.718750
8384		132.812500
8385		136.718750
8386		128.906250
8387		132.812500
8388		125.000000
8389		132.812500
8390		125.000000
8391		128.906250
8392		121.093750
8393		125.000000
8394		117.187500
8395		125.000000
8396		113.281250
8397		121.093750
8398		113.281250
8399		117.187500
8400		109.375000
8401		113.281250
8402		105.468750
8403		109.375000
8404		101.562500
8405		109.375000
8406		97.656250
8407		105.468750
8408		93.750000
8409		101.562500
8410		89.843750
8411		97.656250
8412		85.937500
8413		93.750000
8414		82.031250
8415		89.843750
8416		78.125000
8417		85.937500
8418		78.125000
8419		82.031250
8420		70.312500
8421		78.125000
8422		66.406250
8423		74.218750
8424		62.500000
8425		70.312500
8426		58.593750
8427		66.406250
8428		54.687500
8429		62.500000
8430		50.781250
8431		58.593750
8432		42.968750
8433		50.781250
8434		39.062500
8435		46.875000
8436		35.156250
8437		42.968750
8438		31.250000
8439		39.062500
8440		27.343750
8441		35.156250
8442		23.437500
8443		27.343750
8444		15.625000
8445		23.437500
8446		11.718750
8447		19.531250
8448		7.812500
8449		15.625000
8450		0.000000
8451		7.812500
8452		-3.906250
8453		3.906250
8454		-7.812500
8455		0.000000
8456		-11.718750
8457		-3.906250
8458		-15.625000
8459		-7.812500
8460		-23.437500
8461		-15.625000
8462		-27.343750
8463		-19.531250
8464		-31.250000
8465		-23.437500
8466		-35.156250
8467		-27.343750
8468		-42.968750
8469		-35.156250
8470		-42.968750
8471		-39.062500
8472		-50.781250
8473		-42.968750
8474		-54.687500
8475		-46.875000
8476		-58.593750
8477		-50.781250
8478		-62.500000
8479		-54.687500
8480		-66.406250
8481		-62.500000
8482		-70.312500
8483		-66.406250
8484		-78.125000
8485		-70.312500
8486		-78.125000
8487		-74.218750
8488		-85.937500
8489		-78.125000
8490		-89.843750
8491		-82.031250
8492		-93.750000
8493		-85.937500
8494		-97.656250
8495		-89.843750
8496		-101.562500
8497		-93.750000
8498		-101.562500
8499		-97.656250
8500		-105.468750
8501		-101.562500
8502		-109.375000
8503		-105.468750
8504		-113.281250
8505		-109.375000
8506		-117.187500
8507		-109.375000
8508		-121.093750
8509		-113.281250
8510		-121.093750
8511		-117.187500
8512		-125.000000
8513		-121.093750
8514		-128.906250
8515		-121.093750
8516		-128.906250
8517		-125.000000
8518		-132.812500
8519		-128.906250
8520		-132.812500
8521		-128.906250
8522		-136.718750
8523		-128.906250
8524		-136.718750
8525		-132.812500
8526		-140.625000
8527		-132.812500
8528		-140.625000
8529		-136.718750
8530		-140.625000
8531		-136.718750
8532		-144.531250
8533		-140.625000
8534		-144.531250
8535		-140.625000
8536		-144.531250
8537		-140.625000
8538		-144.531250
8539		-140.625000
8540		-144.531250
8541		-140.625000
8542		-148.437500
8543		-140.625000
8544		-148.437500
8545		-144.531250
8546		-148.437500
8547		-144.531250
8548		-144.531250
8549		-144.531250
8550		-148.437500
8551		-140.625000
8552		-144.531250
8553		-140.625000
8554		-144.531250
8555		-140.625000
8556		-144.531250
8557		-140.625000
8558		-144.531250
8559		-140.625000
8560		-140.625000
8561		-136.718750
8562		-140.625000
8563		-136.718750
8564		-140.625000
8565		-136.718750
8566		-136.718750
8567		-132.812500
8568		-136.718750
8569		-132.812500
8570		-132.812500
8571		-128.906250
8572		-132.812500
8573		-128.906250
8574		-128.906250
8575		-125.000000
8576		-125.000000
8577		-121.093750
8578		-125.000000
8579		-117.187500
8580		-121.093750
8581		-117.187500
8582		-117.187500
8583		-113.281250
8584		-113.281250
8585		-109.375000
8586		-113.281250
8587		-109.375000
8588		-109.375000
8589		-105.468750
8590		-105.468750
8591		-97.656250
8592		-101.562500
8593		-97.656250
8594		-97.656250
8595		-93.750000
8596		-93.750000
8597		-89.843750
8598		-89.843750
8599		-85.937500
8600		-85.937500
8601		-82.031250
8602		-82.031250
8603		-78.125000
8604		-78.125000
8605		-74.218750
8606		-74.218750
8607		-66.406250
8608		-70.312500
8609		-62.500000
8610		-66.406250
8611		-58.593750
8612		-62.500000
8613		-54.687500
8614		-54.687500
8615		-50.781250
8616		-54.687500
8617		-46.875000
8618		-46.875000
8619		-39.062500
8620		-42.968750
8621		-35.156250
8622		-39.062500
8623		-31.250000
8624		-31.250000
8625		-27.343750
8626		-27.343750
8627		-23.437500
8628		-23.437500
8629		-15.625000
8630		-19.531250
8631		-11.718750
8632		-15.625000
8633		-7.812500
8634		-11.718750
8635		0.000000
8636		-3.906250
8637		3.906250
8638		0.000000
8639		7.812500
8640		3.906250
8641		11.718750
8642		11.718750
8643		15.625000
8644		15.625000
8645		23.437500
8646		19.531250
8647		27.343750
8648		23.437500
8649		31.250000
8650		27.343750
8651		35.156250
8652		35.156250
8653		39.062500
8654		39.062500
8655		42.968750
8656		42.968750
8657		50.781250
8658		46.875000
8659		54.687500
8660		50.781250
8661		58.593750
8662		54.687500
8663		62.500000
8664		62.500000
8665		66.406250
8666		66.406250
8667		70.312500
8668		70.312500
8669		74.218750
8670		74.218750
8671		78.125000
8672		78.125000
8673		85.937500
8674		82.031250
8675		85.937500
8676		85.937500
8677		89.843750
8678		89.843750
8679		93.750000
8680		93.750000
8681		97.656250
8682		93.750000
8683		101.562500
8684		97.656250
8685		105.468750
8686		101.562500
8687		109.375000
8688		105.468750
8689		109.375000
8690		109.375000
8691		113.281250
8692		109.375000
8693		117.187500
8694		113.281250
8695		121.093750
8696		117.187500
8697		125.000000
8698		121.093750
8699		125.000000
8700		125.000000
8701		128.906250
8702		125.000000
8703		132.812500
8704		128.906250
8705		132.812500
8706		128.906250
8707		136.718750
8708		132.812500
8709		136.718750
8710		136.718750
8711		140.625000
8712		136.718750
8713		140.625000
8714		140.625000
8715		144.531250
8716		140.625000
8717		144.531250
8718		140.625000
8719		148.437500
8720		144.531250
8721		148.437500
8722		144.531250
8723		148.437500
8724		148.437500
8725		152.343750
8726		148.437500
8727		152.343750
8728		148.437500
8729		152.343750
8730		148.437500
8731		152.343750
8732		152.343750
8733		156.250000
8734		152.343750
8735		156.250000
8736		152.343750
8737		156.250000
8738		152.343750
8739		156.250000
8740		152.343750
8741		156.250000
8742		156.250000
8743		160.156250
8744		156.250000
8745		156.250000
8746		156.250000
8747		160.156250
8748		156.250000
8749		156.250000
8750		156.250000
8751		160.156250
8752		156.250000
8753		156.250000
8754		152.343750
8755		156.250000
8756		152.343750
8757		156.250000
8758		152.343750
8759		156.250000
8760		152.343750
8761		156.250000
8762		152.343750
8763		156.250000
8764		148.437500
8765		152.343750
8766		148.437500
8767		152.343750
8768		148.437500
8769		152.343750
8770		148.437500
8771		152.343750
8772		144.531250
8773		148.437500
8774		144.531250
8775		148.437500
8776		140.625000
8777		148.437500
8778		140.625000
8779		144.531250
8780		136.718750
8781		144.531250
8782		136.718750
8783		140.625000
8784		136.718750
8785		140.625000
8786		132.812500
8787		136.718750
8788		128.906250
8789		136.718750
8790		128.906250
8791		132.812500
8792		125.000000
8793		128.906250
8794		121.093750
8795		128.906250
8796		121.093750
8797		125.000000
8798		117.187500
8799		121.093750
8800		113.281250
8801		117.187500
8802		109.375000
8803		117.187500
8804		105.468750
8805		113.281250
8806		105.468750
8807		109.375000
8808		101.562500
8809		105.468750
8810		97.656250
8811		101.562500
8812		93.750000
8813		97.656250
8814		89.843750
8815		97.656250
8816		85.937500
8817		93.750000
8818		82.031250
8819		89.843750
8820		78.125000
8821		85.937500
8822		74.218750
8823		82.031250
8824		70.312500
8825		74.218750
8826		66.406250
8827		70.312500
8828		62.500000
8829		66.406250
8830		58.593750
8831		62.500000
8832		50.781250
8833		58.593750
8834		46.875000
8835		54.687500
8836		42.968750
8837		50.781250
8838		39.062500
8839		46.875000
8840		35.156250
8841		39.062500
8842		27.343750
8843		35.156250
8844		23.437500
8845		31.250000
8846		19.531250
8847		27.343750
8848		15.625000
8849		23.437500
8850		11.718750
8851		15.625000
8852		7.812500
8853		11.718750
8854		0.000000
8855		7.812500
8856		-3.906250
8857		3.906250
8858		-7.812500
8859		-3.906250
8860		-15.625000
8861		-7.812500
8862		-19.531250
8863		-11.718750
8864		-23.437500
8865		-15.625000
8866		-27.343750
8867		-19.531250
8868		-35.156250
8869		-27.343750
8870		-39.062500
8871		-31.250000
8872		-42.968750
8873		-35.156250
8874		-46.875000
8875		-39.062500
8876		-50.781250
8877		-46.875000
8878		-54.687500
8879		-50.781250
8880		-58.593750
8881		-54.687500
8882		-66.406250
8883		-58.593750
8884		-70.312500
8885		-62.500000
8886		-74.218750
8887		-66.406250
8888		-78.125000
8889		-70.312500
8890		-82.031250
8891		-74.218750
8892		-85.937500
8893		-82.031250
8894		-89.843750
8895		-85.937500
8896		-93.750000
8897		-89.843750
8898		-97.656250
8899		-89.843750
8900		-101.562500
8901		-97.656250
8902		-105.468750
8903		-97.656250
8904		-109.375000
8905		-101.562500
8906		-109.375000
8907		-105.468750
8908		-113.281250
8909		-109.375000
8910		-117.187500
8911		-113.281250
8912		-121.093750
8913		-117.187500
8914		-125.000000
8915		-117.187500
8916		-125.000000
8917		-121.093750
8918		-128.906250
8919		-121.093750
8920		-132.812500
8921		-125.000000
8922		-132.812500
8923		-128.906250
8924		-132.812500
8925		-128.906250
8926		-136.718750
8927		-132.812500
8928		-140.625000
8929		-132.812500
8930		-140.625000
8931		-136.718750
8932		-140.625000
8933		-136.718750
8934		-140.625000
8935		-140.625000
8936		-144.531250
8937		-140.625000
8938		-144.531250
8939		-140.625000
8940		-144.531250
8941		-140.625000
8942		-144.531250
8943		-144.531250
8944		-148.437500
8945		-140.625000
8946		-148.437500
8947		-140.625000
8948		-148.437500
8949		-144.531250
8950		-144.531250
8951		-144.531250
8952		-148.437500
8953		-144.531250
8954		-144.531250
8955		-140.625000
8956		-144.531250
8957		-140.625000
8958		-144.531250
8959		-140.625000
8960		-144.531250
8961		-140.625000
8962		-144.531250
8963		-140.625000
8964		-140.625000
8965		-136.718750
8966		-140.625000
8967		-136.718750
8968		-140.625000
8969		-136.718750
8970		-136.718750
8971		-132.812500
8972		-136.718750
8973		-132.812500
8974		-132.812500
8975		-128.906250
8976		-132.812500
8977		-125.000000
8978		-128.906250
8979		-125.000000
8980		-128.906250
8981		-121.093750
8982		-125.000000
8983		-117.187500
8984		-121.093750
8985		-117.187500
8986		-117.187500
8987		-113.281250
8988		-113.281250
8989		-109.375000
8990		-113.281250
8991		-105.468750
8992		-109.375000
8993		-101.562500
8994		-105.468750
8995		-101.562500
8996		-101.562500
8997		-97.656250
8998		-97.656250
8999		-93.750000
9000		-93.750000
9001		-89.843750
9002		-89.843750
9003		-82.031250
9004		-85.937500
9005		-82.031250
9006		-82.031250
9007		-78.125000
9008		-78.125000
9009		-74.218750
9010		-74.218750
9011		-66.406250
9012		-70.312500
9013		-62.500000
9014		-66.406250
9015		-58.593750
9016		-62.500000
9017		-54.687500
9018		-54.687500
9019		-50.781250
9020		-50.781250
9021		-42.968750
9022		-46.875000
9023		-39.062500
9024		-42.968750
9025		-35.156250
9026		-39.062500
9027		-31.250000
9028		-31.250000
9029		-27.343750
9030		-27.343750
9031		-19.531250
9032		-23.437500
9033		-15.625000
9034		-19.531250
9035		-11.718750
9036		-11.718750
9037		-7.812500
9038		-7.812500
9039		0.000000
9040		-3.906250
9041		3.906250
9042		0.000000
9043		7.812500
9044		3.906250
9045		11.718750
9046		11.718750
9047		19.531250
9048		15.625000
9049		23.437500
9050		19.531250
9051		27.343750
9052		23.437500
9053		31.250000
9054		31.250000
9055		35.156250
9056		35.156250
9057		39.062500
9058		39.062500
9059		46.875000
9060		42.968750
9061		50.781250
9062		46.875000
9063		54.687500
9064		50.781250
9065		58.593750
9066		54.687500
9067		62.500000
9068		62.500000
9069		66.406250
9070		66.406250
9071		70.312500
9072		70.312500
9073		78.125000
9074		74.218750
9075		78.125000
9076		78.125000
9077		82.031250
9078		82.031250
9079		85.937500
9080		85.937500
9081		89.843750
9082		89.843750
9083		93.750000
9084		93.750000
9085		97.656250
9086		97.656250
9087		101.562500
9088		97.656250
9089		105.468750
9090		101.562500
9091		109.375000
9092		105.468750
9093		113.281250
9094		109.375000
9095		113.281250
9096		113.281250
9097		117.187500
9098		113.281250
9099		121.093750
9100		117.187500
9101		125.000000
9102		121.093750
9103		125.000000
9104		125.000000
9105		128.906250
9106		125.000000
9107		132.812500
9108		128.906250
9109		132.812500
9110		132.812500
9111		136.718750
9112		132.812500
9113		136.718750
9114		136.718750
9115		140.625000
9116		136.718750
9117		140.625000
9118		140.625000
9119		144.531250
9120		140.625000
9121		144.531250
9122		144.531250
9123		148.437500
9124		144.531250
9125		148.437500
9126		144.531250
9127		148.437500
9128		148.437500
9129		152.343750
9130		148.437500
9131		152.343750
9132		148.437500
9133		152.343750
9134		152.343750
9135		156.250000
9136		152.343750
9137		156.250000
9138		152.343750
9139		156.250000
9140		152.343750
9141		156.250000
9142		152.343750
9143		156.250000
9144		152.343750
9145		156.250000
9146		152.343750
9147		160.156250
9148		156.250000
9149		156.250000
9150		156.250000
9151		160.156250
9152		152.343750
9153		160.156250
9154		156.250000
9155		160.156250
9156		152.343750
9157		156.250000
9158		152.343750
9159		160.156250
9160		152.343750
9161		156.250000
9162		152.343750
9163		156.250000
9164		152.343750
9165		156.250000
9166		152.343750
9167		156.250000
9168		152.343750
9169		156.250000
9170		148.437500
9171		152.343750
9172		148.437500
9173		152.343750
9174		148.437500
9175		152.343750
9176		144.531250
9177		148.437500
9178		144.531250
9179		148.437500
9180		140.625000
9181		148.437500
9182		140.625000
9183		144.531250
9184		140.625000
9185		144.531250
9186		136.718750
9187		140.625000
9188		132.812500
9189		140.625000
9190		132.812500
9191		136.718750
9192		128.906250
9193		136.718750
9194		128.906250
9195		132.812500
9196		125.000000
9197		128.906250
9198		121.093750
9199		128.906250
9200		121.093750
9201		125.000000
9202		117.187500
9203		121.093750
9204		113.281250
9205		121.093750
9206		109.375000
9207		117.187500
9208		105.468750
9209		113.281250
9210		105.468750
9211		109.375000
9212		97.656250
9213		105.468750
9214		97.656250
9215		101.562500
9216		93.750000
9217		101.562500
9218		89.843750
9219		93.750000
9220		85.937500
9221		93.750000
9222		82.031250
9223		85.937500
9224		78.125000
9225		82.031250
9226		74.218750
9227		78.125000
9228		70.312500
9229		74.218750
9230		66.406250
9231		74.218750
9232		62.500000
9233		66.406250
9234		54.687500
9235		62.500000
9236		50.781250
9237		58.593750
9238		46.875000
9239		54.687500
9240		42.968750
9241		50.781250
9242		39.062500
9243		46.875000
9244		35.156250
9245		39.062500
9246		27.343750
9247		35.156250
9248		23.437500
9249		31.250000
9250		19.531250
9251		27.343750
9252		11.718750
9253		23.437500
9254		11.718750
9255		15.625000
9256		3.906250
9257		11.718750
9258		0.000000
9259		7.812500
9260		-3.906250
9261		0.000000
9262		-11.718750
9263		-3.906250
9264		-15.625000
9265		-7.812500
9266		-19.531250
9267		-11.718750
9268		-23.437500
9269		-15.625000
9270		-27.343750
9271		-23.437500
9272		-31.250000
9273		-27.343750
9274		-39.062500
9275		-31.250000
9276		-42.968750
9277		-35.156250
9278		-46.875000
9279		-42.968750
9280		-50.781250
9281		-46.875000
9282		-54.687500
9283		-50.781250
9284		-62.500000
9285		-54.687500
9286		-66.406250
9287		-58.593750
9288		-70.312500
9289		-62.500000
9290		-74.218750
9291		-66.406250
9292		-78.125000
9293		-70.312500
9294		-82.031250
9295		-78.125000
9296		-85.937500
9297		-82.031250
9298		-89.843750
9299		-85.937500
9300		-93.750000
9301		-89.843750
9302		-97.656250
9303		-93.750000
9304		-101.562500
9305		-93.750000
9306		-105.468750
9307		-97.656250
9308		-109.375000
9309		-101.562500
9310		-113.281250
9311		-105.468750
9312		-113.281250
9313		-109.375000
9314		-117.187500
9315		-113.281250
9316		-121.093750
9317		-113.281250
9318		-125.000000
9319		-117.187500
9320		-125.000000
9321		-121.093750
9322		-128.906250
9323		-125.000000
9324		-128.906250
9325		-125.000000
9326		-132.812500
9327		-128.906250
9328		-132.812500
9329		-128.906250
9330		-136.718750
9331		-132.812500
9332		-140.625000
9333		-132.812500
9334		-140.625000
9335		-132.812500
9336		-140.625000
9337		-136.718750
9338		-140.625000
9339		-136.718750
9340		-144.531250
9341		-140.625000
9342		-144.531250
9343		-140.625000
9344		-144.531250
9345		-140.625000
9346		-144.531250
9347		-140.625000
9348		-148.437500
9349		-140.625000
9350		-144.531250
9351		-140.625000
9352		-144.531250
9353		-140.625000
9354		-144.531250
9355		-144.531250
9356		-144.531250
9357		-140.625000
9358		-144.531250
9359		-140.625000
9360		-144.531250
9361		-140.625000
9362		-144.531250
9363		-140.625000
9364		-144.531250
9365		-140.625000
9366		-140.625000
9367		-136.718750
9368		-140.625000
9369		-136.718750
9370		-140.625000
9371		-136.718750
9372		-136.718750
9373		-132.812500
9374		-136.718750
9375		-132.812500
9376		-132.812500
9377		-128.906250
9378		-132.812500
9379		-128.906250
9380		-128.906250
9381		-125.000000
9382		-128.906250
9383		-121.093750
9384		-125.000000
9385		-121.093750
9386		-121.093750
9387		-117.187500
9388		-121.093750
9389		-113.281250
9390		-117.187500
9391		-113.281250
9392		-113.281250
9393		-109.375000
9394		-109.375000
9395		-105.468750
9396		-105.468750
9397		-101.562500
9398		-105.468750
9399		-97.656250
9400		-101.562500
9401		-93.750000
9402		-97.656250
9403		-89.843750
9404		-93.750000
9405		-85.937500
9406		-89.843750
9407		-82.031250
9408		-85.937500
9409		-78.125000
9410		-82.031250
9411		-74.218750
9412		-78.125000
9413		-70.312500
9414		-70.312500
9415		-66.406250
9416		-66.406250
9417		-62.500000
9418		-62.500000
9419		-58.593750
9420		-58.593750
9421		-50.781250
9422		-54.687500
9423		-46.875000
9424		-50.781250
9425		-42.968750
9426		-46.875000
9427		-39.062500
9428		-39.062500
9429		-35.156250
9430		-35.156250
9431		-27.343750
9432		-31.250000
9433		-23.437500
9434		-27.343750
9435		-19.531250
9436		-19.531250
9437		-15.625000
9438		-15.625000
9439		-7.812500
9440		-11.718750
9441		-3.906250
9442		-7.812500
9443		0.000000
9444		0.000000
9445		3.906250
9446		3.906250
9447		7.812500
9448		7.812500
9449		15.625000
9450		11.718750
9451		19.531250
9452		15.625000
9453		23.437500
9454		23.437500
9455		27.343750
9456		27.343750
9457		35.156250
9458		31.250000
9459		39.062500
9460		35.156250
9461		42.968750
9462		39.062500
9463		46.875000
9464		46.875000
9465		54.687500
9466		50.781250
9467		54.687500
9468		54.687500
9469		62.500000
9470		58.593750
9471		66.406250
9472		62.500000
9473		70.312500
9474		66.406250
9475		74.218750
9476		70.312500
9477		78.125000
9478		74.218750
9479		82.031250
9480		78.125000
9481		85.937500
9482		82.031250
9483		89.843750
9484		85.937500
9485		93.750000
9486		89.843750
9487		97.656250
9488		93.750000
9489		101.562500
9490		97.656250
9491		105.468750
9492		101.562500
9493		105.468750
9494		105.468750
9495		109.375000
9496		109.375000
9497		113.281250
9498		109.375000
9499		117.187500
9500		113.281250
9501		117.187500
9502		117.187500
9503		121.093750
9504		121.093750
9505		125.000000
9506		121.093750
9507		128.906250
9508		125.000000
9509		128.906250
9510		128.906250
9511		132.812500
9512		128.906250
9513		136.718750
9514		132.812500
9515		136.718750
9516		132.812500
9517		140.625000
9518		136.718750
9519		140.625000
9520		140.625000
9521		144.531250
9522		140.625000
9523		144.531250
9524		140.625000
9525		148.437500
9526		144.531250
9527		148.437500
9528		144.531250
9529		148.437500
9530		148.437500
9531		152.343750
9532		148.437500
9533		152.343750
9534		148.437500
9535		152.343750
9536		152.343750
9537		156.250000
9538		152.343750
9539		156.250000
9540		152.343750
9541		156.250000
9542		152.343750
9543		156.250000
9544		156.250000
9545		156.250000
9546		152.343750
9547		156.250000
9548		156.250000
9549		160.156250
9550		156.250000
9551		160.156250
9552		156.250000
9553		160.156250
9554		156.250000
9555		160.156250
9556		156.250000
9557		160.156250
9558		156.250000
9559		160.156250
9560		152.343750
9561		160.156250
9562		156.250000
9563		156.250000
9564		156.250000
9565		156.250000
9566		152.343750
9567		160.156250
9568		152.343750
9569		156.250000
9570		152.343750
9571		156.250000
9572		152.343750
9573		156.250000
9574		148.437500
9575		156.250000
9576		148.437500
9577		152.343750
9578		148.437500
9579		152.343750
9580		144.531250
9581		152.343750
9582		144.531250
9583		148.437500
9584		144.531250
9585		148.437500
9586		140.625000
9587		144.531250
9588		140.625000
9589		144.531250
9590		136.718750
9591		140.625000
9592		132.812500
9593		140.625000
9594		132.812500
9595		136.718750
9596		128.906250
9597		136.718750
9598		128.906250
9599		132.812500
9600		125.000000
9601		128.906250
9602		125.000000
9603		128.906250
9604		121.093750
9605		125.000000
9606		117.187500
9607		121.093750
9608		113.281250
9609		121.093750
9610		109.375000
9611		117.187500
9612		109.375000
9613		113.281250
9614		105.468750
9615		109.375000
9616		101.562500
9617		105.468750
9618		97.656250
9619		105.468750
9620		93.750000
9621		101.562500
9622		89.843750
9623		97.656250
9624		85.937500
9625		93.750000
9626		82.031250
9627		85.937500
9628		78.125000
9629		85.937500
9630		74.218750
9631		78.125000
9632		70.312500
9633		74.218750
9634		66.406250
9635		70.312500
9636		62.500000
9637		66.406250
9638		58.593750
9639		62.500000
9640		50.781250
9641		58.593750
9642		46.875000
9643		54.687500
9644		42.968750
9645		50.781250
9646		39.062500
9647		46.875000
9648		35.156250
9649		39.062500
9650		31.250000
9651		35.156250
9652		23.437500
9653		31.250000
9654		19.531250
9655		27.343750
9656		15.625000
9657		23.437500
9658		11.718750
9659		15.625000
9660		3.906250
9661		11.718750
9662		0.000000
9663		7.812500
9664		-3.906250
9665		3.906250
9666		-7.812500
9667		-3.906250
9668		-15.625000
9669		-7.812500
9670		-19.531250
9671		-11.718750
9672		-23.437500
9673		-15.625000
9674		-27.343750
9675		-19.531250
9676		-35.156250
9677		-27.343750
9678		-39.062500
9679		-31.250000
9680		-42.968750
9681		-35.156250
9682		-46.875000
9683		-39.062500
9684		-50.781250
9685		-42.968750
9686		-54.687500
9687		-46.875000
9688		-62.500000
9689		-54.687500
9690		-66.406250
9691		-58.593750
9692		-70.312500
9693		-62.500000
9694		-74.218750
9695		-66.406250
9696		-78.125000
9697		-70.312500
9698		-82.031250
9699		-74.218750
9700		-85.937500
9701		-82.031250
9702		-89.843750
9703		-82.031250
9704		-93.750000
9705		-85.937500
9706		-97.656250
9707		-89.843750
9708		-101.562500
9709		-93.750000
9710		-105.468750
9711		-97.656250
9712		-109.375000
9713		-101.562500
9714		-113.281250
9715		-105.468750
9716		-113.281250
9717		-109.375000
9718		-117.187500
9719		-113.281250
9720		-121.093750
9721		-113.281250
9722		-121.093750
9723		-117.187500
9724		-125.000000
9725		-121.093750
9726		-128.906250
9727		-121.093750
9728		-128.906250
9729		-125.000000
9730		-132.812500
9731		-128.906250
9732		-132.812500
9733		-128.906250
9734		-136.718750
9735		-132.812500
9736		-136.718750
9737		-132.812500
9738		-140.625000
9739		-132.812500
9740		-140.625000
9741		-136.718750
9742		-140.625000
9743		-136.718750
9744		-140.625000
9745		-136.718750
9746		-144.531250
9747		-140.625000
9748		-144.531250
9749		-140.625000
9750		-144.531250
9751		-140.625000
9752		-144.531250
9753		-140.625000
9754		-144.531250
9755		-140.625000
9756		-144.531250
9757		-140.625000
9758		-144.531250
9759		-140.625000
9760		-144.531250
9761		-140.625000
9762		-144.531250
9763		-140.625000
9764		-144.531250
9765		-140.625000
9766		-144.531250
9767		-136.718750
9768		-140.625000
9769		-136.718750
9770		-140.625000
9771		-136.718750
9772		-140.625000
9773		-136.718750
9774		-136.718750
9775		-132.812500
9776		-136.718750
9777		-132.812500
9778		-132.812500
9779		-128.906250
9780		-132.812500
9781		-128.906250
9782		-128.906250
9783		-125.000000
9784		-128.906250
9785		-121.093750
9786		-128.906250
9787		-121.093750
9788		-125.000000
9789		-117.187500
9790		-121.093750
9791		-117.187500
9792		-117.187500
9793		-113.281250
9794		-113.281250
9795		-109.375000
9796		-113.281250
9797		-105.468750
9798		-109.375000
9799		-101.562500
9800		-105.468750
9801		-101.562500
9802		-101.562500
9803		-93.750000
9804		-101.562500
9805		-93.750000
9806		-93.750000
9807		-89.843750
9808		-89.843750
9809		-85.937500
9810		-85.937500
9811		-82.031250
9812		-85.937500
9813		-74.218750
9814		-78.125000
9815		-70.312500
9816		-74.218750
9817		-66.406250
9818		-70.312500
9819		-62.500000
9820		-66.406250
9821		-58.593750
9822		-62.500000
9823		-54.687500
9824		-58.593750
9825		-50.781250
9826		-54.687500
9827		-42.968750
9828		-46.875000
9829		-39.062500
9830		-42.968750
9831		-35.156250
9832		-39.062500
9833		-31.250000
9834		-31.250000
9835		-27.343750
9836		-31.250000
9837		-19.531250
9838		-27.343750
9839		-15.625000
9840		-19.531250
9841		-11.718750
9842		-15.625000
9843		-3.906250
9844		-11.718750
9845		0.000000
9846		-3.906250
9847		3.906250
9848		0.000000
9849		7.812500
9850		3.906250
9851		11.718750
9852		7.812500
9853		19.531250
9854		15.625000
9855		23.437500
9856		19.531250
9857		27.343750
9858		23.437500
9859		31.250000
9860		27.343750
9861		35.156250
9862		31.250000
9863		42.968750
9864		35.156250
9865		42.968750
9866		42.968750
9867		50.781250
9868		46.875000
9869		54.687500
9870		50.781250
9871		58.593750
9872		54.687500
9873		62.500000
9874		58.593750
9875		66.406250
9876		62.500000
9877		70.312500
9878		66.406250
9879		74.218750
9880		70.312500
9881		78.125000
9882		78.125000
9883		82.031250
9884		82.031250
9885		85.937500
9886		82.031250
9887		89.843750
9888		85.937500
9889		97.656250
9890		89.843750
9891		101.562500
9892		93.750000
9893		101.562500
9894		97.656250
9895		105.468750
9896		101.562500
9897		109.375000
9898		105.468750
9899		113.281250
9900		109.375000
9901		113.281250
9902		113.281250
9903		121.093750
9904		113.281250
9905		121.093750
9906		117.187500
9907		125.000000
9908		121.093750
9909		128.906250
9910		121.093750
9911		128.906250
9912		125.000000
9913		132.812500
9914		128.906250
9915		132.812500
9916		132.812500
9917		136.718750
9918		132.812500
9919		140.625000
9920		132.812500
9921		140.625000
9922		136.718750
9923		144.531250
9924		136.718750
9925		144.531250
9926		140.625000
9927		148.437500
9928		140.625000
9929		148.437500
9930		144.531250
9931		148.437500
9932		148.437500
9933		152.343750
9934		148.437500
9935		152.343750
9936		148.437500
9937		156.250000
9938		148.437500
9939		156.250000
9940		148.437500
9941		156.250000
9942		152.343750
9943		160.156250
9944		152.343750
9945		160.156250
9946		152.343750
9947		160.156250
9948		152.343750
9949		160.156250
9950		156.250000
9951		160.156250
9952		152.343750
9953		160.156250
9954		152.343750
9955		160.156250
9956		152.343750
9957		160.156250
9958		152.343750
9959		164.062500
9960		156.250000
9961		160.156250
9962		156.250000
9963		160.156250
9964		152.343750
9965		160.156250
9966		156.250000
9967		160.156250
9968		152.343750
9969		160.156250
9970		152.343750
9971		160.156250
9972		152.343750
9973		160.156250
9974		152.343750
9975		156.250000
9976		148.437500
9977		156.250000
9978		148.437500
9979		156.250000
9980		148.437500
9981		156.250000
9982		148.437500
9983		152.343750
9984		148.437500
9985		148.437500
9986		144.531250
9987		148.437500
9988		140.625000
9989		148.437500
9990		140.625000
9991		148.437500
9992		136.718750
9993		144.531250
9994		136.718750
9995		144.531250
9996		132.812500
9997		140.625000
9998		132.812500
9999		140.625000
10000		132.812500
