Channel              :		CH1
Frequency            :		1.240kHz
Period               :		0.807ms
PK-PK                :		460.9mV
Probe attenuation    :		1X
Voltage per ADC value:		0.244141mV
Time interval        :		2.00000us

index		CH1_Voltage(mV)
1		-128.906250
2		-128.906250
3		-121.093750
4		-132.812500
5		-125.000000
6		-140.625000
7		-132.812500
8		-148.437500
9		-136.718750
10		-152.343750
11		-144.531250
12		-160.156250
13		-148.437500
14		-164.062500
15		-156.250000
16		-171.875000
17		-160.156250
18		-175.781250
19		-167.968750
20		-179.687500
21		-175.781250
22		-187.500000
23		-179.687500
24		-195.312500
25		-183.593750
26		-199.218750
27		-187.500000
28		-203.125000
29		-195.312500
30		-207.031250
31		-195.312500
32		-210.937500
33		-203.125000
34		-214.843750
35		-207.031250
36		-218.750000
37		-210.937500
38		-222.656250
39		-214.843750
40		-226.562500
41		-218.750000
42		-230.468750
43		-218.750000
44		-230.468750
45		-222.656250
46		-234.375000
47		-226.562500
48		-238.281250
49		-230.468750
50		-238.281250
51		-230.468750
52		-238.281250
53		-234.375000
54		-242.187500
55		-238.281250
56		-242.187500
57		-238.281250
58		-246.093750
59		-238.281250
60		-246.093750
61		-238.281250
62		-246.093750
63		-238.281250
64		-246.093750
65		-238.281250
66		-246.093750
67		-238.281250
68		-246.093750
69		-238.281250
70		-246.093750
71		-242.187500
72		-246.093750
73		-238.281250
74		-246.093750
75		-238.281250
76		-242.187500
77		-234.375000
78		-242.187500
79		-234.375000
80		-242.187500
81		-230.468750
82		-238.281250
83		-230.468750
84		-234.375000
85		-230.468750
86		-234.375000
87		-226.562500
88		-230.468750
89		-226.562500
90		-226.562500
91		-218.750000
92		-226.562500
93		-218.750000
94		-222.656250
95		-214.843750
96		-218.750000
97		-210.937500
98		-214.843750
99		-207.031250
100		-210.937500
101		-203.125000
102		-207.031250
103		-199.218750
104		-199.218750
105		-191.406250
106		-195.312500
107		-187.500000
108		-191.406250
109		-183.593750
110		-187.500000
111		-175.781250
112		-179.687500
113		-171.875000
114		-175.781250
115		-164.062500
116		-167.968750
117		-156.250000
118		-164.062500
119		-156.250000
120		-156.250000
121		-148.437500
122		-152.343750
123		-140.625000
124		-144.531250
125		-132.812500
126		-136.718750
127		-128.906250
128		-132.812500
129		-121.093750
130		-125.000000
131		-113.281250
132		-117.187500
133		-105.468750
134		-109.375000
135		-101.562500
136		-105.468750
137		-93.750000
138		-93.750000
139		-85.937500
140		-89.843750
141		-78.125000
142		-82.031250
143		-70.312500
144		-74.218750
145		-62.500000
146		-70.312500
147		-54.687500
148		-58.593750
149		-46.875000
150		-50.781250
151		-39.062500
152		-42.968750
153		-35.156250
154		-35.156250
155		-27.343750
156		-27.343750
157		-19.531250
158		-23.437500
159		-11.718750
160		-15.625000
161		-3.906250
162		-7.812500
163		3.906250
164		0.000000
165		11.718750
166		7.812500
167		19.531250
168		15.625000
169		23.437500
170		23.437500
171		31.250000
172		27.343750
173		39.062500
174		35.156250
175		46.875000
176		42.968750
177		54.687500
178		46.875000
179		58.593750
180		54.687500
181		66.406250
182		62.500000
183		70.312500
184		66.406250
185		78.125000
186		74.218750
187		82.031250
188		82.031250
189		89.843750
190		89.843750
191		97.656250
192		89.843750
193		101.562500
194		97.656250
195		109.375000
196		101.562500
197		113.281250
198		109.375000
199		121.093750
200		113.281250
201		125.000000
202		117.187500
203		128.906250
204		125.000000
205		132.812500
206		128.906250
207		136.718750
208		136.718750
209		144.531250
210		140.625000
211		148.437500
212		144.531250
213		152.343750
214		148.437500
215		156.250000
216		152.343750
217		160.156250
218		156.250000
219		164.062500
220		160.156250
221		167.968750
222		164.062500
223		171.875000
224		167.968750
225		175.781250
226		167.968750
227		179.687500
228		171.875000
229		179.687500
230		175.781250
231		183.593750
232		179.687500
233		187.500000
234		179.687500
235		187.500000
236		183.593750
237		191.406250
238		187.500000
239		191.406250
240		191.406250
241		195.312500
242		191.406250
243		199.218750
244		191.406250
245		199.218750
246		191.406250
247		199.218750
248		195.312500
249		203.125000
250		195.312500
251		203.125000
252		195.312500
253		203.125000
254		199.218750
255		203.125000
256		203.125000
257		203.125000
258		199.218750
259		207.031250
260		199.218750
261		207.031250
262		203.125000
263		207.031250
264		203.125000
265		210.937500
266		199.218750
267		210.937500
268		203.125000
269		210.937500
270		203.125000
271		207.031250
272		203.125000
273		207.031250
274		203.125000
275		207.031250
276		199.218750
277		207.031250
278		199.218750
279		207.031250
280		199.218750
281		207.031250
282		199.218750
283		207.031250
284		199.218750
285		203.125000
286		195.312500
287		203.125000
288		195.312500
289		203.125000
290		195.312500
291		199.218750
292		191.406250
293		199.218750
294		191.406250
295		199.218750
296		187.500000
297		195.312500
298		183.593750
299		195.312500
300		183.593750
301		191.406250
302		179.687500
303		187.500000
304		179.687500
305		187.500000
306		175.781250
307		183.593750
308		171.875000
309		179.687500
310		167.968750
311		179.687500
312		164.062500
313		175.781250
314		160.156250
315		171.875000
316		160.156250
317		167.968750
318		152.343750
319		164.062500
320		152.343750
321		160.156250
322		148.437500
323		152.343750
324		144.531250
325		148.437500
326		136.718750
327		144.531250
328		132.812500
329		140.625000
330		128.906250
331		136.718750
332		121.093750
333		132.812500
334		117.187500
335		125.000000
336		109.375000
337		121.093750
338		105.468750
339		117.187500
340		101.562500
341		109.375000
342		93.750000
343		101.562500
344		85.937500
345		97.656250
346		78.125000
347		93.750000
348		74.218750
349		85.937500
350		70.312500
351		78.125000
352		62.500000
353		74.218750
354		58.593750
355		66.406250
356		50.781250
357		58.593750
358		42.968750
359		50.781250
360		35.156250
361		46.875000
362		27.343750
363		39.062500
364		19.531250
365		31.250000
366		11.718750
367		23.437500
368		7.812500
369		15.625000
370		0.000000
371		11.718750
372		-7.812500
373		0.000000
374		-15.625000
375		-7.812500
376		-23.437500
377		-11.718750
378		-31.250000
379		-19.531250
380		-39.062500
381		-27.343750
382		-46.875000
383		-35.156250
384		-54.687500
385		-42.968750
386		-58.593750
387		-46.875000
388		-66.406250
389		-54.687500
390		-74.218750
391		-66.406250
392		-82.031250
393		-70.312500
394		-89.843750
395		-78.125000
396		-97.656250
397		-85.937500
398		-105.468750
399		-89.843750
400		-109.375000
401		-97.656250
402		-117.187500
403		-105.468750
404		-121.093750
405		-113.281250
406		-128.906250
407		-121.093750
408		-136.718750
409		-128.906250
410		-144.531250
411		-132.812500
412		-148.437500
413		-136.718750
414		-156.250000
415		-144.531250
416		-164.062500
417		-152.343750
418		-167.968750
419		-156.250000
420		-171.875000
421		-164.062500
422		-175.781250
423		-167.968750
424		-183.593750
425		-175.781250
426		-187.500000
427		-179.687500
428		-195.312500
429		-183.593750
430		-199.218750
431		-187.500000
432		-203.125000
433		-195.312500
434		-207.031250
435		-199.218750
436		-210.937500
437		-203.125000
438		-214.843750
439		-207.031250
440		-218.750000
441		-210.937500
442		-222.656250
443		-214.843750
444		-226.562500
445		-214.843750
446		-230.468750
447		-218.750000
448		-230.468750
449		-222.656250
450		-234.375000
451		-226.562500
452		-234.375000
453		-230.468750
454		-238.281250
455		-230.468750
456		-238.281250
457		-234.375000
458		-238.281250
459		-234.375000
460		-242.187500
461		-238.281250
462		-242.187500
463		-238.281250
464		-246.093750
465		-238.281250
466		-246.093750
467		-238.281250
468		-246.093750
469		-238.281250
470		-246.093750
471		-238.281250
472		-246.093750
473		-238.281250
474		-242.187500
475		-238.281250
476		-242.187500
477		-238.281250
478		-242.187500
479		-234.375000
480		-242.187500
481		-234.375000
482		-242.187500
483		-234.375000
484		-238.281250
485		-230.468750
486		-238.281250
487		-230.468750
488		-238.281250
489		-226.562500
490		-230.468750
491		-226.562500
492		-226.562500
493		-222.656250
494		-226.562500
495		-218.750000
496		-226.562500
497		-214.843750
498		-218.750000
499		-210.937500
500		-218.750000
501		-207.031250
502		-214.843750
503		-203.125000
504		-210.937500
505		-199.218750
506		-203.125000
507		-195.312500
508		-199.218750
509		-191.406250
510		-195.312500
511		-183.593750
512		-191.406250
513		-179.687500
514		-183.593750
515		-175.781250
516		-179.687500
517		-167.968750
518		-171.875000
519		-164.062500
520		-167.968750
521		-156.250000
522		-160.156250
523		-152.343750
524		-156.250000
525		-148.437500
526		-148.437500
527		-140.625000
528		-144.531250
529		-132.812500
530		-136.718750
531		-125.000000
532		-128.906250
533		-117.187500
534		-121.093750
535		-113.281250
536		-117.187500
537		-105.468750
538		-109.375000
539		-97.656250
540		-101.562500
541		-89.843750
542		-93.750000
543		-85.937500
544		-85.937500
545		-74.218750
546		-82.031250
547		-70.312500
548		-70.312500
549		-62.500000
550		-66.406250
551		-54.687500
552		-58.593750
553		-42.968750
554		-50.781250
555		-39.062500
556		-42.968750
557		-31.250000
558		-35.156250
559		-23.437500
560		-27.343750
561		-15.625000
562		-19.531250
563		-7.812500
564		-11.718750
565		0.000000
566		-3.906250
567		3.906250
568		0.000000
569		11.718750
570		7.812500
571		19.531250
572		15.625000
573		27.343750
574		23.437500
575		31.250000
576		31.250000
577		39.062500
578		39.062500
579		46.875000
580		42.968750
581		54.687500
582		50.781250
583		62.500000
584		58.593750
585		66.406250
586		62.500000
587		74.218750
588		70.312500
589		82.031250
590		78.125000
591		85.937500
592		82.031250
593		89.843750
594		89.843750
595		97.656250
596		93.750000
597		105.468750
598		101.562500
599		109.375000
600		105.468750
601		117.187500
602		109.375000
603		121.093750
604		117.187500
605		125.000000
606		121.093750
607		128.906250
608		128.906250
609		132.812500
610		132.812500
611		140.625000
612		136.718750
613		144.531250
614		140.625000
615		152.343750
616		144.531250
617		152.343750
618		148.437500
619		156.250000
620		152.343750
621		164.062500
622		156.250000
623		164.062500
624		160.156250
625		167.968750
626		164.062500
627		171.875000
628		167.968750
629		175.781250
630		171.875000
631		179.687500
632		171.875000
633		183.593750
634		175.781250
635		183.593750
636		179.687500
637		187.500000
638		183.593750
639		187.500000
640		183.593750
641		191.406250
642		187.500000
643		191.406250
644		187.500000
645		195.312500
646		191.406250
647		199.218750
648		191.406250
649		199.218750
650		195.312500
651		203.125000
652		195.312500
653		203.125000
654		195.312500
655		203.125000
656		199.218750
657		207.031250
658		199.218750
659		203.125000
660		203.125000
661		207.031250
662		199.218750
663		207.031250
664		203.125000
665		207.031250
666		203.125000
667		210.937500
668		203.125000
669		210.937500
670		203.125000
671		210.937500
672		203.125000
673		210.937500
674		203.125000
675		207.031250
676		203.125000
677		207.031250
678		203.125000
679		207.031250
680		203.125000
681		207.031250
682		199.218750
683		207.031250
684		199.218750
685		207.031250
686		199.218750
687		207.031250
688		199.218750
689		207.031250
690		195.312500
691		203.125000
692		195.312500
693		199.218750
694		195.312500
695		199.218750
696		191.406250
697		199.218750
698		191.406250
699		199.218750
700		187.500000
701		195.312500
702		187.500000
703		195.312500
704		183.593750
705		191.406250
706		179.687500
707		187.500000
708		179.687500
709		183.593750
710		175.781250
711		179.687500
712		171.875000
713		179.687500
714		167.968750
715		179.687500
716		164.062500
717		171.875000
718		160.156250
719		171.875000
720		156.250000
721		167.968750
722		156.250000
723		164.062500
724		152.343750
725		160.156250
726		148.437500
727		152.343750
728		140.625000
729		148.437500
730		136.718750
731		144.531250
732		128.906250
733		140.625000
734		125.000000
735		136.718750
736		121.093750
737		128.906250
738		113.281250
739		125.000000
740		113.281250
741		121.093750
742		105.468750
743		113.281250
744		101.562500
745		105.468750
746		93.750000
747		101.562500
748		85.937500
749		97.656250
750		82.031250
751		89.843750
752		74.218750
753		85.937500
754		66.406250
755		78.125000
756		62.500000
757		74.218750
758		54.687500
759		66.406250
760		50.781250
761		58.593750
762		42.968750
763		50.781250
764		35.156250
765		46.875000
766		27.343750
767		39.062500
768		19.531250
769		31.250000
770		11.718750
771		23.437500
772		3.906250
773		15.625000
774		0.000000
775		11.718750
776		-7.812500
777		0.000000
778		-15.625000
779		-7.812500
780		-23.437500
781		-11.718750
782		-31.250000
783		-19.531250
784		-39.062500
785		-27.343750
786		-46.875000
787		-35.156250
788		-54.687500
789		-42.968750
790		-62.500000
791		-50.781250
792		-66.406250
793		-58.593750
794		-74.218750
795		-66.406250
796		-82.031250
797		-74.218750
798		-89.843750
799		-78.125000
800		-97.656250
801		-85.937500
802		-105.468750
803		-93.750000
804		-113.281250
805		-101.562500
806		-117.187500
807		-105.468750
808		-125.000000
809		-113.281250
810		-128.906250
811		-121.093750
812		-136.718750
813		-128.906250
814		-144.531250
815		-132.812500
816		-148.437500
817		-140.625000
818		-156.250000
819		-144.531250
820		-164.062500
821		-152.343750
822		-167.968750
823		-156.250000
824		-171.875000
825		-164.062500
826		-179.687500
827		-171.875000
828		-183.593750
829		-175.781250
830		-191.406250
831		-179.687500
832		-195.312500
833		-183.593750
834		-199.218750
835		-191.406250
836		-203.125000
837		-195.312500
838		-207.031250
839		-199.218750
840		-214.843750
841		-203.125000
842		-214.843750
843		-207.031250
844		-218.750000
845		-210.937500
846		-222.656250
847		-214.843750
848		-226.562500
849		-218.750000
850		-230.468750
851		-222.656250
852		-230.468750
853		-222.656250
854		-234.375000
855		-226.562500
856		-238.281250
857		-226.562500
858		-238.281250
859		-230.468750
860		-238.281250
861		-234.375000
862		-242.187500
863		-238.281250
864		-242.187500
865		-234.375000
866		-242.187500
867		-238.281250
868		-246.093750
869		-238.281250
870		-246.093750
871		-238.281250
872		-246.093750
873		-238.281250
874		-246.093750
875		-238.281250
876		-242.187500
877		-238.281250
878		-242.187500
879		-238.281250
880		-242.187500
881		-238.281250
882		-242.187500
883		-234.375000
884		-242.187500
885		-234.375000
886		-238.281250
887		-234.375000
888		-238.281250
889		-230.468750
890		-234.375000
891		-230.468750
892		-234.375000
893		-226.562500
894		-230.468750
895		-222.656250
896		-226.562500
897		-222.656250
898		-226.562500
899		-218.750000
900		-222.656250
901		-214.843750
902		-218.750000
903		-210.937500
904		-214.843750
905		-207.031250
906		-210.937500
907		-203.125000
908		-207.031250
909		-199.218750
910		-203.125000
911		-195.312500
912		-195.312500
913		-191.406250
914		-191.406250
915		-183.593750
916		-187.500000
917		-179.687500
918		-183.593750
919		-171.875000
920		-179.687500
921		-167.968750
922		-171.875000
923		-160.156250
924		-167.968750
925		-156.250000
926		-160.156250
927		-152.343750
928		-152.343750
929		-144.531250
930		-144.531250
931		-136.718750
932		-140.625000
933		-128.906250
934		-136.718750
935		-125.000000
936		-128.906250
937		-117.187500
938		-121.093750
939		-109.375000
940		-113.281250
941		-101.562500
942		-109.375000
943		-97.656250
944		-97.656250
945		-89.843750
946		-93.750000
947		-82.031250
948		-85.937500
949		-74.218750
950		-78.125000
951		-66.406250
952		-70.312500
953		-58.593750
954		-62.500000
955		-50.781250
956		-54.687500
957		-42.968750
958		-50.781250
959		-35.156250
960		-42.968750
961		-31.250000
962		-31.250000
963		-23.437500
964		-23.437500
965		-15.625000
966		-19.531250
967		-7.812500
968		-11.718750
969		0.000000
970		-3.906250
971		7.812500
972		3.906250
973		15.625000
974		7.812500
975		23.437500
976		15.625000
977		27.343750
978		27.343750
979		35.156250
980		31.250000
981		42.968750
982		39.062500
983		50.781250
984		46.875000
985		54.687500
986		50.781250
987		62.500000
988		58.593750
989		70.312500
990		66.406250
991		74.218750
992		70.312500
993		82.031250
994		78.125000
995		85.937500
996		85.937500
997		93.750000
998		89.843750
999		101.562500
1000		97.656250
1001		105.468750
1002		101.562500
1003		113.281250
1004		109.375000
1005		117.187500
1006		113.281250
1007		121.093750
1008		117.187500
1009		125.000000
1010		121.093750
1011		128.906250
1012		128.906250
1013		136.718750
1014		132.812500
1015		144.531250
1016		136.718750
1017		144.531250
1018		140.625000
1019		152.343750
1020		144.531250
1021		156.250000
1022		148.437500
1023		160.156250
1024		152.343750
1025		164.062500
1026		156.250000
1027		164.062500
1028		164.062500
1029		167.968750
1030		164.062500
1031		171.875000
1032		167.968750
1033		175.781250
1034		171.875000
1035		179.687500
1036		175.781250
1037		183.593750
1038		179.687500
1039		183.593750
1040		179.687500
1041		187.500000
1042		183.593750
1043		191.406250
1044		187.500000
1045		191.406250
1046		187.500000
1047		191.406250
1048		187.500000
1049		195.312500
1050		191.406250
1051		199.218750
1052		191.406250
1053		199.218750
1054		195.312500
1055		203.125000
1056		195.312500
1057		203.125000
1058		195.312500
1059		203.125000
1060		199.218750
1061		203.125000
1062		199.218750
1063		203.125000
1064		203.125000
1065		207.031250
1066		199.218750
1067		207.031250
1068		203.125000
1069		207.031250
1070		203.125000
1071		210.937500
1072		203.125000
1073		210.937500
1074		203.125000
1075		210.937500
1076		203.125000
1077		210.937500
1078		203.125000
1079		207.031250
1080		203.125000
1081		207.031250
1082		199.218750
1083		207.031250
1084		199.218750
1085		207.031250
1086		199.218750
1087		207.031250
1088		199.218750
1089		207.031250
1090		199.218750
1091		207.031250
1092		195.312500
1093		203.125000
1094		195.312500
1095		203.125000
1096		195.312500
1097		199.218750
1098		191.406250
1099		199.218750
1100		191.406250
1101		199.218750
1102		187.500000
1103		195.312500
1104		187.500000
1105		195.312500
1106		183.593750
1107		191.406250
1108		183.593750
1109		191.406250
1110		179.687500
1111		187.500000
1112		179.687500
1113		183.593750
1114		175.781250
1115		179.687500
1116		171.875000
1117		179.687500
1118		167.968750
1119		175.781250
1120		164.062500
1121		171.875000
1122		160.156250
1123		167.968750
1124		156.250000
1125		164.062500
1126		152.343750
1127		160.156250
1128		148.437500
1129		156.250000
1130		144.531250
1131		152.343750
1132		140.625000
1133		148.437500
1134		132.812500
1135		144.531250
1136		128.906250
1137		140.625000
1138		125.000000
1139		132.812500
1140		121.093750
1141		128.906250
1142		113.281250
1143		125.000000
1144		109.375000
1145		121.093750
1146		105.468750
1147		113.281250
1148		97.656250
1149		105.468750
1150		89.843750
1151		101.562500
1152		82.031250
1153		97.656250
1154		78.125000
1155		89.843750
1156		70.312500
1157		82.031250
1158		66.406250
1159		78.125000
1160		58.593750
1161		70.312500
1162		54.687500
1163		62.500000
1164		46.875000
1165		54.687500
1166		39.062500
1167		46.875000
1168		31.250000
1169		42.968750
1170		23.437500
1171		35.156250
1172		15.625000
1173		31.250000
1174		11.718750
1175		23.437500
1176		3.906250
1177		15.625000
1178		-3.906250
1179		7.812500
1180		-11.718750
1181		0.000000
1182		-19.531250
1183		-7.812500
1184		-27.343750
1185		-15.625000
1186		-31.250000
1187		-19.531250
1188		-39.062500
1189		-31.250000
1190		-50.781250
1191		-35.156250
1192		-54.687500
1193		-42.968750
1194		-62.500000
1195		-50.781250
1196		-70.312500
1197		-58.593750
1198		-78.125000
1199		-66.406250
1200		-85.937500
1201		-74.218750
1202		-93.750000
1203		-82.031250
1204		-101.562500
1205		-85.937500
1206		-105.468750
1207		-93.750000
1208		-113.281250
1209		-101.562500
1210		-121.093750
1211		-109.375000
1212		-125.000000
1213		-113.281250
1214		-132.812500
1215		-121.093750
1216		-140.625000
1217		-128.906250
1218		-144.531250
1219		-132.812500
1220		-152.343750
1221		-140.625000
1222		-156.250000
1223		-148.437500
1224		-164.062500
1225		-152.343750
1226		-167.968750
1227		-160.156250
1228		-171.875000
1229		-164.062500
1230		-179.687500
1231		-171.875000
1232		-183.593750
1233		-175.781250
1234		-191.406250
1235		-179.687500
1236		-195.312500
1237		-187.500000
1238		-199.218750
1239		-191.406250
1240		-203.125000
1241		-195.312500
1242		-207.031250
1243		-199.218750
1244		-210.937500
1245		-203.125000
1246		-214.843750
1247		-210.937500
1248		-218.750000
1249		-210.937500
1250		-222.656250
1251		-214.843750
1252		-226.562500
1253		-218.750000
1254		-230.468750
1255		-222.656250
1256		-234.375000
1257		-222.656250
1258		-234.375000
1259		-226.562500
1260		-238.281250
1261		-230.468750
1262		-238.281250
1263		-230.468750
1264		-238.281250
1265		-234.375000
1266		-242.187500
1267		-238.281250
1268		-242.187500
1269		-238.281250
1270		-246.093750
1271		-238.281250
1272		-246.093750
1273		-238.281250
1274		-246.093750
1275		-238.281250
1276		-246.093750
1277		-238.281250
1278		-246.093750
1279		-238.281250
1280		-242.187500
1281		-242.187500
1282		-242.187500
1283		-242.187500
1284		-246.093750
1285		-238.281250
1286		-242.187500
1287		-234.375000
1288		-242.187500
1289		-234.375000
1290		-242.187500
1291		-230.468750
1292		-238.281250
1293		-230.468750
1294		-238.281250
1295		-226.562500
1296		-234.375000
1297		-226.562500
1298		-230.468750
1299		-222.656250
1300		-226.562500
1301		-222.656250
1302		-226.562500
1303		-214.843750
1304		-222.656250
1305		-214.843750
1306		-218.750000
1307		-210.937500
1308		-214.843750
1309		-207.031250
1310		-210.937500
1311		-203.125000
1312		-207.031250
1313		-199.218750
1314		-199.218750
1315		-195.312500
1316		-195.312500
1317		-187.500000
1318		-191.406250
1319		-179.687500
1320		-187.500000
1321		-175.781250
1322		-179.687500
1323		-171.875000
1324		-175.781250
1325		-164.062500
1326		-171.875000
1327		-160.156250
1328		-167.968750
1329		-156.250000
1330		-156.250000
1331		-148.437500
1332		-152.343750
1333		-140.625000
1334		-144.531250
1335		-136.718750
1336		-140.625000
1337		-128.906250
1338		-132.812500
1339		-121.093750
1340		-128.906250
1341		-113.281250
1342		-117.187500
1343		-105.468750
1344		-113.281250
1345		-101.562500
1346		-105.468750
1347		-93.750000
1348		-97.656250
1349		-85.937500
1350		-89.843750
1351		-78.125000
1352		-85.937500
1353		-74.218750
1354		-74.218750
1355		-62.500000
1356		-70.312500
1357		-54.687500
1358		-62.500000
1359		-50.781250
1360		-54.687500
1361		-42.968750
1362		-46.875000
1363		-35.156250
1364		-39.062500
1365		-27.343750
1366		-31.250000
1367		-19.531250
1368		-23.437500
1369		-11.718750
1370		-15.625000
1371		-3.906250
1372		-7.812500
1373		3.906250
1374		-3.906250
1375		11.718750
1376		3.906250
1377		15.625000
1378		11.718750
1379		23.437500
1380		19.531250
1381		31.250000
1382		27.343750
1383		35.156250
1384		35.156250
1385		42.968750
1386		39.062500
1387		50.781250
1388		46.875000
1389		58.593750
1390		54.687500
1391		66.406250
1392		58.593750
1393		70.312500
1394		66.406250
1395		78.125000
1396		74.218750
1397		82.031250
1398		82.031250
1399		89.843750
1400		85.937500
1401		93.750000
1402		89.843750
1403		101.562500
1404		97.656250
1405		105.468750
1406		101.562500
1407		113.281250
1408		109.375000
1409		117.187500
1410		113.281250
1411		121.093750
1412		117.187500
1413		128.906250
1414		125.000000
1415		132.812500
1416		128.906250
1417		136.718750
1418		136.718750
1419		144.531250
1420		136.718750
1421		148.437500
1422		140.625000
1423		152.343750
1424		144.531250
1425		156.250000
1426		152.343750
1427		160.156250
1428		156.250000
1429		164.062500
1430		160.156250
1431		167.968750
1432		164.062500
1433		167.968750
1434		167.968750
1435		175.781250
1436		167.968750
1437		179.687500
1438		171.875000
1439		179.687500
1440		175.781250
1441		183.593750
1442		175.781250
1443		187.500000
1444		183.593750
1445		191.406250
1446		183.593750
1447		191.406250
1448		187.500000
1449		191.406250
1450		191.406250
1451		195.312500
1452		191.406250
1453		199.218750
1454		191.406250
1455		199.218750
1456		195.312500
1457		203.125000
1458		195.312500
1459		203.125000
1460		195.312500
1461		203.125000
1462		199.218750
1463		203.125000
1464		199.218750
1465		203.125000
1466		203.125000
1467		207.031250
1468		203.125000
1469		210.937500
1470		203.125000
1471		207.031250
1472		203.125000
1473		210.937500
1474		203.125000
1475		210.937500
1476		203.125000
1477		210.937500
1478		203.125000
1479		210.937500
1480		203.125000
1481		210.937500
1482		203.125000
1483		207.031250
1484		207.031250
1485		207.031250
1486		203.125000
1487		210.937500
1488		203.125000
1489		210.937500
1490		203.125000
1491		207.031250
1492		199.218750
1493		207.031250
1494		199.218750
1495		207.031250
1496		199.218750
1497		207.031250
1498		199.218750
1499		203.125000
1500		195.312500
1501		199.218750
1502		195.312500
1503		199.218750
1504		191.406250
1505		199.218750
1506		191.406250
1507		195.312500
1508		187.500000
1509		199.218750
1510		187.500000
1511		195.312500
1512		183.593750
1513		191.406250
1514		183.593750
1515		187.500000
1516		179.687500
1517		183.593750
1518		175.781250
1519		183.593750
1520		171.875000
1521		179.687500
1522		167.968750
1523		175.781250
1524		164.062500
1525		175.781250
1526		160.156250
1527		171.875000
1528		156.250000
1529		167.968750
1530		152.343750
1531		164.062500
1532		152.343750
1533		156.250000
1534		144.531250
1535		152.343750
1536		140.625000
1537		148.437500
1538		136.718750
1539		144.531250
1540		128.906250
1541		140.625000
1542		125.000000
1543		136.718750
1544		117.187500
1545		128.906250
1546		113.281250
1547		125.000000
1548		109.375000
1549		121.093750
1550		105.468750
1551		113.281250
1552		97.656250
1553		105.468750
1554		93.750000
1555		101.562500
1556		85.937500
1557		97.656250
1558		78.125000
1559		89.843750
1560		74.218750
1561		82.031250
1562		66.406250
1563		78.125000
1564		62.500000
1565		70.312500
1566		54.687500
1567		62.500000
1568		46.875000
1569		54.687500
1570		39.062500
1571		50.781250
1572		31.250000
1573		42.968750
1574		23.437500
1575		35.156250
1576		19.531250
1577		31.250000
1578		11.718750
1579		23.437500
1580		3.906250
1581		15.625000
1582		-3.906250
1583		7.812500
1584		-7.812500
1585		0.000000
1586		-19.531250
1587		-7.812500
1588		-23.437500
1589		-11.718750
1590		-31.250000
1591		-19.531250
1592		-39.062500
1593		-27.343750
1594		-46.875000
1595		-35.156250
1596		-54.687500
1597		-42.968750
1598		-62.500000
1599		-50.781250
1600		-66.406250
1601		-58.593750
1602		-78.125000
1603		-66.406250
1604		-85.937500
1605		-74.218750
1606		-89.843750
1607		-82.031250
1608		-97.656250
1609		-85.937500
1610		-105.468750
1611		-93.750000
1612		-113.281250
1613		-101.562500
1614		-117.187500
1615		-105.468750
1616		-125.000000
1617		-117.187500
1618		-128.906250
1619		-121.093750
1620		-136.718750
1621		-128.906250
1622		-144.531250
1623		-132.812500
1624		-152.343750
1625		-140.625000
1626		-156.250000
1627		-148.437500
1628		-164.062500
1629		-152.343750
1630		-167.968750
1631		-160.156250
1632		-171.875000
1633		-164.062500
1634		-179.687500
1635		-171.875000
1636		-183.593750
1637		-175.781250
1638		-191.406250
1639		-179.687500
1640		-195.312500
1641		-183.593750
1642		-199.218750
1643		-187.500000
1644		-203.125000
1645		-195.312500
1646		-207.031250
1647		-199.218750
1648		-210.937500
1649		-203.125000
1650		-214.843750
1651		-207.031250
1652		-218.750000
1653		-210.937500
1654		-222.656250
1655		-214.843750
1656		-226.562500
1657		-214.843750
1658		-230.468750
1659		-218.750000
1660		-230.468750
1661		-222.656250
1662		-234.375000
1663		-226.562500
1664		-234.375000
1665		-226.562500
1666		-234.375000
1667		-230.468750
1668		-238.281250
1669		-234.375000
1670		-242.187500
1671		-234.375000
1672		-242.187500
1673		-234.375000
1674		-242.187500
1675		-234.375000
1676		-242.187500
1677		-234.375000
1678		-242.187500
1679		-234.375000
1680		-242.187500
1681		-238.281250
1682		-242.187500
1683		-238.281250
1684		-242.187500
1685		-238.281250
1686		-242.187500
1687		-238.281250
1688		-242.187500
1689		-234.375000
1690		-238.281250
1691		-234.375000
1692		-238.281250
1693		-234.375000
1694		-238.281250
1695		-230.468750
1696		-234.375000
1697		-226.562500
1698		-230.468750
1699		-226.562500
1700		-230.468750
1701		-226.562500
1702		-226.562500
1703		-222.656250
1704		-226.562500
1705		-218.750000
1706		-222.656250
1707		-214.843750
1708		-222.656250
1709		-210.937500
1710		-214.843750
1711		-207.031250
1712		-210.937500
1713		-203.125000
1714		-207.031250
1715		-199.218750
1716		-203.125000
1717		-195.312500
1718		-199.218750
1719		-191.406250
1720		-195.312500
1721		-183.593750
1722		-191.406250
1723		-179.687500
1724		-183.593750
1725		-175.781250
1726		-179.687500
1727		-167.968750
1728		-175.781250
1729		-164.062500
1730		-167.968750
1731		-156.250000
1732		-160.156250
1733		-152.343750
1734		-156.250000
1735		-148.437500
1736		-148.437500
1737		-140.625000
1738		-144.531250
1739		-132.812500
1740		-136.718750
1741		-125.000000
1742		-132.812500
1743		-121.093750
1744		-125.000000
1745		-113.281250
1746		-117.187500
1747		-105.468750
1748		-109.375000
1749		-97.656250
1750		-101.562500
1751		-93.750000
1752		-93.750000
1753		-85.937500
1754		-85.937500
1755		-78.125000
1756		-82.031250
1757		-70.312500
1758		-74.218750
1759		-62.500000
1760		-66.406250
1761		-54.687500
1762		-58.593750
1763		-46.875000
1764		-50.781250
1765		-39.062500
1766		-42.968750
1767		-35.156250
1768		-35.156250
1769		-27.343750
1770		-27.343750
1771		-15.625000
1772		-23.437500
1773		-7.812500
1774		-15.625000
1775		-3.906250
1776		-7.812500
1777		3.906250
1778		0.000000
1779		11.718750
1780		7.812500
1781		19.531250
1782		15.625000
1783		23.437500
1784		23.437500
1785		31.250000
1786		31.250000
1787		39.062500
1788		35.156250
1789		46.875000
1790		42.968750
1791		54.687500
1792		46.875000
1793		62.500000
1794		54.687500
1795		66.406250
1796		62.500000
1797		74.218750
1798		66.406250
1799		78.125000
1800		74.218750
1801		85.937500
1802		82.031250
1803		89.843750
1804		89.843750
1805		97.656250
1806		93.750000
1807		101.562500
1808		97.656250
1809		109.375000
1810		105.468750
1811		113.281250
1812		109.375000
1813		121.093750
1814		117.187500
1815		125.000000
1816		121.093750
1817		128.906250
1818		128.906250
1819		132.812500
1820		132.812500
1821		136.718750
1822		136.718750
1823		144.531250
1824		140.625000
1825		148.437500
1826		144.531250
1827		152.343750
1828		148.437500
1829		160.156250
1830		152.343750
1831		160.156250
1832		156.250000
1833		164.062500
1834		160.156250
1835		167.968750
1836		164.062500
1837		171.875000
1838		167.968750
1839		175.781250
1840		171.875000
1841		179.687500
1842		175.781250
1843		183.593750
1844		175.781250
1845		183.593750
1846		179.687500
1847		187.500000
1848		179.687500
1849		191.406250
1850		183.593750
1851		191.406250
1852		187.500000
1853		191.406250
1854		191.406250
1855		195.312500
1856		191.406250
1857		199.218750
1858		191.406250
1859		199.218750
1860		195.312500
1861		203.125000
1862		195.312500
1863		203.125000
1864		199.218750
1865		203.125000
1866		199.218750
1867		207.031250
1868		203.125000
1869		207.031250
1870		203.125000
1871		207.031250
1872		203.125000
1873		207.031250
1874		203.125000
1875		210.937500
1876		203.125000
1877		210.937500
1878		203.125000
1879		210.937500
1880		203.125000
1881		210.937500
1882		203.125000
1883		210.937500
1884		203.125000
1885		210.937500
1886		207.031250
1887		207.031250
1888		203.125000
1889		210.937500
1890		203.125000
1891		210.937500
1892		203.125000
1893		210.937500
1894		203.125000
1895		207.031250
1896		199.218750
1897		207.031250
1898		199.218750
1899		207.031250
1900		199.218750
1901		207.031250
1902		199.218750
1903		203.125000
1904		195.312500
1905		203.125000
1906		195.312500
1907		199.218750
1908		191.406250
1909		199.218750
1910		191.406250
1911		199.218750
1912		187.500000
1913		195.312500
1914		187.500000
1915		195.312500
1916		183.593750
1917		191.406250
1918		183.593750
1919		187.500000
1920		179.687500
1921		183.593750
1922		175.781250
1923		179.687500
1924		171.875000
1925		179.687500
1926		167.968750
1927		175.781250
1928		164.062500
1929		171.875000
1930		160.156250
1931		167.968750
1932		156.250000
1933		167.968750
1934		152.343750
1935		164.062500
1936		148.437500
1937		156.250000
1938		144.531250
1939		152.343750
1940		140.625000
1941		148.437500
1942		132.812500
1943		144.531250
1944		128.906250
1945		140.625000
1946		125.000000
1947		136.718750
1948		121.093750
1949		128.906250
1950		113.281250
1951		125.000000
1952		109.375000
1953		117.187500
1954		105.468750
1955		113.281250
1956		97.656250
1957		105.468750
1958		89.843750
1959		101.562500
1960		85.937500
1961		93.750000
1962		78.125000
1963		89.843750
1964		70.312500
1965		82.031250
1966		66.406250
1967		78.125000
1968		58.593750
1969		70.312500
1970		54.687500
1971		62.500000
1972		42.968750
1973		54.687500
1974		39.062500
1975		50.781250
1976		31.250000
1977		42.968750
1978		23.437500
1979		35.156250
1980		15.625000
1981		27.343750
1982		11.718750
1983		23.437500
1984		3.906250
1985		11.718750
1986		-3.906250
1987		3.906250
1988		-11.718750
1989		0.000000
1990		-19.531250
1991		-7.812500
1992		-27.343750
1993		-15.625000
1994		-31.250000
1995		-23.437500
1996		-39.062500
1997		-27.343750
1998		-50.781250
1999		-35.156250
2000		-54.687500
2001		-42.968750
2002		-62.500000
2003		-50.781250
2004		-70.312500
2005		-58.593750
2006		-78.125000
2007		-66.406250
2008		-85.937500
2009		-74.218750
2010		-93.750000
2011		-82.031250
2012		-97.656250
2013		-85.937500
2014		-105.468750
2015		-93.750000
2016		-113.281250
2017		-101.562500
2018		-117.187500
2019		-109.375000
2020		-125.000000
2021		-117.187500
2022		-132.812500
2023		-121.093750
2024		-140.625000
2025		-128.906250
2026		-144.531250
2027		-136.718750
2028		-152.343750
2029		-140.625000
2030		-156.250000
2031		-148.437500
2032		-164.062500
2033		-152.343750
2034		-167.968750
2035		-160.156250
2036		-171.875000
2037		-167.968750
2038		-179.687500
2039		-171.875000
2040		-183.593750
2041		-175.781250
2042		-191.406250
2043		-179.687500
2044		-195.312500
2045		-183.593750
2046		-199.218750
2047		-191.406250
2048		-203.125000
2049		-195.312500
2050		-207.031250
2051		-199.218750
2052		-210.937500
2053		-203.125000
2054		-214.843750
2055		-207.031250
2056		-218.750000
2057		-210.937500
2058		-222.656250
2059		-214.843750
2060		-226.562500
2061		-218.750000
2062		-226.562500
2063		-218.750000
2064		-230.468750
2065		-222.656250
2066		-234.375000
2067		-226.562500
2068		-234.375000
2069		-226.562500
2070		-234.375000
2071		-230.468750
2072		-238.281250
2073		-234.375000
2074		-238.281250
2075		-234.375000
2076		-242.187500
2077		-234.375000
2078		-242.187500
2079		-234.375000
2080		-242.187500
2081		-234.375000
2082		-242.187500
2083		-234.375000
2084		-242.187500
2085		-238.281250
2086		-242.187500
2087		-238.281250
2088		-242.187500
2089		-238.281250
2090		-242.187500
2091		-234.375000
2092		-242.187500
2093		-234.375000
2094		-238.281250
2095		-234.375000
2096		-238.281250
2097		-230.468750
2098		-238.281250
2099		-230.468750
2100		-234.375000
2101		-226.562500
2102		-234.375000
2103		-226.562500
2104		-230.468750
2105		-222.656250
2106		-226.562500
2107		-222.656250
2108		-222.656250
2109		-214.843750
2110		-222.656250
2111		-214.843750
2112		-218.750000
2113		-210.937500
2114		-214.843750
2115		-207.031250
2116		-210.937500
2117		-203.125000
2118		-207.031250
2119		-199.218750
2120		-203.125000
2121		-195.312500
2122		-195.312500
2123		-191.406250
2124		-191.406250
2125		-183.593750
2126		-187.500000
2127		-179.687500
2128		-183.593750
2129		-171.875000
2130		-179.687500
2131		-167.968750
2132		-171.875000
2133		-160.156250
2134		-167.968750
2135		-156.250000
2136		-160.156250
2137		-152.343750
2138		-152.343750
2139		-144.531250
2140		-144.531250
2141		-136.718750
2142		-140.625000
2143		-128.906250
2144		-136.718750
2145		-125.000000
2146		-128.906250
2147		-117.187500
2148		-121.093750
2149		-109.375000
2150		-113.281250
2151		-101.562500
2152		-109.375000
2153		-97.656250
2154		-97.656250
2155		-89.843750
2156		-93.750000
2157		-82.031250
2158		-85.937500
2159		-74.218750
2160		-78.125000
2161		-66.406250
2162		-70.312500
2163		-58.593750
2164		-62.500000
2165		-54.687500
2166		-54.687500
2167		-46.875000
2168		-46.875000
2169		-39.062500
2170		-42.968750
2171		-31.250000
2172		-31.250000
2173		-23.437500
2174		-27.343750
2175		-15.625000
2176		-19.531250
2177		-7.812500
2178		-11.718750
2179		0.000000
2180		-3.906250
2181		7.812500
2182		3.906250
2183		15.625000
2184		7.812500
2185		19.531250
2186		15.625000
2187		27.343750
2188		23.437500
2189		35.156250
2190		31.250000
2191		42.968750
2192		39.062500
2193		46.875000
2194		42.968750
2195		54.687500
2196		50.781250
2197		62.500000
2198		58.593750
2199		70.312500
2200		66.406250
2201		74.218750
2202		70.312500
2203		82.031250
2204		78.125000
2205		85.937500
2206		85.937500
2207		93.750000
2208		89.843750
2209		101.562500
2210		93.750000
2211		105.468750
2212		101.562500
2213		109.375000
2214		105.468750
2215		117.187500
2216		109.375000
2217		121.093750
2218		117.187500
2219		125.000000
2220		125.000000
2221		128.906250
2222		128.906250
2223		136.718750
2224		132.812500
2225		140.625000
2226		136.718750
2227		148.437500
2228		140.625000
2229		148.437500
2230		144.531250
2231		156.250000
2232		148.437500
2233		160.156250
2234		152.343750
2235		164.062500
2236		156.250000
2237		164.062500
2238		164.062500
2239		167.968750
2240		167.968750
2241		171.875000
2242		167.968750
2243		175.781250
2244		171.875000
2245		179.687500
2246		175.781250
2247		183.593750
2248		175.781250
2249		187.500000
2250		179.687500
2251		187.500000
2252		183.593750
2253		191.406250
2254		183.593750
2255		191.406250
2256		187.500000
2257		191.406250
2258		191.406250
2259		195.312500
2260		191.406250
2261		199.218750
2262		191.406250
2263		199.218750
2264		195.312500
2265		203.125000
2266		195.312500
2267		203.125000
2268		199.218750
2269		203.125000
2270		199.218750
2271		207.031250
2272		203.125000
2273		207.031250
2274		203.125000
2275		207.031250
2276		203.125000
2277		210.937500
2278		203.125000
2279		210.937500
2280		203.125000
2281		210.937500
2282		203.125000
2283		210.937500
2284		203.125000
2285		210.937500
2286		203.125000
2287		210.937500
2288		207.031250
2289		207.031250
2290		207.031250
2291		210.937500
2292		203.125000
2293		210.937500
2294		203.125000
2295		210.937500
2296		203.125000
2297		210.937500
2298		199.218750
2299		207.031250
2300		199.218750
2301		207.031250
2302		199.218750
2303		207.031250
2304		199.218750
2305		203.125000
2306		199.218750
2307		203.125000
2308		195.312500
2309		203.125000
2310		191.406250
2311		199.218750
2312		191.406250
2313		199.218750
2314		191.406250
2315		199.218750
2316		187.500000
2317		195.312500
2318		187.500000
2319		195.312500
2320		183.593750
2321		191.406250
2322		183.593750
2323		187.500000
2324		179.687500
2325		183.593750
2326		175.781250
2327		183.593750
2328		171.875000
2329		179.687500
2330		167.968750
2331		175.781250
2332		164.062500
2333		171.875000
2334		160.156250
2335		167.968750
2336		156.250000
2337		167.968750
2338		152.343750
2339		164.062500
2340		148.437500
2341		156.250000
2342		144.531250
2343		152.343750
2344		140.625000
2345		148.437500
2346		132.812500
2347		144.531250
2348		128.906250
2349		140.625000
2350		125.000000
2351		132.812500
2352		117.187500
2353		128.906250
2354		113.281250
2355		125.000000
2356		109.375000
2357		117.187500
2358		101.562500
2359		109.375000
2360		97.656250
2361		105.468750
2362		89.843750
2363		101.562500
2364		85.937500
2365		93.750000
2366		78.125000
2367		89.843750
2368		70.312500
2369		82.031250
2370		66.406250
2371		74.218750
2372		58.593750
2373		70.312500
2374		50.781250
2375		62.500000
2376		42.968750
2377		54.687500
2378		39.062500
2379		46.875000
2380		31.250000
2381		42.968750
2382		23.437500
2383		35.156250
2384		15.625000
2385		27.343750
2386		7.812500
2387		19.531250
2388		3.906250
2389		11.718750
2390		-3.906250
2391		3.906250
2392		-11.718750
2393		-3.906250
2394		-23.437500
2395		-7.812500
2396		-27.343750
2397		-15.625000
2398		-35.156250
2399		-23.437500
2400		-42.968750
2401		-31.250000
2402		-50.781250
2403		-35.156250
2404		-54.687500
2405		-46.875000
2406		-62.500000
2407		-54.687500
2408		-70.312500
2409		-62.500000
2410		-78.125000
2411		-66.406250
2412		-85.937500
2413		-74.218750
2414		-93.750000
2415		-82.031250
2416		-101.562500
2417		-89.843750
2418		-105.468750
2419		-93.750000
2420		-113.281250
2421		-101.562500
2422		-117.187500
2423		-109.375000
2424		-125.000000
2425		-117.187500
2426		-132.812500
2427		-125.000000
2428		-136.718750
2429		-128.906250
2430		-148.437500
2431		-132.812500
2432		-152.343750
2433		-140.625000
2434		-156.250000
2435		-148.437500
2436		-164.062500
2437		-152.343750
2438		-167.968750
2439		-160.156250
2440		-175.781250
2441		-167.968750
2442		-179.687500
2443		-171.875000
2444		-187.500000
2445		-175.781250
2446		-187.500000
2447		-179.687500
2448		-195.312500
2449		-183.593750
2450		-199.218750
2451		-187.500000
2452		-203.125000
2453		-195.312500
2454		-207.031250
2455		-199.218750
2456		-210.937500
2457		-203.125000
2458		-214.843750
2459		-207.031250
2460		-218.750000
2461		-210.937500
2462		-222.656250
2463		-214.843750
2464		-226.562500
2465		-214.843750
2466		-226.562500
2467		-218.750000
2468		-230.468750
2469		-222.656250
2470		-230.468750
2471		-222.656250
2472		-234.375000
2473		-226.562500
2474		-234.375000
2475		-230.468750
2476		-238.281250
2477		-230.468750
2478		-238.281250
2479		-230.468750
2480		-242.187500
2481		-234.375000
2482		-242.187500
2483		-234.375000
2484		-242.187500
2485		-234.375000
2486		-242.187500
2487		-234.375000
2488		-242.187500
2489		-234.375000
2490		-238.281250
2491		-238.281250
2492		-238.281250
2493		-238.281250
2494		-242.187500
2495		-234.375000
2496		-238.281250
2497		-234.375000
2498		-238.281250
2499		-230.468750
2500		-238.281250
2501		-230.468750
2502		-234.375000
2503		-226.562500
2504		-234.375000
2505		-226.562500
2506		-230.468750
2507		-226.562500
2508		-226.562500
2509		-222.656250
2510		-226.562500
2511		-218.750000
2512		-222.656250
2513		-214.843750
2514		-222.656250
2515		-210.937500
2516		-218.750000
2517		-207.031250
2518		-214.843750
2519		-203.125000
2520		-210.937500
2521		-199.218750
2522		-207.031250
2523		-199.218750
2524		-199.218750
2525		-195.312500
2526		-195.312500
2527		-187.500000
2528		-191.406250
2529		-183.593750
2530		-187.500000
2531		-179.687500
2532		-183.593750
2533		-171.875000
2534		-175.781250
2535		-167.968750
2536		-171.875000
2537		-160.156250
2538		-164.062500
2539		-156.250000
2540		-156.250000
2541		-148.437500
2542		-152.343750
2543		-144.531250
2544		-144.531250
2545		-136.718750
2546		-140.625000
2547		-128.906250
2548		-132.812500
2549		-125.000000
2550		-128.906250
2551		-117.187500
2552		-121.093750
2553		-109.375000
2554		-113.281250
2555		-101.562500
2556		-105.468750
2557		-97.656250
2558		-97.656250
2559		-89.843750
2560		-89.843750
2561		-82.031250
2562		-85.937500
2563		-74.218750
2564		-78.125000
2565		-66.406250
2566		-70.312500
2567		-58.593750
2568		-62.500000
2569		-50.781250
2570		-54.687500
2571		-42.968750
2572		-50.781250
2573		-35.156250
2574		-39.062500
2575		-31.250000
2576		-31.250000
2577		-23.437500
2578		-23.437500
2579		-15.625000
2580		-19.531250
2581		-7.812500
2582		-11.718750
2583		0.000000
2584		-3.906250
2585		7.812500
2586		3.906250
2587		15.625000
2588		11.718750
2589		23.437500
2590		15.625000
2591		27.343750
2592		27.343750
2593		35.156250
2594		31.250000
2595		42.968750
2596		39.062500
2597		50.781250
2598		46.875000
2599		54.687500
2600		50.781250
2601		62.500000
2602		58.593750
2603		70.312500
2604		62.500000
2605		78.125000
2606		74.218750
2607		82.031250
2608		78.125000
2609		85.937500
2610		85.937500
2611		93.750000
2612		89.843750
2613		101.562500
2614		97.656250
2615		105.468750
2616		101.562500
2617		109.375000
2618		105.468750
2619		117.187500
2620		113.281250
2621		121.093750
2622		117.187500
2623		128.906250
2624		125.000000
2625		132.812500
2626		128.906250
2627		136.718750
2628		132.812500
2629		144.531250
2630		136.718750
2631		148.437500
2632		140.625000
2633		152.343750
2634		144.531250
2635		156.250000
2636		148.437500
2637		160.156250
2638		152.343750
2639		164.062500
2640		156.250000
2641		164.062500
2642		164.062500
2643		167.968750
2644		167.968750
2645		171.875000
2646		167.968750
2647		175.781250
2648		171.875000
2649		179.687500
2650		175.781250
2651		183.593750
2652		175.781250
2653		183.593750
2654		179.687500
2655		187.500000
2656		183.593750
2657		191.406250
2658		187.500000
2659		191.406250
2660		187.500000
2661		195.312500
2662		191.406250
2663		195.312500
2664		191.406250
2665		199.218750
2666		191.406250
2667		199.218750
2668		195.312500
2669		203.125000
2670		195.312500
2671		203.125000
2672		195.312500
2673		207.031250
2674		199.218750
2675		203.125000
2676		203.125000
2677		207.031250
2678		199.218750
2679		207.031250
2680		203.125000
2681		207.031250
2682		203.125000
2683		210.937500
2684		203.125000
2685		210.937500
2686		203.125000
2687		210.937500
2688		203.125000
2689		210.937500
2690		203.125000
2691		210.937500
2692		207.031250
2693		207.031250
2694		203.125000
2695		207.031250
2696		203.125000
2697		210.937500
2698		203.125000
2699		207.031250
2700		199.218750
2701		207.031250
2702		199.218750
2703		207.031250
2704		199.218750
2705		207.031250
2706		199.218750
2707		207.031250
2708		199.218750
2709		203.125000
2710		199.218750
2711		203.125000
2712		195.312500
2713		199.218750
2714		191.406250
2715		199.218750
2716		191.406250
2717		199.218750
2718		187.500000
2719		195.312500
2720		187.500000
2721		195.312500
2722		183.593750
2723		191.406250
2724		183.593750
2725		191.406250
2726		179.687500
2727		183.593750
2728		175.781250
2729		183.593750
2730		171.875000
2731		179.687500
2732		167.968750
2733		179.687500
2734		164.062500
2735		175.781250
2736		160.156250
2737		171.875000
2738		160.156250
2739		167.968750
2740		152.343750
2741		164.062500
2742		152.343750
2743		160.156250
2744		148.437500
2745		156.250000
2746		140.625000
2747		148.437500
2748		136.718750
2749		148.437500
2750		132.812500
2751		144.531250
2752		125.000000
2753		136.718750
2754		121.093750
2755		132.812500
2756		117.187500
2757		128.906250
2758		113.281250
2759		121.093750
2760		105.468750
2761		113.281250
2762		101.562500
2763		109.375000
2764		93.750000
2765		105.468750
2766		89.843750
2767		97.656250
2768		82.031250
2769		93.750000
2770		78.125000
2771		85.937500
2772		70.312500
2773		82.031250
2774		62.500000
2775		74.218750
2776		58.593750
2777		66.406250
2778		50.781250
2779		58.593750
2780		42.968750
2781		50.781250
2782		35.156250
2783		46.875000
2784		27.343750
2785		39.062500
2786		19.531250
2787		31.250000
2788		15.625000
2789		27.343750
2790		7.812500
2791		19.531250
2792		0.000000
2793		11.718750
2794		-7.812500
2795		3.906250
2796		-15.625000
2797		-3.906250
2798		-23.437500
2799		-11.718750
2800		-31.250000
2801		-19.531250
2802		-39.062500
2803		-27.343750
2804		-42.968750
2805		-35.156250
2806		-50.781250
2807		-39.062500
2808		-58.593750
2809		-46.875000
2810		-66.406250
2811		-54.687500
2812		-70.312500
2813		-62.500000
2814		-82.031250
2815		-70.312500
2816		-85.937500
2817		-74.218750
2818		-93.750000
2819		-82.031250
2820		-101.562500
2821		-89.843750
2822		-109.375000
2823		-97.656250
2824		-113.281250
2825		-105.468750
2826		-121.093750
2827		-113.281250
2828		-128.906250
2829		-121.093750
2830		-132.812500
2831		-125.000000
2832		-140.625000
2833		-132.812500
2834		-148.437500
2835		-136.718750
2836		-152.343750
2837		-144.531250
2838		-160.156250
2839		-148.437500
2840		-167.968750
2841		-156.250000
2842		-171.875000
2843		-164.062500
2844		-175.781250
2845		-167.968750
2846		-183.593750
2847		-171.875000
2848		-187.500000
2849		-179.687500
2850		-191.406250
2851		-183.593750
2852		-195.312500
2853		-187.500000
2854		-199.218750
2855		-191.406250
2856		-207.031250
2857		-195.312500
2858		-210.937500
2859		-199.218750
2860		-210.937500
2861		-207.031250
2862		-214.843750
2863		-210.937500
2864		-218.750000
2865		-214.843750
2866		-222.656250
2867		-218.750000
2868		-226.562500
2869		-218.750000
2870		-230.468750
2871		-222.656250
2872		-230.468750
2873		-222.656250
2874		-234.375000
2875		-226.562500
2876		-234.375000
2877		-230.468750
2878		-238.281250
2879		-234.375000
2880		-238.281250
2881		-234.375000
2882		-238.281250
2883		-234.375000
2884		-242.187500
2885		-234.375000
2886		-242.187500
2887		-238.281250
2888		-242.187500
2889		-238.281250
2890		-242.187500
2891		-238.281250
2892		-242.187500
2893		-238.281250
2894		-242.187500
2895		-238.281250
2896		-242.187500
2897		-238.281250
2898		-242.187500
2899		-238.281250
2900		-238.281250
2901		-234.375000
2902		-238.281250
2903		-234.375000
2904		-238.281250
2905		-234.375000
2906		-238.281250
2907		-230.468750
2908		-234.375000
2909		-226.562500
2910		-230.468750
2911		-226.562500
2912		-230.468750
2913		-222.656250
2914		-226.562500
2915		-222.656250
2916		-222.656250
2917		-218.750000
2918		-218.750000
2919		-214.843750
2920		-218.750000
2921		-210.937500
2922		-214.843750
2923		-207.031250
2924		-210.937500
2925		-203.125000
2926		-207.031250
2927		-199.218750
2928		-203.125000
2929		-195.312500
2930		-195.312500
2931		-187.500000
2932		-191.406250
2933		-183.593750
2934		-187.500000
2935		-179.687500
2936		-179.687500
2937		-175.781250
2938		-175.781250
2939		-167.968750
2940		-171.875000
2941		-164.062500
2942		-164.062500
2943		-156.250000
2944		-160.156250
2945		-152.343750
2946		-152.343750
2947		-144.531250
2948		-144.531250
2949		-136.718750
2950		-140.625000
2951		-132.812500
2952		-132.812500
2953		-125.000000
2954		-125.000000
2955		-117.187500
2956		-121.093750
2957		-109.375000
2958		-113.281250
2959		-101.562500
2960		-105.468750
2961		-97.656250
2962		-97.656250
2963		-89.843750
2964		-89.843750
2965		-82.031250
2966		-82.031250
2967		-74.218750
2968		-78.125000
2969		-66.406250
2970		-70.312500
2971		-58.593750
2972		-62.500000
2973		-50.781250
2974		-54.687500
2975		-46.875000
2976		-46.875000
2977		-39.062500
2978		-39.062500
2979		-31.250000
2980		-31.250000
2981		-23.437500
2982		-23.437500
2983		-15.625000
2984		-15.625000
2985		-7.812500
2986		-7.812500
2987		0.000000
2988		0.000000
2989		7.812500
2990		3.906250
2991		15.625000
2992		11.718750
2993		19.531250
2994		19.531250
2995		27.343750
2996		27.343750
2997		35.156250
2998		35.156250
2999		42.968750
3000		39.062500
3001		50.781250
3002		46.875000
3003		54.687500
3004		54.687500
3005		62.500000
3006		62.500000
3007		70.312500
3008		66.406250
3009		74.218750
3010		74.218750
3011		82.031250
3012		78.125000
3013		89.843750
3014		85.937500
3015		93.750000
3016		89.843750
3017		101.562500
3018		97.656250
3019		105.468750
3020		101.562500
3021		109.375000
3022		109.375000
3023		117.187500
3024		113.281250
3025		121.093750
3026		121.093750
3027		125.000000
3028		125.000000
3029		132.812500
3030		128.906250
3031		136.718750
3032		132.812500
3033		140.625000
3034		136.718750
3035		144.531250
3036		144.531250
3037		148.437500
3038		148.437500
3039		156.250000
3040		152.343750
3041		160.156250
3042		156.250000
3043		160.156250
3044		160.156250
3045		164.062500
3046		164.062500
3047		167.968750
3048		167.968750
3049		171.875000
3050		167.968750
3051		175.781250
3052		171.875000
3053		179.687500
3054		175.781250
3055		183.593750
3056		179.687500
3057		183.593750
3058		183.593750
3059		187.500000
3060		183.593750
3061		191.406250
3062		187.500000
3063		191.406250
3064		191.406250
3065		195.312500
3066		191.406250
3067		195.312500
3068		195.312500
3069		199.218750
3070		195.312500
3071		199.218750
3072		195.312500
3073		199.218750
3074		199.218750
3075		203.125000
3076		199.218750
3077		203.125000
3078		199.218750
3079		207.031250
3080		203.125000
3081		207.031250
3082		203.125000
3083		207.031250
3084		203.125000
3085		207.031250
3086		203.125000
3087		207.031250
3088		203.125000
3089		207.031250
3090		203.125000
3091		207.031250
3092		207.031250
3093		207.031250
3094		203.125000
3095		210.937500
3096		207.031250
3097		207.031250
3098		203.125000
3099		210.937500
3100		203.125000
3101		207.031250
3102		203.125000
3103		207.031250
3104		203.125000
3105		207.031250
3106		203.125000
3107		207.031250
3108		203.125000
3109		207.031250
3110		199.218750
3111		203.125000
3112		199.218750
3113		203.125000
3114		199.218750
3115		203.125000
3116		195.312500
3117		203.125000
3118		195.312500
3119		199.218750
3120		191.406250
3121		195.312500
3122		191.406250
3123		195.312500
3124		187.500000
3125		191.406250
3126		183.593750
3127		191.406250
3128		183.593750
3129		187.500000
3130		179.687500
3131		187.500000
3132		175.781250
3133		183.593750
3134		175.781250
3135		179.687500
3136		171.875000
3137		175.781250
3138		167.968750
3139		171.875000
3140		164.062500
3141		167.968750
3142		160.156250
3143		167.968750
3144		156.250000
3145		164.062500
3146		152.343750
3147		160.156250
3148		148.437500
3149		152.343750
3150		144.531250
3151		148.437500
3152		136.718750
3153		144.531250
3154		132.812500
3155		140.625000
3156		128.906250
3157		136.718750
3158		125.000000
3159		128.906250
3160		117.187500
3161		125.000000
3162		113.281250
3163		121.093750
3164		105.468750
3165		113.281250
3166		101.562500
3167		109.375000
3168		93.750000
3169		101.562500
3170		89.843750
3171		97.656250
3172		82.031250
3173		89.843750
3174		78.125000
3175		85.937500
3176		70.312500
3177		78.125000
3178		62.500000
3179		70.312500
3180		54.687500
3181		66.406250
3182		50.781250
3183		58.593750
3184		42.968750
3185		50.781250
3186		35.156250
3187		46.875000
3188		27.343750
3189		39.062500
3190		23.437500
3191		31.250000
3192		15.625000
3193		23.437500
3194		7.812500
3195		15.625000
3196		0.000000
3197		7.812500
3198		-7.812500
3199		0.000000
3200		-15.625000
3201		-3.906250
3202		-23.437500
3203		-11.718750
3204		-27.343750
3205		-19.531250
3206		-35.156250
3207		-27.343750
3208		-42.968750
3209		-35.156250
3210		-50.781250
3211		-42.968750
3212		-58.593750
3213		-46.875000
3214		-66.406250
3215		-54.687500
3216		-74.218750
3217		-62.500000
3218		-82.031250
3219		-70.312500
3220		-85.937500
3221		-78.125000
3222		-93.750000
3223		-85.937500
3224		-101.562500
3225		-93.750000
3226		-109.375000
3227		-97.656250
3228		-113.281250
3229		-105.468750
3230		-121.093750
3231		-113.281250
3232		-128.906250
3233		-121.093750
3234		-136.718750
3235		-125.000000
3236		-140.625000
3237		-132.812500
3238		-148.437500
3239		-140.625000
3240		-156.250000
3241		-144.531250
3242		-160.156250
3243		-152.343750
3244		-164.062500
3245		-156.250000
3246		-171.875000
3247		-164.062500
3248		-175.781250
3249		-167.968750
3250		-183.593750
3251		-175.781250
3252		-187.500000
3253		-179.687500
3254		-191.406250
3255		-183.593750
3256		-195.312500
3257		-187.500000
3258		-199.218750
3259		-195.312500
3260		-207.031250
3261		-199.218750
3262		-207.031250
3263		-203.125000
3264		-214.843750
3265		-207.031250
3266		-214.843750
3267		-210.937500
3268		-218.750000
3269		-214.843750
3270		-222.656250
3271		-218.750000
3272		-226.562500
3273		-222.656250
3274		-230.468750
3275		-226.562500
3276		-230.468750
3277		-226.562500
3278		-234.375000
3279		-230.468750
3280		-238.281250
3281		-230.468750
3282		-238.281250
3283		-234.375000
3284		-238.281250
3285		-234.375000
3286		-242.187500
3287		-238.281250
3288		-242.187500
3289		-238.281250
3290		-242.187500
3291		-238.281250
3292		-242.187500
3293		-238.281250
3294		-242.187500
3295		-238.281250
3296		-246.093750
3297		-238.281250
3298		-242.187500
3299		-238.281250
3300		-242.187500
3301		-238.281250
3302		-242.187500
3303		-238.281250
3304		-242.187500
3305		-238.281250
3306		-238.281250
3307		-234.375000
3308		-238.281250
3309		-234.375000
3310		-234.375000
3311		-230.468750
3312		-234.375000
3313		-230.468750
3314		-230.468750
3315		-226.562500
3316		-230.468750
3317		-226.562500
3318		-226.562500
3319		-222.656250
3320		-222.656250
3321		-218.750000
3322		-222.656250
3323		-214.843750
3324		-218.750000
3325		-210.937500
3326		-214.843750
3327		-207.031250
3328		-210.937500
3329		-203.125000
3330		-207.031250
3331		-199.218750
3332		-199.218750
3333		-195.312500
3334		-195.312500
3335		-191.406250
3336		-191.406250
3337		-183.593750
3338		-187.500000
3339		-179.687500
3340		-179.687500
3341		-175.781250
3342		-175.781250
3343		-167.968750
3344		-171.875000
3345		-164.062500
3346		-164.062500
3347		-156.250000
3348		-160.156250
3349		-152.343750
3350		-152.343750
3351		-144.531250
3352		-148.437500
3353		-136.718750
3354		-140.625000
3355		-132.812500
3356		-132.812500
3357		-125.000000
3358		-125.000000
3359		-117.187500
3360		-121.093750
3361		-109.375000
3362		-113.281250
3363		-101.562500
3364		-105.468750
3365		-97.656250
3366		-97.656250
3367		-89.843750
3368		-89.843750
3369		-82.031250
3370		-82.031250
3371		-74.218750
3372		-78.125000
3373		-66.406250
3374		-70.312500
3375		-58.593750
3376		-62.500000
3377		-50.781250
3378		-54.687500
3379		-42.968750
3380		-46.875000
3381		-39.062500
3382		-39.062500
3383		-31.250000
3384		-31.250000
3385		-23.437500
3386		-23.437500
3387		-15.625000
3388		-15.625000
3389		-7.812500
3390		-7.812500
3391		0.000000
3392		-3.906250
3393		7.812500
3394		3.906250
3395		15.625000
3396		11.718750
3397		23.437500
3398		19.531250
3399		27.343750
3400		27.343750
3401		35.156250
3402		35.156250
3403		42.968750
3404		39.062500
3405		46.875000
3406		46.875000
3407		54.687500
3408		54.687500
3409		62.500000
3410		58.593750
3411		66.406250
3412		66.406250
3413		74.218750
3414		74.218750
3415		82.031250
3416		78.125000
3417		85.937500
3418		85.937500
3419		93.750000
3420		93.750000
3421		97.656250
3422		97.656250
3423		105.468750
3424		101.562500
3425		109.375000
3426		109.375000
3427		117.187500
3428		113.281250
3429		121.093750
3430		117.187500
3431		125.000000
3432		125.000000
3433		132.812500
3434		128.906250
3435		136.718750
3436		132.812500
3437		140.625000
3438		136.718750
3439		144.531250
3440		144.531250
3441		148.437500
3442		148.437500
3443		152.343750
3444		152.343750
3445		156.250000
3446		156.250000
3447		160.156250
3448		160.156250
3449		164.062500
3450		164.062500
3451		167.968750
3452		167.968750
3453		171.875000
3454		171.875000
3455		175.781250
3456		171.875000
3457		179.687500
3458		175.781250
3459		179.687500
3460		179.687500
3461		183.593750
3462		183.593750
3463		187.500000
3464		183.593750
3465		191.406250
3466		187.500000
3467		191.406250
3468		187.500000
3469		195.312500
3470		191.406250
3471		195.312500
3472		191.406250
3473		195.312500
3474		195.312500
3475		199.218750
3476		195.312500
3477		199.218750
3478		195.312500
3479		203.125000
3480		199.218750
3481		203.125000
3482		199.218750
3483		203.125000
3484		203.125000
3485		207.031250
3486		203.125000
3487		207.031250
3488		203.125000
3489		207.031250
3490		203.125000
3491		207.031250
3492		203.125000
3493		207.031250
3494		203.125000
3495		207.031250
3496		203.125000
3497		207.031250
3498		203.125000
3499		207.031250
3500		203.125000
3501		207.031250
3502		203.125000
3503		207.031250
3504		203.125000
3505		207.031250
3506		203.125000
3507		207.031250
3508		203.125000
3509		207.031250
3510		203.125000
3511		207.031250
3512		199.218750
3513		203.125000
3514		199.218750
3515		203.125000
3516		199.218750
3517		203.125000
3518		195.312500
3519		199.218750
3520		195.312500
3521		199.218750
3522		191.406250
3523		199.218750
3524		191.406250
3525		195.312500
3526		187.500000
3527		191.406250
3528		187.500000
3529		191.406250
3530		183.593750
3531		187.500000
3532		179.687500
3533		187.500000
3534		179.687500
3535		183.593750
3536		175.781250
3537		179.687500
3538		171.875000
3539		175.781250
3540		167.968750
3541		175.781250
3542		164.062500
3543		171.875000
3544		160.156250
3545		167.968750
3546		156.250000
3547		164.062500
3548		152.343750
3549		160.156250
3550		148.437500
3551		156.250000
3552		144.531250
3553		152.343750
3554		140.625000
3555		148.437500
3556		136.718750
3557		140.625000
3558		128.906250
3559		136.718750
3560		125.000000
3561		132.812500
3562		121.093750
3563		128.906250
3564		113.281250
3565		121.093750
3566		109.375000
3567		117.187500
3568		101.562500
3569		109.375000
3570		97.656250
3571		105.468750
3572		89.843750
3573		101.562500
3574		85.937500
3575		93.750000
3576		78.125000
3577		85.937500
3578		74.218750
3579		82.031250
3580		66.406250
3581		74.218750
3582		58.593750
3583		70.312500
3584		50.781250
3585		62.500000
3586		42.968750
3587		54.687500
3588		39.062500
3589		46.875000
3590		31.250000
3591		39.062500
3592		23.437500
3593		35.156250
3594		15.625000
3595		27.343750
3596		11.718750
3597		19.531250
3598		3.906250
3599		11.718750
3600		-3.906250
3601		3.906250
3602		-11.718750
3603		0.000000
3604		-19.531250
3605		-7.812500
3606		-27.343750
3607		-15.625000
3608		-31.250000
3609		-23.437500
3610		-39.062500
3611		-31.250000
3612		-46.875000
3613		-39.062500
3614		-54.687500
3615		-46.875000
3616		-62.500000
3617		-54.687500
3618		-70.312500
3619		-62.500000
3620		-78.125000
3621		-66.406250
3622		-85.937500
3623		-74.218750
3624		-89.843750
3625		-82.031250
3626		-97.656250
3627		-89.843750
3628		-105.468750
3629		-97.656250
3630		-113.281250
3631		-101.562500
3632		-117.187500
3633		-109.375000
3634		-125.000000
3635		-117.187500
3636		-132.812500
3637		-121.093750
3638		-140.625000
3639		-128.906250
3640		-144.531250
3641		-136.718750
3642		-148.437500
3643		-140.625000
3644		-156.250000
3645		-148.437500
3646		-160.156250
3647		-152.343750
3648		-167.968750
3649		-160.156250
3650		-171.875000
3651		-164.062500
3652		-179.687500
3653		-171.875000
3654		-183.593750
3655		-175.781250
3656		-187.500000
3657		-183.593750
3658		-195.312500
3659		-187.500000
3660		-199.218750
3661		-191.406250
3662		-203.125000
3663		-195.312500
3664		-207.031250
3665		-199.218750
3666		-210.937500
3667		-203.125000
3668		-214.843750
3669		-207.031250
3670		-218.750000
3671		-210.937500
3672		-218.750000
3673		-214.843750
3674		-222.656250
3675		-218.750000
3676		-226.562500
3677		-222.656250
3678		-230.468750
3679		-222.656250
3680		-230.468750
3681		-226.562500
3682		-234.375000
3683		-230.468750
3684		-234.375000
3685		-230.468750
3686		-238.281250
3687		-234.375000
3688		-238.281250
3689		-234.375000
3690		-238.281250
3691		-234.375000
3692		-242.187500
3693		-238.281250
3694		-242.187500
3695		-238.281250
3696		-242.187500
3697		-238.281250
3698		-242.187500
3699		-238.281250
3700		-242.187500
3701		-238.281250
3702		-242.187500
3703		-238.281250
3704		-242.187500
3705		-238.281250
3706		-242.187500
3707		-234.375000
3708		-238.281250
3709		-234.375000
3710		-238.281250
3711		-234.375000
3712		-234.375000
3713		-230.468750
3714		-234.375000
3715		-230.468750
3716		-230.468750
3717		-226.562500
3718		-230.468750
3719		-226.562500
3720		-226.562500
3721		-222.656250
3722		-222.656250
3723		-218.750000
3724		-222.656250
3725		-214.843750
3726		-218.750000
3727		-210.937500
3728		-214.843750
3729		-207.031250
3730		-210.937500
3731		-203.125000
3732		-207.031250
3733		-199.218750
3734		-203.125000
3735		-195.312500
3736		-199.218750
3737		-191.406250
3738		-195.312500
3739		-187.500000
3740		-187.500000
3741		-179.687500
3742		-183.593750
3743		-175.781250
3744		-175.781250
3745		-171.875000
3746		-171.875000
3747		-164.062500
3748		-167.968750
3749		-160.156250
3750		-160.156250
3751		-152.343750
3752		-152.343750
3753		-144.531250
3754		-148.437500
3755		-140.625000
3756		-140.625000
3757		-132.812500
3758		-136.718750
3759		-125.000000
3760		-128.906250
3761		-121.093750
3762		-121.093750
3763		-113.281250
3764		-113.281250
3765		-105.468750
3766		-109.375000
3767		-97.656250
3768		-101.562500
3769		-93.750000
3770		-93.750000
3771		-85.937500
3772		-85.937500
3773		-78.125000
3774		-78.125000
3775		-70.312500
3776		-74.218750
3777		-62.500000
3778		-62.500000
3779		-54.687500
3780		-54.687500
3781		-46.875000
3782		-50.781250
3783		-39.062500
3784		-42.968750
3785		-31.250000
3786		-35.156250
3787		-23.437500
3788		-27.343750
3789		-19.531250
3790		-19.531250
3791		-11.718750
3792		-11.718750
3793		-3.906250
3794		-3.906250
3795		3.906250
3796		0.000000
3797		11.718750
3798		7.812500
3799		19.531250
3800		15.625000
3801		23.437500
3802		23.437500
3803		31.250000
3804		31.250000
3805		39.062500
3806		35.156250
3807		46.875000
3808		42.968750
3809		54.687500
3810		50.781250
3811		58.593750
3812		58.593750
3813		66.406250
3814		66.406250
3815		74.218750
3816		70.312500
3817		78.125000
3818		78.125000
3819		85.937500
3820		82.031250
3821		89.843750
3822		89.843750
3823		97.656250
3824		93.750000
3825		101.562500
3826		101.562500
3827		109.375000
3828		105.468750
3829		113.281250
3830		113.281250
3831		121.093750
3832		117.187500
3833		125.000000
3834		121.093750
3835		128.906250
3836		128.906250
3837		132.812500
3838		132.812500
3839		140.625000
3840		136.718750
3841		144.531250
3842		140.625000
3843		148.437500
3844		144.531250
3845		152.343750
3846		152.343750
3847		156.250000
3848		156.250000
3849		160.156250
3850		160.156250
3851		164.062500
3852		164.062500
3853		167.968750
3854		164.062500
3855		171.875000
3856		167.968750
3857		175.781250
3858		171.875000
3859		179.687500
3860		175.781250
3861		179.687500
3862		179.687500
3863		183.593750
3864		179.687500
3865		187.500000
3866		183.593750
3867		187.500000
3868		187.500000
3869		191.406250
3870		187.500000
3871		191.406250
3872		191.406250
3873		195.312500
3874		191.406250
3875		199.218750
3876		195.312500
3877		199.218750
3878		195.312500
3879		203.125000
3880		199.218750
3881		203.125000
3882		199.218750
3883		203.125000
3884		203.125000
3885		207.031250
3886		199.218750
3887		207.031250
3888		203.125000
3889		207.031250
3890		203.125000
3891		207.031250
3892		203.125000
3893		207.031250
3894		207.031250
3895		210.937500
3896		207.031250
3897		210.937500
3898		207.031250
3899		210.937500
3900		207.031250
3901		210.937500
3902		207.031250
3903		210.937500
3904		207.031250
3905		210.937500
3906		207.031250
3907		210.937500
3908		207.031250
3909		210.937500
3910		203.125000
3911		207.031250
3912		203.125000
3913		207.031250
3914		203.125000
3915		207.031250
3916		203.125000
3917		207.031250
3918		203.125000
3919		207.031250
3920		199.218750
3921		203.125000
3922		199.218750
3923		203.125000
3924		195.312500
3925		203.125000
3926		195.312500
3927		199.218750
3928		191.406250
3929		199.218750
3930		191.406250
3931		195.312500
3932		187.500000
3933		195.312500
3934		183.593750
3935		191.406250
3936		183.593750
3937		187.500000
3938		179.687500
3939		187.500000
3940		175.781250
3941		183.593750
3942		175.781250
3943		179.687500
3944		171.875000
3945		175.781250
3946		167.968750
3947		171.875000
3948		164.062500
3949		171.875000
3950		160.156250
3951		164.062500
3952		156.250000
3953		164.062500
3954		152.343750
3955		156.250000
3956		148.437500
3957		152.343750
3958		144.531250
3959		148.437500
3960		136.718750
3961		144.531250
3962		132.812500
3963		140.625000
3964		128.906250
3965		136.718750
3966		121.093750
3967		128.906250
3968		117.187500
3969		125.000000
3970		109.375000
3971		117.187500
3972		105.468750
3973		113.281250
3974		101.562500
3975		109.375000
3976		93.750000
3977		101.562500
3978		89.843750
3979		97.656250
3980		82.031250
3981		89.843750
3982		74.218750
3983		82.031250
3984		70.312500
3985		78.125000
3986		62.500000
3987		70.312500
3988		54.687500
3989		66.406250
3990		46.875000
3991		58.593750
3992		42.968750
3993		50.781250
3994		35.156250
3995		42.968750
3996		27.343750
3997		35.156250
3998		19.531250
3999		27.343750
4000		11.718750
4001		23.437500
4002		7.812500
4003		15.625000
4004		0.000000
4005		7.812500
4006		-7.812500
4007		0.000000
4008		-15.625000
4009		-7.812500
4010		-23.437500
4011		-15.625000
4012		-31.250000
4013		-19.531250
4014		-39.062500
4015		-27.343750
4016		-46.875000
4017		-35.156250
4018		-50.781250
4019		-42.968750
4020		-58.593750
4021		-50.781250
4022		-66.406250
4023		-58.593750
4024		-74.218750
4025		-62.500000
4026		-82.031250
4027		-70.312500
4028		-85.937500
4029		-78.125000
4030		-93.750000
4031		-85.937500
4032		-101.562500
4033		-93.750000
4034		-109.375000
4035		-101.562500
4036		-113.281250
4037		-105.468750
4038		-121.093750
4039		-113.281250
4040		-128.906250
4041		-121.093750
4042		-132.812500
4043		-125.000000
4044		-140.625000
4045		-132.812500
4046		-148.437500
4047		-140.625000
4048		-152.343750
4049		-144.531250
4050		-160.156250
4051		-152.343750
4052		-164.062500
4053		-156.250000
4054		-167.968750
4055		-164.062500
4056		-175.781250
4057		-167.968750
4058		-179.687500
4059		-171.875000
4060		-183.593750
4061		-179.687500
4062		-191.406250
4063		-183.593750
4064		-195.312500
4065		-187.500000
4066		-199.218750
4067		-191.406250
4068		-203.125000
4069		-195.312500
4070		-207.031250
4071		-199.218750
4072		-210.937500
4073		-207.031250
4074		-214.843750
4075		-210.937500
4076		-218.750000
4077		-210.937500
4078		-218.750000
4079		-214.843750
4080		-222.656250
4081		-218.750000
4082		-226.562500
4083		-222.656250
4084		-226.562500
4085		-222.656250
4086		-230.468750
4087		-226.562500
4088		-230.468750
4089		-226.562500
4090		-234.375000
4091		-230.468750
4092		-234.375000
4093		-230.468750
4094		-234.375000
4095		-230.468750
4096		-238.281250
4097		-230.468750
4098		-238.281250
4099		-234.375000
4100		-238.281250
4101		-234.375000
4102		-238.281250
4103		-234.375000
4104		-238.281250
4105		-234.375000
4106		-238.281250
4107		-234.375000
4108		-234.375000
4109		-230.468750
4110		-234.375000
4111		-230.468750
4112		-234.375000
4113		-230.468750
4114		-234.375000
4115		-226.562500
4116		-230.468750
4117		-226.562500
4118		-230.468750
4119		-226.562500
4120		-226.562500
4121		-222.656250
4122		-222.656250
4123		-218.750000
4124		-222.656250
4125		-218.750000
4126		-218.750000
4127		-214.843750
4128		-214.843750
4129		-210.937500
4130		-210.937500
4131		-207.031250
4132		-210.937500
4133		-203.125000
4134		-207.031250
4135		-199.218750
4136		-199.218750
4137		-195.312500
4138		-199.218750
4139		-191.406250
4140		-191.406250
4141		-187.500000
4142		-187.500000
4143		-179.687500
4144		-183.593750
4145		-175.781250
4146		-175.781250
4147		-167.968750
4148		-171.875000
4149		-164.062500
4150		-167.968750
4151		-156.250000
4152		-160.156250
4153		-152.343750
4154		-156.250000
4155		-148.437500
4156		-148.437500
4157		-140.625000
4158		-140.625000
4159		-132.812500
4160		-136.718750
4161		-125.000000
4162		-128.906250
4163		-121.093750
4164		-125.000000
4165		-113.281250
4166		-117.187500
4167		-105.468750
4168		-109.375000
4169		-97.656250
4170		-101.562500
4171		-93.750000
4172		-93.750000
4173		-85.937500
4174		-89.843750
4175		-78.125000
4176		-82.031250
4177		-70.312500
4178		-74.218750
4179		-62.500000
4180		-66.406250
4181		-54.687500
4182		-58.593750
4183		-46.875000
4184		-50.781250
4185		-42.968750
4186		-42.968750
4187		-35.156250
4188		-35.156250
4189		-27.343750
4190		-27.343750
4191		-19.531250
4192		-19.531250
4193		-11.718750
4194		-15.625000
4195		-3.906250
4196		-7.812500
4197		3.906250
4198		0.000000
4199		11.718750
4200		7.812500
4201		19.531250
4202		15.625000
4203		23.437500
4204		19.531250
4205		31.250000
4206		27.343750
4207		39.062500
4208		35.156250
4209		42.968750
4210		42.968750
4211		50.781250
4212		50.781250
4213		58.593750
4214		54.687500
4215		66.406250
4216		62.500000
4217		70.312500
4218		70.312500
4219		78.125000
4220		74.218750
4221		82.031250
4222		82.031250
4223		89.843750
4224		85.937500
4225		93.750000
4226		93.750000
4227		101.562500
4228		101.562500
4229		109.375000
4230		105.468750
4231		113.281250
4232		109.375000
4233		117.187500
4234		117.187500
4235		125.000000
4236		121.093750
4237		128.906250
4238		125.000000
4239		132.812500
4240		132.812500
4241		136.718750
4242		136.718750
4243		140.625000
4244		140.625000
4245		148.437500
4246		144.531250
4247		152.343750
4248		148.437500
4249		156.250000
4250		152.343750
4251		160.156250
4252		156.250000
4253		164.062500
4254		160.156250
4255		167.968750
4256		164.062500
4257		171.875000
4258		167.968750
4259		175.781250
4260		171.875000
4261		175.781250
4262		175.781250
4263		179.687500
4264		179.687500
4265		183.593750
4266		183.593750
4267		187.500000
4268		183.593750
4269		187.500000
4270		187.500000
4271		191.406250
4272		191.406250
4273		195.312500
4274		191.406250
4275		195.312500
4276		195.312500
4277		199.218750
4278		195.312500
4279		199.218750
4280		199.218750
4281		203.125000
4282		199.218750
4283		203.125000
4284		199.218750
4285		203.125000
4286		203.125000
4287		207.031250
4288		203.125000
4289		207.031250
4290		203.125000
4291		207.031250
4292		207.031250
4293		207.031250
4294		207.031250
4295		210.937500
4296		207.031250
4297		210.937500
4298		207.031250
4299		210.937500
4300		207.031250
4301		210.937500
4302		207.031250
4303		210.937500
4304		207.031250
4305		210.937500
4306		207.031250
4307		210.937500
4308		207.031250
4309		210.937500
4310		207.031250
4311		214.843750
4312		203.125000
4313		214.843750
4314		203.125000
4315		210.937500
4316		207.031250
4317		210.937500
4318		207.031250
4319		207.031250
4320		203.125000
4321		207.031250
4322		203.125000
4323		207.031250
4324		203.125000
4325		203.125000
4326		199.218750
4327		207.031250
4328		195.312500
4329		203.125000
4330		195.312500
4331		203.125000
4332		195.312500
4333		199.218750
4334		191.406250
4335		199.218750
4336		191.406250
4337		195.312500
4338		187.500000
4339		191.406250
4340		183.593750
4341		187.500000
4342		179.687500
4343		187.500000
4344		175.781250
4345		187.500000
4346		175.781250
4347		183.593750
4348		171.875000
4349		179.687500
4350		167.968750
4351		175.781250
4352		164.062500
4353		171.875000
4354		160.156250
4355		167.968750
4356		156.250000
4357		164.062500
4358		152.343750
4359		160.156250
4360		144.531250
4361		156.250000
4362		140.625000
4363		152.343750
4364		136.718750
4365		148.437500
4366		136.718750
4367		140.625000
4368		128.906250
4369		136.718750
4370		125.000000
4371		132.812500
4372		117.187500
4373		125.000000
4374		113.281250
4375		121.093750
4376		105.468750
4377		113.281250
4378		97.656250
4379		113.281250
4380		93.750000
4381		105.468750
4382		89.843750
4383		101.562500
4384		82.031250
4385		93.750000
4386		78.125000
4387		85.937500
4388		70.312500
4389		78.125000
4390		62.500000
4391		70.312500
4392		58.593750
4393		66.406250
4394		46.875000
4395		58.593750
4396		42.968750
4397		54.687500
4398		35.156250
4399		46.875000
4400		27.343750
4401		39.062500
4402		23.437500
4403		31.250000
4404		15.625000
4405		23.437500
4406		7.812500
4407		15.625000
4408		0.000000
4409		7.812500
4410		-11.718750
4411		0.000000
4412		-15.625000
4413		-3.906250
4414		-23.437500
4415		-11.718750
4416		-27.343750
4417		-19.531250
4418		-35.156250
4419		-27.343750
4420		-42.968750
4421		-35.156250
4422		-50.781250
4423		-42.968750
4424		-58.593750
4425		-46.875000
4426		-66.406250
4427		-54.687500
4428		-74.218750
4429		-58.593750
4430		-82.031250
4431		-66.406250
4432		-85.937500
4433		-74.218750
4434		-93.750000
4435		-85.937500
4436		-101.562500
4437		-89.843750
4438		-105.468750
4439		-97.656250
4440		-113.281250
4441		-105.468750
4442		-121.093750
4443		-113.281250
4444		-128.906250
4445		-117.187500
4446		-136.718750
4447		-125.000000
4448		-140.625000
4449		-128.906250
4450		-144.531250
4451		-136.718750
4452		-152.343750
4453		-144.531250
4454		-156.250000
4455		-148.437500
4456		-164.062500
4457		-156.250000
4458		-167.968750
4459		-160.156250
4460		-175.781250
4461		-167.968750
4462		-179.687500
4463		-167.968750
4464		-187.500000
4465		-171.875000
4466		-187.500000
4467		-179.687500
4468		-191.406250
4469		-183.593750
4470		-195.312500
4471		-191.406250
4472		-199.218750
4473		-195.312500
4474		-203.125000
4475		-199.218750
4476		-207.031250
4477		-203.125000
4478		-214.843750
4479		-203.125000
4480		-218.750000
4481		-207.031250
4482		-218.750000
4483		-210.937500
4484		-222.656250
4485		-214.843750
4486		-222.656250
4487		-218.750000
4488		-226.562500
4489		-222.656250
4490		-226.562500
4491		-222.656250
4492		-230.468750
4493		-226.562500
4494		-230.468750
4495		-226.562500
4496		-234.375000
4497		-226.562500
4498		-234.375000
4499		-226.562500
4500		-234.375000
4501		-230.468750
4502		-234.375000
4503		-230.468750
4504		-234.375000
4505		-230.468750
4506		-234.375000
4507		-230.468750
4508		-234.375000
4509		-234.375000
4510		-234.375000
4511		-230.468750
4512		-234.375000
4513		-230.468750
4514		-234.375000
4515		-226.562500
4516		-234.375000
4517		-226.562500
4518		-230.468750
4519		-226.562500
4520		-230.468750
4521		-226.562500
4522		-226.562500
4523		-222.656250
4524		-226.562500
4525		-218.750000
4526		-222.656250
4527		-218.750000
4528		-218.750000
4529		-214.843750
4530		-218.750000
4531		-210.937500
4532		-214.843750
4533		-207.031250
4534		-210.937500
4535		-203.125000
4536		-207.031250
4537		-203.125000
4538		-203.125000
4539		-195.312500
4540		-199.218750
4541		-191.406250
4542		-195.312500
4543		-187.500000
4544		-191.406250
4545		-183.593750
4546		-183.593750
4547		-179.687500
4548		-179.687500
4549		-171.875000
4550		-175.781250
4551		-167.968750
4552		-167.968750
4553		-164.062500
4554		-164.062500
4555		-156.250000
4556		-156.250000
4557		-152.343750
4558		-152.343750
4559		-144.531250
4560		-148.437500
4561		-136.718750
4562		-140.625000
4563		-132.812500
4564		-132.812500
4565		-125.000000
4566		-128.906250
4567		-121.093750
4568		-121.093750
4569		-113.281250
4570		-113.281250
4571		-105.468750
4572		-105.468750
4573		-97.656250
4574		-101.562500
4575		-89.843750
4576		-93.750000
4577		-85.937500
4578		-85.937500
4579		-78.125000
4580		-78.125000
4581		-70.312500
4582		-70.312500
4583		-62.500000
4584		-62.500000
4585		-54.687500
4586		-54.687500
4587		-46.875000
4588		-50.781250
4589		-39.062500
4590		-42.968750
4591		-31.250000
4592		-35.156250
4593		-23.437500
4594		-27.343750
4595		-15.625000
4596		-19.531250
4597		-11.718750
4598		-11.718750
4599		-3.906250
4600		-3.906250
4601		3.906250
4602		3.906250
4603		11.718750
4604		11.718750
4605		19.531250
4606		15.625000
4607		27.343750
4608		23.437500
4609		31.250000
4610		31.250000
4611		39.062500
4612		39.062500
4613		46.875000
4614		42.968750
4615		54.687500
4616		50.781250
4617		58.593750
4618		58.593750
4619		66.406250
4620		62.500000
4621		74.218750
4622		70.312500
4623		78.125000
4624		78.125000
4625		85.937500
4626		82.031250
4627		89.843750
4628		89.843750
4629		97.656250
4630		93.750000
4631		105.468750
4632		101.562500
4633		109.375000
4634		105.468750
4635		113.281250
4636		113.281250
4637		121.093750
4638		117.187500
4639		125.000000
4640		125.000000
4641		128.906250
4642		128.906250
4643		132.812500
4644		132.812500
4645		140.625000
4646		136.718750
4647		144.531250
4648		144.531250
4649		148.437500
4650		148.437500
4651		152.343750
4652		152.343750
4653		156.250000
4654		156.250000
4655		160.156250
4656		160.156250
4657		164.062500
4658		164.062500
4659		167.968750
4660		167.968750
4661		171.875000
4662		167.968750
4663		175.781250
4664		175.781250
4665		179.687500
4666		175.781250
4667		183.593750
4668		179.687500
4669		183.593750
4670		183.593750
4671		187.500000
4672		183.593750
4673		191.406250
4674		187.500000
4675		191.406250
4676		191.406250
4677		195.312500
4678		191.406250
4679		199.218750
4680		195.312500
4681		199.218750
4682		195.312500
4683		199.218750
4684		199.218750
4685		203.125000
4686		199.218750
4687		203.125000
4688		199.218750
4689		207.031250
4690		203.125000
4691		207.031250
4692		203.125000
4693		207.031250
4694		207.031250
4695		207.031250
4696		207.031250
4697		210.937500
4698		207.031250
4699		210.937500
4700		207.031250
4701		210.937500
4702		207.031250
4703		210.937500
4704		207.031250
4705		210.937500
4706		207.031250
4707		210.937500
4708		207.031250
4709		210.937500
4710		207.031250
4711		210.937500
4712		207.031250
4713		214.843750
4714		207.031250
4715		210.937500
4716		207.031250
4717		210.937500
4718		207.031250
4719		210.937500
4720		207.031250
4721		210.937500
4722		207.031250
4723		210.937500
4724		203.125000
4725		207.031250
4726		203.125000
4727		207.031250
4728		203.125000
4729		207.031250
4730		199.218750
4731		203.125000
4732		199.218750
4733		203.125000
4734		195.312500
4735		199.218750
4736		191.406250
4737		199.218750
4738		191.406250
4739		195.312500
4740		191.406250
4741		195.312500
4742		187.500000
4743		191.406250
4744		183.593750
4745		191.406250
4746		179.687500
4747		187.500000
4748		179.687500
4749		183.593750
4750		175.781250
4751		179.687500
4752		171.875000
4753		179.687500
4754		167.968750
4755		175.781250
4756		164.062500
4757		171.875000
4758		160.156250
4759		167.968750
4760		156.250000
4761		164.062500
4762		152.343750
4763		160.156250
4764		148.437500
4765		156.250000
4766		144.531250
4767		152.343750
4768		140.625000
4769		144.531250
4770		132.812500
4771		140.625000
4772		128.906250
4773		136.718750
4774		125.000000
4775		128.906250
4776		117.187500
4777		125.000000
4778		113.281250
4779		121.093750
4780		105.468750
4781		113.281250
4782		101.562500
4783		109.375000
4784		93.750000
4785		101.562500
4786		89.843750
4787		97.656250
4788		82.031250
4789		89.843750
4790		78.125000
4791		85.937500
4792		70.312500
4793		78.125000
4794		62.500000
4795		70.312500
4796		58.593750
4797		66.406250
4798		50.781250
4799		58.593750
4800		42.968750
4801		50.781250
4802		35.156250
4803		42.968750
4804		27.343750
4805		39.062500
4806		23.437500
4807		31.250000
4808		15.625000
4809		23.437500
4810		7.812500
4811		15.625000
4812		0.000000
4813		7.812500
4814		-7.812500
4815		0.000000
4816		-15.625000
4817		-3.906250
4818		-23.437500
4819		-11.718750
4820		-27.343750
4821		-19.531250
4822		-35.156250
4823		-27.343750
4824		-42.968750
4825		-35.156250
4826		-50.781250
4827		-42.968750
4828		-58.593750
4829		-50.781250
4830		-66.406250
4831		-58.593750
4832		-74.218750
4833		-62.500000
4834		-78.125000
4835		-70.312500
4836		-85.937500
4837		-78.125000
4838		-93.750000
4839		-85.937500
4840		-101.562500
4841		-93.750000
4842		-109.375000
4843		-97.656250
4844		-113.281250
4845		-105.468750
4846		-121.093750
4847		-113.281250
4848		-128.906250
4849		-121.093750
4850		-132.812500
4851		-125.000000
4852		-140.625000
4853		-132.812500
4854		-148.437500
4855		-140.625000
4856		-152.343750
4857		-144.531250
4858		-160.156250
4859		-152.343750
4860		-164.062500
4861		-156.250000
4862		-167.968750
4863		-164.062500
4864		-175.781250
4865		-167.968750
4866		-179.687500
4867		-171.875000
4868		-183.593750
4869		-179.687500
4870		-191.406250
4871		-183.593750
4872		-195.312500
4873		-187.500000
4874		-199.218750
4875		-191.406250
4876		-203.125000
4877		-195.312500
4878		-207.031250
4879		-199.218750
4880		-210.937500
4881		-203.125000
4882		-214.843750
4883		-207.031250
4884		-218.750000
4885		-210.937500
4886		-218.750000
4887		-214.843750
4888		-222.656250
4889		-218.750000
4890		-226.562500
4891		-218.750000
4892		-226.562500
4893		-222.656250
4894		-230.468750
4895		-226.562500
4896		-230.468750
4897		-226.562500
4898		-234.375000
4899		-226.562500
4900		-234.375000
4901		-230.468750
4902		-234.375000
4903		-230.468750
4904		-234.375000
4905		-234.375000
4906		-238.281250
4907		-234.375000
4908		-238.281250
4909		-234.375000
4910		-238.281250
4911		-234.375000
4912		-238.281250
4913		-230.468750
4914		-238.281250
4915		-230.468750
4916		-234.375000
4917		-234.375000
4918		-234.375000
4919		-230.468750
4920		-234.375000
4921		-230.468750
4922		-230.468750
4923		-230.468750
4924		-230.468750
4925		-226.562500
4926		-230.468750
4927		-226.562500
4928		-226.562500
4929		-222.656250
4930		-226.562500
4931		-218.750000
4932		-222.656250
4933		-214.843750
4934		-218.750000
4935		-214.843750
4936		-214.843750
4937		-210.937500
4938		-210.937500
4939		-207.031250
4940		-207.031250
4941		-203.125000
4942		-203.125000
4943		-199.218750
4944		-199.218750
4945		-195.312500
4946		-195.312500
4947		-191.406250
4948		-191.406250
4949		-183.593750
4950		-187.500000
4951		-179.687500
4952		-179.687500
4953		-175.781250
4954		-175.781250
4955		-167.968750
4956		-171.875000
4957		-164.062500
4958		-164.062500
4959		-156.250000
4960		-160.156250
4961		-152.343750
4962		-152.343750
4963		-144.531250
4964		-148.437500
4965		-136.718750
4966		-140.625000
4967		-132.812500
4968		-136.718750
4969		-125.000000
4970		-128.906250
4971		-121.093750
4972		-121.093750
4973		-113.281250
4974		-113.281250
4975		-105.468750
4976		-109.375000
4977		-97.656250
4978		-101.562500
4979		-93.750000
4980		-93.750000
4981		-85.937500
4982		-85.937500
4983		-78.125000
4984		-78.125000
4985		-70.312500
4986		-70.312500
4987		-62.500000
4988		-66.406250
4989		-54.687500
4990		-58.593750
4991		-46.875000
4992		-50.781250
4993		-39.062500
4994		-42.968750
4995		-35.156250
4996		-35.156250
4997		-27.343750
4998		-27.343750
4999		-15.625000
5000		-23.437500
5001		-11.718750
5002		-11.718750
5003		-3.906250
5004		-3.906250
5005		3.906250
5006		0.000000
5007		11.718750
5008		7.812500
5009		15.625000
5010		15.625000
5011		23.437500
5012		23.437500
5013		31.250000
5014		31.250000
5015		39.062500
5016		35.156250
5017		46.875000
5018		42.968750
5019		50.781250
5020		50.781250
5021		58.593750
5022		58.593750
5023		66.406250
5024		62.500000
5025		74.218750
5026		70.312500
5027		78.125000
5028		78.125000
5029		85.937500
5030		82.031250
5031		89.843750
5032		89.843750
5033		97.656250
5034		93.750000
5035		101.562500
5036		101.562500
5037		109.375000
5038		105.468750
5039		113.281250
5040		113.281250
5041		117.187500
5042		117.187500
5043		125.000000
5044		121.093750
5045		128.906250
5046		125.000000
5047		132.812500
5048		132.812500
5049		140.625000
5050		136.718750
5051		144.531250
5052		140.625000
5053		148.437500
5054		144.531250
5055		152.343750
5056		152.343750
5057		156.250000
5058		156.250000
5059		160.156250
5060		160.156250
5061		164.062500
5062		160.156250
5063		167.968750
5064		164.062500
5065		171.875000
5066		167.968750
5067		175.781250
5068		171.875000
5069		179.687500
5070		175.781250
5071		183.593750
5072		179.687500
5073		183.593750
5074		183.593750
5075		187.500000
5076		183.593750
5077		191.406250
5078		187.500000
5079		191.406250
5080		191.406250
5081		195.312500
5082		191.406250
5083		199.218750
5084		191.406250
5085		199.218750
5086		195.312500
5087		199.218750
5088		199.218750
5089		203.125000
5090		199.218750
5091		203.125000
5092		199.218750
5093		207.031250
5094		203.125000
5095		207.031250
5096		203.125000
5097		207.031250
5098		203.125000
5099		207.031250
5100		203.125000
5101		210.937500
5102		207.031250
5103		210.937500
5104		207.031250
5105		210.937500
5106		207.031250
5107		210.937500
5108		207.031250
5109		210.937500
5110		207.031250
5111		210.937500
5112		207.031250
5113		210.937500
5114		207.031250
5115		210.937500
5116		207.031250
5117		210.937500
5118		207.031250
5119		210.937500
5120		207.031250
5121		210.937500
5122		207.031250
5123		210.937500
5124		207.031250
5125		210.937500
5126		203.125000
5127		207.031250
5128		203.125000
5129		207.031250
5130		203.125000
5131		207.031250
5132		199.218750
5133		203.125000
5134		199.218750
5135		203.125000
5136		195.312500
5137		203.125000
5138		195.312500
5139		199.218750
5140		195.312500
5141		199.218750
5142		191.406250
5143		195.312500
5144		187.500000
5145		191.406250
5146		187.500000
5147		191.406250
5148		183.593750
5149		187.500000
5150		179.687500
5151		183.593750
5152		175.781250
5153		183.593750
5154		175.781250
5155		179.687500
5156		171.875000
5157		175.781250
5158		167.968750
5159		171.875000
5160		164.062500
5161		167.968750
5162		160.156250
5163		164.062500
5164		156.250000
5165		160.156250
5166		152.343750
5167		156.250000
5168		148.437500
5169		152.343750
5170		140.625000
5171		148.437500
5172		136.718750
5173		144.531250
5174		132.812500
5175		140.625000
5176		125.000000
5177		132.812500
5178		121.093750
5179		128.906250
5180		117.187500
5181		125.000000
5182		109.375000
5183		117.187500
5184		105.468750
5185		113.281250
5186		97.656250
5187		105.468750
5188		93.750000
5189		101.562500
5190		85.937500
5191		93.750000
5192		82.031250
5193		89.843750
5194		74.218750
5195		82.031250
5196		66.406250
5197		78.125000
5198		58.593750
5199		70.312500
5200		54.687500
5201		62.500000
5202		46.875000
5203		54.687500
5204		39.062500
5205		46.875000
5206		35.156250
5207		42.968750
5208		27.343750
5209		35.156250
5210		19.531250
5211		27.343750
5212		11.718750
5213		19.531250
5214		3.906250
5215		11.718750
5216		-3.906250
5217		7.812500
5218		-11.718750
5219		0.000000
5220		-15.625000
5221		-7.812500
5222		-23.437500
5223		-15.625000
5224		-31.250000
5225		-23.437500
5226		-39.062500
5227		-31.250000
5228		-46.875000
5229		-39.062500
5230		-54.687500
5231		-46.875000
5232		-62.500000
5233		-50.781250
5234		-70.312500
5235		-58.593750
5236		-74.218750
5237		-66.406250
5238		-82.031250
5239		-74.218750
5240		-89.843750
5241		-82.031250
5242		-97.656250
5243		-89.843750
5244		-101.562500
5245		-93.750000
5246		-109.375000
5247		-101.562500
5248		-117.187500
5249		-109.375000
5250		-121.093750
5251		-113.281250
5252		-128.906250
5253		-121.093750
5254		-136.718750
5255		-128.906250
5256		-140.625000
5257		-132.812500
5258		-148.437500
5259		-140.625000
5260		-156.250000
5261		-148.437500
5262		-160.156250
5263		-152.343750
5264		-167.968750
5265		-160.156250
5266		-171.875000
5267		-164.062500
5268		-175.781250
5269		-167.968750
5270		-179.687500
5271		-175.781250
5272		-187.500000
5273		-179.687500
5274		-191.406250
5275		-183.593750
5276		-195.312500
5277		-187.500000
5278		-199.218750
5279		-195.312500
5280		-203.125000
5281		-199.218750
5282		-207.031250
5283		-203.125000
5284		-210.937500
5285		-207.031250
5286		-214.843750
5287		-210.937500
5288		-218.750000
5289		-214.843750
5290		-222.656250
5291		-214.843750
5292		-222.656250
5293		-218.750000
5294		-226.562500
5295		-222.656250
5296		-230.468750
5297		-222.656250
5298		-230.468750
5299		-226.562500
5300		-230.468750
5301		-226.562500
5302		-234.375000
5303		-230.468750
5304		-234.375000
5305		-230.468750
5306		-238.281250
5307		-234.375000
5308		-238.281250
5309		-234.375000
5310		-238.281250
5311		-234.375000
5312		-238.281250
5313		-234.375000
5314		-238.281250
5315		-234.375000
5316		-238.281250
5317		-234.375000
5318		-238.281250
5319		-234.375000
5320		-238.281250
5321		-234.375000
5322		-234.375000
5323		-234.375000
5324		-234.375000
5325		-230.468750
5326		-234.375000
5327		-230.468750
5328		-230.468750
5329		-226.562500
5330		-230.468750
5331		-226.562500
5332		-226.562500
5333		-222.656250
5334		-226.562500
5335		-218.750000
5336		-222.656250
5337		-218.750000
5338		-218.750000
5339		-214.843750
5340		-214.843750
5341		-210.937500
5342		-210.937500
5343		-207.031250
5344		-207.031250
5345		-203.125000
5346		-207.031250
5347		-199.218750
5348		-199.218750
5349		-191.406250
5350		-195.312500
5351		-191.406250
5352		-191.406250
5353		-183.593750
5354		-187.500000
5355		-179.687500
5356		-183.593750
5357		-175.781250
5358		-175.781250
5359		-167.968750
5360		-171.875000
5361		-164.062500
5362		-164.062500
5363		-156.250000
5364		-160.156250
5365		-152.343750
5366		-152.343750
5367		-144.531250
5368		-148.437500
5369		-140.625000
5370		-140.625000
5371		-132.812500
5372		-132.812500
5373		-125.000000
5374		-128.906250
5375		-121.093750
5376		-121.093750
5377		-113.281250
5378		-113.281250
5379		-105.468750
5380		-105.468750
5381		-97.656250
5382		-101.562500
5383		-93.750000
5384		-93.750000
5385		-85.937500
5386		-85.937500
5387		-78.125000
5388		-78.125000
5389		-70.312500
5390		-70.312500
5391		-62.500000
5392		-62.500000
5393		-54.687500
5394		-54.687500
5395		-46.875000
5396		-50.781250
5397		-39.062500
5398		-42.968750
5399		-31.250000
5400		-35.156250
5401		-23.437500
5402		-27.343750
5403		-19.531250
5404		-19.531250
5405		-11.718750
5406		-11.718750
5407		-3.906250
5408		-3.906250
5409		3.906250
5410		3.906250
5411		11.718750
5412		7.812500
5413		19.531250
5414		15.625000
5415		27.343750
5416		23.437500
5417		31.250000
5418		31.250000
5419		39.062500
5420		39.062500
5421		46.875000
5422		42.968750
5423		54.687500
5424		50.781250
5425		58.593750
5426		58.593750
5427		66.406250
5428		66.406250
5429		74.218750
5430		70.312500
5431		78.125000
5432		78.125000
5433		85.937500
5434		82.031250
5435		89.843750
5436		89.843750
5437		97.656250
5438		93.750000
5439		101.562500
5440		101.562500
5441		109.375000
5442		105.468750
5443		113.281250
5444		113.281250
5445		121.093750
5446		117.187500
5447		125.000000
5448		125.000000
5449		128.906250
5450		128.906250
5451		136.718750
5452		132.812500
5453		140.625000
5454		136.718750
5455		144.531250
5456		140.625000
5457		148.437500
5458		148.437500
5459		152.343750
5460		152.343750
5461		156.250000
5462		156.250000
5463		160.156250
5464		160.156250
5465		164.062500
5466		164.062500
5467		167.968750
5468		164.062500
5469		171.875000
5470		167.968750
5471		175.781250
5472		171.875000
5473		179.687500
5474		175.781250
5475		179.687500
5476		179.687500
5477		183.593750
5478		183.593750
5479		187.500000
5480		183.593750
5481		187.500000
5482		187.500000
5483		191.406250
5484		191.406250
5485		195.312500
5486		191.406250
5487		195.312500
5488		195.312500
5489		199.218750
5490		195.312500
5491		199.218750
5492		199.218750
5493		203.125000
5494		199.218750
5495		203.125000
5496		199.218750
5497		203.125000
5498		203.125000
5499		207.031250
5500		203.125000
5501		207.031250
5502		203.125000
5503		207.031250
5504		207.031250
5505		207.031250
5506		207.031250
5507		210.937500
5508		207.031250
5509		210.937500
5510		207.031250
5511		210.937500
5512		207.031250
5513		210.937500
5514		207.031250
5515		210.937500
5516		207.031250
5517		210.937500
5518		207.031250
5519		210.937500
5520		207.031250
5521		210.937500
5522		207.031250
5523		210.937500
5524		207.031250
5525		210.937500
5526		207.031250
5527		210.937500
5528		203.125000
5529		207.031250
5530		203.125000
5531		207.031250
5532		203.125000
5533		207.031250
5534		199.218750
5535		203.125000
5536		199.218750
5537		203.125000
5538		199.218750
5539		203.125000
5540		195.312500
5541		199.218750
5542		195.312500
5543		199.218750
5544		191.406250
5545		195.312500
5546		191.406250
5547		195.312500
5548		187.500000
5549		191.406250
5550		183.593750
5551		191.406250
5552		183.593750
5553		187.500000
5554		179.687500
5555		183.593750
5556		175.781250
5557		179.687500
5558		171.875000
5559		179.687500
5560		167.968750
5561		175.781250
5562		167.968750
5563		171.875000
5564		164.062500
5565		167.968750
5566		160.156250
5567		164.062500
5568		152.343750
5569		160.156250
5570		148.437500
5571		156.250000
5572		144.531250
5573		152.343750
5574		140.625000
5575		148.437500
5576		136.718750
5577		140.625000
5578		128.906250
5579		136.718750
5580		125.000000
5581		132.812500
5582		121.093750
5583		128.906250
5584		113.281250
5585		121.093750
5586		109.375000
5587		117.187500
5588		101.562500
5589		109.375000
5590		97.656250
5591		105.468750
5592		89.843750
5593		97.656250
5594		82.031250
5595		93.750000
5596		78.125000
5597		85.937500
5598		70.312500
5599		82.031250
5600		66.406250
5601		74.218750
5602		58.593750
5603		66.406250
5604		50.781250
5605		62.500000
5606		42.968750
5607		54.687500
5608		39.062500
5609		46.875000
5610		31.250000
5611		39.062500
5612		23.437500
5613		35.156250
5614		15.625000
5615		23.437500
5616		7.812500
5617		19.531250
5618		0.000000
5619		11.718750
5620		-3.906250
5621		3.906250
5622		-11.718750
5623		-3.906250
5624		-19.531250
5625		-11.718750
5626		-27.343750
5627		-19.531250
5628		-35.156250
5629		-27.343750
5630		-42.968750
5631		-31.250000
5632		-50.781250
5633		-39.062500
5634		-54.687500
5635		-46.875000
5636		-62.500000
5637		-54.687500
5638		-70.312500
5639		-62.500000
5640		-78.125000
5641		-70.312500
5642		-85.937500
5643		-78.125000
5644		-93.750000
5645		-82.031250
5646		-97.656250
5647		-89.843750
5648		-105.468750
5649		-97.656250
5650		-113.281250
5651		-105.468750
5652		-117.187500
5653		-109.375000
5654		-125.000000
5655		-117.187500
5656		-132.812500
5657		-125.000000
5658		-136.718750
5659		-128.906250
5660		-144.531250
5661		-136.718750
5662		-152.343750
5663		-144.531250
5664		-156.250000
5665		-148.437500
5666		-164.062500
5667		-156.250000
5668		-167.968750
5669		-160.156250
5670		-171.875000
5671		-164.062500
5672		-179.687500
5673		-171.875000
5674		-183.593750
5675		-175.781250
5676		-187.500000
5677		-179.687500
5678		-191.406250
5679		-187.500000
5680		-199.218750
5681		-191.406250
5682		-203.125000
5683		-195.312500
5684		-207.031250
5685		-199.218750
5686		-210.937500
5687		-203.125000
5688		-214.843750
5689		-207.031250
5690		-214.843750
5691		-210.937500
5692		-218.750000
5693		-214.843750
5694		-222.656250
5695		-218.750000
5696		-226.562500
5697		-218.750000
5698		-226.562500
5699		-222.656250
5700		-230.468750
5701		-226.562500
5702		-230.468750
5703		-226.562500
5704		-234.375000
5705		-230.468750
5706		-234.375000
5707		-230.468750
5708		-238.281250
5709		-234.375000
5710		-238.281250
5711		-234.375000
5712		-238.281250
5713		-234.375000
5714		-238.281250
5715		-234.375000
5716		-238.281250
5717		-234.375000
5718		-238.281250
5719		-234.375000
5720		-238.281250
5721		-234.375000
5722		-238.281250
5723		-234.375000
5724		-238.281250
5725		-234.375000
5726		-234.375000
5727		-234.375000
5728		-234.375000
5729		-230.468750
5730		-234.375000
5731		-230.468750
5732		-230.468750
5733		-226.562500
5734		-230.468750
5735		-226.562500
5736		-226.562500
5737		-222.656250
5738		-222.656250
5739		-218.750000
5740		-222.656250
5741		-218.750000
5742		-218.750000
5743		-214.843750
5744		-214.843750
5745		-210.937500
5746		-210.937500
5747		-207.031250
5748		-207.031250
5749		-203.125000
5750		-203.125000
5751		-199.218750
5752		-199.218750
5753		-195.312500
5754		-195.312500
5755		-187.500000
5756		-191.406250
5757		-183.593750
5758		-187.500000
5759		-179.687500
5760		-179.687500
5761		-175.781250
5762		-175.781250
5763		-167.968750
5764		-171.875000
5765		-164.062500
5766		-164.062500
5767		-156.250000
5768		-160.156250
5769		-152.343750
5770		-152.343750
5771		-144.531250
5772		-144.531250
5773		-136.718750
5774		-140.625000
5775		-132.812500
5776		-132.812500
5777		-125.000000
5778		-128.906250
5779		-117.187500
5780		-121.093750
5781		-113.281250
5782		-113.281250
5783		-105.468750
5784		-105.468750
5785		-97.656250
5786		-97.656250
5787		-89.843750
5788		-93.750000
5789		-82.031250
5790		-85.937500
5791		-74.218750
5792		-78.125000
5793		-70.312500
5794		-70.312500
5795		-62.500000
5796		-62.500000
5797		-54.687500
5798		-54.687500
5799		-46.875000
5800		-46.875000
5801		-39.062500
5802		-39.062500
5803		-31.250000
5804		-35.156250
5805		-23.437500
5806		-27.343750
5807		-15.625000
5808		-19.531250
5809		-11.718750
5810		-11.718750
5811		-3.906250
5812		-3.906250
5813		3.906250
5814		3.906250
5815		11.718750
5816		11.718750
5817		19.531250
5818		19.531250
5819		27.343750
5820		23.437500
5821		35.156250
5822		31.250000
5823		39.062500
5824		39.062500
5825		46.875000
5826		46.875000
5827		54.687500
5828		50.781250
5829		58.593750
5830		58.593750
5831		66.406250
5832		66.406250
5833		74.218750
5834		70.312500
5835		78.125000
5836		78.125000
5837		85.937500
5838		85.937500
5839		89.843750
5840		89.843750
5841		97.656250
5842		97.656250
5843		105.468750
5844		101.562500
5845		109.375000
5846		105.468750
5847		113.281250
5848		113.281250
5849		121.093750
5850		117.187500
5851		125.000000
5852		125.000000
5853		128.906250
5854		128.906250
5855		136.718750
5856		132.812500
5857		140.625000
5858		136.718750
5859		144.531250
5860		144.531250
5861		148.437500
5862		148.437500
5863		152.343750
5864		152.343750
5865		156.250000
5866		156.250000
5867		160.156250
5868		160.156250
5869		164.062500
5870		164.062500
5871		167.968750
5872		167.968750
5873		171.875000
5874		171.875000
5875		175.781250
5876		171.875000
5877		179.687500
5878		175.781250
5879		179.687500
5880		179.687500
5881		183.593750
5882		183.593750
5883		187.500000
5884		183.593750
5885		187.500000
5886		187.500000
5887		191.406250
5888		191.406250
5889		195.312500
5890		191.406250
5891		195.312500
5892		195.312500
5893		199.218750
5894		195.312500
5895		199.218750
5896		195.312500
5897		203.125000
5898		199.218750
5899		203.125000
5900		199.218750
5901		203.125000
5902		203.125000
5903		207.031250
5904		203.125000
5905		207.031250
5906		203.125000
5907		207.031250
5908		203.125000
5909		207.031250
5910		207.031250
5911		207.031250
5912		207.031250
5913		210.937500
5914		207.031250
5915		210.937500
5916		207.031250
5917		210.937500
5918		207.031250
5919		210.937500
5920		207.031250
5921		210.937500
5922		207.031250
5923		210.937500
5924		207.031250
5925		210.937500
5926		207.031250
5927		207.031250
5928		203.125000
5929		207.031250
5930		203.125000
5931		207.031250
5932		203.125000
5933		207.031250
5934		203.125000
5935		207.031250
5936		199.218750
5937		203.125000
5938		199.218750
5939		203.125000
5940		199.218750
5941		203.125000
5942		195.312500
5943		199.218750
5944		195.312500
5945		199.218750
5946		191.406250
5947		195.312500
5948		191.406250
5949		195.312500
5950		187.500000
5951		191.406250
5952		187.500000
5953		191.406250
5954		183.593750
5955		187.500000
5956		179.687500
5957		183.593750
5958		175.781250
5959		183.593750
5960		171.875000
5961		179.687500
5962		171.875000
5963		175.781250
5964		167.968750
5965		171.875000
5966		164.062500
5967		171.875000
5968		160.156250
5969		164.062500
5970		156.250000
5971		160.156250
5972		152.343750
5973		156.250000
5974		148.437500
5975		152.343750
5976		144.531250
5977		148.437500
5978		136.718750
5979		144.531250
5980		132.812500
5981		140.625000
5982		128.906250
5983		136.718750
5984		121.093750
5985		128.906250
5986		117.187500
5987		125.000000
5988		113.281250
5989		117.187500
5990		105.468750
5991		113.281250
5992		101.562500
5993		109.375000
5994		93.750000
5995		101.562500
5996		85.937500
5997		93.750000
5998		82.031250
5999		89.843750
6000		74.218750
6001		82.031250
6002		66.406250
6003		78.125000
6004		62.500000
6005		70.312500
6006		54.687500
6007		62.500000
6008		46.875000
6009		58.593750
6010		39.062500
6011		50.781250
6012		35.156250
6013		42.968750
6014		27.343750
6015		35.156250
6016		19.531250
6017		27.343750
6018		11.718750
6019		23.437500
6020		7.812500
6021		15.625000
6022		0.000000
6023		7.812500
6024		-7.812500
6025		0.000000
6026		-15.625000
6027		-7.812500
6028		-23.437500
6029		-15.625000
6030		-31.250000
6031		-23.437500
6032		-39.062500
6033		-31.250000
6034		-46.875000
6035		-35.156250
6036		-50.781250
6037		-42.968750
6038		-58.593750
6039		-50.781250
6040		-66.406250
6041		-58.593750
6042		-78.125000
6043		-66.406250
6044		-82.031250
6045		-70.312500
6046		-89.843750
6047		-78.125000
6048		-97.656250
6049		-85.937500
6050		-101.562500
6051		-89.843750
6052		-113.281250
6053		-101.562500
6054		-117.187500
6055		-105.468750
6056		-125.000000
6057		-113.281250
6058		-128.906250
6059		-121.093750
6060		-136.718750
6061		-125.000000
6062		-140.625000
6063		-132.812500
6064		-148.437500
6065		-140.625000
6066		-156.250000
6067		-148.437500
6068		-160.156250
6069		-152.343750
6070		-164.062500
6071		-156.250000
6072		-171.875000
6073		-164.062500
6074		-175.781250
6075		-167.968750
6076		-183.593750
6077		-171.875000
6078		-187.500000
6079		-179.687500
6080		-191.406250
6081		-183.593750
6082		-199.218750
6083		-187.500000
6084		-199.218750
6085		-191.406250
6086		-207.031250
6087		-199.218750
6088		-207.031250
6089		-203.125000
6090		-210.937500
6091		-207.031250
6092		-214.843750
6093		-207.031250
6094		-222.656250
6095		-210.937500
6096		-222.656250
6097		-214.843750
6098		-226.562500
6099		-218.750000
6100		-230.468750
6101		-218.750000
6102		-234.375000
6103		-222.656250
6104		-230.468750
6105		-226.562500
6106		-234.375000
6107		-230.468750
6108		-238.281250
6109		-230.468750
6110		-238.281250
6111		-230.468750
6112		-238.281250
6113		-234.375000
6114		-238.281250
6115		-234.375000
6116		-242.187500
6117		-234.375000
6118		-242.187500
6119		-234.375000
6120		-242.187500
6121		-234.375000
6122		-242.187500
6123		-238.281250
6124		-238.281250
6125		-234.375000
6126		-238.281250
6127		-234.375000
6128		-242.187500
6129		-230.468750
6130		-238.281250
6131		-234.375000
6132		-234.375000
6133		-230.468750
6134		-238.281250
6135		-226.562500
6136		-234.375000
6137		-222.656250
6138		-230.468750
6139		-226.562500
6140		-226.562500
6141		-222.656250
6142		-226.562500
6143		-218.750000
6144		-222.656250
6145		-214.843750
6146		-218.750000
6147		-214.843750
6148		-214.843750
6149		-210.937500
6150		-214.843750
6151		-203.125000
6152		-210.937500
6153		-203.125000
6154		-207.031250
6155		-199.218750
6156		-199.218750
6157		-195.312500
6158		-195.312500
6159		-187.500000
6160		-191.406250
6161		-179.687500
6162		-187.500000
6163		-179.687500
6164		-179.687500
6165		-171.875000
6166		-175.781250
6167		-167.968750
6168		-171.875000
6169		-164.062500
6170		-164.062500
6171		-156.250000
6172		-160.156250
6173		-152.343750
6174		-152.343750
6175		-144.531250
6176		-144.531250
6177		-136.718750
6178		-140.625000
6179		-128.906250
6180		-136.718750
6181		-125.000000
6182		-125.000000
6183		-117.187500
6184		-121.093750
6185		-109.375000
6186		-113.281250
6187		-101.562500
6188		-105.468750
6189		-97.656250
6190		-97.656250
6191		-89.843750
6192		-89.843750
6193		-82.031250
6194		-85.937500
6195		-74.218750
6196		-78.125000
6197		-66.406250
6198		-70.312500
6199		-58.593750
6200		-62.500000
6201		-50.781250
6202		-58.593750
6203		-46.875000
6204		-46.875000
6205		-39.062500
6206		-39.062500
6207		-31.250000
6208		-31.250000
6209		-23.437500
6210		-27.343750
6211		-15.625000
6212		-19.531250
6213		-7.812500
6214		-11.718750
6215		0.000000
6216		-3.906250
6217		7.812500
6218		3.906250
6219		15.625000
6220		11.718750
6221		23.437500
6222		19.531250
6223		27.343750
6224		27.343750
6225		35.156250
6226		31.250000
6227		42.968750
6228		39.062500
6229		50.781250
6230		46.875000
6231		54.687500
6232		54.687500
6233		62.500000
6234		58.593750
6235		66.406250
6236		66.406250
6237		74.218750
6238		70.312500
6239		82.031250
6240		78.125000
6241		89.843750
6242		85.937500
6243		93.750000
6244		89.843750
6245		101.562500
6246		97.656250
6247		105.468750
6248		101.562500
6249		109.375000
6250		109.375000
6251		117.187500
6252		113.281250
6253		121.093750
6254		117.187500
6255		125.000000
6256		125.000000
6257		128.906250
6258		128.906250
6259		136.718750
6260		132.812500
6261		140.625000
6262		136.718750
6263		144.531250
6264		140.625000
6265		148.437500
6266		148.437500
6267		152.343750
6268		152.343750
6269		156.250000
6270		156.250000
6271		160.156250
6272		160.156250
6273		164.062500
6274		164.062500
6275		167.968750
6276		167.968750
6277		171.875000
6278		171.875000
6279		175.781250
6280		175.781250
6281		179.687500
6282		175.781250
6283		183.593750
6284		179.687500
6285		183.593750
6286		183.593750
6287		187.500000
6288		183.593750
6289		191.406250
6290		187.500000
6291		191.406250
6292		191.406250
6293		195.312500
6294		191.406250
6295		195.312500
6296		195.312500
6297		199.218750
6298		195.312500
6299		199.218750
6300		195.312500
6301		203.125000
6302		199.218750
6303		203.125000
6304		199.218750
6305		207.031250
6306		203.125000
6307		207.031250
6308		203.125000
6309		207.031250
6310		203.125000
6311		207.031250
6312		203.125000
6313		210.937500
6314		203.125000
6315		210.937500
6316		203.125000
6317		210.937500
6318		207.031250
6319		210.937500
6320		207.031250
6321		210.937500
6322		207.031250
6323		210.937500
6324		207.031250
6325		210.937500
6326		207.031250
6327		210.937500
6328		207.031250
6329		210.937500
6330		203.125000
6331		210.937500
6332		203.125000
6333		210.937500
6334		203.125000
6335		210.937500
6336		203.125000
6337		207.031250
6338		203.125000
6339		207.031250
6340		203.125000
6341		203.125000
6342		199.218750
6343		203.125000
6344		195.312500
6345		203.125000
6346		195.312500
6347		203.125000
6348		195.312500
6349		199.218750
6350		191.406250
6351		199.218750
6352		191.406250
6353		195.312500
6354		187.500000
6355		195.312500
6356		187.500000
6357		191.406250
6358		183.593750
6359		187.500000
6360		179.687500
6361		183.593750
6362		175.781250
6363		183.593750
6364		171.875000
6365		179.687500
6366		171.875000
6367		175.781250
6368		167.968750
6369		175.781250
6370		160.156250
6371		167.968750
6372		160.156250
6373		164.062500
6374		156.250000
6375		160.156250
6376		152.343750
6377		156.250000
6378		144.531250
6379		152.343750
6380		140.625000
6381		148.437500
6382		136.718750
6383		144.531250
6384		132.812500
6385		140.625000
6386		125.000000
6387		132.812500
6388		121.093750
6389		128.906250
6390		117.187500
6391		125.000000
6392		109.375000
6393		117.187500
6394		105.468750
6395		113.281250
6396		97.656250
6397		105.468750
6398		93.750000
6399		101.562500
6400		85.937500
6401		93.750000
6402		78.125000
6403		89.843750
6404		74.218750
6405		82.031250
6406		66.406250
6407		78.125000
6408		62.500000
6409		70.312500
6410		54.687500
6411		62.500000
6412		46.875000
6413		54.687500
6414		39.062500
6415		50.781250
6416		31.250000
6417		42.968750
6418		27.343750
6419		35.156250
6420		19.531250
6421		27.343750
6422		11.718750
6423		19.531250
6424		3.906250
6425		15.625000
6426		-3.906250
6427		7.812500
6428		-11.718750
6429		0.000000
6430		-15.625000
6431		-7.812500
6432		-23.437500
6433		-15.625000
6434		-31.250000
6435		-23.437500
6436		-39.062500
6437		-27.343750
6438		-46.875000
6439		-39.062500
6440		-54.687500
6441		-46.875000
6442		-62.500000
6443		-50.781250
6444		-70.312500
6445		-58.593750
6446		-74.218750
6447		-66.406250
6448		-82.031250
6449		-74.218750
6450		-89.843750
6451		-82.031250
6452		-97.656250
6453		-85.937500
6454		-105.468750
6455		-93.750000
6456		-109.375000
6457		-101.562500
6458		-117.187500
6459		-109.375000
6460		-125.000000
6461		-113.281250
6462		-128.906250
6463		-121.093750
6464		-136.718750
6465		-128.906250
6466		-140.625000
6467		-132.812500
6468		-148.437500
6469		-140.625000
6470		-156.250000
6471		-148.437500
6472		-160.156250
6473		-152.343750
6474		-167.968750
6475		-156.250000
6476		-171.875000
6477		-164.062500
6478		-175.781250
6479		-171.875000
6480		-183.593750
6481		-175.781250
6482		-187.500000
6483		-179.687500
6484		-191.406250
6485		-183.593750
6486		-199.218750
6487		-191.406250
6488		-203.125000
6489		-195.312500
6490		-207.031250
6491		-199.218750
6492		-210.937500
6493		-203.125000
6494		-214.843750
6495		-207.031250
6496		-214.843750
6497		-210.937500
6498		-218.750000
6499		-214.843750
6500		-222.656250
6501		-218.750000
6502		-226.562500
6503		-218.750000
6504		-230.468750
6505		-222.656250
6506		-230.468750
6507		-226.562500
6508		-234.375000
6509		-230.468750
6510		-234.375000
6511		-230.468750
6512		-238.281250
6513		-230.468750
6514		-238.281250
6515		-234.375000
6516		-238.281250
6517		-234.375000
6518		-242.187500
6519		-234.375000
6520		-242.187500
6521		-238.281250
6522		-238.281250
6523		-238.281250
6524		-242.187500
6525		-238.281250
6526		-242.187500
6527		-238.281250
6528		-238.281250
6529		-238.281250
6530		-238.281250
6531		-234.375000
6532		-238.281250
6533		-234.375000
6534		-238.281250
6535		-234.375000
6536		-238.281250
6537		-230.468750
6538		-234.375000
6539		-230.468750
6540		-234.375000
6541		-226.562500
6542		-230.468750
6543		-226.562500
6544		-230.468750
6545		-222.656250
6546		-226.562500
6547		-218.750000
6548		-222.656250
6549		-218.750000
6550		-218.750000
6551		-214.843750
6552		-218.750000
6553		-210.937500
6554		-210.937500
6555		-207.031250
6556		-210.937500
6557		-203.125000
6558		-207.031250
6559		-199.218750
6560		-199.218750
6561		-195.312500
6562		-195.312500
6563		-191.406250
6564		-191.406250
6565		-183.593750
6566		-187.500000
6567		-179.687500
6568		-179.687500
6569		-175.781250
6570		-175.781250
6571		-167.968750
6572		-171.875000
6573		-164.062500
6574		-164.062500
6575		-156.250000
6576		-160.156250
6577		-152.343750
6578		-152.343750
6579		-144.531250
6580		-144.531250
6581		-136.718750
6582		-140.625000
6583		-132.812500
6584		-132.812500
6585		-125.000000
6586		-125.000000
6587		-117.187500
6588		-121.093750
6589		-113.281250
6590		-113.281250
6591		-105.468750
6592		-105.468750
6593		-97.656250
6594		-97.656250
6595		-89.843750
6596		-89.843750
6597		-82.031250
6598		-85.937500
6599		-74.218750
6600		-78.125000
6601		-70.312500
6602		-70.312500
6603		-62.500000
6604		-62.500000
6605		-54.687500
6606		-54.687500
6607		-46.875000
6608		-46.875000
6609		-39.062500
6610		-39.062500
6611		-31.250000
6612		-31.250000
6613		-23.437500
6614		-23.437500
6615		-15.625000
6616		-19.531250
6617		-7.812500
6618		-11.718750
6619		0.000000
6620		-3.906250
6621		3.906250
6622		3.906250
6623		11.718750
6624		11.718750
6625		19.531250
6626		19.531250
6627		27.343750
6628		23.437500
6629		35.156250
6630		31.250000
6631		39.062500
6632		39.062500
6633		46.875000
6634		46.875000
6635		54.687500
6636		54.687500
6637		62.500000
6638		58.593750
6639		66.406250
6640		66.406250
6641		74.218750
6642		74.218750
6643		82.031250
6644		78.125000
6645		85.937500
6646		85.937500
6647		93.750000
6648		89.843750
6649		97.656250
6650		97.656250
6651		105.468750
6652		101.562500
6653		109.375000
6654		109.375000
6655		113.281250
6656		113.281250
6657		121.093750
6658		117.187500
6659		125.000000
6660		125.000000
6661		128.906250
6662		128.906250
6663		136.718750
6664		132.812500
6665		140.625000
6666		136.718750
6667		144.531250
6668		140.625000
6669		148.437500
6670		148.437500
6671		152.343750
6672		152.343750
6673		156.250000
6674		156.250000
6675		164.062500
6676		160.156250
6677		164.062500
6678		164.062500
6679		167.968750
6680		167.968750
6681		171.875000
6682		167.968750
6683		175.781250
6684		171.875000
6685		179.687500
6686		175.781250
6687		179.687500
6688		179.687500
6689		183.593750
6690		179.687500
6691		187.500000
6692		183.593750
6693		187.500000
6694		187.500000
6695		191.406250
6696		187.500000
6697		195.312500
6698		191.406250
6699		195.312500
6700		191.406250
6701		199.218750
6702		195.312500
6703		199.218750
6704		195.312500
6705		203.125000
6706		199.218750
6707		203.125000
6708		199.218750
6709		203.125000
6710		203.125000
6711		203.125000
6712		203.125000
6713		207.031250
6714		203.125000
6715		207.031250
6716		203.125000
6717		207.031250
6718		207.031250
6719		207.031250
6720		207.031250
6721		207.031250
6722		207.031250
6723		210.937500
6724		207.031250
6725		210.937500
6726		207.031250
6727		210.937500
6728		207.031250
6729		210.937500
6730		207.031250
6731		210.937500
6732		207.031250
6733		207.031250
6734		203.125000
6735		210.937500
6736		203.125000
6737		207.031250
6738		203.125000
6739		207.031250
6740		203.125000
6741		207.031250
6742		203.125000
6743		207.031250
6744		199.218750
6745		203.125000
6746		199.218750
6747		203.125000
6748		199.218750
6749		203.125000
6750		195.312500
6751		199.218750
6752		195.312500
6753		199.218750
6754		191.406250
6755		195.312500
6756		191.406250
6757		195.312500
6758		187.500000
6759		191.406250
6760		183.593750
6761		191.406250
6762		183.593750
6763		187.500000
6764		179.687500
6765		183.593750
6766		175.781250
6767		183.593750
6768		171.875000
6769		179.687500
6770		167.968750
6771		175.781250
6772		164.062500
6773		171.875000
6774		160.156250
6775		167.968750
6776		160.156250
6777		164.062500
6778		156.250000
6779		160.156250
6780		148.437500
6781		156.250000
6782		144.531250
6783		152.343750
6784		140.625000
6785		148.437500
6786		136.718750
6787		140.625000
6788		128.906250
6789		136.718750
6790		125.000000
6791		132.812500
6792		121.093750
6793		128.906250
6794		113.281250
6795		121.093750
6796		109.375000
6797		117.187500
6798		101.562500
6799		113.281250
6800		97.656250
6801		105.468750
6802		89.843750
6803		101.562500
6804		85.937500
6805		93.750000
6806		78.125000
6807		85.937500
6808		74.218750
6809		82.031250
6810		66.406250
6811		74.218750
6812		58.593750
6813		66.406250
6814		50.781250
6815		62.500000
6816		46.875000
6817		54.687500
6818		39.062500
6819		46.875000
6820		31.250000
6821		39.062500
6822		23.437500
6823		31.250000
6824		19.531250
6825		27.343750
6826		11.718750
6827		19.531250
6828		3.906250
6829		11.718750
6830		-3.906250
6831		3.906250
6832		-11.718750
6833		-3.906250
6834		-19.531250
6835		-7.812500
6836		-27.343750
6837		-19.531250
6838		-35.156250
6839		-23.437500
6840		-39.062500
6841		-31.250000
6842		-46.875000
6843		-39.062500
6844		-54.687500
6845		-46.875000
6846		-62.500000
6847		-54.687500
6848		-70.312500
6849		-62.500000
6850		-78.125000
6851		-66.406250
6852		-85.937500
6853		-74.218750
6854		-89.843750
6855		-82.031250
6856		-97.656250
6857		-89.843750
6858		-105.468750
6859		-97.656250
6860		-113.281250
6861		-101.562500
6862		-117.187500
6863		-109.375000
6864		-125.000000
6865		-117.187500
6866		-132.812500
6867		-125.000000
6868		-136.718750
6869		-128.906250
6870		-144.531250
6871		-136.718750
6872		-152.343750
6873		-144.531250
6874		-156.250000
6875		-148.437500
6876		-164.062500
6877		-152.343750
6878		-167.968750
6879		-160.156250
6880		-171.875000
6881		-167.968750
6882		-179.687500
6883		-171.875000
6884		-183.593750
6885		-175.781250
6886		-187.500000
6887		-179.687500
6888		-195.312500
6889		-187.500000
6890		-199.218750
6891		-191.406250
6892		-203.125000
6893		-195.312500
6894		-207.031250
6895		-199.218750
6896		-210.937500
6897		-203.125000
6898		-214.843750
6899		-207.031250
6900		-218.750000
6901		-210.937500
6902		-222.656250
6903		-214.843750
6904		-222.656250
6905		-218.750000
6906		-226.562500
6907		-222.656250
6908		-230.468750
6909		-222.656250
6910		-230.468750
6911		-226.562500
6912		-234.375000
6913		-230.468750
6914		-234.375000
6915		-230.468750
6916		-238.281250
6917		-234.375000
6918		-238.281250
6919		-234.375000
6920		-238.281250
6921		-234.375000
6922		-238.281250
6923		-238.281250
6924		-242.187500
6925		-238.281250
6926		-242.187500
6927		-238.281250
6928		-242.187500
6929		-238.281250
6930		-242.187500
6931		-238.281250
6932		-242.187500
6933		-238.281250
6934		-238.281250
6935		-234.375000
6936		-238.281250
6937		-234.375000
6938		-238.281250
6939		-234.375000
6940		-234.375000
6941		-230.468750
6942		-234.375000
6943		-230.468750
6944		-234.375000
6945		-226.562500
6946		-230.468750
6947		-226.562500
6948		-226.562500
6949		-222.656250
6950		-226.562500
6951		-218.750000
6952		-222.656250
6953		-214.843750
6954		-218.750000
6955		-214.843750
6956		-214.843750
6957		-210.937500
6958		-210.937500
6959		-207.031250
6960		-207.031250
6961		-203.125000
6962		-203.125000
6963		-195.312500
6964		-199.218750
6965		-191.406250
6966		-195.312500
6967		-187.500000
6968		-191.406250
6969		-183.593750
6970		-183.593750
6971		-179.687500
6972		-179.687500
6973		-171.875000
6974		-175.781250
6975		-167.968750
6976		-167.968750
6977		-160.156250
6978		-164.062500
6979		-156.250000
6980		-156.250000
6981		-148.437500
6982		-152.343750
6983		-144.531250
6984		-144.531250
6985		-136.718750
6986		-140.625000
6987		-128.906250
6988		-132.812500
6989		-125.000000
6990		-125.000000
6991		-117.187500
6992		-117.187500
6993		-109.375000
6994		-109.375000
6995		-101.562500
6996		-105.468750
6997		-93.750000
6998		-97.656250
6999		-89.843750
7000		-89.843750
7001		-82.031250
7002		-82.031250
7003		-74.218750
7004		-74.218750
7005		-66.406250
7006		-70.312500
7007		-58.593750
7008		-62.500000
7009		-50.781250
7010		-54.687500
7011		-42.968750
7012		-46.875000
7013		-35.156250
7014		-39.062500
7015		-31.250000
7016		-31.250000
7017		-19.531250
7018		-23.437500
7019		-15.625000
7020		-15.625000
7021		-3.906250
7022		-7.812500
7023		0.000000
7024		0.000000
7025		7.812500
7026		3.906250
7027		15.625000
7028		11.718750
7029		19.531250
7030		19.531250
7031		27.343750
7032		27.343750
7033		35.156250
7034		35.156250
7035		42.968750
7036		39.062500
7037		50.781250
7038		46.875000
7039		54.687500
7040		54.687500
7041		62.500000
7042		62.500000
7043		70.312500
7044		66.406250
7045		74.218750
7046		74.218750
7047		82.031250
7048		82.031250
7049		85.937500
7050		85.937500
7051		93.750000
7052		89.843750
7053		101.562500
7054		97.656250
7055		105.468750
7056		105.468750
7057		113.281250
7058		109.375000
7059		117.187500
7060		113.281250
7061		121.093750
7062		121.093750
7063		128.906250
7064		125.000000
7065		132.812500
7066		128.906250
7067		136.718750
7068		136.718750
7069		140.625000
7070		140.625000
7071		144.531250
7072		144.531250
7073		152.343750
7074		148.437500
7075		156.250000
7076		152.343750
7077		160.156250
7078		156.250000
7079		164.062500
7080		160.156250
7081		167.968750
7082		164.062500
7083		167.968750
7084		167.968750
7085		171.875000
7086		171.875000
7087		175.781250
7088		175.781250
7089		179.687500
7090		175.781250
7091		183.593750
7092		179.687500
7093		183.593750
7094		183.593750
7095		187.500000
7096		183.593750
7097		191.406250
7098		187.500000
7099		191.406250
7100		191.406250
7101		195.312500
7102		191.406250
7103		195.312500
7104		195.312500
7105		199.218750
7106		195.312500
7107		199.218750
7108		199.218750
7109		203.125000
7110		199.218750
7111		203.125000
7112		199.218750
7113		203.125000
7114		199.218750
7115		203.125000
7116		203.125000
7117		207.031250
7118		203.125000
7119		207.031250
7120		203.125000
7121		207.031250
7122		207.031250
7123		207.031250
7124		207.031250
7125		210.937500
7126		207.031250
7127		210.937500
7128		207.031250
7129		210.937500
7130		207.031250
7131		210.937500
7132		207.031250
7133		210.937500
7134		207.031250
7135		210.937500
7136		207.031250
7137		210.937500
7138		207.031250
7139		207.031250
7140		203.125000
7141		207.031250
7142		203.125000
7143		207.031250
7144		203.125000
7145		207.031250
7146		199.218750
7147		207.031250
7148		199.218750
7149		203.125000
7150		199.218750
7151		203.125000
7152		199.218750
7153		203.125000
7154		195.312500
7155		199.218750
7156		195.312500
7157		199.218750
7158		191.406250
7159		195.312500
7160		187.500000
7161		195.312500
7162		187.500000
7163		191.406250
7164		183.593750
7165		187.500000
7166		183.593750
7167		187.500000
7168		179.687500
7169		183.593750
7170		175.781250
7171		179.687500
7172		171.875000
7173		179.687500
7174		167.968750
7175		175.781250
7176		164.062500
7177		171.875000
7178		160.156250
7179		167.968750
7180		156.250000
7181		164.062500
7182		152.343750
7183		160.156250
7184		148.437500
7185		156.250000
7186		144.531250
7187		152.343750
7188		140.625000
7189		148.437500
7190		136.718750
7191		140.625000
7192		128.906250
7193		136.718750
7194		125.000000
7195		132.812500
7196		121.093750
7197		125.000000
7198		113.281250
7199		121.093750
7200		109.375000
7201		117.187500
7202		101.562500
7203		109.375000
7204		97.656250
7205		105.468750
7206		89.843750
7207		97.656250
7208		85.937500
7209		93.750000
7210		78.125000
7211		85.937500
7212		70.312500
7213		78.125000
7214		66.406250
7215		74.218750
7216		58.593750
7217		66.406250
7218		50.781250
7219		58.593750
7220		42.968750
7221		54.687500
7222		39.062500
7223		46.875000
7224		31.250000
7225		39.062500
7226		23.437500
7227		31.250000
7228		15.625000
7229		23.437500
7230		7.812500
7231		19.531250
7232		0.000000
7233		11.718750
7234		-3.906250
7235		3.906250
7236		-11.718750
7237		-3.906250
7238		-19.531250
7239		-11.718750
7240		-27.343750
7241		-19.531250
7242		-35.156250
7243		-27.343750
7244		-42.968750
7245		-31.250000
7246		-50.781250
7247		-39.062500
7248		-58.593750
7249		-46.875000
7250		-62.500000
7251		-54.687500
7252		-70.312500
7253		-62.500000
7254		-78.125000
7255		-70.312500
7256		-85.937500
7257		-78.125000
7258		-93.750000
7259		-82.031250
7260		-101.562500
7261		-89.843750
7262		-105.468750
7263		-97.656250
7264		-113.281250
7265		-105.468750
7266		-121.093750
7267		-113.281250
7268		-128.906250
7269		-117.187500
7270		-132.812500
7271		-125.000000
7272		-140.625000
7273		-132.812500
7274		-144.531250
7275		-136.718750
7276		-152.343750
7277		-144.531250
7278		-156.250000
7279		-148.437500
7280		-164.062500
7281		-156.250000
7282		-167.968750
7283		-160.156250
7284		-175.781250
7285		-167.968750
7286		-179.687500
7287		-171.875000
7288		-183.593750
7289		-175.781250
7290		-191.406250
7291		-183.593750
7292		-195.312500
7293		-187.500000
7294		-199.218750
7295		-191.406250
7296		-203.125000
7297		-195.312500
7298		-207.031250
7299		-203.125000
7300		-210.937500
7301		-207.031250
7302		-214.843750
7303		-210.937500
7304		-218.750000
7305		-214.843750
7306		-222.656250
7307		-214.843750
7308		-222.656250
7309		-218.750000
7310		-226.562500
7311		-222.656250
7312		-230.468750
7313		-226.562500
7314		-230.468750
7315		-226.562500
7316		-234.375000
7317		-230.468750
7318		-238.281250
7319		-230.468750
7320		-238.281250
7321		-234.375000
7322		-238.281250
7323		-234.375000
7324		-242.187500
7325		-234.375000
7326		-242.187500
7327		-238.281250
7328		-242.187500
7329		-238.281250
7330		-242.187500
7331		-238.281250
7332		-242.187500
7333		-238.281250
7334		-242.187500
7335		-238.281250
7336		-242.187500
7337		-234.375000
7338		-238.281250
7339		-238.281250
7340		-238.281250
7341		-234.375000
7342		-238.281250
7343		-234.375000
7344		-238.281250
7345		-230.468750
7346		-234.375000
7347		-230.468750
7348		-234.375000
7349		-226.562500
7350		-230.468750
7351		-226.562500
7352		-226.562500
7353		-222.656250
7354		-226.562500
7355		-218.750000
7356		-222.656250
7357		-218.750000
7358		-218.750000
7359		-214.843750
7360		-214.843750
7361		-210.937500
7362		-214.843750
7363		-207.031250
7364		-207.031250
7365		-203.125000
7366		-203.125000
7367		-199.218750
7368		-199.218750
7369		-191.406250
7370		-195.312500
7371		-187.500000
7372		-191.406250
7373		-183.593750
7374		-183.593750
7375		-179.687500
7376		-179.687500
7377		-171.875000
7378		-175.781250
7379		-167.968750
7380		-167.968750
7381		-160.156250
7382		-164.062500
7383		-156.250000
7384		-156.250000
7385		-148.437500
7386		-152.343750
7387		-140.625000
7388		-144.531250
7389		-136.718750
7390		-136.718750
7391		-128.906250
7392		-132.812500
7393		-121.093750
7394		-125.000000
7395		-117.187500
7396		-117.187500
7397		-109.375000
7398		-109.375000
7399		-101.562500
7400		-105.468750
7401		-93.750000
7402		-97.656250
7403		-85.937500
7404		-89.843750
7405		-82.031250
7406		-82.031250
7407		-74.218750
7408		-74.218750
7409		-66.406250
7410		-66.406250
7411		-58.593750
7412		-58.593750
7413		-50.781250
7414		-50.781250
7415		-42.968750
7416		-46.875000
7417		-35.156250
7418		-39.062500
7419		-27.343750
7420		-31.250000
7421		-19.531250
7422		-23.437500
7423		-11.718750
7424		-15.625000
7425		-7.812500
7426		-7.812500
7427		0.000000
7428		0.000000
7429		7.812500
7430		7.812500
7431		15.625000
7432		11.718750
7433		23.437500
7434		19.531250
7435		31.250000
7436		27.343750
7437		35.156250
7438		35.156250
7439		42.968750
7440		42.968750
7441		50.781250
7442		46.875000
7443		58.593750
7444		54.687500
7445		62.500000
7446		62.500000
7447		70.312500
7448		66.406250
7449		78.125000
7450		74.218750
7451		82.031250
7452		82.031250
7453		89.843750
7454		85.937500
7455		93.750000
7456		93.750000
7457		101.562500
7458		97.656250
7459		105.468750
7460		105.468750
7461		113.281250
7462		109.375000
7463		117.187500
7464		113.281250
7465		121.093750
7466		121.093750
7467		128.906250
7468		125.000000
7469		132.812500
7470		128.906250
7471		136.718750
7472		136.718750
7473		140.625000
7474		140.625000
7475		148.437500
7476		144.531250
7477		152.343750
7478		148.437500
7479		156.250000
7480		152.343750
7481		160.156250
7482		156.250000
7483		164.062500
7484		160.156250
7485		167.968750
7486		164.062500
7487		171.875000
7488		167.968750
7489		171.875000
7490		171.875000
7491		175.781250
7492		175.781250
7493		179.687500
7494		175.781250
7495		183.593750
7496		179.687500
7497		183.593750
7498		183.593750
7499		187.500000
7500		187.500000
7501		191.406250
7502		187.500000
7503		191.406250
7504		191.406250
7505		195.312500
7506		191.406250
7507		195.312500
7508		195.312500
7509		199.218750
7510		195.312500
7511		199.218750
7512		199.218750
7513		203.125000
7514		199.218750
7515		203.125000
7516		199.218750
7517		203.125000
7518		203.125000
7519		207.031250
7520		203.125000
7521		207.031250
7522		203.125000
7523		207.031250
7524		203.125000
7525		207.031250
7526		203.125000
7527		207.031250
7528		207.031250
7529		210.937500
7530		207.031250
7531		210.937500
7532		207.031250
7533		210.937500
7534		207.031250
7535		210.937500
7536		207.031250
7537		210.937500
7538		207.031250
7539		210.937500
7540		207.031250
7541		210.937500
7542		207.031250
7543		207.031250
7544		203.125000
7545		207.031250
7546		203.125000
7547		207.031250
7548		203.125000
7549		207.031250
7550		203.125000
7551		203.125000
7552		199.218750
7553		203.125000
7554		199.218750
7555		203.125000
7556		199.218750
7557		199.218750
7558		195.312500
7559		199.218750
7560		191.406250
7561		199.218750
7562		191.406250
7563		195.312500
7564		187.500000
7565		195.312500
7566		187.500000
7567		191.406250
7568		183.593750
7569		187.500000
7570		179.687500
7571		187.500000
7572		179.687500
7573		183.593750
7574		175.781250
7575		179.687500
7576		171.875000
7577		175.781250
7578		167.968750
7579		175.781250
7580		164.062500
7581		171.875000
7582		160.156250
7583		167.968750
7584		156.250000
7585		164.062500
7586		152.343750
7587		160.156250
7588		148.437500
7589		156.250000
7590		144.531250
7591		148.437500
7592		140.625000
7593		144.531250
7594		132.812500
7595		140.625000
7596		128.906250
7597		136.718750
7598		125.000000
7599		132.812500
7600		117.187500
7601		125.000000
7602		113.281250
7603		121.093750
7604		105.468750
7605		113.281250
7606		101.562500
7607		109.375000
7608		93.750000
7609		101.562500
7610		89.843750
7611		97.656250
7612		82.031250
7613		89.843750
7614		74.218750
7615		85.937500
7616		70.312500
7617		78.125000
7618		62.500000
7619		70.312500
7620		54.687500
7621		66.406250
7622		50.781250
7623		58.593750
7624		42.968750
7625		50.781250
7626		35.156250
7627		46.875000
7628		27.343750
7629		39.062500
7630		23.437500
7631		31.250000
7632		15.625000
7633		23.437500
7634		7.812500
7635		19.531250
7636		0.000000
7637		7.812500
7638		-7.812500
7639		0.000000
7640		-15.625000
7641		-3.906250
7642		-19.531250
7643		-11.718750
7644		-27.343750
7645		-19.531250
7646		-35.156250
7647		-27.343750
7648		-42.968750
7649		-35.156250
7650		-50.781250
7651		-42.968750
7652		-58.593750
7653		-50.781250
7654		-66.406250
7655		-54.687500
7656		-74.218750
7657		-62.500000
7658		-78.125000
7659		-70.312500
7660		-85.937500
7661		-78.125000
7662		-93.750000
7663		-85.937500
7664		-101.562500
7665		-89.843750
7666		-109.375000
7667		-97.656250
7668		-113.281250
7669		-105.468750
7670		-121.093750
7671		-113.281250
7672		-128.906250
7673		-121.093750
7674		-132.812500
7675		-125.000000
7676		-140.625000
7677		-132.812500
7678		-144.531250
7679		-136.718750
7680		-152.343750
7681		-144.531250
7682		-160.156250
7683		-152.343750
7684		-164.062500
7685		-156.250000
7686		-167.968750
7687		-164.062500
7688		-175.781250
7689		-167.968750
7690		-179.687500
7691		-171.875000
7692		-183.593750
7693		-179.687500
7694		-191.406250
7695		-183.593750
7696		-195.312500
7697		-187.500000
7698		-199.218750
7699		-191.406250
7700		-203.125000
7701		-199.218750
7702		-207.031250
7703		-203.125000
7704		-210.937500
7705		-207.031250
7706		-214.843750
7707		-210.937500
7708		-218.750000
7709		-214.843750
7710		-222.656250
7711		-214.843750
7712		-226.562500
7713		-218.750000
7714		-226.562500
7715		-222.656250
7716		-230.468750
7717		-222.656250
7718		-230.468750
7719		-226.562500
7720		-234.375000
7721		-230.468750
7722		-234.375000
7723		-230.468750
7724		-238.281250
7725		-230.468750
7726		-238.281250
7727		-234.375000
7728		-238.281250
7729		-234.375000
7730		-238.281250
7731		-234.375000
7732		-238.281250
7733		-238.281250
7734		-242.187500
7735		-238.281250
7736		-238.281250
7737		-238.281250
7738		-238.281250
7739		-234.375000
7740		-238.281250
7741		-234.375000
7742		-238.281250
7743		-234.375000
7744		-238.281250
7745		-234.375000
7746		-238.281250
7747		-230.468750
7748		-234.375000
7749		-230.468750
7750		-234.375000
7751		-230.468750
7752		-230.468750
7753		-226.562500
7754		-226.562500
7755		-222.656250
7756		-226.562500
7757		-222.656250
7758		-222.656250
7759		-218.750000
7760		-222.656250
7761		-214.843750
7762		-218.750000
7763		-210.937500
7764		-214.843750
7765		-207.031250
7766		-210.937500
7767		-203.125000
7768		-207.031250
7769		-199.218750
7770		-203.125000
7771		-195.312500
7772		-199.218750
7773		-191.406250
7774		-191.406250
7775		-187.500000
7776		-187.500000
7777		-179.687500
7778		-183.593750
7779		-175.781250
7780		-179.687500
7781		-167.968750
7782		-171.875000
7783		-164.062500
7784		-167.968750
7785		-160.156250
7786		-160.156250
7787		-152.343750
7788		-152.343750
7789		-148.437500
7790		-148.437500
7791		-140.625000
7792		-144.531250
7793		-132.812500
7794		-136.718750
7795		-128.906250
7796		-128.906250
7797		-121.093750
7798		-121.093750
7799		-113.281250
7800		-117.187500
7801		-105.468750
7802		-109.375000
7803		-97.656250
7804		-101.562500
7805		-93.750000
7806		-93.750000
7807		-85.937500
7808		-85.937500
7809		-78.125000
7810		-78.125000
7811		-70.312500
7812		-74.218750
7813		-62.500000
7814		-66.406250
7815		-54.687500
7816		-58.593750
7817		-46.875000
7818		-50.781250
7819		-39.062500
7820		-42.968750
7821		-35.156250
7822		-35.156250
7823		-23.437500
7824		-27.343750
7825		-19.531250
7826		-19.531250
7827		-11.718750
7828		-11.718750
7829		-3.906250
7830		-3.906250
7831		3.906250
7832		0.000000
7833		11.718750
7834		7.812500
7835		19.531250
7836		15.625000
7837		23.437500
7838		23.437500
7839		31.250000
7840		31.250000
7841		39.062500
7842		39.062500
7843		46.875000
7844		42.968750
7845		50.781250
7846		50.781250
7847		58.593750
7848		58.593750
7849		66.406250
7850		62.500000
7851		70.312500
7852		70.312500
7853		78.125000
7854		78.125000
7855		85.937500
7856		82.031250
7857		89.843750
7858		89.843750
7859		97.656250
7860		93.750000
7861		105.468750
7862		101.562500
7863		109.375000
7864		105.468750
7865		113.281250
7866		113.281250
7867		117.187500
7868		117.187500
7869		125.000000
7870		121.093750
7871		128.906250
7872		128.906250
7873		132.812500
7874		132.812500
7875		140.625000
7876		136.718750
7877		144.531250
7878		140.625000
7879		148.437500
7880		144.531250
7881		152.343750
7882		148.437500
7883		156.250000
7884		152.343750
7885		160.156250
7886		160.156250
7887		164.062500
7888		160.156250
7889		167.968750
7890		164.062500
7891		171.875000
7892		167.968750
7893		175.781250
7894		171.875000
7895		179.687500
7896		175.781250
7897		183.593750
7898		179.687500
7899		183.593750
7900		179.687500
7901		187.500000
7902		183.593750
7903		187.500000
7904		187.500000
7905		191.406250
7906		187.500000
7907		195.312500
7908		191.406250
7909		195.312500
7910		191.406250
7911		199.218750
7912		191.406250
7913		199.218750
7914		195.312500
7915		203.125000
7916		199.218750
7917		203.125000
7918		199.218750
7919		207.031250
7920		203.125000
7921		203.125000
7922		203.125000
7923		207.031250
7924		203.125000
7925		207.031250
7926		203.125000
7927		210.937500
7928		203.125000
7929		210.937500
7930		203.125000
7931		210.937500
7932		203.125000
7933		210.937500
7934		203.125000
7935		210.937500
7936		207.031250
7937		210.937500
7938		207.031250
7939		210.937500
7940		203.125000
7941		210.937500
7942		203.125000
7943		210.937500
7944		203.125000
7945		210.937500
7946		203.125000
7947		210.937500
7948		203.125000
7949		210.937500
7950		203.125000
7951		210.937500
7952		199.218750
7953		207.031250
7954		203.125000
7955		203.125000
7956		199.218750
7957		203.125000
7958		195.312500
7959		203.125000
7960		195.312500
7961		203.125000
7962		191.406250
7963		199.218750
7964		191.406250
7965		199.218750
7966		187.500000
7967		195.312500
7968		187.500000
7969		195.312500
7970		187.500000
7971		191.406250
7972		183.593750
7973		187.500000
7974		179.687500
7975		183.593750
7976		175.781250
7977		183.593750
7978		171.875000
7979		179.687500
7980		167.968750
7981		179.687500
7982		164.062500
7983		175.781250
7984		160.156250
7985		171.875000
7986		160.156250
7987		167.968750
7988		156.250000
7989		160.156250
7990		152.343750
7991		156.250000
7992		144.531250
7993		156.250000
7994		144.531250
7995		148.437500
7996		136.718750
7997		144.531250
7998		132.812500
7999		140.625000
8000		125.000000
8001		136.718750
8002		121.093750
8003		128.906250
8004		117.187500
8005		125.000000
8006		109.375000
8007		121.093750
8008		105.468750
8009		113.281250
8010		97.656250
8011		109.375000
8012		93.750000
8013		101.562500
8014		85.937500
8015		97.656250
8016		82.031250
8017		89.843750
8018		74.218750
8019		85.937500
8020		70.312500
8021		78.125000
8022		62.500000
8023		70.312500
8024		54.687500
8025		62.500000
8026		46.875000
8027		58.593750
8028		39.062500
8029		50.781250
8030		31.250000
8031		42.968750
8032		27.343750
8033		39.062500
8034		19.531250
8035		31.250000
8036		11.718750
8037		23.437500
8038		7.812500
8039		15.625000
8040		0.000000
8041		7.812500
8042		-7.812500
8043		0.000000
8044		-15.625000
8045		-3.906250
8046		-23.437500
8047		-11.718750
8048		-31.250000
8049		-19.531250
8050		-39.062500
8051		-27.343750
8052		-46.875000
8053		-35.156250
8054		-50.781250
8055		-42.968750
8056		-58.593750
8057		-50.781250
8058		-66.406250
8059		-58.593750
8060		-74.218750
8061		-62.500000
8062		-82.031250
8063		-70.312500
8064		-89.843750
8065		-78.125000
8066		-97.656250
8067		-85.937500
8068		-105.468750
8069		-93.750000
8070		-109.375000
8071		-97.656250
8072		-117.187500
8073		-109.375000
8074		-121.093750
8075		-113.281250
8076		-128.906250
8077		-121.093750
8078		-136.718750
8079		-125.000000
8080		-144.531250
8081		-132.812500
8082		-148.437500
8083		-136.718750
8084		-156.250000
8085		-144.531250
8086		-164.062500
8087		-152.343750
8088		-164.062500
8089		-160.156250
8090		-171.875000
8091		-164.062500
8092		-179.687500
8093		-167.968750
8094		-183.593750
8095		-175.781250
8096		-187.500000
8097		-179.687500
8098		-191.406250
8099		-183.593750
8100		-195.312500
8101		-187.500000
8102		-203.125000
8103		-191.406250
8104		-207.031250
8105		-195.312500
8106		-210.937500
8107		-203.125000
8108		-214.843750
8109		-207.031250
8110		-218.750000
8111		-210.937500
8112		-222.656250
8113		-214.843750
8114		-226.562500
8115		-214.843750
8116		-226.562500
8117		-218.750000
8118		-230.468750
8119		-222.656250
8120		-234.375000
8121		-222.656250
8122		-234.375000
8123		-226.562500
8124		-234.375000
8125		-230.468750
8126		-238.281250
8127		-230.468750
8128		-242.187500
8129		-234.375000
8130		-242.187500
8131		-234.375000
8132		-242.187500
8133		-234.375000
8134		-242.187500
8135		-238.281250
8136		-242.187500
8137		-238.281250
8138		-242.187500
8139		-238.281250
8140		-242.187500
8141		-238.281250
8142		-242.187500
8143		-238.281250
8144		-242.187500
8145		-234.375000
8146		-242.187500
8147		-234.375000
8148		-242.187500
8149		-234.375000
8150		-238.281250
8151		-230.468750
8152		-238.281250
8153		-230.468750
8154		-234.375000
8155		-230.468750
8156		-230.468750
8157		-226.562500
8158		-230.468750
8159		-226.562500
8160		-230.468750
8161		-222.656250
8162		-226.562500
8163		-218.750000
8164		-222.656250
8165		-214.843750
8166		-218.750000
8167		-210.937500
8168		-214.843750
8169		-207.031250
8170		-210.937500
8171		-203.125000
8172		-207.031250
8173		-199.218750
8174		-203.125000
8175		-195.312500
8176		-199.218750
8177		-191.406250
8178		-195.312500
8179		-183.593750
8180		-187.500000
8181		-179.687500
8182		-187.500000
8183		-175.781250
8184		-179.687500
8185		-171.875000
8186		-175.781250
8187		-164.062500
8188		-167.968750
8189		-160.156250
8190		-160.156250
8191		-152.343750
8192		-156.250000
8193		-148.437500
8194		-148.437500
8195		-140.625000
8196		-144.531250
8197		-132.812500
8198		-136.718750
8199		-125.000000
8200		-128.906250
8201		-121.093750
8202		-125.000000
8203		-113.281250
8204		-117.187500
8205		-105.468750
8206		-109.375000
8207		-101.562500
8208		-101.562500
8209		-93.750000
8210		-93.750000
8211		-85.937500
8212		-85.937500
8213		-78.125000
8214		-82.031250
8215		-70.312500
8216		-74.218750
8217		-62.500000
8218		-66.406250
8219		-54.687500
8220		-58.593750
8221		-46.875000
8222		-50.781250
8223		-42.968750
8224		-42.968750
8225		-35.156250
8226		-35.156250
8227		-23.437500
8228		-27.343750
8229		-19.531250
8230		-23.437500
8231		-11.718750
8232		-15.625000
8233		-3.906250
8234		-7.812500
8235		3.906250
8236		0.000000
8237		11.718750
8238		7.812500
8239		15.625000
8240		15.625000
8241		23.437500
8242		23.437500
8243		31.250000
8244		27.343750
8245		39.062500
8246		35.156250
8247		46.875000
8248		42.968750
8249		54.687500
8250		50.781250
8251		58.593750
8252		54.687500
8253		66.406250
8254		62.500000
8255		74.218750
8256		70.312500
8257		78.125000
8258		78.125000
8259		85.937500
8260		82.031250
8261		89.843750
8262		85.937500
8263		97.656250
8264		93.750000
8265		105.468750
8266		97.656250
8267		109.375000
8268		105.468750
8269		113.281250
8270		109.375000
8271		121.093750
8272		113.281250
8273		125.000000
8274		121.093750
8275		128.906250
8276		128.906250
8277		132.812500
8278		128.906250
8279		140.625000
8280		132.812500
8281		144.531250
8282		140.625000
8283		148.437500
8284		144.531250
8285		152.343750
8286		148.437500
8287		156.250000
8288		152.343750
8289		160.156250
8290		156.250000
8291		164.062500
8292		160.156250
8293		167.968750
8294		164.062500
8295		171.875000
8296		167.968750
8297		175.781250
8298		171.875000
8299		179.687500
8300		175.781250
8301		183.593750
8302		175.781250
8303		183.593750
8304		179.687500
8305		187.500000
8306		183.593750
8307		187.500000
8308		187.500000
8309		191.406250
8310		187.500000
8311		195.312500
8312		187.500000
8313		195.312500
8314		191.406250
8315		199.218750
8316		191.406250
8317		199.218750
8318		195.312500
8319		203.125000
8320		195.312500
8321		203.125000
8322		199.218750
8323		203.125000
8324		199.218750
8325		207.031250
8326		203.125000
8327		207.031250
8328		203.125000
8329		207.031250
8330		203.125000
8331		207.031250
8332		203.125000
8333		210.937500
8334		203.125000
8335		210.937500
8336		203.125000
8337		210.937500
8338		203.125000
8339		210.937500
8340		203.125000
8341		210.937500
8342		207.031250
8343		210.937500
8344		203.125000
8345		210.937500
8346		203.125000
8347		210.937500
8348		203.125000
8349		210.937500
8350		203.125000
8351		210.937500
8352		203.125000
8353		207.031250
8354		199.218750
8355		207.031250
8356		199.218750
8357		207.031250
8358		199.218750
8359		203.125000
8360		199.218750
8361		203.125000
8362		195.312500
8363		203.125000
8364		195.312500
8365		203.125000
8366		191.406250
8367		199.218750
8368		191.406250
8369		199.218750
8370		187.500000
8371		195.312500
8372		187.500000
8373		195.312500
8374		183.593750
8375		191.406250
8376		183.593750
8377		187.500000
8378		175.781250
8379		183.593750
8380		175.781250
8381		183.593750
8382		171.875000
8383		179.687500
8384		167.968750
8385		175.781250
8386		164.062500
8387		175.781250
8388		160.156250
8389		167.968750
8390		160.156250
8391		164.062500
8392		156.250000
8393		160.156250
8394		148.437500
8395		156.250000
8396		144.531250
8397		156.250000
8398		140.625000
8399		148.437500
8400		136.718750
8401		144.531250
8402		128.906250
8403		140.625000
8404		125.000000
8405		136.718750
8406		121.093750
8407		132.812500
8408		117.187500
8409		125.000000
8410		109.375000
8411		117.187500
8412		105.468750
8413		113.281250
8414		97.656250
8415		109.375000
8416		89.843750
8417		101.562500
8418		85.937500
8419		93.750000
8420		78.125000
8421		89.843750
8422		70.312500
8423		82.031250
8424		66.406250
8425		78.125000
8426		62.500000
8427		70.312500
8428		50.781250
8429		62.500000
8430		46.875000
8431		58.593750
8432		39.062500
8433		50.781250
8434		31.250000
8435		42.968750
8436		23.437500
8437		35.156250
8438		19.531250
8439		31.250000
8440		11.718750
8441		23.437500
8442		3.906250
8443		11.718750
8444		-3.906250
8445		7.812500
8446		-11.718750
8447		0.000000
8448		-19.531250
8449		-7.812500
8450		-27.343750
8451		-11.718750
8452		-35.156250
8453		-23.437500
8454		-42.968750
8455		-31.250000
8456		-46.875000
8457		-39.062500
8458		-54.687500
8459		-42.968750
8460		-62.500000
8461		-54.687500
8462		-70.312500
8463		-58.593750
8464		-78.125000
8465		-66.406250
8466		-85.937500
8467		-74.218750
8468		-93.750000
8469		-82.031250
8470		-97.656250
8471		-85.937500
8472		-105.468750
8473		-93.750000
8474		-109.375000
8475		-101.562500
8476		-117.187500
8477		-109.375000
8478		-125.000000
8479		-117.187500
8480		-132.812500
8481		-121.093750
8482		-136.718750
8483		-128.906250
8484		-144.531250
8485		-132.812500
8486		-152.343750
8487		-140.625000
8488		-160.156250
8489		-148.437500
8490		-164.062500
8491		-152.343750
8492		-167.968750
8493		-160.156250
8494		-171.875000
8495		-167.968750
8496		-179.687500
8497		-171.875000
8498		-187.500000
8499		-175.781250
8500		-191.406250
8501		-179.687500
8502		-195.312500
8503		-183.593750
8504		-199.218750
8505		-191.406250
8506		-207.031250
8507		-195.312500
8508		-207.031250
8509		-199.218750
8510		-210.937500
8511		-207.031250
8512		-218.750000
8513		-207.031250
8514		-218.750000
8515		-210.937500
8516		-222.656250
8517		-214.843750
8518		-226.562500
8519		-218.750000
8520		-230.468750
8521		-222.656250
8522		-234.375000
8523		-222.656250
8524		-234.375000
8525		-226.562500
8526		-234.375000
8527		-230.468750
8528		-238.281250
8529		-230.468750
8530		-242.187500
8531		-230.468750
8532		-242.187500
8533		-234.375000
8534		-242.187500
8535		-234.375000
8536		-242.187500
8537		-238.281250
8538		-246.093750
8539		-238.281250
8540		-246.093750
8541		-238.281250
8542		-242.187500
8543		-238.281250
8544		-242.187500
8545		-238.281250
8546		-242.187500
8547		-238.281250
8548		-242.187500
8549		-234.375000
8550		-242.187500
8551		-234.375000
8552		-242.187500
8553		-234.375000
8554		-242.187500
8555		-234.375000
8556		-238.281250
8557		-230.468750
8558		-238.281250
8559		-230.468750
8560		-234.375000
8561		-230.468750
8562		-230.468750
8563		-226.562500
8564		-230.468750
8565		-222.656250
8566		-226.562500
8567		-218.750000
8568		-222.656250
8569		-214.843750
8570		-222.656250
8571		-210.937500
8572		-218.750000
8573		-207.031250
8574		-210.937500
8575		-203.125000
8576		-207.031250
8577		-203.125000
8578		-203.125000
8579		-195.312500
8580		-199.218750
8581		-191.406250
8582		-195.312500
8583		-187.500000
8584		-191.406250
8585		-179.687500
8586		-183.593750
8587		-175.781250
8588		-179.687500
8589		-171.875000
8590		-175.781250
8591		-164.062500
8592		-167.968750
8593		-160.156250
8594		-160.156250
8595		-152.343750
8596		-156.250000
8597		-144.531250
8598		-152.343750
8599		-140.625000
8600		-144.531250
8601		-132.812500
8602		-136.718750
8603		-125.000000
8604		-128.906250
8605		-121.093750
8606		-121.093750
8607		-113.281250
8608		-117.187500
8609		-105.468750
8610		-109.375000
8611		-97.656250
8612		-101.562500
8613		-89.843750
8614		-93.750000
8615		-82.031250
8616		-89.843750
8617		-78.125000
8618		-82.031250
8619		-66.406250
8620		-74.218750
8621		-62.500000
8622		-66.406250
8623		-54.687500
8624		-58.593750
8625		-46.875000
8626		-50.781250
8627		-39.062500
8628		-42.968750
8629		-31.250000
8630		-35.156250
8631		-23.437500
8632		-27.343750
8633		-15.625000
8634		-23.437500
8635		-11.718750
8636		-15.625000
8637		-3.906250
8638		-7.812500
8639		3.906250
8640		0.000000
8641		11.718750
8642		7.812500
8643		19.531250
8644		15.625000
8645		23.437500
8646		23.437500
8647		35.156250
8648		31.250000
8649		39.062500
8650		35.156250
8651		46.875000
8652		42.968750
8653		54.687500
8654		50.781250
8655		58.593750
8656		58.593750
8657		66.406250
8658		62.500000
8659		70.312500
8660		70.312500
8661		78.125000
8662		78.125000
8663		85.937500
8664		82.031250
8665		89.843750
8666		85.937500
8667		97.656250
8668		93.750000
8669		105.468750
8670		101.562500
8671		109.375000
8672		105.468750
8673		113.281250
8674		109.375000
8675		121.093750
8676		117.187500
8677		125.000000
8678		121.093750
8679		128.906250
8680		125.000000
8681		132.812500
8682		128.906250
8683		140.625000
8684		132.812500
8685		144.531250
8686		140.625000
8687		148.437500
8688		144.531250
8689		152.343750
8690		148.437500
8691		156.250000
8692		152.343750
8693		160.156250
8694		156.250000
8695		164.062500
8696		160.156250
8697		167.968750
8698		164.062500
8699		171.875000
8700		167.968750
8701		175.781250
8702		171.875000
8703		179.687500
8704		171.875000
8705		179.687500
8706		175.781250
8707		183.593750
8708		179.687500
8709		187.500000
8710		183.593750
8711		187.500000
8712		187.500000
8713		191.406250
8714		187.500000
8715		195.312500
8716		187.500000
8717		195.312500
8718		191.406250
8719		199.218750
8720		191.406250
8721		199.218750
8722		195.312500
8723		203.125000
8724		195.312500
8725		203.125000
8726		195.312500
8727		203.125000
8728		199.218750
8729		203.125000
8730		203.125000
8731		207.031250
8732		199.218750
8733		207.031250
8734		203.125000
8735		207.031250
8736		203.125000
8737		207.031250
8738		203.125000
8739		210.937500
8740		203.125000
8741		210.937500
8742		203.125000
8743		210.937500
8744		203.125000
8745		207.031250
8746		207.031250
8747		207.031250
8748		203.125000
8749		210.937500
8750		203.125000
8751		210.937500
8752		203.125000
8753		210.937500
8754		203.125000
8755		210.937500
8756		199.218750
8757		207.031250
8758		199.218750
8759		207.031250
8760		199.218750
8761		207.031250
8762		199.218750
8763		203.125000
8764		195.312500
8765		203.125000
8766		195.312500
8767		203.125000
8768		191.406250
8769		199.218750
8770		191.406250
8771		199.218750
8772		191.406250
8773		195.312500
8774		187.500000
8775		195.312500
8776		187.500000
8777		191.406250
8778		183.593750
8779		187.500000
8780		179.687500
8781		187.500000
8782		175.781250
8783		183.593750
8784		171.875000
8785		183.593750
8786		171.875000
8787		179.687500
8788		167.968750
8789		175.781250
8790		164.062500
8791		171.875000
8792		160.156250
8793		167.968750
8794		156.250000
8795		164.062500
8796		152.343750
8797		160.156250
8798		148.437500
8799		156.250000
8800		140.625000
8801		152.343750
8802		136.718750
8803		148.437500
8804		132.812500
8805		144.531250
8806		128.906250
8807		136.718750
8808		125.000000
8809		132.812500
8810		121.093750
8811		128.906250
8812		113.281250
8813		121.093750
8814		109.375000
8815		117.187500
8816		101.562500
8817		113.281250
8818		93.750000
8819		105.468750
8820		89.843750
8821		101.562500
8822		82.031250
8823		93.750000
8824		78.125000
8825		85.937500
8826		70.312500
8827		82.031250
8828		66.406250
8829		74.218750
8830		58.593750
8831		66.406250
8832		50.781250
8833		58.593750
8834		42.968750
8835		54.687500
8836		35.156250
8837		46.875000
8838		31.250000
8839		39.062500
8840		23.437500
8841		35.156250
8842		15.625000
8843		27.343750
8844		7.812500
8845		19.531250
8846		0.000000
8847		11.718750
8848		-7.812500
8849		3.906250
8850		-11.718750
8851		-3.906250
8852		-19.531250
8853		-7.812500
8854		-31.250000
8855		-15.625000
8856		-35.156250
8857		-23.437500
8858		-42.968750
8859		-31.250000
8860		-50.781250
8861		-39.062500
8862		-58.593750
8863		-46.875000
8864		-62.500000
8865		-54.687500
8866		-74.218750
8867		-62.500000
8868		-78.125000
8869		-70.312500
8870		-85.937500
8871		-74.218750
8872		-93.750000
8873		-82.031250
8874		-101.562500
8875		-89.843750
8876		-105.468750
8877		-97.656250
8878		-113.281250
8879		-105.468750
8880		-121.093750
8881		-113.281250
8882		-128.906250
8883		-117.187500
8884		-132.812500
8885		-125.000000
8886		-140.625000
8887		-128.906250
8888		-148.437500
8889		-136.718750
8890		-152.343750
8891		-140.625000
8892		-160.156250
8893		-148.437500
8894		-164.062500
8895		-152.343750
8896		-167.968750
8897		-160.156250
8898		-175.781250
8899		-167.968750
8900		-183.593750
8901		-171.875000
8902		-187.500000
8903		-175.781250
8904		-191.406250
8905		-179.687500
8906		-195.312500
8907		-187.500000
8908		-199.218750
8909		-191.406250
8910		-207.031250
8911		-195.312500
8912		-207.031250
8913		-203.125000
8914		-210.937500
8915		-207.031250
8916		-218.750000
8917		-207.031250
8918		-218.750000
8919		-210.937500
8920		-222.656250
8921		-214.843750
8922		-226.562500
8923		-218.750000
8924		-230.468750
8925		-218.750000
8926		-230.468750
8927		-222.656250
8928		-230.468750
8929		-226.562500
8930		-234.375000
8931		-230.468750
8932		-238.281250
8933		-230.468750
8934		-238.281250
8935		-230.468750
8936		-242.187500
8937		-234.375000
8938		-242.187500
8939		-234.375000
8940		-242.187500
8941		-234.375000
8942		-242.187500
8943		-234.375000
8944		-242.187500
8945		-238.281250
8946		-242.187500
8947		-238.281250
8948		-242.187500
8949		-238.281250
8950		-242.187500
8951		-234.375000
8952		-242.187500
8953		-234.375000
8954		-242.187500
8955		-234.375000
8956		-238.281250
8957		-234.375000
8958		-238.281250
8959		-230.468750
8960		-238.281250
8961		-230.468750
8962		-234.375000
8963		-226.562500
8964		-230.468750
8965		-226.562500
8966		-226.562500
8967		-222.656250
8968		-230.468750
8969		-218.750000
8970		-226.562500
8971		-214.843750
8972		-222.656250
8973		-210.937500
8974		-218.750000
8975		-207.031250
8976		-214.843750
8977		-207.031250
8978		-210.937500
8979		-199.218750
8980		-203.125000
8981		-199.218750
8982		-199.218750
8983		-191.406250
8984		-199.218750
8985		-187.500000
8986		-191.406250
8987		-183.593750
8988		-187.500000
8989		-175.781250
8990		-179.687500
8991		-171.875000
8992		-175.781250
8993		-167.968750
8994		-171.875000
8995		-160.156250
8996		-164.062500
8997		-156.250000
8998		-156.250000
8999		-148.437500
9000		-152.343750
9001		-140.625000
9002		-144.531250
9003		-136.718750
9004		-140.625000
9005		-128.906250
9006		-132.812500
9007		-121.093750
9008		-128.906250
9009		-117.187500
9010		-121.093750
9011		-109.375000
9012		-113.281250
9013		-101.562500
9014		-105.468750
9015		-97.656250
9016		-97.656250
9017		-85.937500
9018		-89.843750
9019		-78.125000
9020		-82.031250
9021		-74.218750
9022		-78.125000
9023		-66.406250
9024		-70.312500
9025		-58.593750
9026		-62.500000
9027		-50.781250
9028		-54.687500
9029		-42.968750
9030		-46.875000
9031		-39.062500
9032		-39.062500
9033		-27.343750
9034		-31.250000
9035		-19.531250
9036		-23.437500
9037		-11.718750
9038		-15.625000
9039		-7.812500
9040		-11.718750
9041		0.000000
9042		-3.906250
9043		7.812500
9044		3.906250
9045		15.625000
9046		11.718750
9047		19.531250
9048		19.531250
9049		27.343750
9050		27.343750
9051		39.062500
9052		31.250000
9053		42.968750
9054		39.062500
9055		50.781250
9056		46.875000
9057		58.593750
9058		54.687500
9059		62.500000
9060		58.593750
9061		70.312500
9062		66.406250
9063		74.218750
9064		74.218750
9065		82.031250
9066		78.125000
9067		89.843750
9068		85.937500
9069		93.750000
9070		89.843750
9071		101.562500
9072		97.656250
9073		105.468750
9074		101.562500
9075		113.281250
9076		105.468750
9077		117.187500
9078		113.281250
9079		121.093750
9080		121.093750
9081		125.000000
9082		125.000000
9083		132.812500
9084		128.906250
9085		136.718750
9086		132.812500
9087		144.531250
9088		136.718750
9089		148.437500
9090		140.625000
9091		152.343750
9092		144.531250
9093		156.250000
9094		148.437500
9095		160.156250
9096		156.250000
9097		164.062500
9098		160.156250
9099		164.062500
9100		164.062500
9101		171.875000
9102		164.062500
9103		175.781250
9104		167.968750
9105		179.687500
9106		171.875000
9107		179.687500
9108		175.781250
9109		183.593750
9110		179.687500
9111		187.500000
9112		179.687500
9113		187.500000
9114		183.593750
9115		191.406250
9116		187.500000
9117		191.406250
9118		187.500000
9119		195.312500
9120		187.500000
9121		199.218750
9122		191.406250
9123		199.218750
9124		195.312500
9125		199.218750
9126		195.312500
9127		203.125000
9128		199.218750
9129		203.125000
9130		199.218750
9131		203.125000
9132		203.125000
9133		203.125000
9134		199.218750
9135		207.031250
9136		203.125000
9137		210.937500
9138		203.125000
9139		210.937500
9140		203.125000
9141		210.937500
9142		203.125000
9143		210.937500
9144		203.125000
9145		210.937500
9146		203.125000
9147		210.937500
9148		207.031250
9149		210.937500
9150		207.031250
9151		210.937500
9152		203.125000
9153		210.937500
9154		203.125000
9155		210.937500
9156		203.125000
9157		210.937500
9158		203.125000
9159		207.031250
9160		199.218750
9161		207.031250
9162		199.218750
9163		207.031250
9164		199.218750
9165		203.125000
9166		199.218750
9167		203.125000
9168		195.312500
9169		203.125000
9170		195.312500
9171		203.125000
9172		191.406250
9173		199.218750
9174		191.406250
9175		199.218750
9176		191.406250
9177		195.312500
9178		187.500000
9179		195.312500
9180		187.500000
9181		191.406250
9182		183.593750
9183		187.500000
9184		179.687500
9185		187.500000
9186		175.781250
9187		183.593750
9188		171.875000
9189		179.687500
9190		171.875000
9191		179.687500
9192		167.968750
9193		175.781250
9194		164.062500
9195		171.875000
9196		160.156250
9197		167.968750
9198		156.250000
9199		164.062500
9200		152.343750
9201		160.156250
9202		148.437500
9203		156.250000
9204		140.625000
9205		152.343750
9206		136.718750
9207		148.437500
9208		132.812500
9209		140.625000
9210		128.906250
9211		136.718750
9212		121.093750
9213		132.812500
9214		117.187500
9215		128.906250
9216		113.281250
9217		121.093750
9218		105.468750
9219		117.187500
9220		101.562500
9221		109.375000
9222		93.750000
9223		105.468750
9224		89.843750
9225		97.656250
9226		82.031250
9227		93.750000
9228		74.218750
9229		85.937500
9230		70.312500
9231		78.125000
9232		62.500000
9233		70.312500
9234		54.687500
9235		66.406250
9236		50.781250
9237		62.500000
9238		42.968750
9239		54.687500
9240		35.156250
9241		46.875000
9242		27.343750
9243		39.062500
9244		19.531250
9245		31.250000
9246		15.625000
9247		27.343750
9248		7.812500
9249		15.625000
9250		0.000000
9251		7.812500
9252		-7.812500
9253		3.906250
9254		-15.625000
9255		-3.906250
9256		-23.437500
9257		-11.718750
9258		-27.343750
9259		-15.625000
9260		-39.062500
9261		-27.343750
9262		-46.875000
9263		-31.250000
9264		-50.781250
9265		-39.062500
9266		-58.593750
9267		-50.781250
9268		-66.406250
9269		-54.687500
9270		-74.218750
9271		-62.500000
9272		-82.031250
9273		-70.312500
9274		-89.843750
9275		-78.125000
9276		-93.750000
9277		-82.031250
9278		-101.562500
9279		-89.843750
9280		-109.375000
9281		-97.656250
9282		-113.281250
9283		-105.468750
9284		-121.093750
9285		-113.281250
9286		-128.906250
9287		-117.187500
9288		-136.718750
9289		-125.000000
9290		-140.625000
9291		-128.906250
9292		-148.437500
9293		-136.718750
9294		-156.250000
9295		-144.531250
9296		-160.156250
9297		-148.437500
9298		-164.062500
9299		-152.343750
9300		-167.968750
9301		-160.156250
9302		-175.781250
9303		-167.968750
9304		-179.687500
9305		-171.875000
9306		-187.500000
9307		-175.781250
9308		-191.406250
9309		-183.593750
9310		-195.312500
9311		-187.500000
9312		-203.125000
9313		-191.406250
9314		-203.125000
9315		-195.312500
9316		-207.031250
9317		-203.125000
9318		-210.937500
9319		-207.031250
9320		-214.843750
9321		-207.031250
9322		-218.750000
9323		-210.937500
9324		-222.656250
9325		-214.843750
9326		-226.562500
9327		-218.750000
9328		-226.562500
9329		-218.750000
9330		-230.468750
9331		-222.656250
9332		-230.468750
9333		-226.562500
9334		-234.375000
9335		-230.468750
9336		-234.375000
9337		-230.468750
9338		-238.281250
9339		-230.468750
9340		-238.281250
9341		-234.375000
9342		-238.281250
9343		-234.375000
9344		-242.187500
9345		-234.375000
9346		-242.187500
9347		-234.375000
9348		-242.187500
9349		-234.375000
9350		-238.281250
9351		-238.281250
9352		-242.187500
9353		-234.375000
9354		-242.187500
9355		-234.375000
9356		-242.187500
9357		-234.375000
9358		-238.281250
9359		-230.468750
9360		-238.281250
9361		-230.468750
9362		-238.281250
9363		-230.468750
9364		-234.375000
9365		-230.468750
9366		-230.468750
9367		-226.562500
9368		-230.468750
9369		-226.562500
9370		-226.562500
9371		-218.750000
9372		-226.562500
9373		-218.750000
9374		-222.656250
9375		-214.843750
9376		-218.750000
9377		-210.937500
9378		-214.843750
9379		-207.031250
9380		-210.937500
9381		-203.125000
9382		-207.031250
9383		-199.218750
9384		-203.125000
9385		-195.312500
9386		-199.218750
9387		-191.406250
9388		-195.312500
9389		-187.500000
9390		-191.406250
9391		-179.687500
9392		-187.500000
9393		-175.781250
9394		-179.687500
9395		-167.968750
9396		-175.781250
9397		-164.062500
9398		-167.968750
9399		-160.156250
9400		-160.156250
9401		-152.343750
9402		-156.250000
9403		-148.437500
9404		-148.437500
9405		-136.718750
9406		-144.531250
9407		-132.812500
9408		-136.718750
9409		-128.906250
9410		-132.812500
9411		-121.093750
9412		-125.000000
9413		-113.281250
9414		-117.187500
9415		-105.468750
9416		-109.375000
9417		-101.562500
9418		-101.562500
9419		-93.750000
9420		-93.750000
9421		-85.937500
9422		-89.843750
9423		-78.125000
9424		-82.031250
9425		-70.312500
9426		-74.218750
9427		-62.500000
9428		-66.406250
9429		-54.687500
9430		-62.500000
9431		-46.875000
9432		-50.781250
9433		-42.968750
9434		-42.968750
9435		-35.156250
9436		-35.156250
9437		-23.437500
9438		-31.250000
9439		-19.531250
9440		-23.437500
9441		-11.718750
9442		-15.625000
9443		-3.906250
9444		-7.812500
9445		3.906250
9446		0.000000
9447		11.718750
9448		3.906250
9449		15.625000
9450		15.625000
9451		23.437500
9452		19.531250
9453		31.250000
9454		27.343750
9455		39.062500
9456		31.250000
9457		46.875000
9458		42.968750
9459		54.687500
9460		50.781250
9461		58.593750
9462		54.687500
9463		66.406250
9464		62.500000
9465		70.312500
9466		66.406250
9467		78.125000
9468		74.218750
9469		82.031250
9470		82.031250
9471		89.843750
9472		85.937500
9473		97.656250
9474		93.750000
9475		101.562500
9476		97.656250
9477		109.375000
9478		105.468750
9479		113.281250
9480		109.375000
9481		121.093750
9482		113.281250
9483		125.000000
9484		121.093750
9485		128.906250
9486		125.000000
9487		132.812500
9488		128.906250
9489		140.625000
9490		132.812500
9491		144.531250
9492		140.625000
9493		148.437500
9494		144.531250
9495		152.343750
9496		148.437500
9497		156.250000
9498		152.343750
9499		160.156250
9500		156.250000
9501		164.062500
9502		160.156250
9503		167.968750
9504		164.062500
9505		171.875000
9506		167.968750
9507		175.781250
9508		167.968750
9509		179.687500
9510		175.781250
9511		179.687500
9512		175.781250
9513		183.593750
9514		179.687500
9515		187.500000
9516		183.593750
9517		187.500000
9518		187.500000
9519		191.406250
9520		187.500000
9521		195.312500
9522		187.500000
9523		195.312500
9524		191.406250
9525		199.218750
9526		191.406250
9527		199.218750
9528		195.312500
9529		203.125000
9530		195.312500
9531		203.125000
9532		195.312500
9533		207.031250
9534		199.218750
9535		203.125000
9536		203.125000
9537		207.031250
9538		203.125000
9539		207.031250
9540		203.125000
9541		207.031250
9542		203.125000
9543		210.937500
9544		203.125000
9545		210.937500
9546		203.125000
9547		210.937500
9548		203.125000
9549		210.937500
9550		203.125000
9551		210.937500
9552		207.031250
9553		210.937500
9554		203.125000
9555		210.937500
9556		203.125000
9557		210.937500
9558		203.125000
9559		210.937500
9560		203.125000
9561		210.937500
9562		203.125000
9563		210.937500
9564		203.125000
9565		207.031250
9566		203.125000
9567		207.031250
9568		199.218750
9569		207.031250
9570		199.218750
9571		203.125000
9572		195.312500
9573		203.125000
9574		195.312500
9575		203.125000
9576		195.312500
9577		199.218750
9578		191.406250
9579		199.218750
9580		187.500000
9581		195.312500
9582		187.500000
9583		195.312500
9584		187.500000
9585		191.406250
9586		183.593750
9587		187.500000
9588		179.687500
9589		187.500000
9590		175.781250
9591		183.593750
9592		171.875000
9593		183.593750
9594		167.968750
9595		179.687500
9596		167.968750
9597		175.781250
9598		164.062500
9599		171.875000
9600		160.156250
9601		167.968750
9602		156.250000
9603		160.156250
9604		152.343750
9605		156.250000
9606		144.531250
9607		156.250000
9608		140.625000
9609		152.343750
9610		136.718750
9611		148.437500
9612		132.812500
9613		140.625000
9614		125.000000
9615		136.718750
9616		121.093750
9617		132.812500
9618		117.187500
9619		125.000000
9620		113.281250
9621		121.093750
9622		105.468750
9623		113.281250
9624		97.656250
9625		109.375000
9626		93.750000
9627		105.468750
9628		85.937500
9629		97.656250
9630		82.031250
9631		89.843750
9632		74.218750
9633		85.937500
9634		70.312500
9635		78.125000
9636		62.500000
9637		70.312500
9638		54.687500
9639		66.406250
9640		46.875000
9641		58.593750
9642		39.062500
9643		50.781250
9644		35.156250
9645		42.968750
9646		27.343750
9647		39.062500
9648		19.531250
9649		31.250000
9650		15.625000
9651		23.437500
9652		7.812500
9653		15.625000
9654		0.000000
9655		7.812500
9656		-11.718750
9657		0.000000
9658		-15.625000
9659		-3.906250
9660		-23.437500
9661		-11.718750
9662		-31.250000
9663		-19.531250
9664		-39.062500
9665		-27.343750
9666		-46.875000
9667		-35.156250
9668		-50.781250
9669		-42.968750
9670		-58.593750
9671		-50.781250
9672		-70.312500
9673		-58.593750
9674		-74.218750
9675		-62.500000
9676		-82.031250
9677		-70.312500
9678		-89.843750
9679		-78.125000
9680		-97.656250
9681		-85.937500
9682		-101.562500
9683		-93.750000
9684		-109.375000
9685		-97.656250
9686		-117.187500
9687		-105.468750
9688		-125.000000
9689		-113.281250
9690		-128.906250
9691		-121.093750
9692		-136.718750
9693		-125.000000
9694		-144.531250
9695		-132.812500
9696		-148.437500
9697		-140.625000
9698		-156.250000
9699		-144.531250
9700		-160.156250
9701		-152.343750
9702		-164.062500
9703		-160.156250
9704		-171.875000
9705		-164.062500
9706		-179.687500
9707		-167.968750
9708		-183.593750
9709		-171.875000
9710		-187.500000
9711		-179.687500
9712		-191.406250
9713		-183.593750
9714		-199.218750
9715		-187.500000
9716		-203.125000
9717		-191.406250
9718		-207.031250
9719		-199.218750
9720		-210.937500
9721		-203.125000
9722		-214.843750
9723		-207.031250
9724		-218.750000
9725		-210.937500
9726		-222.656250
9727		-214.843750
9728		-222.656250
9729		-218.750000
9730		-226.562500
9731		-218.750000
9732		-230.468750
9733		-222.656250
9734		-234.375000
9735		-226.562500
9736		-234.375000
9737		-230.468750
9738		-238.281250
9739		-230.468750
9740		-242.187500
9741		-230.468750
9742		-242.187500
9743		-234.375000
9744		-242.187500
9745		-234.375000
9746		-242.187500
9747		-238.281250
9748		-246.093750
9749		-238.281250
9750		-246.093750
9751		-238.281250
9752		-242.187500
9753		-238.281250
9754		-242.187500
9755		-238.281250
9756		-242.187500
9757		-238.281250
9758		-246.093750
9759		-238.281250
9760		-242.187500
9761		-238.281250
9762		-242.187500
9763		-234.375000
9764		-242.187500
9765		-234.375000
9766		-238.281250
9767		-234.375000
9768		-238.281250
9769		-230.468750
9770		-234.375000
9771		-230.468750
9772		-234.375000
9773		-226.562500
9774		-230.468750
9775		-222.656250
9776		-230.468750
9777		-218.750000
9778		-226.562500
9779		-214.843750
9780		-222.656250
9781		-214.843750
9782		-218.750000
9783		-210.937500
9784		-214.843750
9785		-207.031250
9786		-210.937500
9787		-203.125000
9788		-207.031250
9789		-199.218750
9790		-203.125000
9791		-191.406250
9792		-195.312500
9793		-187.500000
9794		-195.312500
9795		-183.593750
9796		-187.500000
9797		-175.781250
9798		-183.593750
9799		-171.875000
9800		-175.781250
9801		-167.968750
9802		-171.875000
9803		-160.156250
9804		-164.062500
9805		-156.250000
9806		-156.250000
9807		-148.437500
9808		-152.343750
9809		-144.531250
9810		-148.437500
9811		-136.718750
9812		-140.625000
9813		-128.906250
9814		-132.812500
9815		-121.093750
9816		-128.906250
9817		-117.187500
9818		-121.093750
9819		-109.375000
9820		-113.281250
9821		-101.562500
9822		-105.468750
9823		-97.656250
9824		-97.656250
9825		-85.937500
9826		-93.750000
9827		-78.125000
9828		-82.031250
9829		-74.218750
9830		-78.125000
9831		-66.406250
9832		-70.312500
9833		-58.593750
9834		-62.500000
9835		-50.781250
9836		-54.687500
9837		-42.968750
9838		-46.875000
9839		-35.156250
9840		-39.062500
9841		-27.343750
9842		-31.250000
9843		-19.531250
9844		-23.437500
9845		-11.718750
9846		-15.625000
9847		-3.906250
9848		-11.718750
9849		3.906250
9850		-3.906250
9851		7.812500
9852		3.906250
9853		15.625000
9854		11.718750
9855		23.437500
9856		19.531250
9857		31.250000
9858		27.343750
9859		35.156250
9860		35.156250
9861		42.968750
9862		39.062500
9863		50.781250
9864		46.875000
9865		58.593750
9866		50.781250
9867		62.500000
9868		58.593750
9869		70.312500
9870		66.406250
9871		74.218750
9872		74.218750
9873		82.031250
9874		82.031250
9875		89.843750
9876		85.937500
9877		97.656250
9878		89.843750
9879		101.562500
9880		97.656250
9881		109.375000
9882		101.562500
9883		113.281250
9884		109.375000
9885		117.187500
9886		113.281250
9887		121.093750
9888		121.093750
9889		128.906250
9890		125.000000
9891		132.812500
9892		128.906250
9893		136.718750
9894		132.812500
9895		144.531250
9896		136.718750
9897		148.437500
9898		144.531250
9899		152.343750
9900		144.531250
9901		156.250000
9902		152.343750
9903		160.156250
9904		156.250000
9905		164.062500
9906		160.156250
9907		164.062500
9908		160.156250
9909		171.875000
9910		167.968750
9911		175.781250
9912		167.968750
9913		175.781250
9914		171.875000
9915		179.687500
9916		175.781250
9917		183.593750
9918		175.781250
9919		187.500000
9920		179.687500
9921		187.500000
9922		183.593750
9923		191.406250
9924		187.500000
9925		195.312500
9926		187.500000
9927		195.312500
9928		191.406250
9929		199.218750
9930		191.406250
9931		199.218750
9932		195.312500
9933		203.125000
9934		195.312500
9935		203.125000
9936		195.312500
9937		203.125000
9938		199.218750
9939		203.125000
9940		199.218750
9941		207.031250
9942		199.218750
9943		207.031250
9944		199.218750
9945		207.031250
9946		203.125000
9947		210.937500
9948		203.125000
9949		210.937500
9950		203.125000
9951		210.937500
9952		203.125000
9953		210.937500
9954		203.125000
9955		210.937500
9956		207.031250
9957		207.031250
9958		203.125000
9959		210.937500
9960		203.125000
9961		210.937500
9962		203.125000
9963		210.937500
9964		203.125000
9965		210.937500
9966		199.218750
9967		207.031250
9968		199.218750
9969		207.031250
9970		199.218750
9971		207.031250
9972		199.218750
9973		203.125000
9974		195.312500
9975		203.125000
9976		195.312500
9977		203.125000
9978		195.312500
9979		203.125000
9980		191.406250
9981		199.218750
9982		191.406250
9983		199.218750
9984		187.500000
9985		195.312500
9986		187.500000
9987		191.406250
9988		183.593750
9989		191.406250
9990		183.593750
9991		187.500000
9992		175.781250
9993		183.593750
9994		175.781250
9995		183.593750
9996		171.875000
9997		179.687500
9998		167.968750
9999		175.781250
10000		164.062500
