Channel              :		CH1
Frequency            :		1.238kHz
Period               :		0.808ms
PK-PK                :		175.8mV
Probe attenuation    :		1X
Voltage per ADC value:		0.244141mV
Time interval        :		2.00000us

index		CH1_Voltage(mV)
1		31.250000
2		31.250000
3		39.062500
4		31.250000
5		39.062500
6		27.343750
7		35.156250
8		23.437500
9		31.250000
10		19.531250
11		31.250000
12		19.531250
13		27.343750
14		19.531250
15		23.437500
16		15.625000
17		19.531250
18		11.718750
19		19.531250
20		7.812500
21		15.625000
22		7.812500
23		15.625000
24		3.906250
25		11.718750
26		0.000000
27		11.718750
28		0.000000
29		7.812500
30		0.000000
31		3.906250
32		-3.906250
33		0.000000
34		-7.812500
35		0.000000
36		-7.812500
37		0.000000
38		-11.718750
39		-3.906250
40		-15.625000
41		-7.812500
42		-15.625000
43		-7.812500
44		-19.531250
45		-11.718750
46		-19.531250
47		-11.718750
48		-19.531250
49		-15.625000
50		-19.531250
51		-15.625000
52		-23.437500
53		-15.625000
54		-27.343750
55		-19.531250
56		-27.343750
57		-19.531250
58		-27.343750
59		-23.437500
60		-31.250000
61		-23.437500
62		-31.250000
63		-23.437500
64		-31.250000
65		-27.343750
66		-31.250000
67		-27.343750
68		-35.156250
69		-27.343750
70		-35.156250
71		-27.343750
72		-35.156250
73		-31.250000
74		-39.062500
75		-31.250000
76		-39.062500
77		-31.250000
78		-39.062500
79		-31.250000
80		-39.062500
81		-31.250000
82		-39.062500
83		-35.156250
84		-39.062500
85		-31.250000
86		-39.062500
87		-31.250000
88		-39.062500
89		-31.250000
90		-39.062500
91		-35.156250
92		-39.062500
93		-31.250000
94		-39.062500
95		-31.250000
96		-39.062500
97		-31.250000
98		-35.156250
99		-35.156250
100		-39.062500
101		-35.156250
102		-39.062500
103		-31.250000
104		-39.062500
105		-31.250000
106		-35.156250
107		-31.250000
108		-35.156250
109		-27.343750
110		-35.156250
111		-27.343750
112		-35.156250
113		-27.343750
114		-35.156250
115		-27.343750
116		-31.250000
117		-27.343750
118		-31.250000
119		-23.437500
120		-31.250000
121		-23.437500
122		-27.343750
123		-19.531250
124		-27.343750
125		-19.531250
126		-27.343750
127		-19.531250
128		-23.437500
129		-15.625000
130		-23.437500
131		-15.625000
132		-19.531250
133		-15.625000
134		-15.625000
135		-11.718750
136		-15.625000
137		-11.718750
138		-15.625000
139		-7.812500
140		-15.625000
141		-3.906250
142		-11.718750
143		-3.906250
144		-11.718750
145		-3.906250
146		-7.812500
147		0.000000
148		-3.906250
149		0.000000
150		0.000000
151		3.906250
152		0.000000
153		7.812500
154		0.000000
155		7.812500
156		3.906250
157		11.718750
158		7.812500
159		15.625000
160		7.812500
161		15.625000
162		11.718750
163		19.531250
164		15.625000
165		19.531250
166		15.625000
167		23.437500
168		19.531250
169		27.343750
170		19.531250
171		31.250000
172		23.437500
173		31.250000
174		27.343750
175		35.156250
176		27.343750
177		35.156250
178		31.250000
179		39.062500
180		35.156250
181		42.968750
182		39.062500
183		42.968750
184		42.968750
185		46.875000
186		42.968750
187		50.781250
188		42.968750
189		50.781250
190		46.875000
191		54.687500
192		50.781250
193		58.593750
194		50.781250
195		58.593750
196		54.687500
197		62.500000
198		58.593750
199		62.500000
200		62.500000
201		66.406250
202		62.500000
203		70.312500
204		66.406250
205		74.218750
206		66.406250
207		74.218750
208		70.312500
209		78.125000
210		74.218750
211		78.125000
212		74.218750
213		82.031250
214		78.125000
215		82.031250
216		82.031250
217		85.937500
218		82.031250
219		89.843750
220		82.031250
221		89.843750
222		85.937500
223		93.750000
224		85.937500
225		93.750000
226		89.843750
227		97.656250
228		93.750000
229		101.562500
230		93.750000
231		101.562500
232		97.656250
233		101.562500
234		97.656250
235		101.562500
236		101.562500
237		109.375000
238		101.562500
239		109.375000
240		101.562500
241		109.375000
242		105.468750
243		113.281250
244		105.468750
245		113.281250
246		109.375000
247		117.187500
248		109.375000
249		117.187500
250		113.281250
251		117.187500
252		113.281250
253		117.187500
254		113.281250
255		121.093750
256		113.281250
257		121.093750
258		117.187500
259		125.000000
260		117.187500
261		125.000000
262		117.187500
263		125.000000
264		121.093750
265		125.000000
266		121.093750
267		125.000000
268		121.093750
269		125.000000
270		121.093750
271		128.906250
272		121.093750
273		128.906250
274		125.000000
275		132.812500
276		125.000000
277		128.906250
278		125.000000
279		132.812500
280		125.000000
281		132.812500
282		125.000000
283		132.812500
284		128.906250
285		132.812500
286		125.000000
287		132.812500
288		125.000000
289		132.812500
290		125.000000
291		132.812500
292		128.906250
293		132.812500
294		125.000000
295		132.812500
296		125.000000
297		132.812500
298		128.906250
299		132.812500
300		128.906250
301		132.812500
302		128.906250
303		132.812500
304		125.000000
305		132.812500
306		125.000000
307		132.812500
308		125.000000
309		132.812500
310		125.000000
311		132.812500
312		125.000000
313		128.906250
314		125.000000
315		128.906250
316		125.000000
317		128.906250
318		125.000000
319		125.000000
320		121.093750
321		128.906250
322		121.093750
323		125.000000
324		117.187500
325		125.000000
326		117.187500
327		125.000000
328		117.187500
329		125.000000
330		113.281250
331		121.093750
332		113.281250
333		121.093750
334		113.281250
335		117.187500
336		113.281250
337		117.187500
338		109.375000
339		117.187500
340		109.375000
341		113.281250
342		105.468750
343		113.281250
344		105.468750
345		113.281250
346		105.468750
347		109.375000
348		101.562500
349		109.375000
350		101.562500
351		105.468750
352		97.656250
353		101.562500
354		97.656250
355		101.562500
356		93.750000
357		101.562500
358		89.843750
359		97.656250
360		89.843750
361		97.656250
362		85.937500
363		93.750000
364		85.937500
365		93.750000
366		82.031250
367		89.843750
368		82.031250
369		85.937500
370		78.125000
371		85.937500
372		78.125000
373		82.031250
374		74.218750
375		82.031250
376		70.312500
377		78.125000
378		70.312500
379		78.125000
380		66.406250
381		74.218750
382		66.406250
383		70.312500
384		62.500000
385		66.406250
386		58.593750
387		62.500000
388		54.687500
389		62.500000
390		54.687500
391		62.500000
392		50.781250
393		58.593750
394		46.875000
395		54.687500
396		46.875000
397		54.687500
398		42.968750
399		50.781250
400		42.968750
401		46.875000
402		39.062500
403		42.968750
404		35.156250
405		42.968750
406		31.250000
407		39.062500
408		27.343750
409		35.156250
410		27.343750
411		35.156250
412		23.437500
413		31.250000
414		19.531250
415		27.343750
416		19.531250
417		27.343750
418		15.625000
419		23.437500
420		11.718750
421		19.531250
422		11.718750
423		19.531250
424		7.812500
425		15.625000
426		3.906250
427		15.625000
428		3.906250
429		11.718750
430		0.000000
431		7.812500
432		0.000000
433		7.812500
434		-3.906250
435		3.906250
436		-3.906250
437		0.000000
438		-7.812500
439		0.000000
440		-7.812500
441		-3.906250
442		-11.718750
443		-3.906250
444		-15.625000
445		-7.812500
446		-15.625000
447		-7.812500
448		-19.531250
449		-11.718750
450		-19.531250
451		-11.718750
452		-19.531250
453		-15.625000
454		-23.437500
455		-15.625000
456		-23.437500
457		-15.625000
458		-27.343750
459		-19.531250
460		-27.343750
461		-19.531250
462		-27.343750
463		-19.531250
464		-31.250000
465		-23.437500
466		-31.250000
467		-23.437500
468		-31.250000
469		-27.343750
470		-31.250000
471		-27.343750
472		-35.156250
473		-27.343750
474		-35.156250
475		-27.343750
476		-35.156250
477		-27.343750
478		-35.156250
479		-31.250000
480		-39.062500
481		-31.250000
482		-39.062500
483		-31.250000
484		-39.062500
485		-35.156250
486		-39.062500
487		-35.156250
488		-39.062500
489		-31.250000
490		-39.062500
491		-31.250000
492		-39.062500
493		-35.156250
494		-39.062500
495		-35.156250
496		-39.062500
497		-31.250000
498		-39.062500
499		-31.250000
500		-39.062500
501		-31.250000
502		-35.156250
503		-35.156250
504		-39.062500
505		-31.250000
506		-39.062500
507		-31.250000
508		-39.062500
509		-31.250000
510		-35.156250
511		-31.250000
512		-35.156250
513		-27.343750
514		-35.156250
515		-27.343750
516		-35.156250
517		-27.343750
518		-31.250000
519		-27.343750
520		-31.250000
521		-27.343750
522		-31.250000
523		-23.437500
524		-31.250000
525		-23.437500
526		-27.343750
527		-19.531250
528		-27.343750
529		-19.531250
530		-27.343750
531		-19.531250
532		-23.437500
533		-15.625000
534		-23.437500
535		-15.625000
536		-19.531250
537		-15.625000
538		-19.531250
539		-11.718750
540		-19.531250
541		-7.812500
542		-15.625000
543		-7.812500
544		-15.625000
545		-3.906250
546		-11.718750
547		-3.906250
548		-7.812500
549		0.000000
550		-7.812500
551		0.000000
552		-3.906250
553		0.000000
554		0.000000
555		3.906250
556		0.000000
557		7.812500
558		0.000000
559		11.718750
560		3.906250
561		11.718750
562		3.906250
563		11.718750
564		7.812500
565		15.625000
566		11.718750
567		19.531250
568		15.625000
569		19.531250
570		19.531250
571		23.437500
572		19.531250
573		27.343750
574		19.531250
575		31.250000
576		23.437500
577		31.250000
578		27.343750
579		35.156250
580		27.343750
581		39.062500
582		31.250000
583		39.062500
584		35.156250
585		39.062500
586		39.062500
587		42.968750
588		39.062500
589		46.875000
590		42.968750
591		50.781250
592		42.968750
593		50.781250
594		46.875000
595		54.687500
596		50.781250
597		58.593750
598		50.781250
599		58.593750
600		54.687500
601		62.500000
602		58.593750
603		62.500000
604		62.500000
605		66.406250
606		62.500000
607		70.312500
608		62.500000
609		74.218750
610		66.406250
611		74.218750
612		70.312500
613		78.125000
614		70.312500
615		78.125000
616		74.218750
617		82.031250
618		78.125000
619		82.031250
620		82.031250
621		85.937500
622		82.031250
623		89.843750
624		82.031250
625		89.843750
626		85.937500
627		93.750000
628		85.937500
629		93.750000
630		89.843750
631		97.656250
632		93.750000
633		101.562500
634		93.750000
635		101.562500
636		97.656250
637		101.562500
638		97.656250
639		101.562500
640		97.656250
641		105.468750
642		101.562500
643		109.375000
644		101.562500
645		109.375000
646		105.468750
647		113.281250
648		105.468750
649		113.281250
650		105.468750
651		113.281250
652		109.375000
653		113.281250
654		113.281250
655		117.187500
656		113.281250
657		117.187500
658		113.281250
659		121.093750
660		113.281250
661		121.093750
662		117.187500
663		121.093750
664		117.187500
665		125.000000
666		117.187500
667		125.000000
668		121.093750
669		125.000000
670		121.093750
671		125.000000
672		121.093750
673		128.906250
674		121.093750
675		128.906250
676		121.093750
677		128.906250
678		125.000000
679		128.906250
680		125.000000
681		132.812500
682		125.000000
683		132.812500
684		125.000000
685		132.812500
686		128.906250
687		128.906250
688		125.000000
689		128.906250
690		125.000000
691		132.812500
692		125.000000
693		132.812500
694		125.000000
695		132.812500
696		125.000000
697		132.812500
698		125.000000
699		132.812500
700		125.000000
701		132.812500
702		125.000000
703		132.812500
704		128.906250
705		132.812500
706		125.000000
707		132.812500
708		125.000000
709		132.812500
710		125.000000
711		132.812500
712		125.000000
713		132.812500
714		125.000000
715		132.812500
716		125.000000
717		128.906250
718		121.093750
719		128.906250
720		125.000000
721		128.906250
722		125.000000
723		128.906250
724		121.093750
725		128.906250
726		117.187500
727		125.000000
728		117.187500
729		125.000000
730		117.187500
731		125.000000
732		117.187500
733		125.000000
734		113.281250
735		121.093750
736		113.281250
737		121.093750
738		113.281250
739		117.187500
740		109.375000
741		117.187500
742		109.375000
743		117.187500
744		109.375000
745		113.281250
746		105.468750
747		113.281250
748		105.468750
749		113.281250
750		101.562500
751		109.375000
752		101.562500
753		109.375000
754		101.562500
755		105.468750
756		97.656250
757		101.562500
758		93.750000
759		101.562500
760		93.750000
761		101.562500
762		89.843750
763		97.656250
764		89.843750
765		97.656250
766		85.937500
767		93.750000
768		82.031250
769		93.750000
770		85.937500
771		89.843750
772		82.031250
773		85.937500
774		78.125000
775		85.937500
776		74.218750
777		82.031250
778		74.218750
779		82.031250
780		70.312500
781		78.125000
782		66.406250
783		74.218750
784		66.406250
785		74.218750
786		62.500000
787		70.312500
788		62.500000
789		66.406250
790		58.593750
791		62.500000
792		54.687500
793		62.500000
794		54.687500
795		58.593750
796		46.875000
797		58.593750
798		46.875000
799		54.687500
800		42.968750
801		54.687500
802		42.968750
803		50.781250
804		39.062500
805		46.875000
806		39.062500
807		42.968750
808		31.250000
809		39.062500
810		31.250000
811		39.062500
812		31.250000
813		35.156250
814		23.437500
815		35.156250
816		23.437500
817		31.250000
818		19.531250
819		27.343750
820		19.531250
821		27.343750
822		15.625000
823		19.531250
824		11.718750
825		19.531250
826		11.718750
827		19.531250
828		7.812500
829		15.625000
830		3.906250
831		11.718750
832		3.906250
833		11.718750
834		0.000000
835		7.812500
836		0.000000
837		7.812500
838		-3.906250
839		0.000000
840		-3.906250
841		0.000000
842		-7.812500
843		0.000000
844		-11.718750
845		-3.906250
846		-11.718750
847		-3.906250
848		-15.625000
849		-7.812500
850		-15.625000
851		-7.812500
852		-19.531250
853		-11.718750
854		-19.531250
855		-15.625000
856		-19.531250
857		-15.625000
858		-23.437500
859		-15.625000
860		-27.343750
861		-19.531250
862		-27.343750
863		-19.531250
864		-27.343750
865		-19.531250
866		-31.250000
867		-23.437500
868		-31.250000
869		-23.437500
870		-31.250000
871		-23.437500
872		-31.250000
873		-27.343750
874		-35.156250
875		-27.343750
876		-35.156250
877		-31.250000
878		-35.156250
879		-31.250000
880		-39.062500
881		-31.250000
882		-39.062500
883		-31.250000
884		-39.062500
885		-31.250000
886		-39.062500
887		-31.250000
888		-39.062500
889		-35.156250
890		-39.062500
891		-35.156250
892		-42.968750
893		-35.156250
894		-39.062500
895		-35.156250
896		-39.062500
897		-35.156250
898		-42.968750
899		-35.156250
900		-42.968750
901		-35.156250
902		-39.062500
903		-35.156250
904		-39.062500
905		-35.156250
906		-39.062500
907		-35.156250
908		-39.062500
909		-31.250000
910		-39.062500
911		-31.250000
912		-39.062500
913		-31.250000
914		-39.062500
915		-31.250000
916		-35.156250
917		-31.250000
918		-35.156250
919		-27.343750
920		-35.156250
921		-27.343750
922		-31.250000
923		-27.343750
924		-31.250000
925		-27.343750
926		-31.250000
927		-23.437500
928		-31.250000
929		-23.437500
930		-27.343750
931		-23.437500
932		-27.343750
933		-19.531250
934		-27.343750
935		-19.531250
936		-23.437500
937		-15.625000
938		-19.531250
939		-19.531250
940		-19.531250
941		-15.625000
942		-19.531250
943		-11.718750
944		-15.625000
945		-11.718750
946		-15.625000
947		-7.812500
948		-15.625000
949		-7.812500
950		-11.718750
951		-3.906250
952		-11.718750
953		-3.906250
954		-7.812500
955		0.000000
956		-3.906250
957		0.000000
958		0.000000
959		3.906250
960		0.000000
961		7.812500
962		0.000000
963		7.812500
964		3.906250
965		11.718750
966		7.812500
967		15.625000
968		7.812500
969		15.625000
970		11.718750
971		19.531250
972		15.625000
973		19.531250
974		19.531250
975		23.437500
976		19.531250
977		27.343750
978		23.437500
979		31.250000
980		23.437500
981		31.250000
982		27.343750
983		35.156250
984		27.343750
985		35.156250
986		31.250000
987		39.062500
988		35.156250
989		39.062500
990		39.062500
991		42.968750
992		39.062500
993		46.875000
994		42.968750
995		50.781250
996		42.968750
997		54.687500
998		46.875000
999		54.687500
1000		50.781250
1001		58.593750
1002		50.781250
1003		58.593750
1004		54.687500
1005		62.500000
1006		58.593750
1007		62.500000
1008		62.500000
1009		66.406250
1010		62.500000
1011		70.312500
1012		66.406250
1013		74.218750
1014		66.406250
1015		74.218750
1016		70.312500
1017		78.125000
1018		74.218750
1019		82.031250
1020		74.218750
1021		82.031250
1022		78.125000
1023		82.031250
1024		82.031250
1025		85.937500
1026		82.031250
1027		89.843750
1028		82.031250
1029		89.843750
1030		85.937500
1031		93.750000
1032		85.937500
1033		93.750000
1034		89.843750
1035		97.656250
1036		93.750000
1037		101.562500
1038		93.750000
1039		101.562500
1040		97.656250
1041		101.562500
1042		97.656250
1043		105.468750
1044		101.562500
1045		109.375000
1046		101.562500
1047		109.375000
1048		105.468750
1049		109.375000
1050		105.468750
1051		113.281250
1052		105.468750
1053		113.281250
1054		109.375000
1055		113.281250
1056		113.281250
1057		113.281250
1058		113.281250
1059		117.187500
1060		113.281250
1061		117.187500
1062		113.281250
1063		121.093750
1064		113.281250
1065		121.093750
1066		117.187500
1067		125.000000
1068		117.187500
1069		125.000000
1070		117.187500
1071		125.000000
1072		121.093750
1073		125.000000
1074		121.093750
1075		125.000000
1076		121.093750
1077		128.906250
1078		121.093750
1079		128.906250
1080		125.000000
1081		128.906250
1082		125.000000
1083		128.906250
1084		125.000000
1085		128.906250
1086		125.000000
1087		132.812500
1088		125.000000
1089		132.812500
1090		128.906250
1091		128.906250
1092		128.906250
1093		132.812500
1094		125.000000
1095		132.812500
1096		125.000000
1097		132.812500
1098		128.906250
1099		132.812500
1100		128.906250
1101		132.812500
1102		128.906250
1103		132.812500
1104		125.000000
1105		132.812500
1106		128.906250
1107		132.812500
1108		128.906250
1109		132.812500
1110		125.000000
1111		132.812500
1112		128.906250
1113		132.812500
1114		125.000000
1115		128.906250
1116		125.000000
1117		128.906250
1118		125.000000
1119		128.906250
1120		125.000000
1121		128.906250
1122		125.000000
1123		128.906250
1124		125.000000
1125		125.000000
1126		121.093750
1127		125.000000
1128		121.093750
1129		128.906250
1130		121.093750
1131		125.000000
1132		121.093750
1133		125.000000
1134		117.187500
1135		121.093750
1136		117.187500
1137		121.093750
1138		117.187500
1139		121.093750
1140		113.281250
1141		117.187500
1142		113.281250
1143		117.187500
1144		113.281250
1145		117.187500
1146		109.375000
1147		113.281250
1148		109.375000
1149		113.281250
1150		109.375000
1151		113.281250
1152		105.468750
1153		109.375000
1154		105.468750
1155		109.375000
1156		101.562500
1157		105.468750
1158		101.562500
1159		105.468750
1160		97.656250
1161		101.562500
1162		97.656250
1163		101.562500
1164		93.750000
1165		97.656250
1166		93.750000
1167		97.656250
1168		89.843750
1169		93.750000
1170		89.843750
1171		93.750000
1172		85.937500
1173		89.843750
1174		82.031250
1175		85.937500
1176		82.031250
1177		85.937500
1178		78.125000
1179		85.937500
1180		74.218750
1181		82.031250
1182		74.218750
1183		78.125000
1184		70.312500
1185		74.218750
1186		70.312500
1187		74.218750
1188		66.406250
1189		70.312500
1190		66.406250
1191		70.312500
1192		62.500000
1193		66.406250
1194		58.593750
1195		62.500000
1196		54.687500
1197		62.500000
1198		54.687500
1199		58.593750
1200		50.781250
1201		54.687500
1202		46.875000
1203		54.687500
1204		46.875000
1205		50.781250
1206		42.968750
1207		46.875000
1208		39.062500
1209		46.875000
1210		35.156250
1211		42.968750
1212		35.156250
1213		39.062500
1214		31.250000
1215		35.156250
1216		31.250000
1217		35.156250
1218		27.343750
1219		31.250000
1220		23.437500
1221		27.343750
1222		19.531250
1223		27.343750
1224		19.531250
1225		23.437500
1226		15.625000
1227		19.531250
1228		11.718750
1229		19.531250
1230		11.718750
1231		15.625000
1232		7.812500
1233		15.625000
1234		7.812500
1235		11.718750
1236		3.906250
1237		7.812500
1238		0.000000
1239		7.812500
1240		0.000000
1241		3.906250
1242		-3.906250
1243		0.000000
1244		-7.812500
1245		0.000000
1246		-7.812500
1247		-3.906250
1248		-7.812500
1249		-3.906250
1250		-11.718750
1251		-7.812500
1252		-15.625000
1253		-7.812500
1254		-15.625000
1255		-11.718750
1256		-15.625000
1257		-11.718750
1258		-19.531250
1259		-15.625000
1260		-19.531250
1261		-15.625000
1262		-23.437500
1263		-19.531250
1264		-23.437500
1265		-19.531250
1266		-27.343750
1267		-23.437500
1268		-27.343750
1269		-23.437500
1270		-27.343750
1271		-23.437500
1272		-31.250000
1273		-27.343750
1274		-31.250000
1275		-27.343750
1276		-31.250000
1277		-27.343750
1278		-31.250000
1279		-27.343750
1280		-35.156250
1281		-31.250000
1282		-35.156250
1283		-31.250000
1284		-35.156250
1285		-31.250000
1286		-35.156250
1287		-31.250000
1288		-35.156250
1289		-35.156250
1290		-39.062500
1291		-35.156250
1292		-39.062500
1293		-35.156250
1294		-39.062500
1295		-35.156250
1296		-39.062500
1297		-35.156250
1298		-39.062500
1299		-35.156250
1300		-39.062500
1301		-35.156250
1302		-39.062500
1303		-35.156250
1304		-39.062500
1305		-35.156250
1306		-39.062500
1307		-35.156250
1308		-39.062500
1309		-35.156250
1310		-39.062500
1311		-35.156250
1312		-39.062500
1313		-35.156250
1314		-39.062500
1315		-35.156250
1316		-35.156250
1317		-31.250000
1318		-35.156250
1319		-31.250000
1320		-35.156250
1321		-31.250000
1322		-35.156250
1323		-31.250000
1324		-31.250000
1325		-27.343750
1326		-31.250000
1327		-27.343750
1328		-31.250000
1329		-27.343750
1330		-31.250000
1331		-27.343750
1332		-27.343750
1333		-23.437500
1334		-27.343750
1335		-23.437500
1336		-27.343750
1337		-23.437500
1338		-23.437500
1339		-19.531250
1340		-23.437500
1341		-19.531250
1342		-19.531250
1343		-15.625000
1344		-19.531250
1345		-15.625000
1346		-19.531250
1347		-11.718750
1348		-15.625000
1349		-11.718750
1350		-11.718750
1351		-7.812500
1352		-11.718750
1353		-7.812500
1354		-7.812500
1355		-3.906250
1356		-7.812500
1357		-3.906250
1358		-7.812500
1359		0.000000
1360		-3.906250
1361		0.000000
1362		0.000000
1363		3.906250
1364		0.000000
1365		3.906250
1366		3.906250
1367		7.812500
1368		7.812500
1369		11.718750
1370		7.812500
1371		11.718750
1372		11.718750
1373		15.625000
1374		11.718750
1375		19.531250
1376		15.625000
1377		19.531250
1378		19.531250
1379		23.437500
1380		19.531250
1381		27.343750
1382		23.437500
1383		27.343750
1384		27.343750
1385		31.250000
1386		27.343750
1387		35.156250
1388		31.250000
1389		35.156250
1390		35.156250
1391		39.062500
1392		35.156250
1393		39.062500
1394		39.062500
1395		42.968750
1396		42.968750
1397		46.875000
1398		42.968750
1399		46.875000
1400		46.875000
1401		50.781250
1402		46.875000
1403		54.687500
1404		50.781250
1405		58.593750
1406		54.687500
1407		58.593750
1408		58.593750
1409		62.500000
1410		58.593750
1411		62.500000
1412		62.500000
1413		66.406250
1414		62.500000
1415		70.312500
1416		66.406250
1417		70.312500
1418		70.312500
1419		74.218750
1420		70.312500
1421		78.125000
1422		74.218750
1423		78.125000
1424		74.218750
1425		82.031250
1426		78.125000
1427		82.031250
1428		82.031250
1429		85.937500
1430		82.031250
1431		89.843750
1432		85.937500
1433		89.843750
1434		85.937500
1435		89.843750
1436		89.843750
1437		93.750000
1438		89.843750
1439		97.656250
1440		93.750000
1441		97.656250
1442		93.750000
1443		101.562500
1444		97.656250
1445		101.562500
1446		97.656250
1447		105.468750
1448		101.562500
1449		105.468750
1450		101.562500
1451		105.468750
1452		105.468750
1453		109.375000
1454		105.468750
1455		109.375000
1456		109.375000
1457		113.281250
1458		109.375000
1459		113.281250
1460		109.375000
1461		113.281250
1462		113.281250
1463		117.187500
1464		113.281250
1465		117.187500
1466		117.187500
1467		121.093750
1468		117.187500
1469		121.093750
1470		117.187500
1471		121.093750
1472		117.187500
1473		121.093750
1474		121.093750
1475		125.000000
1476		121.093750
1477		125.000000
1478		121.093750
1479		125.000000
1480		121.093750
1481		125.000000
1482		125.000000
1483		128.906250
1484		125.000000
1485		128.906250
1486		125.000000
1487		128.906250
1488		125.000000
1489		128.906250
1490		125.000000
1491		128.906250
1492		125.000000
1493		128.906250
1494		128.906250
1495		128.906250
1496		128.906250
1497		132.812500
1498		128.906250
1499		132.812500
1500		128.906250
1501		132.812500
1502		128.906250
1503		132.812500
1504		128.906250
1505		132.812500
1506		128.906250
1507		132.812500
1508		128.906250
1509		132.812500
1510		128.906250
1511		132.812500
1512		128.906250
1513		128.906250
1514		128.906250
1515		128.906250
1516		125.000000
1517		128.906250
1518		125.000000
1519		128.906250
1520		125.000000
1521		128.906250
1522		125.000000
1523		128.906250
1524		125.000000
1525		128.906250
1526		125.000000
1527		128.906250
1528		125.000000
1529		125.000000
1530		121.093750
1531		125.000000
1532		121.093750
1533		125.000000
1534		121.093750
1535		125.000000
1536		121.093750
1537		121.093750
1538		117.187500
1539		121.093750
1540		117.187500
1541		121.093750
1542		113.281250
1543		121.093750
1544		113.281250
1545		117.187500
1546		113.281250
1547		117.187500
1548		109.375000
1549		117.187500
1550		109.375000
1551		113.281250
1552		109.375000
1553		113.281250
1554		105.468750
1555		109.375000
1556		105.468750
1557		109.375000
1558		101.562500
1559		109.375000
1560		101.562500
1561		105.468750
1562		101.562500
1563		105.468750
1564		97.656250
1565		101.562500
1566		93.750000
1567		101.562500
1568		93.750000
1569		97.656250
1570		93.750000
1571		97.656250
1572		89.843750
1573		93.750000
1574		89.843750
1575		93.750000
1576		85.937500
1577		89.843750
1578		82.031250
1579		85.937500
1580		82.031250
1581		85.937500
1582		78.125000
1583		82.031250
1584		74.218750
1585		82.031250
1586		74.218750
1587		78.125000
1588		70.312500
1589		74.218750
1590		66.406250
1591		74.218750
1592		66.406250
1593		70.312500
1594		62.500000
1595		66.406250
1596		58.593750
1597		66.406250
1598		58.593750
1599		62.500000
1600		54.687500
1601		58.593750
1602		50.781250
1603		58.593750
1604		50.781250
1605		54.687500
1606		46.875000
1607		50.781250
1608		42.968750
1609		50.781250
1610		42.968750
1611		46.875000
1612		39.062500
1613		42.968750
1614		35.156250
1615		42.968750
1616		35.156250
1617		39.062500
1618		31.250000
1619		35.156250
1620		27.343750
1621		31.250000
1622		23.437500
1623		31.250000
1624		23.437500
1625		27.343750
1626		19.531250
1627		23.437500
1628		19.531250
1629		23.437500
1630		15.625000
1631		19.531250
1632		11.718750
1633		19.531250
1634		7.812500
1635		15.625000
1636		7.812500
1637		11.718750
1638		3.906250
1639		7.812500
1640		3.906250
1641		7.812500
1642		0.000000
1643		3.906250
1644		-3.906250
1645		3.906250
1646		-3.906250
1647		0.000000
1648		-7.812500
1649		0.000000
1650		-7.812500
1651		-3.906250
1652		-11.718750
1653		-7.812500
1654		-11.718750
1655		-7.812500
1656		-15.625000
1657		-11.718750
1658		-15.625000
1659		-11.718750
1660		-19.531250
1661		-15.625000
1662		-19.531250
1663		-15.625000
1664		-23.437500
1665		-19.531250
1666		-23.437500
1667		-19.531250
1668		-27.343750
1669		-19.531250
1670		-27.343750
1671		-23.437500
1672		-27.343750
1673		-23.437500
1674		-31.250000
1675		-23.437500
1676		-31.250000
1677		-27.343750
1678		-31.250000
1679		-27.343750
1680		-31.250000
1681		-27.343750
1682		-35.156250
1683		-31.250000
1684		-35.156250
1685		-31.250000
1686		-35.156250
1687		-31.250000
1688		-39.062500
1689		-35.156250
1690		-39.062500
1691		-35.156250
1692		-39.062500
1693		-35.156250
1694		-39.062500
1695		-35.156250
1696		-39.062500
1697		-35.156250
1698		-39.062500
1699		-35.156250
1700		-39.062500
1701		-35.156250
1702		-39.062500
1703		-35.156250
1704		-39.062500
1705		-35.156250
1706		-39.062500
1707		-35.156250
1708		-39.062500
1709		-35.156250
1710		-39.062500
1711		-35.156250
1712		-39.062500
1713		-35.156250
1714		-39.062500
1715		-35.156250
1716		-39.062500
1717		-35.156250
1718		-39.062500
1719		-35.156250
1720		-35.156250
1721		-35.156250
1722		-35.156250
1723		-31.250000
1724		-35.156250
1725		-31.250000
1726		-35.156250
1727		-31.250000
1728		-35.156250
1729		-31.250000
1730		-31.250000
1731		-31.250000
1732		-31.250000
1733		-27.343750
1734		-31.250000
1735		-27.343750
1736		-27.343750
1737		-27.343750
1738		-27.343750
1739		-23.437500
1740		-27.343750
1741		-23.437500
1742		-27.343750
1743		-19.531250
1744		-23.437500
1745		-19.531250
1746		-23.437500
1747		-15.625000
1748		-19.531250
1749		-15.625000
1750		-19.531250
1751		-15.625000
1752		-15.625000
1753		-11.718750
1754		-15.625000
1755		-11.718750
1756		-11.718750
1757		-7.812500
1758		-11.718750
1759		-7.812500
1760		-7.812500
1761		-3.906250
1762		-7.812500
1763		0.000000
1764		-3.906250
1765		0.000000
1766		0.000000
1767		3.906250
1768		0.000000
1769		3.906250
1770		3.906250
1771		7.812500
1772		3.906250
1773		11.718750
1774		7.812500
1775		11.718750
1776		11.718750
1777		15.625000
1778		11.718750
1779		15.625000
1780		15.625000
1781		19.531250
1782		19.531250
1783		23.437500
1784		19.531250
1785		27.343750
1786		23.437500
1787		27.343750
1788		27.343750
1789		31.250000
1790		27.343750
1791		31.250000
1792		31.250000
1793		35.156250
1794		31.250000
1795		39.062500
1796		35.156250
1797		39.062500
1798		39.062500
1799		42.968750
1800		39.062500
1801		46.875000
1802		42.968750
1803		46.875000
1804		46.875000
1805		50.781250
1806		50.781250
1807		54.687500
1808		50.781250
1809		54.687500
1810		54.687500
1811		58.593750
1812		54.687500
1813		62.500000
1814		58.593750
1815		62.500000
1816		62.500000
1817		66.406250
1818		62.500000
1819		70.312500
1820		66.406250
1821		70.312500
1822		70.312500
1823		74.218750
1824		70.312500
1825		74.218750
1826		74.218750
1827		78.125000
1828		74.218750
1829		82.031250
1830		78.125000
1831		82.031250
1832		82.031250
1833		85.937500
1834		82.031250
1835		89.843750
1836		85.937500
1837		89.843750
1838		85.937500
1839		89.843750
1840		89.843750
1841		93.750000
1842		89.843750
1843		97.656250
1844		93.750000
1845		97.656250
1846		93.750000
1847		101.562500
1848		97.656250
1849		101.562500
1850		97.656250
1851		101.562500
1852		101.562500
1853		105.468750
1854		101.562500
1855		105.468750
1856		105.468750
1857		109.375000
1858		105.468750
1859		109.375000
1860		109.375000
1861		113.281250
1862		109.375000
1863		113.281250
1864		109.375000
1865		113.281250
1866		113.281250
1867		117.187500
1868		113.281250
1869		117.187500
1870		113.281250
1871		121.093750
1872		117.187500
1873		121.093750
1874		117.187500
1875		121.093750
1876		117.187500
1877		121.093750
1878		121.093750
1879		125.000000
1880		121.093750
1881		125.000000
1882		121.093750
1883		125.000000
1884		121.093750
1885		125.000000
1886		125.000000
1887		125.000000
1888		125.000000
1889		128.906250
1890		125.000000
1891		128.906250
1892		125.000000
1893		128.906250
1894		125.000000
1895		128.906250
1896		125.000000
1897		128.906250
1898		128.906250
1899		128.906250
1900		125.000000
1901		132.812500
1902		128.906250
1903		128.906250
1904		128.906250
1905		132.812500
1906		128.906250
1907		132.812500
1908		128.906250
1909		132.812500
1910		128.906250
1911		132.812500
1912		125.000000
1913		132.812500
1914		128.906250
1915		128.906250
1916		125.000000
1917		128.906250
1918		125.000000
1919		128.906250
1920		125.000000
1921		128.906250
1922		125.000000
1923		128.906250
1924		125.000000
1925		128.906250
1926		125.000000
1927		128.906250
1928		125.000000
1929		128.906250
1930		125.000000
1931		128.906250
1932		121.093750
1933		125.000000
1934		121.093750
1935		125.000000
1936		121.093750
1937		125.000000
1938		121.093750
1939		125.000000
1940		117.187500
1941		121.093750
1942		117.187500
1943		121.093750
1944		117.187500
1945		121.093750
1946		113.281250
1947		117.187500
1948		113.281250
1949		117.187500
1950		113.281250
1951		117.187500
1952		109.375000
1953		113.281250
1954		109.375000
1955		113.281250
1956		109.375000
1957		113.281250
1958		105.468750
1959		109.375000
1960		105.468750
1961		109.375000
1962		101.562500
1963		105.468750
1964		101.562500
1965		105.468750
1966		97.656250
1967		101.562500
1968		97.656250
1969		101.562500
1970		93.750000
1971		97.656250
1972		93.750000
1973		97.656250
1974		89.843750
1975		93.750000
1976		85.937500
1977		93.750000
1978		85.937500
1979		89.843750
1980		82.031250
1981		89.843750
1982		82.031250
1983		85.937500
1984		78.125000
1985		82.031250
1986		78.125000
1987		82.031250
1988		74.218750
1989		78.125000
1990		70.312500
1991		78.125000
1992		70.312500
1993		74.218750
1994		66.406250
1995		70.312500
1996		62.500000
1997		70.312500
1998		62.500000
1999		66.406250
2000		58.593750
2001		62.500000
2002		58.593750
2003		62.500000
2004		54.687500
2005		58.593750
2006		50.781250
2007		54.687500
2008		46.875000
2009		54.687500
2010		46.875000
2011		50.781250
2012		42.968750
2013		46.875000
2014		39.062500
2015		46.875000
2016		39.062500
2017		42.968750
2018		35.156250
2019		39.062500
2020		31.250000
2021		39.062500
2022		31.250000
2023		35.156250
2024		27.343750
2025		31.250000
2026		23.437500
2027		27.343750
2028		23.437500
2029		27.343750
2030		19.531250
2031		23.437500
2032		15.625000
2033		23.437500
2034		15.625000
2035		19.531250
2036		11.718750
2037		15.625000
2038		7.812500
2039		15.625000
2040		7.812500
2041		11.718750
2042		3.906250
2043		7.812500
2044		0.000000
2045		7.812500
2046		0.000000
2047		3.906250
2048		-3.906250
2049		0.000000
2050		-3.906250
2051		0.000000
2052		-7.812500
2053		-3.906250
2054		-7.812500
2055		-3.906250
2056		-11.718750
2057		-7.812500
2058		-15.625000
2059		-7.812500
2060		-15.625000
2061		-11.718750
2062		-19.531250
2063		-11.718750
2064		-19.531250
2065		-15.625000
2066		-19.531250
2067		-15.625000
2068		-23.437500
2069		-19.531250
2070		-23.437500
2071		-19.531250
2072		-27.343750
2073		-23.437500
2074		-27.343750
2075		-23.437500
2076		-27.343750
2077		-23.437500
2078		-31.250000
2079		-27.343750
2080		-31.250000
2081		-27.343750
2082		-31.250000
2083		-27.343750
2084		-35.156250
2085		-31.250000
2086		-35.156250
2087		-31.250000
2088		-35.156250
2089		-31.250000
2090		-35.156250
2091		-31.250000
2092		-39.062500
2093		-35.156250
2094		-39.062500
2095		-35.156250
2096		-39.062500
2097		-35.156250
2098		-39.062500
2099		-35.156250
2100		-39.062500
2101		-35.156250
2102		-39.062500
2103		-35.156250
2104		-39.062500
2105		-35.156250
2106		-39.062500
2107		-35.156250
2108		-39.062500
2109		-35.156250
2110		-39.062500
2111		-39.062500
2112		-39.062500
2113		-35.156250
2114		-39.062500
2115		-35.156250
2116		-39.062500
2117		-35.156250
2118		-39.062500
2119		-35.156250
2120		-39.062500
2121		-35.156250
2122		-39.062500
2123		-35.156250
2124		-39.062500
2125		-35.156250
2126		-35.156250
2127		-31.250000
2128		-35.156250
2129		-31.250000
2130		-35.156250
2131		-31.250000
2132		-35.156250
2133		-31.250000
2134		-31.250000
2135		-31.250000
2136		-31.250000
2137		-27.343750
2138		-31.250000
2139		-27.343750
2140		-27.343750
2141		-23.437500
2142		-27.343750
2143		-23.437500
2144		-27.343750
2145		-23.437500
2146		-27.343750
2147		-19.531250
2148		-23.437500
2149		-19.531250
2150		-23.437500
2151		-19.531250
2152		-19.531250
2153		-15.625000
2154		-19.531250
2155		-15.625000
2156		-15.625000
2157		-11.718750
2158		-15.625000
2159		-11.718750
2160		-11.718750
2161		-7.812500
2162		-11.718750
2163		-3.906250
2164		-7.812500
2165		-3.906250
2166		-7.812500
2167		0.000000
2168		-3.906250
2169		0.000000
2170		-3.906250
2171		3.906250
2172		0.000000
2173		3.906250
2174		3.906250
2175		7.812500
2176		3.906250
2177		7.812500
2178		7.812500
2179		11.718750
2180		11.718750
2181		15.625000
2182		11.718750
2183		15.625000
2184		15.625000
2185		19.531250
2186		19.531250
2187		23.437500
2188		19.531250
2189		23.437500
2190		23.437500
2191		27.343750
2192		23.437500
2193		31.250000
2194		27.343750
2195		35.156250
2196		31.250000
2197		35.156250
2198		31.250000
2199		39.062500
2200		35.156250
2201		39.062500
2202		39.062500
2203		42.968750
2204		39.062500
2205		46.875000
2206		42.968750
2207		46.875000
2208		46.875000
2209		50.781250
2210		46.875000
2211		54.687500
2212		50.781250
2213		54.687500
2214		54.687500
2215		58.593750
2216		54.687500
2217		62.500000
2218		58.593750
2219		62.500000
2220		58.593750
2221		66.406250
2222		62.500000
2223		70.312500
2224		66.406250
2225		70.312500
2226		70.312500
2227		74.218750
2228		70.312500
2229		74.218750
2230		74.218750
2231		78.125000
2232		74.218750
2233		82.031250
2234		78.125000
2235		82.031250
2236		82.031250
2237		85.937500
2238		82.031250
2239		85.937500
2240		85.937500
2241		89.843750
2242		85.937500
2243		89.843750
2244		89.843750
2245		93.750000
2246		89.843750
2247		97.656250
2248		93.750000
2249		97.656250
2250		93.750000
2251		97.656250
2252		97.656250
2253		101.562500
2254		97.656250
2255		101.562500
2256		101.562500
2257		105.468750
2258		101.562500
2259		105.468750
2260		105.468750
2261		109.375000
2262		105.468750
2263		109.375000
2264		105.468750
2265		109.375000
2266		109.375000
2267		113.281250
2268		109.375000
2269		113.281250
2270		113.281250
2271		117.187500
2272		113.281250
2273		117.187500
2274		113.281250
2275		117.187500
2276		113.281250
2277		121.093750
2278		117.187500
2279		121.093750
2280		117.187500
2281		121.093750
2282		117.187500
2283		125.000000
2284		121.093750
2285		125.000000
2286		121.093750
2287		125.000000
2288		121.093750
2289		125.000000
2290		121.093750
2291		125.000000
2292		121.093750
2293		128.906250
2294		125.000000
2295		128.906250
2296		125.000000
2297		128.906250
2298		125.000000
2299		128.906250
2300		125.000000
2301		128.906250
2302		125.000000
2303		128.906250
2304		125.000000
2305		128.906250
2306		125.000000
2307		128.906250
2308		125.000000
2309		128.906250
2310		125.000000
2311		128.906250
2312		125.000000
2313		128.906250
2314		125.000000
2315		128.906250
2316		125.000000
2317		128.906250
2318		125.000000
2319		128.906250
2320		125.000000
2321		128.906250
2322		125.000000
2323		128.906250
2324		125.000000
2325		128.906250
2326		125.000000
2327		128.906250
2328		125.000000
2329		128.906250
2330		125.000000
2331		128.906250
2332		121.093750
2333		128.906250
2334		121.093750
2335		125.000000
2336		121.093750
2337		125.000000
2338		121.093750
2339		125.000000
2340		121.093750
2341		125.000000
2342		117.187500
2343		121.093750
2344		117.187500
2345		121.093750
2346		117.187500
2347		121.093750
2348		113.281250
2349		121.093750
2350		113.281250
2351		117.187500
2352		113.281250
2353		117.187500
2354		109.375000
2355		117.187500
2356		109.375000
2357		113.281250
2358		109.375000
2359		113.281250
2360		105.468750
2361		109.375000
2362		105.468750
2363		109.375000
2364		101.562500
2365		109.375000
2366		101.562500
2367		105.468750
2368		97.656250
2369		105.468750
2370		97.656250
2371		101.562500
2372		93.750000
2373		101.562500
2374		93.750000
2375		97.656250
2376		93.750000
2377		97.656250
2378		89.843750
2379		93.750000
2380		85.937500
2381		93.750000
2382		85.937500
2383		89.843750
2384		82.031250
2385		85.937500
2386		82.031250
2387		85.937500
2388		78.125000
2389		85.937500
2390		74.218750
2391		82.031250
2392		74.218750
2393		78.125000
2394		70.312500
2395		74.218750
2396		70.312500
2397		74.218750
2398		66.406250
2399		70.312500
2400		62.500000
2401		70.312500
2402		62.500000
2403		66.406250
2404		58.593750
2405		62.500000
2406		54.687500
2407		62.500000
2408		50.781250
2409		58.593750
2410		50.781250
2411		54.687500
2412		46.875000
2413		50.781250
2414		42.968750
2415		50.781250
2416		42.968750
2417		46.875000
2418		39.062500
2419		42.968750
2420		35.156250
2421		42.968750
2422		35.156250
2423		39.062500
2424		31.250000
2425		35.156250
2426		27.343750
2427		35.156250
2428		27.343750
2429		31.250000
2430		23.437500
2431		27.343750
2432		19.531250
2433		27.343750
2434		19.531250
2435		23.437500
2436		15.625000
2437		19.531250
2438		11.718750
2439		19.531250
2440		7.812500
2441		15.625000
2442		7.812500
2443		11.718750
2444		3.906250
2445		11.718750
2446		3.906250
2447		7.812500
2448		0.000000
2449		3.906250
2450		0.000000
2451		3.906250
2452		-3.906250
2453		0.000000
2454		-7.812500
2455		0.000000
2456		-7.812500
2457		-3.906250
2458		-11.718750
2459		-7.812500
2460		-11.718750
2461		-7.812500
2462		-15.625000
2463		-11.718750
2464		-15.625000
2465		-11.718750
2466		-19.531250
2467		-15.625000
2468		-19.531250
2469		-15.625000
2470		-23.437500
2471		-19.531250
2472		-23.437500
2473		-19.531250
2474		-27.343750
2475		-23.437500
2476		-27.343750
2477		-23.437500
2478		-27.343750
2479		-23.437500
2480		-31.250000
2481		-27.343750
2482		-31.250000
2483		-27.343750
2484		-31.250000
2485		-27.343750
2486		-35.156250
2487		-31.250000
2488		-35.156250
2489		-31.250000
2490		-35.156250
2491		-31.250000
2492		-39.062500
2493		-35.156250
2494		-39.062500
2495		-35.156250
2496		-39.062500
2497		-35.156250
2498		-39.062500
2499		-35.156250
2500		-39.062500
2501		-35.156250
2502		-39.062500
2503		-35.156250
2504		-39.062500
2505		-35.156250
2506		-42.968750
2507		-35.156250
2508		-42.968750
2509		-39.062500
2510		-42.968750
2511		-39.062500
2512		-42.968750
2513		-39.062500
2514		-42.968750
2515		-39.062500
2516		-42.968750
2517		-39.062500
2518		-39.062500
2519		-39.062500
2520		-39.062500
2521		-35.156250
2522		-39.062500
2523		-35.156250
2524		-39.062500
2525		-35.156250
2526		-39.062500
2527		-35.156250
2528		-39.062500
2529		-35.156250
2530		-39.062500
2531		-35.156250
2532		-35.156250
2533		-31.250000
2534		-35.156250
2535		-31.250000
2536		-35.156250
2537		-31.250000
2538		-35.156250
2539		-31.250000
2540		-31.250000
2541		-27.343750
2542		-31.250000
2543		-27.343750
2544		-31.250000
2545		-27.343750
2546		-27.343750
2547		-23.437500
2548		-27.343750
2549		-23.437500
2550		-27.343750
2551		-19.531250
2552		-23.437500
2553		-19.531250
2554		-23.437500
2555		-19.531250
2556		-19.531250
2557		-15.625000
2558		-19.531250
2559		-15.625000
2560		-15.625000
2561		-11.718750
2562		-15.625000
2563		-11.718750
2564		-11.718750
2565		-7.812500
2566		-11.718750
2567		-7.812500
2568		-7.812500
2569		-3.906250
2570		-7.812500
2571		-3.906250
2572		-3.906250
2573		0.000000
2574		0.000000
2575		3.906250
2576		0.000000
2577		3.906250
2578		3.906250
2579		7.812500
2580		3.906250
2581		11.718750
2582		7.812500
2583		11.718750
2584		7.812500
2585		15.625000
2586		11.718750
2587		15.625000
2588		15.625000
2589		19.531250
2590		15.625000
2591		23.437500
2592		19.531250
2593		27.343750
2594		23.437500
2595		27.343750
2596		27.343750
2597		31.250000
2598		27.343750
2599		31.250000
2600		31.250000
2601		35.156250
2602		31.250000
2603		39.062500
2604		35.156250
2605		39.062500
2606		39.062500
2607		42.968750
2608		39.062500
2609		46.875000
2610		42.968750
2611		46.875000
2612		46.875000
2613		50.781250
2614		50.781250
2615		54.687500
2616		50.781250
2617		54.687500
2618		54.687500
2619		58.593750
2620		54.687500
2621		62.500000
2622		58.593750
2623		62.500000
2624		62.500000
2625		66.406250
2626		62.500000
2627		70.312500
2628		66.406250
2629		70.312500
2630		70.312500
2631		74.218750
2632		70.312500
2633		74.218750
2634		74.218750
2635		78.125000
2636		74.218750
2637		82.031250
2638		78.125000
2639		82.031250
2640		82.031250
2641		85.937500
2642		82.031250
2643		85.937500
2644		85.937500
2645		89.843750
2646		85.937500
2647		89.843750
2648		89.843750
2649		93.750000
2650		89.843750
2651		93.750000
2652		93.750000
2653		97.656250
2654		93.750000
2655		97.656250
2656		97.656250
2657		101.562500
2658		97.656250
2659		101.562500
2660		101.562500
2661		105.468750
2662		101.562500
2663		105.468750
2664		105.468750
2665		109.375000
2666		105.468750
2667		109.375000
2668		105.468750
2669		113.281250
2670		109.375000
2671		113.281250
2672		109.375000
2673		113.281250
2674		113.281250
2675		117.187500
2676		113.281250
2677		117.187500
2678		113.281250
2679		117.187500
2680		117.187500
2681		121.093750
2682		117.187500
2683		121.093750
2684		117.187500
2685		121.093750
2686		117.187500
2687		121.093750
2688		121.093750
2689		125.000000
2690		121.093750
2691		125.000000
2692		121.093750
2693		125.000000
2694		121.093750
2695		125.000000
2696		121.093750
2697		128.906250
2698		125.000000
2699		128.906250
2700		125.000000
2701		128.906250
2702		125.000000
2703		128.906250
2704		125.000000
2705		128.906250
2706		125.000000
2707		128.906250
2708		125.000000
2709		128.906250
2710		125.000000
2711		132.812500
2712		125.000000
2713		128.906250
2714		125.000000
2715		128.906250
2716		125.000000
2717		128.906250
2718		125.000000
2719		128.906250
2720		125.000000
2721		128.906250
2722		125.000000
2723		128.906250
2724		125.000000
2725		128.906250
2726		125.000000
2727		128.906250
2728		125.000000
2729		128.906250
2730		125.000000
2731		128.906250
2732		125.000000
2733		128.906250
2734		121.093750
2735		128.906250
2736		121.093750
2737		125.000000
2738		121.093750
2739		125.000000
2740		121.093750
2741		125.000000
2742		121.093750
2743		125.000000
2744		121.093750
2745		125.000000
2746		117.187500
2747		121.093750
2748		117.187500
2749		121.093750
2750		117.187500
2751		121.093750
2752		113.281250
2753		117.187500
2754		113.281250
2755		117.187500
2756		113.281250
2757		117.187500
2758		109.375000
2759		113.281250
2760		109.375000
2761		113.281250
2762		105.468750
2763		113.281250
2764		105.468750
2765		109.375000
2766		105.468750
2767		109.375000
2768		101.562500
2769		105.468750
2770		101.562500
2771		105.468750
2772		97.656250
2773		101.562500
2774		97.656250
2775		101.562500
2776		93.750000
2777		97.656250
2778		93.750000
2779		97.656250
2780		89.843750
2781		93.750000
2782		89.843750
2783		93.750000
2784		85.937500
2785		89.843750
2786		85.937500
2787		89.843750
2788		82.031250
2789		85.937500
2790		78.125000
2791		85.937500
2792		78.125000
2793		82.031250
2794		74.218750
2795		78.125000
2796		74.218750
2797		78.125000
2798		70.312500
2799		74.218750
2800		66.406250
2801		74.218750
2802		66.406250
2803		70.312500
2804		62.500000
2805		66.406250
2806		58.593750
2807		62.500000
2808		54.687500
2809		62.500000
2810		54.687500
2811		58.593750
2812		50.781250
2813		58.593750
2814		46.875000
2815		54.687500
2816		46.875000
2817		50.781250
2818		42.968750
2819		50.781250
2820		42.968750
2821		46.875000
2822		39.062500
2823		42.968750
2824		35.156250
2825		39.062500
2826		31.250000
2827		39.062500
2828		31.250000
2829		35.156250
2830		27.343750
2831		31.250000
2832		23.437500
2833		31.250000
2834		23.437500
2835		27.343750
2836		19.531250
2837		23.437500
2838		15.625000
2839		23.437500
2840		15.625000
2841		19.531250
2842		11.718750
2843		15.625000
2844		7.812500
2845		15.625000
2846		7.812500
2847		11.718750
2848		3.906250
2849		7.812500
2850		0.000000
2851		7.812500
2852		0.000000
2853		3.906250
2854		-3.906250
2855		3.906250
2856		-3.906250
2857		0.000000
2858		-7.812500
2859		-3.906250
2860		-7.812500
2861		-3.906250
2862		-11.718750
2863		-7.812500
2864		-11.718750
2865		-7.812500
2866		-15.625000
2867		-11.718750
2868		-19.531250
2869		-11.718750
2870		-19.531250
2871		-15.625000
2872		-19.531250
2873		-15.625000
2874		-23.437500
2875		-19.531250
2876		-23.437500
2877		-19.531250
2878		-27.343750
2879		-23.437500
2880		-27.343750
2881		-23.437500
2882		-31.250000
2883		-27.343750
2884		-31.250000
2885		-27.343750
2886		-31.250000
2887		-27.343750
2888		-35.156250
2889		-27.343750
2890		-35.156250
2891		-31.250000
2892		-35.156250
2893		-31.250000
2894		-35.156250
2895		-31.250000
2896		-39.062500
2897		-35.156250
2898		-39.062500
2899		-35.156250
2900		-39.062500
2901		-35.156250
2902		-39.062500
2903		-35.156250
2904		-39.062500
2905		-35.156250
2906		-39.062500
2907		-35.156250
2908		-42.968750
2909		-39.062500
2910		-39.062500
2911		-39.062500
2912		-42.968750
2913		-39.062500
2914		-42.968750
2915		-39.062500
2916		-42.968750
2917		-39.062500
2918		-42.968750
2919		-35.156250
2920		-39.062500
2921		-39.062500
2922		-39.062500
2923		-39.062500
2924		-42.968750
2925		-35.156250
2926		-39.062500
2927		-35.156250
2928		-39.062500
2929		-35.156250
2930		-39.062500
2931		-35.156250
2932		-39.062500
2933		-35.156250
2934		-39.062500
2935		-35.156250
2936		-35.156250
2937		-31.250000
2938		-35.156250
2939		-31.250000
2940		-35.156250
2941		-31.250000
2942		-35.156250
2943		-31.250000
2944		-31.250000
2945		-27.343750
2946		-31.250000
2947		-27.343750
2948		-31.250000
2949		-27.343750
2950		-27.343750
2951		-23.437500
2952		-27.343750
2953		-23.437500
2954		-23.437500
2955		-19.531250
2956		-23.437500
2957		-19.531250
2958		-23.437500
2959		-19.531250
2960		-19.531250
2961		-15.625000
2962		-19.531250
2963		-15.625000
2964		-15.625000
2965		-11.718750
2966		-15.625000
2967		-7.812500
2968		-11.718750
2969		-7.812500
2970		-11.718750
2971		-3.906250
2972		-7.812500
2973		-3.906250
2974		-7.812500
2975		0.000000
2976		-3.906250
2977		0.000000
2978		0.000000
2979		3.906250
2980		0.000000
2981		3.906250
2982		3.906250
2983		7.812500
2984		7.812500
2985		11.718750
2986		7.812500
2987		11.718750
2988		11.718750
2989		15.625000
2990		11.718750
2991		19.531250
2992		15.625000
2993		19.531250
2994		19.531250
2995		23.437500
2996		19.531250
2997		23.437500
2998		23.437500
2999		27.343750
3000		27.343750
3001		31.250000
3002		27.343750
3003		35.156250
3004		31.250000
3005		35.156250
3006		35.156250
3007		39.062500
3008		35.156250
3009		39.062500
3010		39.062500
3011		42.968750
3012		42.968750
3013		46.875000
3014		42.968750
3015		50.781250
3016		46.875000
3017		50.781250
3018		50.781250
3019		54.687500
3020		50.781250
3021		54.687500
3022		54.687500
3023		58.593750
3024		58.593750
3025		62.500000
3026		58.593750
3027		66.406250
3028		62.500000
3029		66.406250
3030		62.500000
3031		70.312500
3032		66.406250
3033		70.312500
3034		70.312500
3035		74.218750
3036		70.312500
3037		74.218750
3038		74.218750
3039		78.125000
3040		78.125000
3041		82.031250
3042		78.125000
3043		82.031250
3044		82.031250
3045		85.937500
3046		82.031250
3047		85.937500
3048		85.937500
3049		89.843750
3050		85.937500
3051		89.843750
3052		89.843750
3053		93.750000
3054		89.843750
3055		93.750000
3056		93.750000
3057		97.656250
3058		93.750000
3059		97.656250
3060		97.656250
3061		101.562500
3062		97.656250
3063		101.562500
3064		101.562500
3065		105.468750
3066		101.562500
3067		105.468750
3068		105.468750
3069		109.375000
3070		105.468750
3071		109.375000
3072		105.468750
3073		113.281250
3074		109.375000
3075		113.281250
3076		109.375000
3077		113.281250
3078		113.281250
3079		117.187500
3080		113.281250
3081		117.187500
3082		113.281250
3083		117.187500
3084		117.187500
3085		121.093750
3086		117.187500
3087		121.093750
3088		117.187500
3089		121.093750
3090		121.093750
3091		121.093750
3092		121.093750
3093		125.000000
3094		121.093750
3095		125.000000
3096		121.093750
3097		125.000000
3098		121.093750
3099		125.000000
3100		121.093750
3101		125.000000
3102		125.000000
3103		128.906250
3104		125.000000
3105		128.906250
3106		125.000000
3107		128.906250
3108		125.000000
3109		128.906250
3110		125.000000
3111		128.906250
3112		125.000000
3113		128.906250
3114		125.000000
3115		128.906250
3116		125.000000
3117		128.906250
3118		125.000000
3119		128.906250
3120		125.000000
3121		128.906250
3122		125.000000
3123		128.906250
3124		125.000000
3125		128.906250
3126		125.000000
3127		128.906250
3128		125.000000
3129		128.906250
3130		125.000000
3131		128.906250
3132		125.000000
3133		128.906250
3134		125.000000
3135		128.906250
3136		125.000000
3137		128.906250
3138		121.093750
3139		128.906250
3140		121.093750
3141		125.000000
3142		121.093750
3143		125.000000
3144		121.093750
3145		125.000000
3146		121.093750
3147		125.000000
3148		117.187500
3149		121.093750
3150		117.187500
3151		121.093750
3152		117.187500
3153		121.093750
3154		117.187500
3155		121.093750
3156		113.281250
3157		117.187500
3158		113.281250
3159		117.187500
3160		113.281250
3161		113.281250
3162		109.375000
3163		113.281250
3164		109.375000
3165		113.281250
3166		109.375000
3167		113.281250
3168		105.468750
3169		109.375000
3170		105.468750
3171		109.375000
3172		101.562500
3173		105.468750
3174		101.562500
3175		105.468750
3176		97.656250
3177		101.562500
3178		97.656250
3179		101.562500
3180		93.750000
3181		97.656250
3182		93.750000
3183		97.656250
3184		89.843750
3185		93.750000
3186		89.843750
3187		93.750000
3188		85.937500
3189		89.843750
3190		85.937500
3191		89.843750
3192		82.031250
3193		85.937500
3194		78.125000
3195		85.937500
3196		78.125000
3197		82.031250
3198		74.218750
3199		78.125000
3200		74.218750
3201		78.125000
3202		70.312500
3203		74.218750
3204		66.406250
3205		70.312500
3206		62.500000
3207		70.312500
3208		62.500000
3209		66.406250
3210		58.593750
3211		62.500000
3212		58.593750
3213		62.500000
3214		54.687500
3215		58.593750
3216		50.781250
3217		58.593750
3218		50.781250
3219		54.687500
3220		46.875000
3221		50.781250
3222		42.968750
3223		46.875000
3224		42.968750
3225		46.875000
3226		39.062500
3227		42.968750
3228		35.156250
3229		42.968750
3230		35.156250
3231		39.062500
3232		31.250000
3233		35.156250
3234		27.343750
3235		31.250000
3236		27.343750
3237		31.250000
3238		23.437500
3239		27.343750
3240		19.531250
3241		23.437500
3242		15.625000
3243		23.437500
3244		11.718750
3245		19.531250
3246		11.718750
3247		19.531250
3248		11.718750
3249		15.625000
3250		7.812500
3251		11.718750
3252		3.906250
3253		7.812500
3254		0.000000
3255		7.812500
3256		0.000000
3257		3.906250
3258		-3.906250
3259		0.000000
3260		-3.906250
3261		0.000000
3262		-7.812500
3263		-3.906250
3264		-7.812500
3265		-3.906250
3266		-11.718750
3267		-7.812500
3268		-11.718750
3269		-7.812500
3270		-15.625000
3271		-11.718750
3272		-19.531250
3273		-11.718750
3274		-19.531250
3275		-15.625000
3276		-19.531250
3277		-15.625000
3278		-23.437500
3279		-19.531250
3280		-23.437500
3281		-19.531250
3282		-27.343750
3283		-23.437500
3284		-27.343750
3285		-23.437500
3286		-27.343750
3287		-23.437500
3288		-31.250000
3289		-27.343750
3290		-31.250000
3291		-27.343750
3292		-31.250000
3293		-27.343750
3294		-35.156250
3295		-31.250000
3296		-35.156250
3297		-31.250000
3298		-35.156250
3299		-31.250000
3300		-35.156250
3301		-35.156250
3302		-39.062500
3303		-35.156250
3304		-39.062500
3305		-35.156250
3306		-39.062500
3307		-35.156250
3308		-39.062500
3309		-35.156250
3310		-39.062500
3311		-35.156250
3312		-39.062500
3313		-35.156250
3314		-39.062500
3315		-39.062500
3316		-39.062500
3317		-39.062500
3318		-39.062500
3319		-39.062500
3320		-39.062500
3321		-39.062500
3322		-42.968750
3323		-35.156250
3324		-39.062500
3325		-39.062500
3326		-39.062500
3327		-39.062500
3328		-39.062500
3329		-35.156250
3330		-39.062500
3331		-35.156250
3332		-39.062500
3333		-35.156250
3334		-39.062500
3335		-35.156250
3336		-39.062500
3337		-35.156250
3338		-39.062500
3339		-35.156250
3340		-35.156250
3341		-31.250000
3342		-35.156250
3343		-31.250000
3344		-35.156250
3345		-31.250000
3346		-35.156250
3347		-27.343750
3348		-31.250000
3349		-27.343750
3350		-31.250000
3351		-27.343750
3352		-27.343750
3353		-23.437500
3354		-27.343750
3355		-23.437500
3356		-27.343750
3357		-23.437500
3358		-23.437500
3359		-19.531250
3360		-23.437500
3361		-19.531250
3362		-19.531250
3363		-15.625000
3364		-19.531250
3365		-15.625000
3366		-15.625000
3367		-11.718750
3368		-15.625000
3369		-11.718750
3370		-15.625000
3371		-7.812500
3372		-11.718750
3373		-7.812500
3374		-7.812500
3375		-3.906250
3376		-7.812500
3377		-3.906250
3378		-3.906250
3379		0.000000
3380		-3.906250
3381		0.000000
3382		0.000000
3383		3.906250
3384		0.000000
3385		7.812500
3386		3.906250
3387		7.812500
3388		7.812500
3389		11.718750
3390		7.812500
3391		11.718750
3392		11.718750
3393		15.625000
3394		15.625000
3395		19.531250
3396		15.625000
3397		19.531250
3398		19.531250
3399		23.437500
3400		19.531250
3401		27.343750
3402		23.437500
3403		27.343750
3404		27.343750
3405		31.250000
3406		27.343750
3407		35.156250
3408		31.250000
3409		35.156250
3410		35.156250
3411		39.062500
3412		35.156250
3413		42.968750
3414		39.062500
3415		42.968750
3416		42.968750
3417		46.875000
3418		42.968750
3419		50.781250
3420		46.875000
3421		50.781250
3422		50.781250
3423		54.687500
3424		50.781250
3425		58.593750
3426		54.687500
3427		58.593750
3428		58.593750
3429		62.500000
3430		58.593750
3431		66.406250
3432		62.500000
3433		66.406250
3434		66.406250
3435		70.312500
3436		66.406250
3437		74.218750
3438		70.312500
3439		74.218750
3440		74.218750
3441		78.125000
3442		74.218750
3443		78.125000
3444		78.125000
3445		82.031250
3446		78.125000
3447		85.937500
3448		82.031250
3449		85.937500
3450		85.937500
3451		89.843750
3452		85.937500
3453		93.750000
3454		89.843750
3455		93.750000
3456		89.843750
3457		93.750000
3458		93.750000
3459		97.656250
3460		93.750000
3461		97.656250
3462		97.656250
3463		101.562500
3464		97.656250
3465		101.562500
3466		101.562500
3467		105.468750
3468		101.562500
3469		105.468750
3470		101.562500
3471		109.375000
3472		105.468750
3473		109.375000
3474		105.468750
3475		113.281250
3476		109.375000
3477		113.281250
3478		109.375000
3479		113.281250
3480		109.375000
3481		117.187500
3482		113.281250
3483		117.187500
3484		113.281250
3485		117.187500
3486		113.281250
3487		117.187500
3488		117.187500
3489		121.093750
3490		117.187500
3491		121.093750
3492		117.187500
3493		121.093750
3494		121.093750
3495		121.093750
3496		121.093750
3497		125.000000
3498		121.093750
3499		125.000000
3500		121.093750
3501		125.000000
3502		121.093750
3503		125.000000
3504		125.000000
3505		125.000000
3506		125.000000
3507		128.906250
3508		125.000000
3509		128.906250
3510		125.000000
3511		128.906250
3512		125.000000
3513		128.906250
3514		125.000000
3515		128.906250
3516		125.000000
3517		128.906250
3518		125.000000
3519		128.906250
3520		125.000000
3521		128.906250
3522		125.000000
3523		128.906250
3524		125.000000
3525		128.906250
3526		125.000000
3527		128.906250
3528		125.000000
3529		128.906250
3530		125.000000
3531		128.906250
3532		125.000000
3533		128.906250
3534		125.000000
3535		128.906250
3536		125.000000
3537		128.906250
3538		125.000000
3539		128.906250
3540		125.000000
3541		128.906250
3542		125.000000
3543		125.000000
3544		121.093750
3545		128.906250
3546		121.093750
3547		125.000000
3548		121.093750
3549		125.000000
3550		121.093750
3551		125.000000
3552		121.093750
3553		125.000000
3554		117.187500
3555		121.093750
3556		117.187500
3557		121.093750
3558		117.187500
3559		121.093750
3560		113.281250
3561		117.187500
3562		113.281250
3563		117.187500
3564		113.281250
3565		117.187500
3566		109.375000
3567		113.281250
3568		109.375000
3569		113.281250
3570		109.375000
3571		109.375000
3572		105.468750
3573		109.375000
3574		105.468750
3575		109.375000
3576		101.562500
3577		105.468750
3578		101.562500
3579		105.468750
3580		97.656250
3581		101.562500
3582		97.656250
3583		101.562500
3584		93.750000
3585		97.656250
3586		93.750000
3587		97.656250
3588		89.843750
3589		93.750000
3590		89.843750
3591		93.750000
3592		85.937500
3593		89.843750
3594		82.031250
3595		89.843750
3596		82.031250
3597		85.937500
3598		78.125000
3599		85.937500
3600		78.125000
3601		82.031250
3602		74.218750
3603		78.125000
3604		70.312500
3605		78.125000
3606		70.312500
3607		74.218750
3608		66.406250
3609		70.312500
3610		62.500000
3611		70.312500
3612		62.500000
3613		66.406250
3614		58.593750
3615		62.500000
3616		58.593750
3617		62.500000
3618		54.687500
3619		58.593750
3620		50.781250
3621		54.687500
3622		46.875000
3623		54.687500
3624		46.875000
3625		50.781250
3626		42.968750
3627		46.875000
3628		42.968750
3629		46.875000
3630		39.062500
3631		42.968750
3632		35.156250
3633		39.062500
3634		31.250000
3635		39.062500
3636		31.250000
3637		35.156250
3638		27.343750
3639		31.250000
3640		23.437500
3641		27.343750
3642		23.437500
3643		27.343750
3644		19.531250
3645		23.437500
3646		15.625000
3647		19.531250
3648		15.625000
3649		19.531250
3650		11.718750
3651		15.625000
3652		7.812500
3653		15.625000
3654		7.812500
3655		11.718750
3656		3.906250
3657		11.718750
3658		0.000000
3659		7.812500
3660		0.000000
3661		3.906250
3662		-3.906250
3663		0.000000
3664		-3.906250
3665		0.000000
3666		-7.812500
3667		-3.906250
3668		-7.812500
3669		-3.906250
3670		-11.718750
3671		-7.812500
3672		-11.718750
3673		-11.718750
3674		-15.625000
3675		-11.718750
3676		-15.625000
3677		-11.718750
3678		-19.531250
3679		-15.625000
3680		-19.531250
3681		-15.625000
3682		-23.437500
3683		-19.531250
3684		-23.437500
3685		-19.531250
3686		-27.343750
3687		-23.437500
3688		-27.343750
3689		-23.437500
3690		-31.250000
3691		-27.343750
3692		-31.250000
3693		-27.343750
3694		-31.250000
3695		-27.343750
3696		-31.250000
3697		-31.250000
3698		-35.156250
3699		-31.250000
3700		-35.156250
3701		-31.250000
3702		-35.156250
3703		-31.250000
3704		-35.156250
3705		-31.250000
3706		-39.062500
3707		-35.156250
3708		-39.062500
3709		-35.156250
3710		-39.062500
3711		-35.156250
3712		-39.062500
3713		-35.156250
3714		-39.062500
3715		-35.156250
3716		-39.062500
3717		-39.062500
3718		-42.968750
3719		-39.062500
3720		-42.968750
3721		-39.062500
3722		-39.062500
3723		-39.062500
3724		-39.062500
3725		-39.062500
3726		-42.968750
3727		-39.062500
3728		-39.062500
3729		-35.156250
3730		-39.062500
3731		-35.156250
3732		-39.062500
3733		-35.156250
3734		-39.062500
3735		-35.156250
3736		-39.062500
3737		-35.156250
3738		-39.062500
3739		-35.156250
3740		-39.062500
3741		-35.156250
3742		-35.156250
3743		-35.156250
3744		-35.156250
3745		-31.250000
3746		-35.156250
3747		-31.250000
3748		-35.156250
3749		-31.250000
3750		-35.156250
3751		-27.343750
3752		-31.250000
3753		-27.343750
3754		-31.250000
3755		-27.343750
3756		-27.343750
3757		-23.437500
3758		-27.343750
3759		-23.437500
3760		-27.343750
3761		-23.437500
3762		-23.437500
3763		-19.531250
3764		-23.437500
3765		-19.531250
3766		-19.531250
3767		-15.625000
3768		-19.531250
3769		-15.625000
3770		-15.625000
3771		-11.718750
3772		-15.625000
3773		-11.718750
3774		-11.718750
3775		-7.812500
3776		-11.718750
3777		-7.812500
3778		-7.812500
3779		-3.906250
3780		-7.812500
3781		-3.906250
3782		-3.906250
3783		0.000000
3784		-3.906250
3785		3.906250
3786		0.000000
3787		3.906250
3788		3.906250
3789		7.812500
3790		3.906250
3791		7.812500
3792		7.812500
3793		11.718750
3794		7.812500
3795		15.625000
3796		11.718750
3797		15.625000
3798		15.625000
3799		19.531250
3800		15.625000
3801		23.437500
3802		19.531250
3803		23.437500
3804		23.437500
3805		27.343750
3806		23.437500
3807		27.343750
3808		27.343750
3809		31.250000
3810		31.250000
3811		35.156250
3812		31.250000
3813		39.062500
3814		35.156250
3815		39.062500
3816		39.062500
3817		42.968750
3818		39.062500
3819		42.968750
3820		42.968750
3821		46.875000
3822		46.875000
3823		50.781250
3824		46.875000
3825		54.687500
3826		50.781250
3827		54.687500
3828		54.687500
3829		58.593750
3830		54.687500
3831		62.500000
3832		58.593750
3833		62.500000
3834		58.593750
3835		66.406250
3836		62.500000
3837		66.406250
3838		66.406250
3839		70.312500
3840		66.406250
3841		74.218750
3842		70.312500
3843		74.218750
3844		74.218750
3845		78.125000
3846		74.218750
3847		78.125000
3848		78.125000
3849		82.031250
3850		78.125000
3851		85.937500
3852		82.031250
3853		85.937500
3854		82.031250
3855		89.843750
3856		85.937500
3857		89.843750
3858		89.843750
3859		93.750000
3860		89.843750
3861		93.750000
3862		93.750000
3863		97.656250
3864		93.750000
3865		97.656250
3866		97.656250
3867		101.562500
3868		97.656250
3869		101.562500
3870		101.562500
3871		105.468750
3872		101.562500
3873		105.468750
3874		105.468750
3875		109.375000
3876		105.468750
3877		109.375000
3878		105.468750
3879		113.281250
3880		109.375000
3881		113.281250
3882		109.375000
3883		113.281250
3884		109.375000
3885		117.187500
3886		113.281250
3887		117.187500
3888		113.281250
3889		117.187500
3890		117.187500
3891		117.187500
3892		117.187500
3893		121.093750
3894		117.187500
3895		121.093750
3896		117.187500
3897		121.093750
3898		121.093750
3899		125.000000
3900		121.093750
3901		125.000000
3902		121.093750
3903		125.000000
3904		121.093750
3905		125.000000
3906		121.093750
3907		125.000000
3908		125.000000
3909		128.906250
3910		125.000000
3911		128.906250
3912		125.000000
3913		128.906250
3914		125.000000
3915		128.906250
3916		125.000000
3917		128.906250
3918		125.000000
3919		128.906250
3920		125.000000
3921		128.906250
3922		125.000000
3923		128.906250
3924		125.000000
3925		128.906250
3926		125.000000
3927		128.906250
3928		125.000000
3929		128.906250
3930		125.000000
3931		128.906250
3932		125.000000
3933		128.906250
3934		125.000000
3935		128.906250
3936		125.000000
3937		128.906250
3938		125.000000
3939		128.906250
3940		125.000000
3941		128.906250
3942		125.000000
3943		128.906250
3944		125.000000
3945		128.906250
3946		121.093750
3947		125.000000
3948		121.093750
3949		125.000000
3950		121.093750
3951		125.000000
3952		121.093750
3953		125.000000
3954		121.093750
3955		125.000000
3956		117.187500
3957		121.093750
3958		117.187500
3959		121.093750
3960		117.187500
3961		121.093750
3962		113.281250
3963		117.187500
3964		113.281250
3965		117.187500
3966		113.281250
3967		117.187500
3968		109.375000
3969		117.187500
3970		109.375000
3971		113.281250
3972		109.375000
3973		113.281250
3974		105.468750
3975		109.375000
3976		105.468750
3977		109.375000
3978		105.468750
3979		105.468750
3980		101.562500
3981		105.468750
3982		101.562500
3983		101.562500
3984		97.656250
3985		101.562500
3986		97.656250
3987		101.562500
3988		93.750000
3989		97.656250
3990		93.750000
3991		97.656250
3992		89.843750
3993		93.750000
3994		85.937500
3995		93.750000
3996		85.937500
3997		89.843750
3998		82.031250
3999		85.937500
4000		82.031250
4001		85.937500
4002		78.125000
4003		82.031250
4004		78.125000
4005		82.031250
4006		74.218750
4007		78.125000
4008		70.312500
4009		74.218750
4010		70.312500
4011		74.218750
4012		66.406250
4013		70.312500
4014		62.500000
4015		70.312500
4016		62.500000
4017		66.406250
4018		58.593750
4019		62.500000
4020		54.687500
4021		62.500000
4022		54.687500
4023		58.593750
4024		50.781250
4025		54.687500
4026		46.875000
4027		54.687500
4028		46.875000
4029		50.781250
4030		42.968750
4031		46.875000
4032		39.062500
4033		42.968750
4034		39.062500
4035		42.968750
4036		35.156250
4037		39.062500
4038		31.250000
4039		35.156250
4040		31.250000
4041		35.156250
4042		27.343750
4043		31.250000
4044		23.437500
4045		27.343750
4046		19.531250
4047		27.343750
4048		19.531250
4049		23.437500
4050		15.625000
4051		19.531250
4052		15.625000
4053		19.531250
4054		11.718750
4055		15.625000
4056		7.812500
4057		15.625000
4058		3.906250
4059		11.718750
4060		3.906250
4061		7.812500
4062		0.000000
4063		7.812500
4064		0.000000
4065		3.906250
4066		-3.906250
4067		0.000000
4068		-7.812500
4069		0.000000
4070		-7.812500
4071		-3.906250
4072		-11.718750
4073		-3.906250
4074		-11.718750
4075		-3.906250
4076		-15.625000
4077		-7.812500
4078		-15.625000
4079		-11.718750
4080		-19.531250
4081		-11.718750
4082		-19.531250
4083		-15.625000
4084		-19.531250
4085		-15.625000
4086		-23.437500
4087		-19.531250
4088		-27.343750
4089		-19.531250
4090		-27.343750
4091		-19.531250
4092		-27.343750
4093		-23.437500
4094		-31.250000
4095		-23.437500
4096		-31.250000
4097		-23.437500
4098		-31.250000
4099		-27.343750
4100		-31.250000
4101		-27.343750
4102		-35.156250
4103		-31.250000
4104		-35.156250
4105		-31.250000
4106		-35.156250
4107		-31.250000
4108		-39.062500
4109		-31.250000
4110		-39.062500
4111		-31.250000
4112		-39.062500
4113		-35.156250
4114		-39.062500
4115		-35.156250
4116		-39.062500
4117		-35.156250
4118		-39.062500
4119		-35.156250
4120		-39.062500
4121		-35.156250
4122		-39.062500
4123		-35.156250
4124		-42.968750
4125		-35.156250
4126		-42.968750
4127		-35.156250
4128		-42.968750
4129		-35.156250
4130		-42.968750
4131		-35.156250
4132		-42.968750
4133		-35.156250
4134		-39.062500
4135		-35.156250
4136		-39.062500
4137		-35.156250
4138		-39.062500
4139		-35.156250
4140		-39.062500
4141		-35.156250
4142		-39.062500
4143		-35.156250
4144		-39.062500
4145		-35.156250
4146		-35.156250
4147		-31.250000
4148		-35.156250
4149		-31.250000
4150		-35.156250
4151		-31.250000
4152		-35.156250
4153		-27.343750
4154		-31.250000
4155		-27.343750
4156		-31.250000
4157		-27.343750
4158		-31.250000
4159		-27.343750
4160		-27.343750
4161		-23.437500
4162		-27.343750
4163		-23.437500
4164		-23.437500
4165		-19.531250
4166		-23.437500
4167		-19.531250
4168		-23.437500
4169		-19.531250
4170		-19.531250
4171		-15.625000
4172		-19.531250
4173		-15.625000
4174		-15.625000
4175		-11.718750
4176		-15.625000
4177		-11.718750
4178		-11.718750
4179		-7.812500
4180		-11.718750
4181		-7.812500
4182		-7.812500
4183		-3.906250
4184		-7.812500
4185		-3.906250
4186		-3.906250
4187		0.000000
4188		0.000000
4189		3.906250
4190		0.000000
4191		3.906250
4192		3.906250
4193		7.812500
4194		3.906250
4195		7.812500
4196		7.812500
4197		11.718750
4198		11.718750
4199		15.625000
4200		11.718750
4201		15.625000
4202		15.625000
4203		19.531250
4204		19.531250
4205		23.437500
4206		19.531250
4207		23.437500
4208		23.437500
4209		27.343750
4210		27.343750
4211		31.250000
4212		27.343750
4213		31.250000
4214		31.250000
4215		35.156250
4216		31.250000
4217		39.062500
4218		35.156250
4219		39.062500
4220		39.062500
4221		42.968750
4222		39.062500
4223		46.875000
4224		42.968750
4225		46.875000
4226		46.875000
4227		50.781250
4228		46.875000
4229		54.687500
4230		50.781250
4231		54.687500
4232		54.687500
4233		58.593750
4234		54.687500
4235		58.593750
4236		58.593750
4237		66.406250
4238		58.593750
4239		66.406250
4240		62.500000
4241		70.312500
4242		62.500000
4243		74.218750
4244		70.312500
4245		74.218750
4246		70.312500
4247		74.218750
4248		74.218750
4249		78.125000
4250		74.218750
4251		78.125000
4252		78.125000
4253		82.031250
4254		78.125000
4255		85.937500
4256		82.031250
4257		89.843750
4258		82.031250
4259		89.843750
4260		85.937500
4261		89.843750
4262		89.843750
4263		93.750000
4264		89.843750
4265		97.656250
4266		93.750000
4267		97.656250
4268		93.750000
4269		97.656250
4270		93.750000
4271		105.468750
4272		97.656250
4273		105.468750
4274		97.656250
4275		109.375000
4276		97.656250
4277		109.375000
4278		105.468750
4279		109.375000
4280		105.468750
4281		109.375000
4282		109.375000
4283		109.375000
4284		109.375000
4285		113.281250
4286		109.375000
4287		113.281250
4288		109.375000
4289		117.187500
4290		109.375000
4291		121.093750
4292		113.281250
4293		121.093750
4294		117.187500
4295		121.093750
4296		117.187500
4297		121.093750
4298		117.187500
4299		121.093750
4300		121.093750
4301		121.093750
4302		121.093750
4303		125.000000
4304		117.187500
4305		128.906250
4306		121.093750
4307		128.906250
4308		121.093750
4309		128.906250
4310		125.000000
4311		128.906250
4312		125.000000
4313		128.906250
4314		125.000000
4315		128.906250
4316		125.000000
4317		128.906250
4318		125.000000
4319		128.906250
4320		125.000000
4321		132.812500
4322		125.000000
4323		132.812500
4324		125.000000
4325		132.812500
4326		125.000000
4327		132.812500
4328		128.906250
4329		128.906250
4330		128.906250
4331		128.906250
4332		128.906250
4333		128.906250
4334		128.906250
4335		128.906250
4336		125.000000
4337		128.906250
4338		125.000000
4339		132.812500
4340		125.000000
4341		132.812500
4342		121.093750
4343		132.812500
4344		125.000000
4345		128.906250
4346		125.000000
4347		128.906250
4348		125.000000
4349		128.906250
4350		125.000000
4351		125.000000
4352		125.000000
4353		125.000000
4354		117.187500
4355		128.906250
4356		117.187500
4357		128.906250
4358		117.187500
4359		128.906250
4360		117.187500
4361		125.000000
4362		117.187500
4363		121.093750
4364		117.187500
4365		121.093750
4366		117.187500
4367		121.093750
4368		113.281250
4369		117.187500
4370		113.281250
4371		117.187500
4372		109.375000
4373		117.187500
4374		109.375000
4375		117.187500
4376		105.468750
4377		117.187500
4378		105.468750
4379		109.375000
4380		105.468750
4381		109.375000
4382		105.468750
4383		109.375000
4384		101.562500
4385		105.468750
4386		101.562500
4387		105.468750
4388		93.750000
4389		105.468750
4390		93.750000
4391		101.562500
4392		89.843750
4393		101.562500
4394		93.750000
4395		97.656250
4396		89.843750
4397		93.750000
4398		89.843750
4399		93.750000
4400		85.937500
4401		89.843750
4402		82.031250
4403		85.937500
4404		78.125000
4405		85.937500
4406		74.218750
4407		85.937500
4408		74.218750
4409		85.937500
4410		70.312500
4411		82.031250
4412		70.312500
4413		74.218750
4414		70.312500
4415		74.218750
4416		66.406250
4417		70.312500
4418		62.500000
4419		70.312500
4420		62.500000
4421		66.406250
4422		58.593750
4423		62.500000
4424		54.687500
4425		62.500000
4426		50.781250
4427		58.593750
4428		50.781250
4429		54.687500
4430		46.875000
4431		54.687500
4432		46.875000
4433		50.781250
4434		42.968750
4435		46.875000
4436		39.062500
4437		42.968750
4438		39.062500
4439		42.968750
4440		35.156250
4441		39.062500
4442		31.250000
4443		39.062500
4444		31.250000
4445		35.156250
4446		27.343750
4447		31.250000
4448		23.437500
4449		27.343750
4450		23.437500
4451		27.343750
4452		19.531250
4453		23.437500
4454		15.625000
4455		19.531250
4456		11.718750
4457		19.531250
4458		11.718750
4459		15.625000
4460		7.812500
4461		15.625000
4462		3.906250
4463		11.718750
4464		3.906250
4465		7.812500
4466		0.000000
4467		3.906250
4468		0.000000
4469		3.906250
4470		-3.906250
4471		0.000000
4472		-3.906250
4473		0.000000
4474		-7.812500
4475		-3.906250
4476		-11.718750
4477		-3.906250
4478		-11.718750
4479		-7.812500
4480		-15.625000
4481		-11.718750
4482		-15.625000
4483		-11.718750
4484		-19.531250
4485		-11.718750
4486		-19.531250
4487		-15.625000
4488		-23.437500
4489		-19.531250
4490		-23.437500
4491		-19.531250
4492		-23.437500
4493		-19.531250
4494		-27.343750
4495		-23.437500
4496		-27.343750
4497		-23.437500
4498		-27.343750
4499		-23.437500
4500		-31.250000
4501		-27.343750
4502		-31.250000
4503		-27.343750
4504		-35.156250
4505		-27.343750
4506		-35.156250
4507		-31.250000
4508		-35.156250
4509		-31.250000
4510		-35.156250
4511		-31.250000
4512		-35.156250
4513		-35.156250
4514		-39.062500
4515		-35.156250
4516		-39.062500
4517		-35.156250
4518		-39.062500
4519		-35.156250
4520		-39.062500
4521		-35.156250
4522		-39.062500
4523		-35.156250
4524		-39.062500
4525		-35.156250
4526		-39.062500
4527		-39.062500
4528		-39.062500
4529		-35.156250
4530		-39.062500
4531		-35.156250
4532		-39.062500
4533		-35.156250
4534		-39.062500
4535		-35.156250
4536		-39.062500
4537		-35.156250
4538		-39.062500
4539		-35.156250
4540		-39.062500
4541		-35.156250
4542		-39.062500
4543		-35.156250
4544		-39.062500
4545		-35.156250
4546		-39.062500
4547		-31.250000
4548		-35.156250
4549		-31.250000
4550		-35.156250
4551		-31.250000
4552		-35.156250
4553		-31.250000
4554		-35.156250
4555		-31.250000
4556		-31.250000
4557		-27.343750
4558		-31.250000
4559		-27.343750
4560		-31.250000
4561		-27.343750
4562		-27.343750
4563		-23.437500
4564		-27.343750
4565		-23.437500
4566		-27.343750
4567		-23.437500
4568		-23.437500
4569		-19.531250
4570		-23.437500
4571		-19.531250
4572		-19.531250
4573		-15.625000
4574		-19.531250
4575		-15.625000
4576		-19.531250
4577		-11.718750
4578		-15.625000
4579		-11.718750
4580		-15.625000
4581		-7.812500
4582		-11.718750
4583		-7.812500
4584		-7.812500
4585		-3.906250
4586		-7.812500
4587		-3.906250
4588		-3.906250
4589		0.000000
4590		-3.906250
4591		3.906250
4592		0.000000
4593		3.906250
4594		0.000000
4595		3.906250
4596		3.906250
4597		7.812500
4598		7.812500
4599		11.718750
4600		7.812500
4601		11.718750
4602		11.718750
4603		15.625000
4604		11.718750
4605		19.531250
4606		15.625000
4607		19.531250
4608		19.531250
4609		23.437500
4610		19.531250
4611		27.343750
4612		23.437500
4613		27.343750
4614		27.343750
4615		31.250000
4616		27.343750
4617		35.156250
4618		31.250000
4619		35.156250
4620		35.156250
4621		39.062500
4622		35.156250
4623		39.062500
4624		39.062500
4625		42.968750
4626		42.968750
4627		46.875000
4628		42.968750
4629		50.781250
4630		46.875000
4631		50.781250
4632		50.781250
4633		54.687500
4634		50.781250
4635		58.593750
4636		54.687500
4637		58.593750
4638		58.593750
4639		62.500000
4640		58.593750
4641		66.406250
4642		62.500000
4643		66.406250
4644		66.406250
4645		70.312500
4646		66.406250
4647		70.312500
4648		70.312500
4649		74.218750
4650		70.312500
4651		78.125000
4652		74.218750
4653		78.125000
4654		78.125000
4655		82.031250
4656		78.125000
4657		85.937500
4658		82.031250
4659		85.937500
4660		82.031250
4661		89.843750
4662		85.937500
4663		89.843750
4664		85.937500
4665		93.750000
4666		89.843750
4667		93.750000
4668		93.750000
4669		97.656250
4670		93.750000
4671		97.656250
4672		97.656250
4673		101.562500
4674		97.656250
4675		101.562500
4676		97.656250
4677		105.468750
4678		101.562500
4679		105.468750
4680		105.468750
4681		109.375000
4682		105.468750
4683		109.375000
4684		105.468750
4685		109.375000
4686		109.375000
4687		113.281250
4688		109.375000
4689		113.281250
4690		113.281250
4691		117.187500
4692		113.281250
4693		117.187500
4694		113.281250
4695		117.187500
4696		117.187500
4697		117.187500
4698		117.187500
4699		121.093750
4700		117.187500
4701		121.093750
4702		121.093750
4703		121.093750
4704		121.093750
4705		125.000000
4706		121.093750
4707		125.000000
4708		121.093750
4709		125.000000
4710		121.093750
4711		125.000000
4712		125.000000
4713		125.000000
4714		125.000000
4715		128.906250
4716		125.000000
4717		128.906250
4718		125.000000
4719		128.906250
4720		125.000000
4721		128.906250
4722		125.000000
4723		128.906250
4724		125.000000
4725		128.906250
4726		128.906250
4727		128.906250
4728		128.906250
4729		128.906250
4730		128.906250
4731		128.906250
4732		128.906250
4733		128.906250
4734		128.906250
4735		128.906250
4736		128.906250
4737		132.812500
4738		128.906250
4739		128.906250
4740		128.906250
4741		128.906250
4742		125.000000
4743		132.812500
4744		125.000000
4745		128.906250
4746		125.000000
4747		128.906250
4748		125.000000
4749		128.906250
4750		125.000000
4751		128.906250
4752		125.000000
4753		128.906250
4754		125.000000
4755		128.906250
4756		125.000000
4757		125.000000
4758		121.093750
4759		125.000000
4760		121.093750
4761		125.000000
4762		121.093750
4763		125.000000
4764		121.093750
4765		121.093750
4766		117.187500
4767		121.093750
4768		117.187500
4769		121.093750
4770		117.187500
4771		117.187500
4772		113.281250
4773		117.187500
4774		113.281250
4775		117.187500
4776		109.375000
4777		113.281250
4778		109.375000
4779		113.281250
4780		109.375000
4781		113.281250
4782		105.468750
4783		109.375000
4784		105.468750
4785		109.375000
4786		105.468750
4787		105.468750
4788		101.562500
4789		105.468750
4790		101.562500
4791		105.468750
4792		97.656250
4793		101.562500
4794		97.656250
4795		101.562500
4796		93.750000
4797		97.656250
4798		89.843750
4799		97.656250
4800		89.843750
4801		93.750000
4802		89.843750
4803		93.750000
4804		85.937500
4805		89.843750
4806		82.031250
4807		85.937500
4808		82.031250
4809		85.937500
4810		78.125000
4811		82.031250
4812		78.125000
4813		82.031250
4814		74.218750
4815		78.125000
4816		70.312500
4817		74.218750
4818		70.312500
4819		74.218750
4820		66.406250
4821		70.312500
4822		62.500000
4823		70.312500
4824		62.500000
4825		66.406250
4826		58.593750
4827		62.500000
4828		54.687500
4829		62.500000
4830		54.687500
4831		58.593750
4832		50.781250
4833		54.687500
4834		46.875000
4835		54.687500
4836		46.875000
4837		50.781250
4838		42.968750
4839		46.875000
4840		39.062500
4841		42.968750
4842		39.062500
4843		42.968750
4844		35.156250
4845		39.062500
4846		31.250000
4847		35.156250
4848		31.250000
4849		35.156250
4850		27.343750
4851		31.250000
4852		23.437500
4853		27.343750
4854		19.531250
4855		27.343750
4856		19.531250
4857		23.437500
4858		15.625000
4859		19.531250
4860		11.718750
4861		19.531250
4862		11.718750
4863		15.625000
4864		7.812500
4865		11.718750
4866		7.812500
4867		11.718750
4868		3.906250
4869		7.812500
4870		0.000000
4871		7.812500
4872		0.000000
4873		3.906250
4874		-3.906250
4875		0.000000
4876		-7.812500
4877		0.000000
4878		-7.812500
4879		0.000000
4880		-11.718750
4881		-3.906250
4882		-11.718750
4883		-7.812500
4884		-11.718750
4885		-7.812500
4886		-15.625000
4887		-11.718750
4888		-15.625000
4889		-11.718750
4890		-19.531250
4891		-15.625000
4892		-23.437500
4893		-15.625000
4894		-23.437500
4895		-15.625000
4896		-23.437500
4897		-19.531250
4898		-27.343750
4899		-23.437500
4900		-27.343750
4901		-23.437500
4902		-27.343750
4903		-23.437500
4904		-31.250000
4905		-27.343750
4906		-31.250000
4907		-27.343750
4908		-31.250000
4909		-27.343750
4910		-35.156250
4911		-27.343750
4912		-35.156250
4913		-31.250000
4914		-35.156250
4915		-31.250000
4916		-35.156250
4917		-31.250000
4918		-35.156250
4919		-35.156250
4920		-39.062500
4921		-35.156250
4922		-39.062500
4923		-35.156250
4924		-39.062500
4925		-35.156250
4926		-39.062500
4927		-35.156250
4928		-39.062500
4929		-35.156250
4930		-39.062500
4931		-35.156250
4932		-39.062500
4933		-35.156250
4934		-39.062500
4935		-35.156250
4936		-39.062500
4937		-35.156250
4938		-39.062500
4939		-35.156250
4940		-39.062500
4941		-35.156250
4942		-39.062500
4943		-35.156250
4944		-39.062500
4945		-35.156250
4946		-39.062500
4947		-35.156250
4948		-39.062500
4949		-35.156250
4950		-35.156250
4951		-31.250000
4952		-35.156250
4953		-31.250000
4954		-35.156250
4955		-31.250000
4956		-35.156250
4957		-31.250000
4958		-31.250000
4959		-31.250000
4960		-35.156250
4961		-27.343750
4962		-31.250000
4963		-27.343750
4964		-31.250000
4965		-27.343750
4966		-27.343750
4967		-23.437500
4968		-27.343750
4969		-23.437500
4970		-23.437500
4971		-23.437500
4972		-23.437500
4973		-19.531250
4974		-23.437500
4975		-19.531250
4976		-19.531250
4977		-15.625000
4978		-19.531250
4979		-11.718750
4980		-15.625000
4981		-11.718750
4982		-15.625000
4983		-11.718750
4984		-11.718750
4985		-7.812500
4986		-11.718750
4987		-7.812500
4988		-7.812500
4989		-3.906250
4990		-7.812500
4991		-3.906250
4992		-3.906250
4993		0.000000
4994		-3.906250
4995		3.906250
4996		0.000000
4997		3.906250
4998		3.906250
4999		7.812500
5000		3.906250
5001		7.812500
5002		7.812500
5003		11.718750
5004		7.812500
5005		15.625000
5006		11.718750
5007		15.625000
5008		15.625000
5009		19.531250
5010		15.625000
5011		23.437500
5012		19.531250
5013		23.437500
5014		23.437500
5015		27.343750
5016		23.437500
5017		27.343750
5018		27.343750
5019		31.250000
5020		27.343750
5021		35.156250
5022		31.250000
5023		35.156250
5024		35.156250
5025		39.062500
5026		39.062500
5027		42.968750
5028		39.062500
5029		46.875000
5030		39.062500
5031		46.875000
5032		46.875000
5033		50.781250
5034		46.875000
5035		50.781250
5036		50.781250
5037		54.687500
5038		50.781250
5039		58.593750
5040		54.687500
5041		58.593750
5042		58.593750
5043		62.500000
5044		58.593750
5045		66.406250
5046		62.500000
5047		66.406250
5048		66.406250
5049		70.312500
5050		66.406250
5051		70.312500
5052		70.312500
5053		74.218750
5054		74.218750
5055		78.125000
5056		74.218750
5057		78.125000
5058		78.125000
5059		82.031250
5060		78.125000
5061		85.937500
5062		82.031250
5063		85.937500
5064		82.031250
5065		89.843750
5066		85.937500
5067		89.843750
5068		89.843750
5069		93.750000
5070		89.843750
5071		93.750000
5072		93.750000
5073		97.656250
5074		93.750000
5075		97.656250
5076		97.656250
5077		101.562500
5078		97.656250
5079		101.562500
5080		101.562500
5081		105.468750
5082		101.562500
5083		105.468750
5084		105.468750
5085		109.375000
5086		105.468750
5087		109.375000
5088		105.468750
5089		109.375000
5090		109.375000
5091		113.281250
5092		109.375000
5093		113.281250
5094		113.281250
5095		117.187500
5096		113.281250
5097		117.187500
5098		113.281250
5099		117.187500
5100		117.187500
5101		121.093750
5102		117.187500
5103		121.093750
5104		117.187500
5105		121.093750
5106		117.187500
5107		121.093750
5108		121.093750
5109		125.000000
5110		121.093750
5111		125.000000
5112		121.093750
5113		125.000000
5114		121.093750
5115		125.000000
5116		125.000000
5117		128.906250
5118		125.000000
5119		128.906250
5120		125.000000
5121		128.906250
5122		125.000000
5123		128.906250
5124		125.000000
5125		128.906250
5126		125.000000
5127		128.906250
5128		128.906250
5129		128.906250
5130		128.906250
5131		128.906250
5132		128.906250
5133		128.906250
5134		128.906250
5135		128.906250
5136		128.906250
5137		128.906250
5138		128.906250
5139		132.812500
5140		128.906250
5141		132.812500
5142		128.906250
5143		128.906250
5144		128.906250
5145		128.906250
5146		128.906250
5147		128.906250
5148		125.000000
5149		128.906250
5150		125.000000
5151		128.906250
5152		125.000000
5153		128.906250
5154		125.000000
5155		128.906250
5156		125.000000
5157		128.906250
5158		125.000000
5159		128.906250
5160		125.000000
5161		128.906250
5162		121.093750
5163		125.000000
5164		121.093750
5165		125.000000
5166		121.093750
5167		125.000000
5168		121.093750
5169		125.000000
5170		117.187500
5171		121.093750
5172		117.187500
5173		121.093750
5174		117.187500
5175		121.093750
5176		113.281250
5177		117.187500
5178		113.281250
5179		117.187500
5180		113.281250
5181		117.187500
5182		109.375000
5183		113.281250
5184		109.375000
5185		113.281250
5186		109.375000
5187		113.281250
5188		105.468750
5189		109.375000
5190		105.468750
5191		109.375000
5192		101.562500
5193		105.468750
5194		101.562500
5195		105.468750
5196		97.656250
5197		101.562500
5198		97.656250
5199		101.562500
5200		93.750000
5201		97.656250
5202		93.750000
5203		97.656250
5204		89.843750
5205		93.750000
5206		89.843750
5207		93.750000
5208		85.937500
5209		89.843750
5210		82.031250
5211		89.843750
5212		82.031250
5213		85.937500
5214		78.125000
5215		82.031250
5216		78.125000
5217		82.031250
5218		74.218750
5219		78.125000
5220		70.312500
5221		78.125000
5222		70.312500
5223		74.218750
5224		66.406250
5225		70.312500
5226		62.500000
5227		70.312500
5228		62.500000
5229		66.406250
5230		58.593750
5231		62.500000
5232		58.593750
5233		62.500000
5234		54.687500
5235		58.593750
5236		50.781250
5237		58.593750
5238		46.875000
5239		54.687500
5240		42.968750
5241		50.781250
5242		42.968750
5243		46.875000
5244		39.062500
5245		46.875000
5246		39.062500
5247		42.968750
5248		35.156250
5249		39.062500
5250		31.250000
5251		35.156250
5252		31.250000
5253		35.156250
5254		27.343750
5255		31.250000
5256		23.437500
5257		27.343750
5258		23.437500
5259		27.343750
5260		19.531250
5261		23.437500
5262		15.625000
5263		19.531250
5264		15.625000
5265		19.531250
5266		11.718750
5267		15.625000
5268		7.812500
5269		11.718750
5270		3.906250
5271		11.718750
5272		3.906250
5273		7.812500
5274		0.000000
5275		7.812500
5276		0.000000
5277		3.906250
5278		-3.906250
5279		3.906250
5280		-3.906250
5281		0.000000
5282		-7.812500
5283		-3.906250
5284		-7.812500
5285		-3.906250
5286		-11.718750
5287		-7.812500
5288		-15.625000
5289		-7.812500
5290		-15.625000
5291		-11.718750
5292		-15.625000
5293		-11.718750
5294		-19.531250
5295		-15.625000
5296		-19.531250
5297		-15.625000
5298		-23.437500
5299		-19.531250
5300		-23.437500
5301		-19.531250
5302		-23.437500
5303		-23.437500
5304		-27.343750
5305		-23.437500
5306		-27.343750
5307		-23.437500
5308		-31.250000
5309		-27.343750
5310		-31.250000
5311		-27.343750
5312		-31.250000
5313		-27.343750
5314		-35.156250
5315		-31.250000
5316		-35.156250
5317		-31.250000
5318		-35.156250
5319		-31.250000
5320		-35.156250
5321		-31.250000
5322		-35.156250
5323		-31.250000
5324		-35.156250
5325		-35.156250
5326		-39.062500
5327		-35.156250
5328		-39.062500
5329		-35.156250
5330		-39.062500
5331		-35.156250
5332		-39.062500
5333		-35.156250
5334		-39.062500
5335		-35.156250
5336		-39.062500
5337		-35.156250
5338		-39.062500
5339		-35.156250
5340		-39.062500
5341		-35.156250
5342		-39.062500
5343		-35.156250
5344		-39.062500
5345		-35.156250
5346		-39.062500
5347		-35.156250
5348		-39.062500
5349		-35.156250
5350		-39.062500
5351		-35.156250
5352		-35.156250
5353		-35.156250
5354		-35.156250
5355		-31.250000
5356		-35.156250
5357		-31.250000
5358		-35.156250
5359		-31.250000
5360		-31.250000
5361		-31.250000
5362		-31.250000
5363		-27.343750
5364		-31.250000
5365		-27.343750
5366		-31.250000
5367		-27.343750
5368		-27.343750
5369		-23.437500
5370		-27.343750
5371		-23.437500
5372		-27.343750
5373		-19.531250
5374		-23.437500
5375		-19.531250
5376		-23.437500
5377		-19.531250
5378		-19.531250
5379		-15.625000
5380		-19.531250
5381		-15.625000
5382		-15.625000
5383		-11.718750
5384		-15.625000
5385		-11.718750
5386		-11.718750
5387		-7.812500
5388		-11.718750
5389		-7.812500
5390		-11.718750
5391		-3.906250
5392		-7.812500
5393		-3.906250
5394		-3.906250
5395		0.000000
5396		-3.906250
5397		0.000000
5398		0.000000
5399		3.906250
5400		0.000000
5401		7.812500
5402		3.906250
5403		7.812500
5404		7.812500
5405		11.718750
5406		7.812500
5407		11.718750
5408		11.718750
5409		15.625000
5410		11.718750
5411		19.531250
5412		15.625000
5413		19.531250
5414		19.531250
5415		23.437500
5416		19.531250
5417		27.343750
5418		23.437500
5419		27.343750
5420		27.343750
5421		31.250000
5422		27.343750
5423		35.156250
5424		31.250000
5425		35.156250
5426		35.156250
5427		39.062500
5428		35.156250
5429		42.968750
5430		39.062500
5431		42.968750
5432		42.968750
5433		46.875000
5434		42.968750
5435		46.875000
5436		46.875000
5437		50.781250
5438		50.781250
5439		54.687500
5440		50.781250
5441		58.593750
5442		54.687500
5443		58.593750
5444		58.593750
5445		62.500000
5446		58.593750
5447		62.500000
5448		62.500000
5449		66.406250
5450		66.406250
5451		70.312500
5452		66.406250
5453		70.312500
5454		70.312500
5455		74.218750
5456		70.312500
5457		78.125000
5458		74.218750
5459		78.125000
5460		78.125000
5461		82.031250
5462		78.125000
5463		82.031250
5464		82.031250
5465		85.937500
5466		82.031250
5467		85.937500
5468		85.937500
5469		89.843750
5470		89.843750
5471		93.750000
5472		89.843750
5473		93.750000
5474		93.750000
5475		97.656250
5476		93.750000
5477		97.656250
5478		97.656250
5479		101.562500
5480		97.656250
5481		101.562500
5482		97.656250
5483		105.468750
5484		101.562500
5485		105.468750
5486		105.468750
5487		109.375000
5488		105.468750
5489		109.375000
5490		105.468750
5491		109.375000
5492		109.375000
5493		113.281250
5494		109.375000
5495		113.281250
5496		113.281250
5497		117.187500
5498		113.281250
5499		117.187500
5500		113.281250
5501		117.187500
5502		117.187500
5503		121.093750
5504		117.187500
5505		121.093750
5506		117.187500
5507		121.093750
5508		117.187500
5509		125.000000
5510		121.093750
5511		125.000000
5512		121.093750
5513		125.000000
5514		121.093750
5515		125.000000
5516		121.093750
5517		125.000000
5518		125.000000
5519		128.906250
5520		125.000000
5521		128.906250
5522		125.000000
5523		128.906250
5524		125.000000
5525		128.906250
5526		125.000000
5527		128.906250
5528		128.906250
5529		128.906250
5530		128.906250
5531		132.812500
5532		128.906250
5533		132.812500
5534		128.906250
5535		132.812500
5536		128.906250
5537		132.812500
5538		128.906250
5539		132.812500
5540		128.906250
5541		132.812500
5542		128.906250
5543		132.812500
5544		128.906250
5545		132.812500
5546		128.906250
5547		132.812500
5548		128.906250
5549		132.812500
5550		128.906250
5551		132.812500
5552		128.906250
5553		132.812500
5554		128.906250
5555		128.906250
5556		128.906250
5557		128.906250
5558		125.000000
5559		128.906250
5560		125.000000
5561		128.906250
5562		125.000000
5563		128.906250
5564		125.000000
5565		128.906250
5566		125.000000
5567		128.906250
5568		121.093750
5569		125.000000
5570		121.093750
5571		125.000000
5572		121.093750
5573		125.000000
5574		121.093750
5575		121.093750
5576		117.187500
5577		121.093750
5578		117.187500
5579		121.093750
5580		117.187500
5581		121.093750
5582		113.281250
5583		117.187500
5584		113.281250
5585		117.187500
5586		113.281250
5587		117.187500
5588		109.375000
5589		113.281250
5590		109.375000
5591		113.281250
5592		105.468750
5593		109.375000
5594		105.468750
5595		109.375000
5596		101.562500
5597		105.468750
5598		101.562500
5599		105.468750
5600		97.656250
5601		101.562500
5602		97.656250
5603		101.562500
5604		93.750000
5605		101.562500
5606		93.750000
5607		97.656250
5608		89.843750
5609		93.750000
5610		89.843750
5611		93.750000
5612		85.937500
5613		89.843750
5614		82.031250
5615		89.843750
5616		82.031250
5617		85.937500
5618		78.125000
5619		85.937500
5620		78.125000
5621		82.031250
5622		74.218750
5623		78.125000
5624		70.312500
5625		78.125000
5626		70.312500
5627		74.218750
5628		66.406250
5629		70.312500
5630		62.500000
5631		70.312500
5632		62.500000
5633		66.406250
5634		58.593750
5635		62.500000
5636		58.593750
5637		62.500000
5638		54.687500
5639		58.593750
5640		50.781250
5641		54.687500
5642		46.875000
5643		54.687500
5644		46.875000
5645		50.781250
5646		42.968750
5647		46.875000
5648		39.062500
5649		46.875000
5650		39.062500
5651		42.968750
5652		35.156250
5653		39.062500
5654		31.250000
5655		35.156250
5656		31.250000
5657		35.156250
5658		27.343750
5659		31.250000
5660		23.437500
5661		27.343750
5662		23.437500
5663		27.343750
5664		19.531250
5665		23.437500
5666		15.625000
5667		19.531250
5668		15.625000
5669		19.531250
5670		11.718750
5671		15.625000
5672		7.812500
5673		11.718750
5674		7.812500
5675		11.718750
5676		3.906250
5677		7.812500
5678		3.906250
5679		7.812500
5680		0.000000
5681		3.906250
5682		-3.906250
5683		0.000000
5684		-3.906250
5685		0.000000
5686		-7.812500
5687		-3.906250
5688		-7.812500
5689		-3.906250
5690		-11.718750
5691		-7.812500
5692		-15.625000
5693		-7.812500
5694		-15.625000
5695		-11.718750
5696		-15.625000
5697		-11.718750
5698		-19.531250
5699		-15.625000
5700		-19.531250
5701		-15.625000
5702		-23.437500
5703		-19.531250
5704		-23.437500
5705		-19.531250
5706		-23.437500
5707		-19.531250
5708		-27.343750
5709		-23.437500
5710		-27.343750
5711		-23.437500
5712		-27.343750
5713		-23.437500
5714		-31.250000
5715		-27.343750
5716		-31.250000
5717		-27.343750
5718		-31.250000
5719		-27.343750
5720		-31.250000
5721		-31.250000
5722		-35.156250
5723		-31.250000
5724		-35.156250
5725		-31.250000
5726		-35.156250
5727		-31.250000
5728		-35.156250
5729		-31.250000
5730		-35.156250
5731		-35.156250
5732		-35.156250
5733		-31.250000
5734		-39.062500
5735		-35.156250
5736		-39.062500
5737		-35.156250
5738		-39.062500
5739		-35.156250
5740		-39.062500
5741		-35.156250
5742		-39.062500
5743		-35.156250
5744		-39.062500
5745		-35.156250
5746		-39.062500
5747		-35.156250
5748		-35.156250
5749		-35.156250
5750		-35.156250
5751		-35.156250
5752		-35.156250
5753		-31.250000
5754		-35.156250
5755		-31.250000
5756		-35.156250
5757		-31.250000
5758		-35.156250
5759		-31.250000
5760		-35.156250
5761		-31.250000
5762		-31.250000
5763		-31.250000
5764		-31.250000
5765		-27.343750
5766		-31.250000
5767		-27.343750
5768		-31.250000
5769		-27.343750
5770		-27.343750
5771		-23.437500
5772		-27.343750
5773		-23.437500
5774		-27.343750
5775		-23.437500
5776		-23.437500
5777		-19.531250
5778		-23.437500
5779		-19.531250
5780		-19.531250
5781		-15.625000
5782		-19.531250
5783		-15.625000
5784		-19.531250
5785		-15.625000
5786		-15.625000
5787		-11.718750
5788		-15.625000
5789		-11.718750
5790		-11.718750
5791		-7.812500
5792		-11.718750
5793		-7.812500
5794		-7.812500
5795		-3.906250
5796		-7.812500
5797		-3.906250
5798		-3.906250
5799		0.000000
5800		-3.906250
5801		0.000000
5802		0.000000
5803		3.906250
5804		3.906250
5805		7.812500
5806		3.906250
5807		7.812500
5808		7.812500
5809		11.718750
5810		7.812500
5811		15.625000
5812		11.718750
5813		15.625000
5814		15.625000
5815		19.531250
5816		15.625000
5817		19.531250
5818		19.531250
5819		23.437500
5820		23.437500
5821		27.343750
5822		23.437500
5823		27.343750
5824		27.343750
5825		31.250000
5826		31.250000
5827		35.156250
5828		31.250000
5829		35.156250
5830		35.156250
5831		39.062500
5832		39.062500
5833		42.968750
5834		39.062500
5835		42.968750
5836		42.968750
5837		46.875000
5838		46.875000
5839		50.781250
5840		46.875000
5841		50.781250
5842		50.781250
5843		54.687500
5844		54.687500
5845		58.593750
5846		54.687500
5847		58.593750
5848		58.593750
5849		62.500000
5850		58.593750
5851		66.406250
5852		62.500000
5853		66.406250
5854		66.406250
5855		70.312500
5856		66.406250
5857		70.312500
5858		70.312500
5859		74.218750
5860		74.218750
5861		78.125000
5862		74.218750
5863		78.125000
5864		78.125000
5865		82.031250
5866		78.125000
5867		82.031250
5868		82.031250
5869		85.937500
5870		85.937500
5871		89.843750
5872		85.937500
5873		89.843750
5874		89.843750
5875		93.750000
5876		89.843750
5877		93.750000
5878		93.750000
5879		97.656250
5880		93.750000
5881		97.656250
5882		97.656250
5883		101.562500
5884		97.656250
5885		101.562500
5886		101.562500
5887		105.468750
5888		101.562500
5889		105.468750
5890		105.468750
5891		109.375000
5892		105.468750
5893		109.375000
5894		105.468750
5895		109.375000
5896		109.375000
5897		113.281250
5898		109.375000
5899		113.281250
5900		113.281250
5901		117.187500
5902		113.281250
5903		117.187500
5904		113.281250
5905		121.093750
5906		113.281250
5907		121.093750
5908		117.187500
5909		121.093750
5910		117.187500
5911		121.093750
5912		117.187500
5913		125.000000
5914		121.093750
5915		125.000000
5916		121.093750
5917		125.000000
5918		121.093750
5919		125.000000
5920		125.000000
5921		128.906250
5922		125.000000
5923		128.906250
5924		125.000000
5925		128.906250
5926		125.000000
5927		132.812500
5928		128.906250
5929		128.906250
5930		125.000000
5931		132.812500
5932		128.906250
5933		128.906250
5934		128.906250
5935		132.812500
5936		125.000000
5937		132.812500
5938		128.906250
5939		132.812500
5940		128.906250
5941		132.812500
5942		128.906250
5943		132.812500
5944		128.906250
5945		132.812500
5946		128.906250
5947		132.812500
5948		128.906250
5949		132.812500
5950		128.906250
5951		132.812500
5952		128.906250
5953		132.812500
5954		125.000000
5955		132.812500
5956		128.906250
5957		132.812500
5958		128.906250
5959		132.812500
5960		125.000000
5961		132.812500
5962		125.000000
5963		128.906250
5964		125.000000
5965		128.906250
5966		125.000000
5967		128.906250
5968		125.000000
5969		128.906250
5970		121.093750
5971		128.906250
5972		121.093750
5973		125.000000
5974		121.093750
5975		125.000000
5976		117.187500
5977		125.000000
5978		117.187500
5979		125.000000
5980		113.281250
5981		125.000000
5982		117.187500
5983		121.093750
5984		117.187500
5985		121.093750
5986		113.281250
5987		117.187500
5988		109.375000
5989		117.187500
5990		113.281250
5991		117.187500
5992		109.375000
5993		113.281250
5994		105.468750
5995		113.281250
5996		105.468750
5997		113.281250
5998		105.468750
5999		109.375000
6000		101.562500
6001		105.468750
6002		101.562500
6003		105.468750
6004		97.656250
6005		105.468750
6006		97.656250
6007		101.562500
6008		93.750000
6009		97.656250
6010		89.843750
6011		97.656250
6012		89.843750
6013		97.656250
6014		85.937500
6015		97.656250
6016		85.937500
6017		89.843750
6018		82.031250
6019		89.843750
6020		78.125000
6021		85.937500
6022		78.125000
6023		85.937500
6024		78.125000
6025		82.031250
6026		74.218750
6027		78.125000
6028		70.312500
6029		78.125000
6030		66.406250
6031		78.125000
6032		66.406250
6033		70.312500
6034		66.406250
6035		70.312500
6036		62.500000
6037		66.406250
6038		58.593750
6039		66.406250
6040		54.687500
6041		62.500000
6042		54.687500
6043		58.593750
6044		46.875000
6045		58.593750
6046		46.875000
6047		58.593750
6048		46.875000
6049		54.687500
6050		42.968750
6051		46.875000
6052		39.062500
6053		46.875000
6054		35.156250
6055		46.875000
6056		35.156250
6057		42.968750
6058		35.156250
6059		39.062500
6060		27.343750
6061		35.156250
6062		27.343750
6063		35.156250
6064		23.437500
6065		31.250000
6066		23.437500
6067		27.343750
6068		19.531250
6069		23.437500
6070		15.625000
6071		23.437500
6072		11.718750
6073		23.437500
6074		11.718750
6075		15.625000
6076		7.812500
6077		15.625000
6078		3.906250
6079		15.625000
6080		3.906250
6081		11.718750
6082		3.906250
6083		7.812500
6084		0.000000
6085		3.906250
6086		-3.906250
6087		3.906250
6088		-7.812500
6089		3.906250
6090		-7.812500
6091		-3.906250
6092		-7.812500
6093		-3.906250
6094		-11.718750
6095		-3.906250
6096		-15.625000
6097		-3.906250
6098		-15.625000
6099		-7.812500
6100		-15.625000
6101		-11.718750
6102		-19.531250
6103		-11.718750
6104		-23.437500
6105		-15.625000
6106		-23.437500
6107		-15.625000
6108		-23.437500
6109		-19.531250
6110		-23.437500
6111		-19.531250
6112		-27.343750
6113		-19.531250
6114		-31.250000
6115		-23.437500
6116		-31.250000
6117		-23.437500
6118		-31.250000
6119		-27.343750
6120		-31.250000
6121		-27.343750
6122		-35.156250
6123		-27.343750
6124		-35.156250
6125		-27.343750
6126		-35.156250
6127		-31.250000
6128		-35.156250
6129		-27.343750
6130		-35.156250
6131		-27.343750
6132		-39.062500
6133		-31.250000
6134		-35.156250
6135		-31.250000
6136		-39.062500
6137		-35.156250
6138		-39.062500
6139		-31.250000
6140		-39.062500
6141		-35.156250
6142		-39.062500
6143		-35.156250
6144		-39.062500
6145		-35.156250
6146		-39.062500
6147		-31.250000
6148		-39.062500
6149		-31.250000
6150		-39.062500
6151		-35.156250
6152		-35.156250
6153		-35.156250
6154		-39.062500
6155		-31.250000
6156		-39.062500
6157		-31.250000
6158		-35.156250
6159		-31.250000
6160		-35.156250
6161		-31.250000
6162		-35.156250
6163		-31.250000
6164		-35.156250
6165		-27.343750
6166		-31.250000
6167		-27.343750
6168		-31.250000
6169		-27.343750
6170		-31.250000
6171		-27.343750
6172		-31.250000
6173		-23.437500
6174		-31.250000
6175		-23.437500
6176		-27.343750
6177		-23.437500
6178		-27.343750
6179		-19.531250
6180		-23.437500
6181		-19.531250
6182		-23.437500
6183		-19.531250
6184		-19.531250
6185		-15.625000
6186		-19.531250
6187		-15.625000
6188		-19.531250
6189		-11.718750
6190		-15.625000
6191		-11.718750
6192		-15.625000
6193		-7.812500
6194		-11.718750
6195		-7.812500
6196		-11.718750
6197		-3.906250
6198		-7.812500
6199		-3.906250
6200		-3.906250
6201		0.000000
6202		-3.906250
6203		0.000000
6204		0.000000
6205		3.906250
6206		0.000000
6207		3.906250
6208		3.906250
6209		7.812500
6210		3.906250
6211		7.812500
6212		7.812500
6213		11.718750
6214		11.718750
6215		15.625000
6216		11.718750
6217		15.625000
6218		15.625000
6219		19.531250
6220		15.625000
6221		23.437500
6222		19.531250
6223		23.437500
6224		23.437500
6225		27.343750
6226		23.437500
6227		31.250000
6228		27.343750
6229		31.250000
6230		31.250000
6231		35.156250
6232		31.250000
6233		39.062500
6234		35.156250
6235		39.062500
6236		39.062500
6237		42.968750
6238		39.062500
6239		46.875000
6240		42.968750
6241		50.781250
6242		46.875000
6243		50.781250
6244		46.875000
6245		54.687500
6246		50.781250
6247		58.593750
6248		54.687500
6249		58.593750
6250		54.687500
6251		62.500000
6252		58.593750
6253		62.500000
6254		62.500000
6255		66.406250
6256		62.500000
6257		70.312500
6258		66.406250
6259		70.312500
6260		70.312500
6261		74.218750
6262		70.312500
6263		78.125000
6264		74.218750
6265		78.125000
6266		74.218750
6267		82.031250
6268		78.125000
6269		82.031250
6270		82.031250
6271		85.937500
6272		82.031250
6273		89.843750
6274		85.937500
6275		89.843750
6276		85.937500
6277		93.750000
6278		85.937500
6279		93.750000
6280		89.843750
6281		97.656250
6282		93.750000
6283		97.656250
6284		97.656250
6285		101.562500
6286		97.656250
6287		101.562500
6288		97.656250
6289		105.468750
6290		101.562500
6291		105.468750
6292		101.562500
6293		109.375000
6294		101.562500
6295		109.375000
6296		105.468750
6297		113.281250
6298		109.375000
6299		113.281250
6300		109.375000
6301		113.281250
6302		109.375000
6303		117.187500
6304		113.281250
6305		117.187500
6306		113.281250
6307		117.187500
6308		113.281250
6309		121.093750
6310		117.187500
6311		121.093750
6312		117.187500
6313		121.093750
6314		117.187500
6315		125.000000
6316		121.093750
6317		125.000000
6318		121.093750
6319		125.000000
6320		121.093750
6321		125.000000
6322		125.000000
6323		128.906250
6324		125.000000
6325		128.906250
6326		125.000000
6327		128.906250
6328		125.000000
6329		128.906250
6330		125.000000
6331		128.906250
6332		128.906250
6333		132.812500
6334		125.000000
6335		132.812500
6336		128.906250
6337		132.812500
6338		128.906250
6339		132.812500
6340		128.906250
6341		132.812500
6342		128.906250
6343		132.812500
6344		128.906250
6345		132.812500
6346		128.906250
6347		132.812500
6348		128.906250
6349		132.812500
6350		128.906250
6351		132.812500
6352		128.906250
6353		132.812500
6354		128.906250
6355		132.812500
6356		128.906250
6357		132.812500
6358		128.906250
6359		132.812500
6360		125.000000
6361		132.812500
6362		125.000000
6363		132.812500
6364		128.906250
6365		128.906250
6366		125.000000
6367		128.906250
6368		125.000000
6369		128.906250
6370		125.000000
6371		128.906250
6372		125.000000
6373		128.906250
6374		125.000000
6375		128.906250
6376		121.093750
6377		125.000000
6378		121.093750
6379		128.906250
6380		121.093750
6381		125.000000
6382		121.093750
6383		121.093750
6384		117.187500
6385		121.093750
6386		117.187500
6387		121.093750
6388		117.187500
6389		121.093750
6390		113.281250
6391		117.187500
6392		113.281250
6393		117.187500
6394		109.375000
6395		117.187500
6396		109.375000
6397		113.281250
6398		109.375000
6399		113.281250
6400		105.468750
6401		109.375000
6402		105.468750
6403		109.375000
6404		101.562500
6405		105.468750
6406		101.562500
6407		105.468750
6408		97.656250
6409		105.468750
6410		97.656250
6411		101.562500
6412		93.750000
6413		101.562500
6414		93.750000
6415		97.656250
6416		89.843750
6417		93.750000
6418		89.843750
6419		93.750000
6420		85.937500
6421		89.843750
6422		82.031250
6423		89.843750
6424		82.031250
6425		85.937500
6426		78.125000
6427		85.937500
6428		78.125000
6429		82.031250
6430		74.218750
6431		78.125000
6432		70.312500
6433		78.125000
6434		70.312500
6435		74.218750
6436		66.406250
6437		70.312500
6438		62.500000
6439		70.312500
6440		62.500000
6441		66.406250
6442		58.593750
6443		62.500000
6444		58.593750
6445		62.500000
6446		54.687500
6447		58.593750
6448		50.781250
6449		54.687500
6450		46.875000
6451		54.687500
6452		46.875000
6453		50.781250
6454		42.968750
6455		46.875000
6456		39.062500
6457		46.875000
6458		39.062500
6459		42.968750
6460		35.156250
6461		39.062500
6462		31.250000
6463		39.062500
6464		31.250000
6465		35.156250
6466		27.343750
6467		31.250000
6468		23.437500
6469		27.343750
6470		23.437500
6471		27.343750
6472		19.531250
6473		23.437500
6474		15.625000
6475		19.531250
6476		15.625000
6477		19.531250
6478		11.718750
6479		15.625000
6480		7.812500
6481		15.625000
6482		7.812500
6483		11.718750
6484		3.906250
6485		7.812500
6486		3.906250
6487		7.812500
6488		0.000000
6489		3.906250
6490		-3.906250
6491		3.906250
6492		-3.906250
6493		0.000000
6494		-7.812500
6495		-3.906250
6496		-7.812500
6497		-3.906250
6498		-11.718750
6499		-3.906250
6500		-11.718750
6501		-7.812500
6502		-15.625000
6503		-11.718750
6504		-15.625000
6505		-11.718750
6506		-19.531250
6507		-15.625000
6508		-19.531250
6509		-15.625000
6510		-23.437500
6511		-15.625000
6512		-23.437500
6513		-19.531250
6514		-23.437500
6515		-19.531250
6516		-27.343750
6517		-23.437500
6518		-27.343750
6519		-23.437500
6520		-27.343750
6521		-23.437500
6522		-31.250000
6523		-27.343750
6524		-31.250000
6525		-27.343750
6526		-31.250000
6527		-27.343750
6528		-31.250000
6529		-31.250000
6530		-35.156250
6531		-31.250000
6532		-35.156250
6533		-31.250000
6534		-35.156250
6535		-31.250000
6536		-35.156250
6537		-31.250000
6538		-35.156250
6539		-31.250000
6540		-35.156250
6541		-31.250000
6542		-39.062500
6543		-35.156250
6544		-39.062500
6545		-35.156250
6546		-39.062500
6547		-35.156250
6548		-39.062500
6549		-35.156250
6550		-39.062500
6551		-35.156250
6552		-39.062500
6553		-35.156250
6554		-35.156250
6555		-31.250000
6556		-35.156250
6557		-31.250000
6558		-35.156250
6559		-31.250000
6560		-35.156250
6561		-31.250000
6562		-35.156250
6563		-31.250000
6564		-35.156250
6565		-31.250000
6566		-35.156250
6567		-31.250000
6568		-35.156250
6569		-27.343750
6570		-31.250000
6571		-27.343750
6572		-31.250000
6573		-27.343750
6574		-31.250000
6575		-27.343750
6576		-27.343750
6577		-23.437500
6578		-27.343750
6579		-23.437500
6580		-27.343750
6581		-23.437500
6582		-27.343750
6583		-19.531250
6584		-23.437500
6585		-19.531250
6586		-23.437500
6587		-19.531250
6588		-19.531250
6589		-15.625000
6590		-19.531250
6591		-15.625000
6592		-19.531250
6593		-11.718750
6594		-15.625000
6595		-11.718750
6596		-11.718750
6597		-7.812500
6598		-11.718750
6599		-7.812500
6600		-7.812500
6601		-3.906250
6602		-7.812500
6603		-3.906250
6604		-3.906250
6605		0.000000
6606		-3.906250
6607		0.000000
6608		0.000000
6609		3.906250
6610		0.000000
6611		7.812500
6612		3.906250
6613		7.812500
6614		3.906250
6615		11.718750
6616		7.812500
6617		11.718750
6618		11.718750
6619		15.625000
6620		11.718750
6621		15.625000
6622		15.625000
6623		19.531250
6624		19.531250
6625		23.437500
6626		19.531250
6627		27.343750
6628		23.437500
6629		27.343750
6630		27.343750
6631		31.250000
6632		27.343750
6633		31.250000
6634		31.250000
6635		35.156250
6636		31.250000
6637		39.062500
6638		35.156250
6639		39.062500
6640		39.062500
6641		42.968750
6642		42.968750
6643		46.875000
6644		42.968750
6645		46.875000
6646		46.875000
6647		50.781250
6648		50.781250
6649		54.687500
6650		50.781250
6651		58.593750
6652		54.687500
6653		58.593750
6654		58.593750
6655		62.500000
6656		58.593750
6657		62.500000
6658		62.500000
6659		66.406250
6660		66.406250
6661		70.312500
6662		66.406250
6663		70.312500
6664		70.312500
6665		74.218750
6666		70.312500
6667		78.125000
6668		74.218750
6669		78.125000
6670		74.218750
6671		82.031250
6672		78.125000
6673		82.031250
6674		82.031250
6675		85.937500
6676		82.031250
6677		89.843750
6678		85.937500
6679		89.843750
6680		85.937500
6681		89.843750
6682		89.843750
6683		93.750000
6684		89.843750
6685		97.656250
6686		93.750000
6687		97.656250
6688		93.750000
6689		101.562500
6690		97.656250
6691		101.562500
6692		97.656250
6693		105.468750
6694		101.562500
6695		105.468750
6696		105.468750
6697		109.375000
6698		105.468750
6699		109.375000
6700		105.468750
6701		109.375000
6702		109.375000
6703		113.281250
6704		109.375000
6705		113.281250
6706		113.281250
6707		117.187500
6708		113.281250
6709		117.187500
6710		113.281250
6711		117.187500
6712		117.187500
6713		121.093750
6714		117.187500
6715		121.093750
6716		117.187500
6717		121.093750
6718		121.093750
6719		125.000000
6720		121.093750
6721		125.000000
6722		121.093750
6723		125.000000
6724		121.093750
6725		125.000000
6726		125.000000
6727		128.906250
6728		125.000000
6729		128.906250
6730		125.000000
6731		128.906250
6732		125.000000
6733		128.906250
6734		125.000000
6735		128.906250
6736		128.906250
6737		132.812500
6738		128.906250
6739		132.812500
6740		128.906250
6741		132.812500
6742		128.906250
6743		132.812500
6744		128.906250
6745		132.812500
6746		128.906250
6747		132.812500
6748		128.906250
6749		132.812500
6750		128.906250
6751		132.812500
6752		128.906250
6753		132.812500
6754		128.906250
6755		132.812500
6756		128.906250
6757		132.812500
6758		128.906250
6759		132.812500
6760		128.906250
6761		132.812500
6762		128.906250
6763		132.812500
6764		128.906250
6765		132.812500
6766		128.906250
6767		132.812500
6768		128.906250
6769		132.812500
6770		125.000000
6771		128.906250
6772		125.000000
6773		128.906250
6774		125.000000
6775		128.906250
6776		125.000000
6777		128.906250
6778		125.000000
6779		128.906250
6780		121.093750
6781		125.000000
6782		121.093750
6783		125.000000
6784		121.093750
6785		125.000000
6786		121.093750
6787		125.000000
6788		117.187500
6789		121.093750
6790		117.187500
6791		121.093750
6792		117.187500
6793		121.093750
6794		113.281250
6795		117.187500
6796		113.281250
6797		117.187500
6798		109.375000
6799		117.187500
6800		109.375000
6801		113.281250
6802		109.375000
6803		113.281250
6804		105.468750
6805		109.375000
6806		105.468750
6807		109.375000
6808		101.562500
6809		105.468750
6810		101.562500
6811		105.468750
6812		97.656250
6813		105.468750
6814		97.656250
6815		101.562500
6816		93.750000
6817		97.656250
6818		93.750000
6819		97.656250
6820		89.843750
6821		97.656250
6822		89.843750
6823		93.750000
6824		85.937500
6825		89.843750
6826		82.031250
6827		89.843750
6828		82.031250
6829		85.937500
6830		78.125000
6831		85.937500
6832		78.125000
6833		82.031250
6834		74.218750
6835		78.125000
6836		70.312500
6837		78.125000
6838		70.312500
6839		74.218750
6840		66.406250
6841		70.312500
6842		62.500000
6843		70.312500
6844		62.500000
6845		66.406250
6846		58.593750
6847		62.500000
6848		54.687500
6849		62.500000
6850		54.687500
6851		58.593750
6852		50.781250
6853		54.687500
6854		46.875000
6855		54.687500
6856		46.875000
6857		50.781250
6858		42.968750
6859		46.875000
6860		39.062500
6861		46.875000
6862		39.062500
6863		42.968750
6864		35.156250
6865		39.062500
6866		31.250000
6867		39.062500
6868		31.250000
6869		35.156250
6870		27.343750
6871		31.250000
6872		23.437500
6873		31.250000
6874		19.531250
6875		27.343750
6876		19.531250
6877		23.437500
6878		15.625000
6879		19.531250
6880		15.625000
6881		19.531250
6882		11.718750
6883		15.625000
6884		7.812500
6885		15.625000
6886		7.812500
6887		11.718750
6888		3.906250
6889		7.812500
6890		3.906250
6891		7.812500
6892		0.000000
6893		3.906250
6894		-3.906250
6895		3.906250
6896		-3.906250
6897		0.000000
6898		-7.812500
6899		-3.906250
6900		-7.812500
6901		-3.906250
6902		-11.718750
6903		-7.812500
6904		-11.718750
6905		-7.812500
6906		-15.625000
6907		-11.718750
6908		-15.625000
6909		-11.718750
6910		-19.531250
6911		-15.625000
6912		-19.531250
6913		-15.625000
6914		-23.437500
6915		-15.625000
6916		-23.437500
6917		-19.531250
6918		-23.437500
6919		-19.531250
6920		-27.343750
6921		-23.437500
6922		-27.343750
6923		-23.437500
6924		-27.343750
6925		-23.437500
6926		-31.250000
6927		-27.343750
6928		-31.250000
6929		-27.343750
6930		-31.250000
6931		-27.343750
6932		-31.250000
6933		-27.343750
6934		-35.156250
6935		-31.250000
6936		-35.156250
6937		-31.250000
6938		-35.156250
6939		-31.250000
6940		-35.156250
6941		-31.250000
6942		-35.156250
6943		-31.250000
6944		-35.156250
6945		-31.250000
6946		-35.156250
6947		-31.250000
6948		-39.062500
6949		-31.250000
6950		-35.156250
6951		-35.156250
6952		-35.156250
6953		-35.156250
6954		-39.062500
6955		-35.156250
6956		-39.062500
6957		-35.156250
6958		-35.156250
6959		-31.250000
6960		-35.156250
6961		-31.250000
6962		-35.156250
6963		-31.250000
6964		-35.156250
6965		-31.250000
6966		-35.156250
6967		-31.250000
6968		-35.156250
6969		-31.250000
6970		-35.156250
6971		-31.250000
6972		-31.250000
6973		-27.343750
6974		-31.250000
6975		-27.343750
6976		-31.250000
6977		-27.343750
6978		-31.250000
6979		-27.343750
6980		-27.343750
6981		-23.437500
6982		-27.343750
6983		-23.437500
6984		-27.343750
6985		-23.437500
6986		-23.437500
6987		-19.531250
6988		-23.437500
6989		-19.531250
6990		-19.531250
6991		-15.625000
6992		-19.531250
6993		-15.625000
6994		-19.531250
6995		-15.625000
6996		-15.625000
6997		-11.718750
6998		-15.625000
6999		-11.718750
7000		-11.718750
7001		-7.812500
7002		-11.718750
7003		-7.812500
7004		-7.812500
7005		-3.906250
7006		-7.812500
7007		-3.906250
7008		-3.906250
7009		0.000000
7010		-3.906250
7011		3.906250
7012		0.000000
7013		3.906250
7014		0.000000
7015		7.812500
7016		3.906250
7017		7.812500
7018		7.812500
7019		11.718750
7020		7.812500
7021		11.718750
7022		11.718750
7023		15.625000
7024		15.625000
7025		19.531250
7026		15.625000
7027		19.531250
7028		19.531250
7029		23.437500
7030		19.531250
7031		27.343750
7032		23.437500
7033		27.343750
7034		27.343750
7035		31.250000
7036		27.343750
7037		35.156250
7038		31.250000
7039		35.156250
7040		35.156250
7041		39.062500
7042		35.156250
7043		42.968750
7044		39.062500
7045		42.968750
7046		42.968750
7047		46.875000
7048		42.968750
7049		50.781250
7050		46.875000
7051		50.781250
7052		50.781250
7053		54.687500
7054		50.781250
7055		58.593750
7056		54.687500
7057		62.500000
7058		58.593750
7059		62.500000
7060		58.593750
7061		66.406250
7062		62.500000
7063		66.406250
7064		66.406250
7065		70.312500
7066		66.406250
7067		74.218750
7068		70.312500
7069		74.218750
7070		74.218750
7071		78.125000
7072		74.218750
7073		78.125000
7074		78.125000
7075		82.031250
7076		78.125000
7077		82.031250
7078		82.031250
7079		85.937500
7080		82.031250
7081		89.843750
7082		85.937500
7083		89.843750
7084		89.843750
7085		93.750000
7086		89.843750
7087		93.750000
7088		93.750000
7089		97.656250
7090		93.750000
7091		101.562500
7092		97.656250
7093		101.562500
7094		97.656250
7095		101.562500
7096		101.562500
7097		105.468750
7098		101.562500
7099		105.468750
7100		105.468750
7101		109.375000
7102		105.468750
7103		109.375000
7104		105.468750
7105		113.281250
7106		109.375000
7107		113.281250
7108		109.375000
7109		113.281250
7110		113.281250
7111		117.187500
7112		113.281250
7113		117.187500
7114		113.281250
7115		117.187500
7116		117.187500
7117		121.093750
7118		117.187500
7119		121.093750
7120		117.187500
7121		121.093750
7122		121.093750
7123		125.000000
7124		121.093750
7125		125.000000
7126		121.093750
7127		125.000000
7128		121.093750
7129		128.906250
7130		125.000000
7131		128.906250
7132		125.000000
7133		128.906250
7134		125.000000
7135		128.906250
7136		125.000000
7137		128.906250
7138		125.000000
7139		132.812500
7140		128.906250
7141		132.812500
7142		128.906250
7143		132.812500
7144		128.906250
7145		132.812500
7146		128.906250
7147		132.812500
7148		128.906250
7149		132.812500
7150		128.906250
7151		132.812500
7152		128.906250
7153		132.812500
7154		128.906250
7155		132.812500
7156		128.906250
7157		132.812500
7158		128.906250
7159		132.812500
7160		128.906250
7161		132.812500
7162		128.906250
7163		132.812500
7164		128.906250
7165		132.812500
7166		128.906250
7167		132.812500
7168		128.906250
7169		132.812500
7170		128.906250
7171		132.812500
7172		128.906250
7173		132.812500
7174		125.000000
7175		128.906250
7176		125.000000
7177		128.906250
7178		125.000000
7179		128.906250
7180		125.000000
7181		128.906250
7182		125.000000
7183		128.906250
7184		121.093750
7185		128.906250
7186		121.093750
7187		125.000000
7188		121.093750
7189		125.000000
7190		121.093750
7191		125.000000
7192		117.187500
7193		121.093750
7194		117.187500
7195		121.093750
7196		117.187500
7197		121.093750
7198		113.281250
7199		117.187500
7200		113.281250
7201		117.187500
7202		113.281250
7203		113.281250
7204		109.375000
7205		113.281250
7206		109.375000
7207		113.281250
7208		105.468750
7209		109.375000
7210		105.468750
7211		109.375000
7212		101.562500
7213		105.468750
7214		101.562500
7215		105.468750
7216		97.656250
7217		101.562500
7218		97.656250
7219		101.562500
7220		93.750000
7221		101.562500
7222		93.750000
7223		97.656250
7224		89.843750
7225		93.750000
7226		89.843750
7227		93.750000
7228		85.937500
7229		89.843750
7230		82.031250
7231		89.843750
7232		82.031250
7233		85.937500
7234		78.125000
7235		82.031250
7236		78.125000
7237		82.031250
7238		74.218750
7239		78.125000
7240		70.312500
7241		78.125000
7242		70.312500
7243		74.218750
7244		66.406250
7245		70.312500
7246		62.500000
7247		70.312500
7248		62.500000
7249		66.406250
7250		58.593750
7251		62.500000
7252		54.687500
7253		62.500000
7254		54.687500
7255		58.593750
7256		50.781250
7257		54.687500
7258		46.875000
7259		54.687500
7260		46.875000
7261		50.781250
7262		42.968750
7263		46.875000
7264		39.062500
7265		46.875000
7266		39.062500
7267		42.968750
7268		35.156250
7269		39.062500
7270		31.250000
7271		35.156250
7272		31.250000
7273		35.156250
7274		27.343750
7275		31.250000
7276		23.437500
7277		27.343750
7278		19.531250
7279		27.343750
7280		19.531250
7281		23.437500
7282		15.625000
7283		19.531250
7284		11.718750
7285		19.531250
7286		11.718750
7287		15.625000
7288		7.812500
7289		11.718750
7290		7.812500
7291		11.718750
7292		3.906250
7293		7.812500
7294		3.906250
7295		7.812500
7296		0.000000
7297		3.906250
7298		-3.906250
7299		3.906250
7300		-3.906250
7301		0.000000
7302		-7.812500
7303		-3.906250
7304		-7.812500
7305		-3.906250
7306		-11.718750
7307		-7.812500
7308		-15.625000
7309		-7.812500
7310		-15.625000
7311		-11.718750
7312		-15.625000
7313		-11.718750
7314		-19.531250
7315		-15.625000
7316		-19.531250
7317		-15.625000
7318		-23.437500
7319		-15.625000
7320		-23.437500
7321		-19.531250
7322		-23.437500
7323		-19.531250
7324		-27.343750
7325		-23.437500
7326		-27.343750
7327		-23.437500
7328		-27.343750
7329		-23.437500
7330		-31.250000
7331		-27.343750
7332		-31.250000
7333		-27.343750
7334		-31.250000
7335		-27.343750
7336		-31.250000
7337		-27.343750
7338		-35.156250
7339		-31.250000
7340		-35.156250
7341		-31.250000
7342		-35.156250
7343		-31.250000
7344		-35.156250
7345		-31.250000
7346		-35.156250
7347		-31.250000
7348		-35.156250
7349		-31.250000
7350		-35.156250
7351		-31.250000
7352		-35.156250
7353		-35.156250
7354		-35.156250
7355		-35.156250
7356		-35.156250
7357		-31.250000
7358		-39.062500
7359		-31.250000
7360		-35.156250
7361		-35.156250
7362		-35.156250
7363		-31.250000
7364		-35.156250
7365		-31.250000
7366		-35.156250
7367		-31.250000
7368		-35.156250
7369		-31.250000
7370		-35.156250
7371		-31.250000
7372		-35.156250
7373		-31.250000
7374		-31.250000
7375		-27.343750
7376		-31.250000
7377		-27.343750
7378		-31.250000
7379		-27.343750
7380		-31.250000
7381		-23.437500
7382		-27.343750
7383		-23.437500
7384		-27.343750
7385		-23.437500
7386		-27.343750
7387		-23.437500
7388		-23.437500
7389		-19.531250
7390		-23.437500
7391		-19.531250
7392		-23.437500
7393		-19.531250
7394		-19.531250
7395		-15.625000
7396		-19.531250
7397		-15.625000
7398		-19.531250
7399		-11.718750
7400		-15.625000
7401		-11.718750
7402		-11.718750
7403		-7.812500
7404		-11.718750
7405		-7.812500
7406		-7.812500
7407		-3.906250
7408		-7.812500
7409		-3.906250
7410		-7.812500
7411		0.000000
7412		-3.906250
7413		0.000000
7414		0.000000
7415		3.906250
7416		0.000000
7417		7.812500
7418		3.906250
7419		7.812500
7420		3.906250
7421		11.718750
7422		7.812500
7423		11.718750
7424		11.718750
7425		15.625000
7426		11.718750
7427		15.625000
7428		15.625000
7429		19.531250
7430		19.531250
7431		23.437500
7432		19.531250
7433		23.437500
7434		23.437500
7435		27.343750
7436		23.437500
7437		31.250000
7438		27.343750
7439		31.250000
7440		31.250000
7441		35.156250
7442		31.250000
7443		39.062500
7444		35.156250
7445		39.062500
7446		39.062500
7447		42.968750
7448		39.062500
7449		46.875000
7450		42.968750
7451		46.875000
7452		46.875000
7453		50.781250
7454		46.875000
7455		54.687500
7456		50.781250
7457		54.687500
7458		54.687500
7459		58.593750
7460		54.687500
7461		62.500000
7462		58.593750
7463		62.500000
7464		62.500000
7465		66.406250
7466		62.500000
7467		70.312500
7468		66.406250
7469		70.312500
7470		70.312500
7471		74.218750
7472		70.312500
7473		74.218750
7474		74.218750
7475		78.125000
7476		74.218750
7477		82.031250
7478		78.125000
7479		82.031250
7480		78.125000
7481		85.937500
7482		82.031250
7483		85.937500
7484		85.937500
7485		89.843750
7486		85.937500
7487		89.843750
7488		89.843750
7489		93.750000
7490		89.843750
7491		93.750000
7492		93.750000
7493		97.656250
7494		93.750000
7495		101.562500
7496		97.656250
7497		101.562500
7498		97.656250
7499		105.468750
7500		101.562500
7501		105.468750
7502		101.562500
7503		105.468750
7504		105.468750
7505		109.375000
7506		105.468750
7507		109.375000
7508		109.375000
7509		113.281250
7510		109.375000
7511		113.281250
7512		113.281250
7513		113.281250
7514		113.281250
7515		117.187500
7516		113.281250
7517		117.187500
7518		113.281250
7519		121.093750
7520		117.187500
7521		121.093750
7522		117.187500
7523		121.093750
7524		121.093750
7525		125.000000
7526		121.093750
7527		125.000000
7528		121.093750
7529		125.000000
7530		121.093750
7531		125.000000
7532		121.093750
7533		128.906250
7534		125.000000
7535		128.906250
7536		125.000000
7537		128.906250
7538		125.000000
7539		128.906250
7540		125.000000
7541		132.812500
7542		128.906250
7543		128.906250
7544		128.906250
7545		132.812500
7546		128.906250
7547		132.812500
7548		128.906250
7549		132.812500
7550		128.906250
7551		132.812500
7552		128.906250
7553		132.812500
7554		128.906250
7555		132.812500
7556		128.906250
7557		132.812500
7558		128.906250
7559		132.812500
7560		128.906250
7561		132.812500
7562		128.906250
7563		132.812500
7564		128.906250
7565		132.812500
7566		128.906250
7567		132.812500
7568		128.906250
7569		132.812500
7570		128.906250
7571		132.812500
7572		128.906250
7573		132.812500
7574		128.906250
7575		132.812500
7576		125.000000
7577		132.812500
7578		125.000000
7579		128.906250
7580		125.000000
7581		128.906250
7582		125.000000
7583		128.906250
7584		125.000000
7585		128.906250
7586		125.000000
7587		128.906250
7588		121.093750
7589		125.000000
7590		121.093750
7591		125.000000
7592		121.093750
7593		125.000000
7594		117.187500
7595		121.093750
7596		117.187500
7597		121.093750
7598		117.187500
7599		121.093750
7600		117.187500
7601		121.093750
7602		113.281250
7603		117.187500
7604		113.281250
7605		117.187500
7606		109.375000
7607		113.281250
7608		109.375000
7609		113.281250
7610		105.468750
7611		113.281250
7612		105.468750
7613		109.375000
7614		105.468750
7615		109.375000
7616		101.562500
7617		105.468750
7618		101.562500
7619		105.468750
7620		97.656250
7621		101.562500
7622		97.656250
7623		101.562500
7624		93.750000
7625		101.562500
7626		93.750000
7627		97.656250
7628		89.843750
7629		93.750000
7630		89.843750
7631		93.750000
7632		85.937500
7633		89.843750
7634		82.031250
7635		89.843750
7636		82.031250
7637		85.937500
7638		78.125000
7639		82.031250
7640		74.218750
7641		82.031250
7642		74.218750
7643		78.125000
7644		70.312500
7645		74.218750
7646		70.312500
7647		74.218750
7648		66.406250
7649		70.312500
7650		62.500000
7651		70.312500
7652		62.500000
7653		66.406250
7654		58.593750
7655		62.500000
7656		54.687500
7657		58.593750
7658		54.687500
7659		58.593750
7660		50.781250
7661		54.687500
7662		46.875000
7663		54.687500
7664		42.968750
7665		50.781250
7666		42.968750
7667		46.875000
7668		39.062500
7669		42.968750
7670		35.156250
7671		42.968750
7672		35.156250
7673		39.062500
7674		31.250000
7675		35.156250
7676		27.343750
7677		35.156250
7678		27.343750
7679		31.250000
7680		23.437500
7681		27.343750
7682		19.531250
7683		27.343750
7684		19.531250
7685		23.437500
7686		15.625000
7687		19.531250
7688		11.718750
7689		19.531250
7690		11.718750
7691		15.625000
7692		7.812500
7693		11.718750
7694		7.812500
7695		11.718750
7696		3.906250
7697		7.812500
7698		0.000000
7699		7.812500
7700		0.000000
7701		3.906250
7702		-3.906250
7703		0.000000
7704		-3.906250
7705		0.000000
7706		-7.812500
7707		-3.906250
7708		-7.812500
7709		-3.906250
7710		-11.718750
7711		-7.812500
7712		-15.625000
7713		-7.812500
7714		-15.625000
7715		-11.718750
7716		-19.531250
7717		-11.718750
7718		-19.531250
7719		-15.625000
7720		-19.531250
7721		-15.625000
7722		-23.437500
7723		-15.625000
7724		-23.437500
7725		-19.531250
7726		-23.437500
7727		-19.531250
7728		-27.343750
7729		-23.437500
7730		-27.343750
7731		-23.437500
7732		-27.343750
7733		-27.343750
7734		-31.250000
7735		-27.343750
7736		-31.250000
7737		-27.343750
7738		-31.250000
7739		-27.343750
7740		-35.156250
7741		-27.343750
7742		-35.156250
7743		-31.250000
7744		-35.156250
7745		-31.250000
7746		-35.156250
7747		-31.250000
7748		-35.156250
7749		-31.250000
7750		-35.156250
7751		-31.250000
7752		-35.156250
7753		-31.250000
7754		-35.156250
7755		-31.250000
7756		-39.062500
7757		-35.156250
7758		-39.062500
7759		-35.156250
7760		-35.156250
7761		-31.250000
7762		-35.156250
7763		-31.250000
7764		-39.062500
7765		-35.156250
7766		-35.156250
7767		-35.156250
7768		-35.156250
7769		-31.250000
7770		-35.156250
7771		-31.250000
7772		-35.156250
7773		-31.250000
7774		-35.156250
7775		-31.250000
7776		-35.156250
7777		-31.250000
7778		-35.156250
7779		-27.343750
7780		-31.250000
7781		-27.343750
7782		-31.250000
7783		-27.343750
7784		-31.250000
7785		-27.343750
7786		-27.343750
7787		-23.437500
7788		-27.343750
7789		-23.437500
7790		-27.343750
7791		-23.437500
7792		-27.343750
7793		-19.531250
7794		-23.437500
7795		-19.531250
7796		-23.437500
7797		-19.531250
7798		-19.531250
7799		-15.625000
7800		-19.531250
7801		-15.625000
7802		-19.531250
7803		-11.718750
7804		-15.625000
7805		-11.718750
7806		-15.625000
7807		-11.718750
7808		-11.718750
7809		-7.812500
7810		-11.718750
7811		-3.906250
7812		-7.812500
7813		-3.906250
7814		-7.812500
7815		0.000000
7816		-3.906250
7817		0.000000
7818		-3.906250
7819		3.906250
7820		0.000000
7821		3.906250
7822		3.906250
7823		7.812500
7824		3.906250
7825		7.812500
7826		7.812500
7827		11.718750
7828		11.718750
7829		15.625000
7830		11.718750
7831		15.625000
7832		15.625000
7833		19.531250
7834		15.625000
7835		23.437500
7836		19.531250
7837		23.437500
7838		23.437500
7839		27.343750
7840		23.437500
7841		27.343750
7842		27.343750
7843		31.250000
7844		27.343750
7845		35.156250
7846		31.250000
7847		39.062500
7848		35.156250
7849		39.062500
7850		39.062500
7851		42.968750
7852		39.062500
7853		42.968750
7854		42.968750
7855		46.875000
7856		46.875000
7857		50.781250
7858		46.875000
7859		54.687500
7860		50.781250
7861		54.687500
7862		54.687500
7863		58.593750
7864		54.687500
7865		58.593750
7866		58.593750
7867		62.500000
7868		62.500000
7869		66.406250
7870		62.500000
7871		66.406250
7872		66.406250
7873		70.312500
7874		66.406250
7875		74.218750
7876		70.312500
7877		74.218750
7878		70.312500
7879		78.125000
7880		74.218750
7881		78.125000
7882		78.125000
7883		82.031250
7884		78.125000
7885		85.937500
7886		82.031250
7887		89.843750
7888		85.937500
7889		89.843750
7890		85.937500
7891		89.843750
7892		89.843750
7893		93.750000
7894		89.843750
7895		93.750000
7896		93.750000
7897		97.656250
7898		93.750000
7899		97.656250
7900		97.656250
7901		101.562500
7902		97.656250
7903		105.468750
7904		101.562500
7905		105.468750
7906		101.562500
7907		105.468750
7908		105.468750
7909		109.375000
7910		105.468750
7911		109.375000
7912		109.375000
7913		113.281250
7914		109.375000
7915		113.281250
7916		113.281250
7917		117.187500
7918		113.281250
7919		117.187500
7920		113.281250
7921		117.187500
7922		117.187500
7923		121.093750
7924		117.187500
7925		121.093750
7926		117.187500
7927		121.093750
7928		121.093750
7929		125.000000
7930		121.093750
7931		125.000000
7932		121.093750
7933		125.000000
7934		121.093750
7935		125.000000
7936		125.000000
7937		128.906250
7938		125.000000
7939		128.906250
7940		125.000000
7941		128.906250
7942		125.000000
7943		128.906250
7944		125.000000
7945		128.906250
7946		128.906250
7947		128.906250
7948		128.906250
7949		132.812500
7950		128.906250
7951		132.812500
7952		128.906250
7953		132.812500
7954		128.906250
7955		132.812500
7956		128.906250
7957		132.812500
7958		128.906250
7959		132.812500
7960		128.906250
7961		132.812500
7962		128.906250
7963		132.812500
7964		128.906250
7965		132.812500
7966		128.906250
7967		132.812500
7968		128.906250
7969		132.812500
7970		128.906250
7971		132.812500
7972		128.906250
7973		132.812500
7974		128.906250
7975		132.812500
7976		128.906250
7977		132.812500
7978		128.906250
7979		132.812500
7980		125.000000
7981		128.906250
7982		128.906250
7983		128.906250
7984		125.000000
7985		128.906250
7986		125.000000
7987		128.906250
7988		125.000000
7989		128.906250
7990		125.000000
7991		128.906250
7992		121.093750
7993		125.000000
7994		121.093750
7995		125.000000
7996		121.093750
7997		125.000000
7998		117.187500
7999		125.000000
8000		117.187500
8001		121.093750
8002		117.187500
8003		121.093750
8004		113.281250
8005		117.187500
8006		113.281250
8007		117.187500
8008		113.281250
8009		117.187500
8010		109.375000
8011		117.187500
8012		109.375000
8013		113.281250
8014		105.468750
8015		113.281250
8016		105.468750
8017		109.375000
8018		105.468750
8019		109.375000
8020		101.562500
8021		105.468750
8022		101.562500
8023		105.468750
8024		97.656250
8025		101.562500
8026		97.656250
8027		101.562500
8028		93.750000
8029		97.656250
8030		89.843750
8031		97.656250
8032		89.843750
8033		93.750000
8034		85.937500
8035		93.750000
8036		85.937500
8037		89.843750
8038		82.031250
8039		85.937500
8040		82.031250
8041		85.937500
8042		78.125000
8043		82.031250
8044		74.218750
8045		82.031250
8046		74.218750
8047		78.125000
8048		70.312500
8049		74.218750
8050		66.406250
8051		74.218750
8052		66.406250
8053		70.312500
8054		62.500000
8055		66.406250
8056		58.593750
8057		66.406250
8058		58.593750
8059		62.500000
8060		54.687500
8061		58.593750
8062		50.781250
8063		58.593750
8064		50.781250
8065		54.687500
8066		46.875000
8067		50.781250
8068		42.968750
8069		50.781250
8070		42.968750
8071		46.875000
8072		39.062500
8073		42.968750
8074		35.156250
8075		42.968750
8076		35.156250
8077		39.062500
8078		31.250000
8079		35.156250
8080		27.343750
8081		31.250000
8082		27.343750
8083		31.250000
8084		23.437500
8085		27.343750
8086		19.531250
8087		23.437500
8088		19.531250
8089		23.437500
8090		15.625000
8091		19.531250
8092		11.718750
8093		19.531250
8094		11.718750
8095		15.625000
8096		7.812500
8097		11.718750
8098		3.906250
8099		11.718750
8100		3.906250
8101		7.812500
8102		0.000000
8103		7.812500
8104		-3.906250
8105		3.906250
8106		-3.906250
8107		0.000000
8108		-3.906250
8109		0.000000
8110		-7.812500
8111		-3.906250
8112		-11.718750
8113		-3.906250
8114		-11.718750
8115		-7.812500
8116		-15.625000
8117		-7.812500
8118		-15.625000
8119		-11.718750
8120		-19.531250
8121		-15.625000
8122		-19.531250
8123		-15.625000
8124		-19.531250
8125		-15.625000
8126		-23.437500
8127		-19.531250
8128		-23.437500
8129		-19.531250
8130		-27.343750
8131		-23.437500
8132		-27.343750
8133		-23.437500
8134		-27.343750
8135		-23.437500
8136		-27.343750
8137		-23.437500
8138		-31.250000
8139		-27.343750
8140		-31.250000
8141		-27.343750
8142		-31.250000
8143		-27.343750
8144		-31.250000
8145		-31.250000
8146		-35.156250
8147		-31.250000
8148		-35.156250
8149		-31.250000
8150		-35.156250
8151		-31.250000
8152		-35.156250
8153		-31.250000
8154		-35.156250
8155		-31.250000
8156		-35.156250
8157		-31.250000
8158		-35.156250
8159		-35.156250
8160		-39.062500
8161		-31.250000
8162		-35.156250
8163		-31.250000
8164		-39.062500
8165		-35.156250
8166		-35.156250
8167		-31.250000
8168		-35.156250
8169		-35.156250
8170		-39.062500
8171		-31.250000
8172		-35.156250
8173		-31.250000
8174		-35.156250
8175		-31.250000
8176		-35.156250
8177		-31.250000
8178		-35.156250
8179		-31.250000
8180		-31.250000
8181		-31.250000
8182		-31.250000
8183		-27.343750
8184		-31.250000
8185		-27.343750
8186		-31.250000
8187		-27.343750
8188		-31.250000
8189		-27.343750
8190		-27.343750
8191		-23.437500
8192		-27.343750
8193		-23.437500
8194		-27.343750
8195		-23.437500
8196		-23.437500
8197		-19.531250
8198		-23.437500
8199		-19.531250
8200		-23.437500
8201		-19.531250
8202		-19.531250
8203		-15.625000
8204		-19.531250
8205		-15.625000
8206		-15.625000
8207		-11.718750
8208		-15.625000
8209		-11.718750
8210		-11.718750
8211		-7.812500
8212		-11.718750
8213		-7.812500
8214		-7.812500
8215		-3.906250
8216		-7.812500
8217		-3.906250
8218		-3.906250
8219		0.000000
8220		-3.906250
8221		0.000000
8222		0.000000
8223		3.906250
8224		0.000000
8225		7.812500
8226		3.906250
8227		7.812500
8228		7.812500
8229		11.718750
8230		7.812500
8231		11.718750
8232		11.718750
8233		15.625000
8234		11.718750
8235		19.531250
8236		15.625000
8237		19.531250
8238		19.531250
8239		23.437500
8240		19.531250
8241		27.343750
8242		23.437500
8243		27.343750
8244		23.437500
8245		31.250000
8246		27.343750
8247		35.156250
8248		31.250000
8249		35.156250
8250		35.156250
8251		39.062500
8252		35.156250
8253		39.062500
8254		39.062500
8255		42.968750
8256		42.968750
8257		46.875000
8258		42.968750
8259		46.875000
8260		46.875000
8261		50.781250
8262		50.781250
8263		54.687500
8264		50.781250
8265		54.687500
8266		54.687500
8267		58.593750
8268		58.593750
8269		62.500000
8270		58.593750
8271		62.500000
8272		62.500000
8273		66.406250
8274		62.500000
8275		70.312500
8276		66.406250
8277		70.312500
8278		70.312500
8279		74.218750
8280		70.312500
8281		78.125000
8282		74.218750
8283		78.125000
8284		74.218750
8285		82.031250
8286		78.125000
8287		82.031250
8288		82.031250
8289		85.937500
8290		82.031250
8291		85.937500
8292		85.937500
8293		89.843750
8294		85.937500
8295		93.750000
8296		89.843750
8297		93.750000
8298		89.843750
8299		97.656250
8300		93.750000
8301		97.656250
8302		97.656250
8303		101.562500
8304		97.656250
8305		101.562500
8306		97.656250
8307		105.468750
8308		101.562500
8309		105.468750
8310		101.562500
8311		105.468750
8312		105.468750
8313		109.375000
8314		105.468750
8315		109.375000
8316		109.375000
8317		113.281250
8318		109.375000
8319		113.281250
8320		109.375000
8321		117.187500
8322		113.281250
8323		117.187500
8324		113.281250
8325		117.187500
8326		117.187500
8327		121.093750
8328		117.187500
8329		121.093750
8330		117.187500
8331		121.093750
8332		117.187500
8333		125.000000
8334		121.093750
8335		125.000000
8336		121.093750
8337		125.000000
8338		121.093750
8339		125.000000
8340		125.000000
8341		128.906250
8342		125.000000
8343		128.906250
8344		125.000000
8345		128.906250
8346		125.000000
8347		128.906250
8348		125.000000
8349		128.906250
8350		128.906250
8351		132.812500
8352		128.906250
8353		132.812500
8354		128.906250
8355		132.812500
8356		128.906250
8357		132.812500
8358		128.906250
8359		132.812500
8360		128.906250
8361		132.812500
8362		128.906250
8363		132.812500
8364		128.906250
8365		132.812500
8366		128.906250
8367		132.812500
8368		128.906250
8369		132.812500
8370		128.906250
8371		132.812500
8372		128.906250
8373		132.812500
8374		128.906250
8375		132.812500
8376		128.906250
8377		132.812500
8378		128.906250
8379		132.812500
8380		128.906250
8381		132.812500
8382		125.000000
8383		128.906250
8384		125.000000
8385		128.906250
8386		125.000000
8387		128.906250
8388		125.000000
8389		128.906250
8390		125.000000
8391		128.906250
8392		125.000000
8393		128.906250
8394		121.093750
8395		125.000000
8396		121.093750
8397		125.000000
8398		121.093750
8399		125.000000
8400		117.187500
8401		125.000000
8402		117.187500
8403		121.093750
8404		117.187500
8405		121.093750
8406		113.281250
8407		117.187500
8408		113.281250
8409		117.187500
8410		113.281250
8411		117.187500
8412		109.375000
8413		113.281250
8414		109.375000
8415		113.281250
8416		105.468750
8417		113.281250
8418		105.468750
8419		109.375000
8420		105.468750
8421		109.375000
8422		101.562500
8423		105.468750
8424		101.562500
8425		105.468750
8426		97.656250
8427		101.562500
8428		97.656250
8429		101.562500
8430		93.750000
8431		97.656250
8432		93.750000
8433		97.656250
8434		89.843750
8435		93.750000
8436		89.843750
8437		93.750000
8438		85.937500
8439		89.843750
8440		82.031250
8441		89.843750
8442		82.031250
8443		85.937500
8444		78.125000
8445		85.937500
8446		74.218750
8447		82.031250
8448		74.218750
8449		78.125000
8450		70.312500
8451		78.125000
8452		70.312500
8453		74.218750
8454		66.406250
8455		70.312500
8456		62.500000
8457		70.312500
8458		62.500000
8459		66.406250
8460		58.593750
8461		62.500000
8462		54.687500
8463		62.500000
8464		50.781250
8465		58.593750
8466		46.875000
8467		58.593750
8468		46.875000
8469		54.687500
8470		46.875000
8471		50.781250
8472		42.968750
8473		46.875000
8474		39.062500
8475		46.875000
8476		39.062500
8477		42.968750
8478		35.156250
8479		39.062500
8480		31.250000
8481		39.062500
8482		27.343750
8483		35.156250
8484		27.343750
8485		31.250000
8486		23.437500
8487		31.250000
8488		23.437500
8489		27.343750
8490		19.531250
8491		23.437500
8492		15.625000
8493		23.437500
8494		11.718750
8495		19.531250
8496		11.718750
8497		15.625000
8498		7.812500
8499		15.625000
8500		3.906250
8501		11.718750
8502		3.906250
8503		11.718750
8504		0.000000
8505		7.812500
8506		0.000000
8507		3.906250
8508		-3.906250
8509		3.906250
8510		-7.812500
8511		0.000000
8512		-7.812500
8513		0.000000
8514		-11.718750
8515		-3.906250
8516		-11.718750
8517		-7.812500
8518		-15.625000
8519		-7.812500
8520		-15.625000
8521		-11.718750
8522		-15.625000
8523		-11.718750
8524		-19.531250
8525		-15.625000
8526		-23.437500
8527		-15.625000
8528		-23.437500
8529		-15.625000
8530		-23.437500
8531		-15.625000
8532		-27.343750
8533		-19.531250
8534		-27.343750
8535		-19.531250
8536		-27.343750
8537		-23.437500
8538		-31.250000
8539		-27.343750
8540		-31.250000
8541		-27.343750
8542		-35.156250
8543		-27.343750
8544		-35.156250
8545		-27.343750
8546		-35.156250
8547		-27.343750
8548		-35.156250
8549		-27.343750
8550		-35.156250
8551		-31.250000
8552		-35.156250
8553		-31.250000
8554		-35.156250
8555		-31.250000
8556		-35.156250
8557		-35.156250
8558		-39.062500
8559		-31.250000
8560		-39.062500
8561		-31.250000
8562		-39.062500
8563		-31.250000
8564		-39.062500
8565		-31.250000
8566		-39.062500
8567		-31.250000
8568		-39.062500
8569		-31.250000
8570		-39.062500
8571		-31.250000
8572		-39.062500
8573		-35.156250
8574		-39.062500
8575		-31.250000
8576		-39.062500
8577		-31.250000
8578		-39.062500
8579		-31.250000
8580		-39.062500
8581		-31.250000
8582		-39.062500
8583		-31.250000
8584		-35.156250
8585		-27.343750
8586		-35.156250
8587		-27.343750
8588		-31.250000
8589		-27.343750
8590		-31.250000
8591		-27.343750
8592		-31.250000
8593		-27.343750
8594		-31.250000
8595		-23.437500
8596		-31.250000
8597		-23.437500
8598		-27.343750
8599		-23.437500
8600		-27.343750
8601		-19.531250
8602		-27.343750
8603		-19.531250
8604		-23.437500
8605		-19.531250
8606		-23.437500
8607		-15.625000
8608		-19.531250
8609		-11.718750
8610		-19.531250
8611		-11.718750
8612		-19.531250
8613		-11.718750
8614		-15.625000
8615		-7.812500
8616		-11.718750
8617		-7.812500
8618		-11.718750
8619		-3.906250
8620		-11.718750
8621		-3.906250
8622		-3.906250
8623		0.000000
8624		-3.906250
8625		3.906250
8626		-3.906250
8627		3.906250
8628		0.000000
8629		7.812500
8630		3.906250
8631		11.718750
8632		3.906250
8633		11.718750
8634		7.812500
8635		15.625000
8636		7.812500
8637		15.625000
8638		11.718750
8639		15.625000
8640		15.625000
8641		19.531250
8642		15.625000
8643		23.437500
8644		15.625000
8645		27.343750
8646		19.531250
8647		27.343750
8648		23.437500
8649		31.250000
8650		27.343750
8651		35.156250
8652		27.343750
8653		35.156250
8654		31.250000
8655		39.062500
8656		35.156250
8657		39.062500
8658		39.062500
8659		42.968750
8660		39.062500
8661		46.875000
8662		39.062500
8663		50.781250
8664		42.968750
8665		50.781250
8666		46.875000
8667		54.687500
8668		50.781250
8669		58.593750
8670		50.781250
8671		58.593750
8672		54.687500
8673		58.593750
8674		58.593750
8675		62.500000
8676		58.593750
8677		66.406250
8678		62.500000
8679		70.312500
8680		66.406250
8681		74.218750
8682		66.406250
8683		74.218750
8684		70.312500
8685		78.125000
8686		74.218750
8687		78.125000
8688		74.218750
8689		78.125000
8690		78.125000
8691		82.031250
8692		78.125000
8693		85.937500
8694		82.031250
8695		89.843750
8696		82.031250
8697		89.843750
8698		85.937500
8699		93.750000
8700		85.937500
8701		93.750000
8702		89.843750
8703		97.656250
8704		89.843750
8705		97.656250
8706		93.750000
8707		97.656250
8708		97.656250
8709		101.562500
8710		97.656250
8711		105.468750
8712		97.656250
8713		109.375000
8714		101.562500
8715		109.375000
8716		101.562500
8717		109.375000
8718		105.468750
8719		113.281250
8720		105.468750
8721		113.281250
8722		109.375000
8723		113.281250
8724		109.375000
8725		113.281250
8726		113.281250
8727		117.187500
8728		113.281250
8729		121.093750
8730		113.281250
8731		121.093750
8732		113.281250
8733		121.093750
8734		117.187500
8735		121.093750
8736		117.187500
8737		125.000000
8738		117.187500
8739		125.000000
8740		121.093750
8741		125.000000
8742		121.093750
8743		125.000000
8744		121.093750
8745		128.906250
8746		121.093750
8747		128.906250
8748		121.093750
8749		128.906250
8750		125.000000
8751		128.906250
8752		125.000000
8753		132.812500
8754		125.000000
8755		132.812500
8756		128.906250
8757		128.906250
8758		128.906250
8759		132.812500
8760		128.906250
8761		132.812500
8762		128.906250
8763		132.812500
8764		128.906250
8765		132.812500
8766		128.906250
8767		132.812500
8768		128.906250
8769		132.812500
8770		128.906250
8771		132.812500
8772		128.906250
8773		132.812500
8774		128.906250
8775		132.812500
8776		128.906250
8777		132.812500
8778		125.000000
8779		132.812500
8780		125.000000
8781		132.812500
8782		125.000000
8783		132.812500
8784		125.000000
8785		132.812500
8786		125.000000
8787		132.812500
8788		125.000000
8789		128.906250
8790		125.000000
8791		128.906250
8792		125.000000
8793		128.906250
8794		121.093750
8795		128.906250
8796		121.093750
8797		128.906250
8798		121.093750
8799		128.906250
8800		117.187500
8801		125.000000
8802		117.187500
8803		125.000000
8804		117.187500
8805		125.000000
8806		117.187500
8807		121.093750
8808		117.187500
8809		121.093750
8810		113.281250
8811		121.093750
8812		113.281250
8813		121.093750
8814		109.375000
8815		117.187500
8816		109.375000
8817		117.187500
8818		105.468750
8819		117.187500
8820		105.468750
8821		113.281250
8822		105.468750
8823		113.281250
8824		105.468750
8825		109.375000
8826		101.562500
8827		109.375000
8828		97.656250
8829		105.468750
8830		97.656250
8831		105.468750
8832		93.750000
8833		101.562500
8834		93.750000
8835		101.562500
8836		89.843750
8837		97.656250
8838		89.843750
8839		97.656250
8840		89.843750
8841		93.750000
8842		85.937500
8843		89.843750
8844		82.031250
8845		89.843750
8846		78.125000
8847		85.937500
8848		78.125000
8849		85.937500
8850		74.218750
8851		82.031250
8852		70.312500
8853		82.031250
8854		70.312500
8855		78.125000
8856		70.312500
8857		74.218750
8858		66.406250
8859		70.312500
8860		62.500000
8861		70.312500
8862		58.593750
8863		66.406250
8864		58.593750
8865		66.406250
8866		54.687500
8867		62.500000
8868		50.781250
8869		58.593750
8870		46.875000
8871		58.593750
8872		46.875000
8873		54.687500
8874		46.875000
8875		50.781250
8876		42.968750
8877		46.875000
8878		39.062500
8879		46.875000
8880		35.156250
8881		42.968750
8882		31.250000
8883		42.968750
8884		31.250000
8885		39.062500
8886		27.343750
8887		35.156250
8888		23.437500
8889		31.250000
8890		23.437500
8891		27.343750
8892		23.437500
8893		27.343750
8894		15.625000
8895		23.437500
8896		15.625000
8897		23.437500
8898		11.718750
8899		19.531250
8900		11.718750
8901		19.531250
8902		7.812500
8903		15.625000
8904		3.906250
8905		11.718750
8906		3.906250
8907		7.812500
8908		0.000000
8909		3.906250
8910		-3.906250
8911		3.906250
8912		-3.906250
8913		3.906250
8914		-7.812500
8915		0.000000
8916		-7.812500
8917		0.000000
8918		-11.718750
8919		-3.906250
8920		-11.718750
8921		-7.812500
8922		-15.625000
8923		-7.812500
8924		-15.625000
8925		-11.718750
8926		-15.625000
8927		-15.625000
8928		-19.531250
8929		-15.625000
8930		-23.437500
8931		-15.625000
8932		-23.437500
8933		-15.625000
8934		-27.343750
8935		-19.531250
8936		-27.343750
8937		-19.531250
8938		-27.343750
8939		-23.437500
8940		-27.343750
8941		-23.437500
8942		-31.250000
8943		-27.343750
8944		-31.250000
8945		-27.343750
8946		-31.250000
8947		-27.343750
8948		-35.156250
8949		-27.343750
8950		-35.156250
8951		-27.343750
8952		-35.156250
8953		-31.250000
8954		-39.062500
8955		-31.250000
8956		-39.062500
8957		-31.250000
8958		-35.156250
8959		-35.156250
8960		-35.156250
8961		-35.156250
8962		-39.062500
8963		-31.250000
8964		-39.062500
8965		-31.250000
8966		-39.062500
8967		-31.250000
8968		-39.062500
8969		-35.156250
8970		-39.062500
8971		-31.250000
8972		-39.062500
8973		-31.250000
8974		-39.062500
8975		-35.156250
8976		-39.062500
8977		-35.156250
8978		-39.062500
8979		-31.250000
8980		-39.062500
8981		-31.250000
8982		-39.062500
8983		-31.250000
8984		-39.062500
8985		-31.250000
8986		-35.156250
8987		-31.250000
8988		-35.156250
8989		-27.343750
8990		-35.156250
8991		-31.250000
8992		-31.250000
8993		-27.343750
8994		-31.250000
8995		-27.343750
8996		-31.250000
8997		-23.437500
8998		-31.250000
8999		-23.437500
9000		-31.250000
9001		-23.437500
9002		-27.343750
9003		-19.531250
9004		-27.343750
9005		-19.531250
9006		-27.343750
9007		-19.531250
9008		-23.437500
9009		-19.531250
9010		-19.531250
9011		-15.625000
9012		-19.531250
9013		-11.718750
9014		-19.531250
9015		-11.718750
9016		-15.625000
9017		-7.812500
9018		-15.625000
9019		-7.812500
9020		-11.718750
9021		-3.906250
9022		-11.718750
9023		-3.906250
9024		-7.812500
9025		-3.906250
9026		-3.906250
9027		0.000000
9028		-3.906250
9029		3.906250
9030		-3.906250
9031		3.906250
9032		0.000000
9033		7.812500
9034		0.000000
9035		7.812500
9036		3.906250
9037		11.718750
9038		7.812500
9039		15.625000
9040		7.812500
9041		15.625000
9042		11.718750
9043		19.531250
9044		15.625000
9045		19.531250
9046		15.625000
9047		23.437500
9048		19.531250
9049		27.343750
9050		19.531250
9051		27.343750
9052		23.437500
9053		31.250000
9054		27.343750
9055		35.156250
9056		31.250000
9057		35.156250
9058		35.156250
9059		39.062500
9060		35.156250
9061		39.062500
9062		39.062500
9063		46.875000
9064		39.062500
9065		46.875000
9066		42.968750
9067		50.781250
9068		42.968750
9069		54.687500
9070		46.875000
9071		54.687500
9072		50.781250
9073		58.593750
9074		54.687500
9075		58.593750
9076		54.687500
9077		62.500000
9078		58.593750
9079		66.406250
9080		58.593750
9081		66.406250
9082		62.500000
9083		70.312500
9084		66.406250
9085		74.218750
9086		66.406250
9087		74.218750
9088		70.312500
9089		78.125000
9090		70.312500
9091		78.125000
9092		74.218750
9093		82.031250
9094		78.125000
9095		82.031250
9096		78.125000
9097		85.937500
9098		82.031250
9099		89.843750
9100		82.031250
9101		89.843750
9102		85.937500
9103		93.750000
9104		85.937500
9105		93.750000
9106		89.843750
9107		97.656250
9108		93.750000
9109		97.656250
9110		97.656250
9111		101.562500
9112		97.656250
9113		101.562500
9114		97.656250
9115		105.468750
9116		97.656250
9117		105.468750
9118		101.562500
9119		109.375000
9120		105.468750
9121		109.375000
9122		105.468750
9123		113.281250
9124		105.468750
9125		113.281250
9126		109.375000
9127		113.281250
9128		113.281250
9129		117.187500
9130		109.375000
9131		121.093750
9132		113.281250
9133		121.093750
9134		113.281250
9135		121.093750
9136		113.281250
9137		121.093750
9138		117.187500
9139		125.000000
9140		117.187500
9141		125.000000
9142		121.093750
9143		125.000000
9144		121.093750
9145		125.000000
9146		121.093750
9147		128.906250
9148		121.093750
9149		128.906250
9150		121.093750
9151		128.906250
9152		121.093750
9153		128.906250
9154		125.000000
9155		128.906250
9156		125.000000
9157		132.812500
9158		125.000000
9159		132.812500
9160		128.906250
9161		128.906250
9162		128.906250
9163		132.812500
9164		125.000000
9165		132.812500
9166		125.000000
9167		132.812500
9168		125.000000
9169		132.812500
9170		125.000000
9171		132.812500
9172		128.906250
9173		132.812500
9174		128.906250
9175		132.812500
9176		128.906250
9177		132.812500
9178		128.906250
9179		132.812500
9180		125.000000
9181		132.812500
9182		125.000000
9183		132.812500
9184		125.000000
9185		132.812500
9186		125.000000
9187		132.812500
9188		125.000000
9189		132.812500
9190		125.000000
9191		132.812500
9192		125.000000
9193		128.906250
9194		125.000000
9195		128.906250
9196		121.093750
9197		128.906250
9198		121.093750
9199		128.906250
9200		121.093750
9201		128.906250
9202		121.093750
9203		128.906250
9204		121.093750
9205		125.000000
9206		117.187500
9207		125.000000
9208		117.187500
9209		125.000000
9210		117.187500
9211		121.093750
9212		113.281250
9213		121.093750
9214		113.281250
9215		121.093750
9216		113.281250
9217		121.093750
9218		109.375000
9219		117.187500
9220		109.375000
9221		117.187500
9222		105.468750
9223		113.281250
9224		105.468750
9225		113.281250
9226		105.468750
9227		109.375000
9228		105.468750
9229		109.375000
9230		101.562500
9231		105.468750
9232		97.656250
9233		105.468750
9234		97.656250
9235		105.468750
9236		93.750000
9237		101.562500
9238		93.750000
9239		101.562500
9240		89.843750
9241		97.656250
9242		89.843750
9243		97.656250
9244		85.937500
9245		93.750000
9246		85.937500
9247		89.843750
9248		82.031250
9249		89.843750
9250		78.125000
9251		85.937500
9252		78.125000
9253		85.937500
9254		74.218750
9255		82.031250
9256		70.312500
9257		78.125000
9258		70.312500
9259		78.125000
9260		70.312500
9261		74.218750
9262		66.406250
9263		70.312500
9264		62.500000
9265		70.312500
9266		58.593750
9267		66.406250
9268		58.593750
9269		62.500000
9270		54.687500
9271		62.500000
9272		50.781250
9273		58.593750
9274		46.875000
9275		54.687500
9276		46.875000
9277		54.687500
9278		42.968750
9279		50.781250
9280		39.062500
9281		46.875000
9282		39.062500
9283		46.875000
9284		35.156250
9285		42.968750
9286		31.250000
9287		39.062500
9288		31.250000
9289		39.062500
9290		27.343750
9291		35.156250
9292		27.343750
9293		31.250000
9294		23.437500
9295		27.343750
9296		19.531250
9297		27.343750
9298		15.625000
9299		23.437500
9300		15.625000
9301		23.437500
9302		11.718750
9303		19.531250
9304		7.812500
9305		15.625000
9306		7.812500
9307		15.625000
9308		3.906250
9309		11.718750
9310		3.906250
9311		7.812500
9312		0.000000
9313		3.906250
9314		-3.906250
9315		3.906250
9316		-3.906250
9317		3.906250
9318		-7.812500
9319		0.000000
9320		-7.812500
9321		0.000000
9322		-11.718750
9323		-3.906250
9324		-15.625000
9325		-7.812500
9326		-15.625000
9327		-7.812500
9328		-15.625000
9329		-11.718750
9330		-19.531250
9331		-11.718750
9332		-19.531250
9333		-11.718750
9334		-23.437500
9335		-15.625000
9336		-23.437500
9337		-15.625000
9338		-27.343750
9339		-19.531250
9340		-27.343750
9341		-19.531250
9342		-27.343750
9343		-19.531250
9344		-27.343750
9345		-23.437500
9346		-27.343750
9347		-23.437500
9348		-31.250000
9349		-23.437500
9350		-35.156250
9351		-27.343750
9352		-35.156250
9353		-27.343750
9354		-35.156250
9355		-27.343750
9356		-35.156250
9357		-27.343750
9358		-35.156250
9359		-31.250000
9360		-35.156250
9361		-31.250000
9362		-35.156250
9363		-31.250000
9364		-39.062500
9365		-31.250000
9366		-39.062500
9367		-31.250000
9368		-39.062500
9369		-31.250000
9370		-39.062500
9371		-31.250000
9372		-39.062500
9373		-31.250000
9374		-39.062500
9375		-31.250000
9376		-39.062500
9377		-31.250000
9378		-35.156250
9379		-35.156250
9380		-35.156250
9381		-31.250000
9382		-39.062500
9383		-31.250000
9384		-39.062500
9385		-31.250000
9386		-39.062500
9387		-31.250000
9388		-35.156250
9389		-31.250000
9390		-35.156250
9391		-27.343750
9392		-35.156250
9393		-27.343750
9394		-35.156250
9395		-27.343750
9396		-31.250000
9397		-27.343750
9398		-31.250000
9399		-23.437500
9400		-31.250000
9401		-23.437500
9402		-31.250000
9403		-23.437500
9404		-31.250000
9405		-23.437500
9406		-27.343750
9407		-19.531250
9408		-27.343750
9409		-19.531250
9410		-23.437500
9411		-19.531250
9412		-19.531250
9413		-15.625000
9414		-19.531250
9415		-15.625000
9416		-19.531250
9417		-11.718750
9418		-19.531250
9419		-11.718750
9420		-15.625000
9421		-7.812500
9422		-15.625000
9423		-3.906250
9424		-11.718750
9425		-3.906250
9426		-11.718750
9427		-3.906250
9428		-7.812500
9429		-3.906250
9430		-3.906250
9431		0.000000
9432		-3.906250
9433		3.906250
9434		0.000000
9435		7.812500
9436		0.000000
9437		7.812500
9438		3.906250
9439		11.718750
9440		3.906250
9441		11.718750
9442		7.812500
9443		15.625000
9444		11.718750
9445		15.625000
9446		15.625000
9447		19.531250
9448		15.625000
9449		23.437500
9450		19.531250
9451		27.343750
9452		19.531250
9453		27.343750
9454		23.437500
9455		31.250000
9456		23.437500
9457		31.250000
9458		27.343750
9459		35.156250
9460		31.250000
9461		39.062500
9462		35.156250
9463		39.062500
9464		35.156250
9465		42.968750
9466		39.062500
9467		46.875000
9468		39.062500
9469		46.875000
9470		42.968750
9471		50.781250
9472		46.875000
9473		54.687500
9474		46.875000
9475		54.687500
9476		50.781250
9477		58.593750
9478		54.687500
9479		58.593750
9480		58.593750
9481		62.500000
9482		58.593750
9483		66.406250
9484		62.500000
9485		66.406250
9486		62.500000
9487		70.312500
9488		66.406250
9489		74.218750
9490		70.312500
9491		74.218750
9492		70.312500
9493		78.125000
9494		74.218750
9495		78.125000
9496		78.125000
9497		82.031250
9498		78.125000
9499		85.937500
9500		78.125000
9501		89.843750
9502		82.031250
9503		89.843750
9504		82.031250
9505		89.843750
9506		85.937500
9507		93.750000
9508		89.843750
9509		97.656250
9510		89.843750
9511		97.656250
9512		93.750000
9513		97.656250
9514		97.656250
9515		101.562500
9516		97.656250
9517		105.468750
9518		97.656250
9519		105.468750
9520		101.562500
9521		109.375000
9522		101.562500
9523		109.375000
9524		105.468750
9525		113.281250
9526		105.468750
9527		113.281250
9528		109.375000
9529		113.281250
9530		109.375000
9531		113.281250
9532		113.281250
9533		117.187500
9534		109.375000
9535		117.187500
9536		113.281250
9537		121.093750
9538		113.281250
9539		121.093750
9540		113.281250
9541		121.093750
9542		117.187500
9543		125.000000
9544		117.187500
9545		125.000000
9546		121.093750
9547		125.000000
9548		121.093750
9549		125.000000
9550		121.093750
9551		128.906250
9552		121.093750
9553		128.906250
9554		121.093750
9555		128.906250
9556		125.000000
9557		128.906250
9558		125.000000
9559		132.812500
9560		125.000000
9561		132.812500
9562		125.000000
9563		132.812500
9564		128.906250
9565		132.812500
9566		125.000000
9567		132.812500
9568		125.000000
9569		132.812500
9570		125.000000
9571		132.812500
9572		128.906250
9573		136.718750
9574		128.906250
9575		132.812500
9576		128.906250
9577		132.812500
9578		128.906250
9579		132.812500
9580		128.906250
9581		132.812500
9582		125.000000
9583		132.812500
9584		128.906250
9585		132.812500
9586		125.000000
9587		132.812500
9588		128.906250
9589		132.812500
9590		125.000000
9591		132.812500
9592		125.000000
9593		132.812500
9594		125.000000
9595		132.812500
9596		125.000000
9597		128.906250
9598		125.000000
9599		128.906250
9600		121.093750
9601		128.906250
9602		121.093750
9603		128.906250
9604		121.093750
9605		128.906250
9606		121.093750
9607		128.906250
9608		121.093750
9609		125.000000
9610		117.187500
9611		125.000000
9612		117.187500
9613		125.000000
9614		117.187500
9615		121.093750
9616		113.281250
9617		121.093750
9618		113.281250
9619		121.093750
9620		113.281250
9621		121.093750
9622		109.375000
9623		117.187500
9624		109.375000
9625		117.187500
9626		109.375000
9627		113.281250
9628		105.468750
9629		113.281250
9630		105.468750
9631		109.375000
9632		105.468750
9633		109.375000
9634		101.562500
9635		109.375000
9636		97.656250
9637		105.468750
9638		93.750000
9639		105.468750
9640		93.750000
9641		101.562500
9642		93.750000
9643		101.562500
9644		89.843750
9645		97.656250
9646		89.843750
9647		93.750000
9648		89.843750
9649		93.750000
9650		82.031250
9651		89.843750
9652		82.031250
9653		89.843750
9654		82.031250
9655		85.937500
9656		78.125000
9657		85.937500
9658		74.218750
9659		82.031250
9660		70.312500
9661		78.125000
9662		70.312500
9663		78.125000
9664		70.312500
9665		74.218750
9666		62.500000
9667		70.312500
9668		62.500000
9669		70.312500
9670		58.593750
9671		66.406250
9672		58.593750
9673		62.500000
9674		54.687500
9675		62.500000
9676		50.781250
9677		58.593750
9678		46.875000
9679		58.593750
9680		46.875000
9681		50.781250
9682		46.875000
9683		50.781250
9684		39.062500
9685		46.875000
9686		39.062500
9687		46.875000
9688		35.156250
9689		42.968750
9690		31.250000
9691		39.062500
9692		31.250000
9693		39.062500
9694		27.343750
9695		35.156250
9696		27.343750
9697		31.250000
9698		23.437500
9699		27.343750
9700		19.531250
9701		27.343750
9702		15.625000
9703		23.437500
9704		11.718750
9705		23.437500
9706		11.718750
9707		19.531250
9708		7.812500
9709		15.625000
9710		7.812500
9711		15.625000
9712		3.906250
9713		11.718750
9714		3.906250
9715		7.812500
9716		0.000000
9717		3.906250
9718		-3.906250
9719		3.906250
9720		-3.906250
9721		3.906250
9722		-7.812500
9723		0.000000
9724		-7.812500
9725		0.000000
9726		-11.718750
9727		-3.906250
9728		-15.625000
9729		-7.812500
9730		-15.625000
9731		-7.812500
9732		-15.625000
9733		-11.718750
9734		-19.531250
9735		-11.718750
9736		-23.437500
9737		-15.625000
9738		-23.437500
9739		-15.625000
9740		-23.437500
9741		-15.625000
9742		-27.343750
9743		-19.531250
9744		-27.343750
9745		-19.531250
9746		-27.343750
9747		-19.531250
9748		-27.343750
9749		-23.437500
9750		-31.250000
9751		-23.437500
9752		-31.250000
9753		-23.437500
9754		-35.156250
9755		-27.343750
9756		-35.156250
9757		-27.343750
9758		-35.156250
9759		-27.343750
9760		-35.156250
9761		-27.343750
9762		-39.062500
9763		-31.250000
9764		-35.156250
9765		-31.250000
9766		-35.156250
9767		-31.250000
9768		-39.062500
9769		-31.250000
9770		-39.062500
9771		-31.250000
9772		-39.062500
9773		-31.250000
9774		-39.062500
9775		-31.250000
9776		-39.062500
9777		-31.250000
9778		-39.062500
9779		-31.250000
9780		-39.062500
9781		-31.250000
9782		-39.062500
9783		-35.156250
9784		-39.062500
9785		-31.250000
9786		-39.062500
9787		-31.250000
9788		-39.062500
9789		-31.250000
9790		-39.062500
9791		-31.250000
9792		-39.062500
9793		-31.250000
9794		-39.062500
9795		-31.250000
9796		-35.156250
9797		-27.343750
9798		-31.250000
9799		-31.250000
9800		-31.250000
9801		-27.343750
9802		-31.250000
9803		-23.437500
9804		-31.250000
9805		-23.437500
9806		-31.250000
9807		-23.437500
9808		-31.250000
9809		-23.437500
9810		-27.343750
9811		-19.531250
9812		-27.343750
9813		-19.531250
9814		-23.437500
9815		-19.531250
9816		-23.437500
9817		-19.531250
9818		-19.531250
9819		-15.625000
9820		-19.531250
9821		-11.718750
9822		-19.531250
9823		-11.718750
9824		-15.625000
9825		-7.812500
9826		-15.625000
9827		-7.812500
9828		-11.718750
9829		-3.906250
9830		-11.718750
9831		-3.906250
9832		-7.812500
9833		-3.906250
9834		-3.906250
9835		0.000000
9836		-3.906250
9837		3.906250
9838		-3.906250
9839		3.906250
9840		0.000000
9841		7.812500
9842		3.906250
9843		11.718750
9844		3.906250
9845		11.718750
9846		7.812500
9847		15.625000
9848		11.718750
9849		15.625000
9850		15.625000
9851		19.531250
9852		15.625000
9853		23.437500
9854		15.625000
9855		23.437500
9856		19.531250
9857		27.343750
9858		23.437500
9859		31.250000
9860		23.437500
9861		31.250000
9862		27.343750
9863		35.156250
9864		31.250000
9865		35.156250
9866		35.156250
9867		39.062500
9868		39.062500
9869		42.968750
9870		39.062500
9871		42.968750
9872		42.968750
9873		50.781250
9874		42.968750
9875		50.781250
9876		46.875000
9877		54.687500
9878		46.875000
9879		54.687500
9880		50.781250
9881		58.593750
9882		54.687500
9883		58.593750
9884		58.593750
9885		62.500000
9886		58.593750
9887		66.406250
9888		62.500000
9889		70.312500
9890		66.406250
9891		70.312500
9892		66.406250
9893		74.218750
9894		70.312500
9895		74.218750
9896		70.312500
9897		78.125000
9898		74.218750
9899		78.125000
9900		78.125000
9901		82.031250
9902		78.125000
9903		85.937500
9904		78.125000
9905		89.843750
9906		82.031250
9907		89.843750
9908		85.937500
9909		89.843750
9910		85.937500
9911		93.750000
9912		89.843750
9913		97.656250
9914		89.843750
9915		97.656250
9916		93.750000
9917		97.656250
9918		97.656250
9919		101.562500
9920		97.656250
9921		105.468750
9922		97.656250
9923		105.468750
9924		101.562500
9925		105.468750
9926		105.468750
9927		109.375000
9928		105.468750
9929		109.375000
9930		105.468750
9931		113.281250
9932		109.375000
9933		113.281250
9934		109.375000
9935		117.187500
9936		113.281250
9937		117.187500
9938		113.281250
9939		117.187500
9940		113.281250
9941		117.187500
9942		117.187500
9943		121.093750
9944		117.187500
9945		121.093750
9946		117.187500
9947		121.093750
9948		121.093750
9949		125.000000
9950		121.093750
9951		125.000000
9952		121.093750
9953		125.000000
9954		121.093750
9955		128.906250
9956		125.000000
9957		128.906250
9958		125.000000
9959		128.906250
9960		125.000000
9961		132.812500
9962		125.000000
9963		128.906250
9964		125.000000
9965		128.906250
9966		128.906250
9967		128.906250
9968		128.906250
9969		132.812500
9970		128.906250
9971		132.812500
9972		128.906250
9973		132.812500
9974		128.906250
9975		132.812500
9976		128.906250
9977		132.812500
9978		128.906250
9979		132.812500
9980		128.906250
9981		132.812500
9982		128.906250
9983		132.812500
9984		128.906250
9985		132.812500
9986		128.906250
9987		132.812500
9988		128.906250
9989		132.812500
9990		128.906250
9991		132.812500
9992		128.906250
9993		132.812500
9994		128.906250
9995		128.906250
9996		128.906250
9997		132.812500
9998		125.000000
9999		128.906250
10000		125.000000
