Channel              :		CH1
Frequency            :		1.240kHz
Period               :		0.807ms
PK-PK                :		492.2mV
Probe attenuation    :		1X
Voltage per ADC value:		0.244141mV
Time interval        :		2.00000us

index		CH1_Voltage(mV)
1		-70.312500
2		-70.312500
3		-89.843750
4		-78.125000
5		-97.656250
6		-85.937500
7		-105.468750
8		-93.750000
9		-109.375000
10		-101.562500
11		-117.187500
12		-109.375000
13		-125.000000
14		-117.187500
15		-128.906250
16		-121.093750
17		-136.718750
18		-128.906250
19		-144.531250
20		-136.718750
21		-148.437500
22		-140.625000
23		-156.250000
24		-148.437500
25		-164.062500
26		-156.250000
27		-167.968750
28		-160.156250
29		-171.875000
30		-167.968750
31		-179.687500
32		-171.875000
33		-183.593750
34		-175.781250
35		-187.500000
36		-183.593750
37		-195.312500
38		-187.500000
39		-199.218750
40		-191.406250
41		-203.125000
42		-195.312500
43		-207.031250
44		-199.218750
45		-210.937500
46		-203.125000
47		-214.843750
48		-207.031250
49		-218.750000
50		-210.937500
51		-218.750000
52		-214.843750
53		-222.656250
54		-218.750000
55		-226.562500
56		-218.750000
57		-226.562500
58		-222.656250
59		-230.468750
60		-226.562500
61		-230.468750
62		-226.562500
63		-234.375000
64		-226.562500
65		-234.375000
66		-230.468750
67		-234.375000
68		-230.468750
69		-234.375000
70		-230.468750
71		-238.281250
72		-230.468750
73		-234.375000
74		-230.468750
75		-234.375000
76		-230.468750
77		-234.375000
78		-230.468750
79		-238.281250
80		-230.468750
81		-234.375000
82		-230.468750
83		-234.375000
84		-226.562500
85		-230.468750
86		-226.562500
87		-230.468750
88		-222.656250
89		-226.562500
90		-222.656250
91		-226.562500
92		-218.750000
93		-222.656250
94		-218.750000
95		-218.750000
96		-214.843750
97		-214.843750
98		-210.937500
99		-214.843750
100		-207.031250
101		-210.937500
102		-203.125000
103		-207.031250
104		-199.218750
105		-203.125000
106		-195.312500
107		-199.218750
108		-191.406250
109		-191.406250
110		-187.500000
111		-187.500000
112		-179.687500
113		-183.593750
114		-175.781250
115		-175.781250
116		-167.968750
117		-171.875000
118		-164.062500
119		-167.968750
120		-156.250000
121		-160.156250
122		-152.343750
123		-152.343750
124		-144.531250
125		-148.437500
126		-140.625000
127		-140.625000
128		-132.812500
129		-132.812500
130		-125.000000
131		-128.906250
132		-117.187500
133		-121.093750
134		-109.375000
135		-113.281250
136		-105.468750
137		-105.468750
138		-93.750000
139		-97.656250
140		-89.843750
141		-89.843750
142		-82.031250
143		-82.031250
144		-74.218750
145		-74.218750
146		-66.406250
147		-66.406250
148		-58.593750
149		-58.593750
150		-50.781250
151		-50.781250
152		-42.968750
153		-42.968750
154		-31.250000
155		-35.156250
156		-23.437500
157		-27.343750
158		-15.625000
159		-19.531250
160		-7.812500
161		-11.718750
162		0.000000
163		-3.906250
164		7.812500
165		3.906250
166		15.625000
167		11.718750
168		23.437500
169		19.531250
170		31.250000
171		27.343750
172		39.062500
173		35.156250
174		46.875000
175		42.968750
176		54.687500
177		50.781250
178		62.500000
179		58.593750
180		70.312500
181		66.406250
182		74.218750
183		74.218750
184		85.937500
185		82.031250
186		89.843750
187		89.843750
188		97.656250
189		97.656250
190		105.468750
191		101.562500
192		113.281250
193		109.375000
194		117.187500
195		117.187500
196		125.000000
197		121.093750
198		128.906250
199		128.906250
200		136.718750
201		132.812500
202		144.531250
203		140.625000
204		148.437500
205		144.531250
206		152.343750
207		152.343750
208		160.156250
209		156.250000
210		164.062500
211		164.062500
212		171.875000
213		167.968750
214		175.781250
215		171.875000
216		179.687500
217		179.687500
218		183.593750
219		183.593750
220		187.500000
221		187.500000
222		195.312500
223		191.406250
224		195.312500
225		195.312500
226		199.218750
227		199.218750
228		203.125000
229		203.125000
230		207.031250
231		207.031250
232		210.937500
233		207.031250
234		214.843750
235		210.937500
236		218.750000
237		214.843750
238		218.750000
239		218.750000
240		222.656250
241		218.750000
242		226.562500
243		222.656250
244		226.562500
245		226.562500
246		230.468750
247		226.562500
248		230.468750
249		230.468750
250		234.375000
251		230.468750
252		234.375000
253		234.375000
254		238.281250
255		234.375000
256		238.281250
257		234.375000
258		238.281250
259		238.281250
260		242.187500
261		238.281250
262		242.187500
263		238.281250
264		242.187500
265		238.281250
266		242.187500
267		238.281250
268		242.187500
269		242.187500
270		242.187500
271		242.187500
272		246.093750
273		242.187500
274		246.093750
275		242.187500
276		246.093750
277		242.187500
278		246.093750
279		238.281250
280		246.093750
281		242.187500
282		242.187500
283		238.281250
284		242.187500
285		238.281250
286		242.187500
287		238.281250
288		242.187500
289		238.281250
290		242.187500
291		234.375000
292		238.281250
293		234.375000
294		238.281250
295		234.375000
296		238.281250
297		230.468750
298		234.375000
299		230.468750
300		234.375000
301		226.562500
302		230.468750
303		226.562500
304		230.468750
305		222.656250
306		230.468750
307		222.656250
308		226.562500
309		218.750000
310		222.656250
311		214.843750
312		222.656250
313		214.843750
314		218.750000
315		210.937500
316		214.843750
317		207.031250
318		210.937500
319		203.125000
320		207.031250
321		199.218750
322		203.125000
323		195.312500
324		203.125000
325		191.406250
326		199.218750
327		187.500000
328		191.406250
329		183.593750
330		187.500000
331		175.781250
332		183.593750
333		171.875000
334		179.687500
335		167.968750
336		175.781250
337		160.156250
338		167.968750
339		156.250000
340		164.062500
341		152.343750
342		160.156250
343		144.531250
344		152.343750
345		140.625000
346		148.437500
347		132.812500
348		140.625000
349		125.000000
350		136.718750
351		121.093750
352		128.906250
353		113.281250
354		121.093750
355		105.468750
356		117.187500
357		101.562500
358		109.375000
359		93.750000
360		101.562500
361		85.937500
362		93.750000
363		78.125000
364		85.937500
365		70.312500
366		82.031250
367		62.500000
368		74.218750
369		54.687500
370		66.406250
371		46.875000
372		58.593750
373		39.062500
374		50.781250
375		31.250000
376		42.968750
377		23.437500
378		35.156250
379		15.625000
380		27.343750
381		7.812500
382		19.531250
383		0.000000
384		11.718750
385		-7.812500
386		3.906250
387		-15.625000
388		-3.906250
389		-23.437500
390		-11.718750
391		-31.250000
392		-19.531250
393		-39.062500
394		-27.343750
395		-46.875000
396		-35.156250
397		-54.687500
398		-42.968750
399		-62.500000
400		-50.781250
401		-70.312500
402		-58.593750
403		-78.125000
404		-66.406250
405		-85.937500
406		-74.218750
407		-89.843750
408		-82.031250
409		-97.656250
410		-89.843750
411		-105.468750
412		-97.656250
413		-113.281250
414		-105.468750
415		-121.093750
416		-109.375000
417		-125.000000
418		-117.187500
419		-132.812500
420		-125.000000
421		-140.625000
422		-132.812500
423		-148.437500
424		-136.718750
425		-152.343750
426		-144.531250
427		-160.156250
428		-152.343750
429		-164.062500
430		-156.250000
431		-171.875000
432		-164.062500
433		-175.781250
434		-167.968750
435		-179.687500
436		-171.875000
437		-187.500000
438		-179.687500
439		-191.406250
440		-183.593750
441		-195.312500
442		-187.500000
443		-199.218750
444		-191.406250
445		-203.125000
446		-199.218750
447		-207.031250
448		-203.125000
449		-210.937500
450		-207.031250
451		-214.843750
452		-210.937500
453		-218.750000
454		-210.937500
455		-222.656250
456		-214.843750
457		-222.656250
458		-218.750000
459		-226.562500
460		-222.656250
461		-230.468750
462		-222.656250
463		-230.468750
464		-226.562500
465		-234.375000
466		-226.562500
467		-234.375000
468		-230.468750
469		-234.375000
470		-230.468750
471		-234.375000
472		-230.468750
473		-234.375000
474		-234.375000
475		-238.281250
476		-230.468750
477		-234.375000
478		-234.375000
479		-238.281250
480		-234.375000
481		-234.375000
482		-230.468750
483		-234.375000
484		-230.468750
485		-234.375000
486		-230.468750
487		-234.375000
488		-226.562500
489		-230.468750
490		-226.562500
491		-230.468750
492		-222.656250
493		-226.562500
494		-222.656250
495		-226.562500
496		-218.750000
497		-222.656250
498		-214.843750
499		-218.750000
500		-214.843750
501		-214.843750
502		-210.937500
503		-210.937500
504		-207.031250
505		-210.937500
506		-203.125000
507		-203.125000
508		-199.218750
509		-199.218750
510		-195.312500
511		-195.312500
512		-187.500000
513		-191.406250
514		-183.593750
515		-187.500000
516		-179.687500
517		-179.687500
518		-171.875000
519		-175.781250
520		-167.968750
521		-167.968750
522		-160.156250
523		-164.062500
524		-156.250000
525		-156.250000
526		-148.437500
527		-152.343750
528		-144.531250
529		-148.437500
530		-136.718750
531		-140.625000
532		-128.906250
533		-132.812500
534		-121.093750
535		-125.000000
536		-113.281250
537		-117.187500
538		-109.375000
539		-109.375000
540		-101.562500
541		-101.562500
542		-93.750000
543		-93.750000
544		-85.937500
545		-85.937500
546		-78.125000
547		-82.031250
548		-70.312500
549		-70.312500
550		-62.500000
551		-62.500000
552		-50.781250
553		-54.687500
554		-46.875000
555		-46.875000
556		-39.062500
557		-39.062500
558		-31.250000
559		-31.250000
560		-19.531250
561		-23.437500
562		-11.718750
563		-15.625000
564		-3.906250
565		-7.812500
566		3.906250
567		0.000000
568		11.718750
569		7.812500
570		19.531250
571		15.625000
572		27.343750
573		23.437500
574		35.156250
575		31.250000
576		42.968750
577		39.062500
578		50.781250
579		46.875000
580		58.593750
581		54.687500
582		66.406250
583		62.500000
584		74.218750
585		70.312500
586		82.031250
587		78.125000
588		85.937500
589		85.937500
590		93.750000
591		89.843750
592		101.562500
593		97.656250
594		109.375000
595		105.468750
596		113.281250
597		109.375000
598		121.093750
599		117.187500
600		128.906250
601		125.000000
602		132.812500
603		128.906250
604		140.625000
605		136.718750
606		144.531250
607		144.531250
608		152.343750
609		148.437500
610		156.250000
611		152.343750
612		164.062500
613		160.156250
614		167.968750
615		164.062500
616		171.875000
617		167.968750
618		179.687500
619		175.781250
620		183.593750
621		179.687500
622		187.500000
623		183.593750
624		191.406250
625		187.500000
626		195.312500
627		191.406250
628		199.218750
629		195.312500
630		203.125000
631		199.218750
632		207.031250
633		203.125000
634		210.937500
635		207.031250
636		214.843750
637		207.031250
638		218.750000
639		214.843750
640		218.750000
641		218.750000
642		222.656250
643		218.750000
644		226.562500
645		218.750000
646		226.562500
647		222.656250
648		230.468750
649		226.562500
650		230.468750
651		226.562500
652		234.375000
653		230.468750
654		234.375000
655		230.468750
656		238.281250
657		234.375000
658		238.281250
659		234.375000
660		238.281250
661		234.375000
662		242.187500
663		238.281250
664		242.187500
665		238.281250
666		246.093750
667		238.281250
668		246.093750
669		238.281250
670		246.093750
671		238.281250
672		246.093750
673		242.187500
674		246.093750
675		242.187500
676		246.093750
677		238.281250
678		246.093750
679		238.281250
680		246.093750
681		238.281250
682		246.093750
683		238.281250
684		246.093750
685		238.281250
686		246.093750
687		238.281250
688		246.093750
689		238.281250
690		242.187500
691		238.281250
692		242.187500
693		234.375000
694		242.187500
695		234.375000
696		242.187500
697		234.375000
698		242.187500
699		230.468750
700		238.281250
701		230.468750
702		238.281250
703		230.468750
704		238.281250
705		226.562500
706		234.375000
707		226.562500
708		230.468750
709		222.656250
710		230.468750
711		218.750000
712		226.562500
713		214.843750
714		226.562500
715		214.843750
716		222.656250
717		210.937500
718		218.750000
719		207.031250
720		218.750000
721		207.031250
722		214.843750
723		203.125000
724		207.031250
725		199.218750
726		207.031250
727		195.312500
728		203.125000
729		187.500000
730		199.218750
731		183.593750
732		195.312500
733		179.687500
734		191.406250
735		175.781250
736		183.593750
737		171.875000
738		179.687500
739		167.968750
740		175.781250
741		160.156250
742		167.968750
743		156.250000
744		164.062500
745		148.437500
746		160.156250
747		144.531250
748		156.250000
749		136.718750
750		148.437500
751		128.906250
752		140.625000
753		125.000000
754		136.718750
755		121.093750
756		128.906250
757		113.281250
758		121.093750
759		105.468750
760		113.281250
761		97.656250
762		109.375000
763		89.843750
764		101.562500
765		82.031250
766		93.750000
767		74.218750
768		89.843750
769		66.406250
770		78.125000
771		62.500000
772		70.312500
773		54.687500
774		62.500000
775		46.875000
776		54.687500
777		35.156250
778		50.781250
779		31.250000
780		42.968750
781		23.437500
782		35.156250
783		15.625000
784		27.343750
785		7.812500
786		19.531250
787		0.000000
788		11.718750
789		-7.812500
790		3.906250
791		-15.625000
792		-7.812500
793		-23.437500
794		-15.625000
795		-31.250000
796		-19.531250
797		-42.968750
798		-27.343750
799		-46.875000
800		-39.062500
801		-54.687500
802		-42.968750
803		-62.500000
804		-50.781250
805		-70.312500
806		-58.593750
807		-78.125000
808		-66.406250
809		-85.937500
810		-74.218750
811		-93.750000
812		-82.031250
813		-101.562500
814		-89.843750
815		-109.375000
816		-97.656250
817		-113.281250
818		-105.468750
819		-121.093750
820		-113.281250
821		-128.906250
822		-117.187500
823		-132.812500
824		-125.000000
825		-140.625000
826		-132.812500
827		-148.437500
828		-136.718750
829		-156.250000
830		-144.531250
831		-160.156250
832		-148.437500
833		-167.968750
834		-156.250000
835		-171.875000
836		-164.062500
837		-179.687500
838		-167.968750
839		-183.593750
840		-171.875000
841		-187.500000
842		-179.687500
843		-191.406250
844		-183.593750
845		-199.218750
846		-187.500000
847		-203.125000
848		-191.406250
849		-207.031250
850		-195.312500
851		-210.937500
852		-199.218750
853		-214.843750
854		-203.125000
855		-218.750000
856		-207.031250
857		-218.750000
858		-214.843750
859		-222.656250
860		-214.843750
861		-226.562500
862		-218.750000
863		-226.562500
864		-218.750000
865		-230.468750
866		-222.656250
867		-230.468750
868		-222.656250
869		-234.375000
870		-226.562500
871		-234.375000
872		-226.562500
873		-234.375000
874		-226.562500
875		-234.375000
876		-230.468750
877		-234.375000
878		-230.468750
879		-238.281250
880		-230.468750
881		-238.281250
882		-230.468750
883		-238.281250
884		-230.468750
885		-234.375000
886		-230.468750
887		-234.375000
888		-226.562500
889		-234.375000
890		-226.562500
891		-230.468750
892		-226.562500
893		-230.468750
894		-226.562500
895		-230.468750
896		-222.656250
897		-226.562500
898		-218.750000
899		-226.562500
900		-214.843750
901		-222.656250
902		-214.843750
903		-218.750000
904		-210.937500
905		-214.843750
906		-207.031250
907		-210.937500
908		-203.125000
909		-207.031250
910		-199.218750
911		-203.125000
912		-195.312500
913		-199.218750
914		-191.406250
915		-195.312500
916		-183.593750
917		-191.406250
918		-179.687500
919		-187.500000
920		-175.781250
921		-179.687500
922		-167.968750
923		-171.875000
924		-164.062500
925		-167.968750
926		-160.156250
927		-160.156250
928		-152.343750
929		-156.250000
930		-144.531250
931		-148.437500
932		-140.625000
933		-140.625000
934		-132.812500
935		-136.718750
936		-125.000000
937		-128.906250
938		-117.187500
939		-121.093750
940		-109.375000
941		-113.281250
942		-105.468750
943		-105.468750
944		-97.656250
945		-97.656250
946		-85.937500
947		-93.750000
948		-82.031250
949		-82.031250
950		-74.218750
951		-78.125000
952		-66.406250
953		-70.312500
954		-58.593750
955		-62.500000
956		-46.875000
957		-54.687500
958		-42.968750
959		-42.968750
960		-35.156250
961		-35.156250
962		-27.343750
963		-31.250000
964		-15.625000
965		-19.531250
966		-7.812500
967		-11.718750
968		0.000000
969		-3.906250
970		7.812500
971		3.906250
972		15.625000
973		11.718750
974		23.437500
975		19.531250
976		31.250000
977		27.343750
978		39.062500
979		35.156250
980		46.875000
981		42.968750
982		54.687500
983		50.781250
984		62.500000
985		58.593750
986		70.312500
987		66.406250
988		78.125000
989		74.218750
990		82.031250
991		82.031250
992		89.843750
993		89.843750
994		97.656250
995		93.750000
996		105.468750
997		101.562500
998		113.281250
999		109.375000
1000		117.187500
1001		113.281250
1002		125.000000
1003		121.093750
1004		132.812500
1005		128.906250
1006		136.718750
1007		132.812500
1008		140.625000
1009		140.625000
1010		148.437500
1011		144.531250
1012		152.343750
1013		148.437500
1014		160.156250
1015		156.250000
1016		164.062500
1017		160.156250
1018		171.875000
1019		164.062500
1020		175.781250
1021		171.875000
1022		179.687500
1023		175.781250
1024		183.593750
1025		179.687500
1026		187.500000
1027		187.500000
1028		191.406250
1029		191.406250
1030		199.218750
1031		191.406250
1032		203.125000
1033		195.312500
1034		207.031250
1035		199.218750
1036		210.937500
1037		203.125000
1038		210.937500
1039		207.031250
1040		214.843750
1041		210.937500
1042		218.750000
1043		214.843750
1044		218.750000
1045		218.750000
1046		222.656250
1047		218.750000
1048		226.562500
1049		222.656250
1050		230.468750
1051		222.656250
1052		230.468750
1053		226.562500
1054		234.375000
1055		226.562500
1056		234.375000
1057		230.468750
1058		238.281250
1059		234.375000
1060		238.281250
1061		234.375000
1062		238.281250
1063		234.375000
1064		242.187500
1065		234.375000
1066		242.187500
1067		234.375000
1068		242.187500
1069		238.281250
1070		246.093750
1071		238.281250
1072		246.093750
1073		238.281250
1074		246.093750
1075		238.281250
1076		246.093750
1077		242.187500
1078		246.093750
1079		242.187500
1080		246.093750
1081		238.281250
1082		246.093750
1083		238.281250
1084		246.093750
1085		238.281250
1086		246.093750
1087		238.281250
1088		246.093750
1089		238.281250
1090		246.093750
1091		238.281250
1092		246.093750
1093		238.281250
1094		242.187500
1095		238.281250
1096		242.187500
1097		234.375000
1098		242.187500
1099		234.375000
1100		242.187500
1101		234.375000
1102		238.281250
1103		230.468750
1104		238.281250
1105		230.468750
1106		238.281250
1107		226.562500
1108		234.375000
1109		226.562500
1110		234.375000
1111		226.562500
1112		230.468750
1113		218.750000
1114		226.562500
1115		218.750000
1116		226.562500
1117		214.843750
1118		222.656250
1119		210.937500
1120		222.656250
1121		210.937500
1122		218.750000
1123		207.031250
1124		214.843750
1125		203.125000
1126		210.937500
1127		199.218750
1128		207.031250
1129		195.312500
1130		203.125000
1131		191.406250
1132		199.218750
1133		187.500000
1134		195.312500
1135		183.593750
1136		191.406250
1137		175.781250
1138		187.500000
1139		175.781250
1140		183.593750
1141		167.968750
1142		179.687500
1143		164.062500
1144		171.875000
1145		160.156250
1146		167.968750
1147		152.343750
1148		160.156250
1149		148.437500
1150		156.250000
1151		140.625000
1152		152.343750
1153		132.812500
1154		144.531250
1155		128.906250
1156		140.625000
1157		121.093750
1158		132.812500
1159		117.187500
1160		125.000000
1161		109.375000
1162		117.187500
1163		101.562500
1164		113.281250
1165		93.750000
1166		105.468750
1167		89.843750
1168		97.656250
1169		82.031250
1170		93.750000
1171		70.312500
1172		85.937500
1173		66.406250
1174		78.125000
1175		58.593750
1176		70.312500
1177		50.781250
1178		62.500000
1179		42.968750
1180		54.687500
1181		35.156250
1182		46.875000
1183		27.343750
1184		39.062500
1185		19.531250
1186		31.250000
1187		11.718750
1188		23.437500
1189		3.906250
1190		15.625000
1191		-3.906250
1192		7.812500
1193		-11.718750
1194		0.000000
1195		-19.531250
1196		-7.812500
1197		-27.343750
1198		-15.625000
1199		-35.156250
1200		-23.437500
1201		-42.968750
1202		-31.250000
1203		-50.781250
1204		-39.062500
1205		-58.593750
1206		-46.875000
1207		-66.406250
1208		-54.687500
1209		-74.218750
1210		-62.500000
1211		-82.031250
1212		-70.312500
1213		-89.843750
1214		-78.125000
1215		-97.656250
1216		-85.937500
1217		-105.468750
1218		-89.843750
1219		-109.375000
1220		-97.656250
1221		-117.187500
1222		-105.468750
1223		-125.000000
1224		-113.281250
1225		-132.812500
1226		-121.093750
1227		-136.718750
1228		-128.906250
1229		-144.531250
1230		-136.718750
1231		-152.343750
1232		-140.625000
1233		-156.250000
1234		-148.437500
1235		-164.062500
1236		-152.343750
1237		-167.968750
1238		-160.156250
1239		-175.781250
1240		-164.062500
1241		-179.687500
1242		-167.968750
1243		-183.593750
1244		-175.781250
1245		-187.500000
1246		-183.593750
1247		-195.312500
1248		-187.500000
1249		-199.218750
1250		-191.406250
1251		-203.125000
1252		-195.312500
1253		-207.031250
1254		-199.218750
1255		-210.937500
1256		-203.125000
1257		-214.843750
1258		-207.031250
1259		-218.750000
1260		-210.937500
1261		-218.750000
1262		-214.843750
1263		-222.656250
1264		-218.750000
1265		-226.562500
1266		-218.750000
1267		-230.468750
1268		-218.750000
1269		-230.468750
1270		-222.656250
1271		-234.375000
1272		-226.562500
1273		-234.375000
1274		-226.562500
1275		-234.375000
1276		-226.562500
1277		-234.375000
1278		-230.468750
1279		-234.375000
1280		-230.468750
1281		-238.281250
1282		-230.468750
1283		-238.281250
1284		-230.468750
1285		-238.281250
1286		-230.468750
1287		-238.281250
1288		-230.468750
1289		-238.281250
1290		-230.468750
1291		-234.375000
1292		-226.562500
1293		-234.375000
1294		-226.562500
1295		-230.468750
1296		-226.562500
1297		-230.468750
1298		-222.656250
1299		-230.468750
1300		-222.656250
1301		-226.562500
1302		-218.750000
1303		-222.656250
1304		-214.843750
1305		-222.656250
1306		-210.937500
1307		-218.750000
1308		-210.937500
1309		-214.843750
1310		-207.031250
1311		-210.937500
1312		-203.125000
1313		-207.031250
1314		-199.218750
1315		-203.125000
1316		-195.312500
1317		-199.218750
1318		-187.500000
1319		-195.312500
1320		-183.593750
1321		-191.406250
1322		-179.687500
1323		-187.500000
1324		-171.875000
1325		-179.687500
1326		-167.968750
1327		-171.875000
1328		-164.062500
1329		-164.062500
1330		-156.250000
1331		-160.156250
1332		-148.437500
1333		-156.250000
1334		-144.531250
1335		-148.437500
1336		-136.718750
1337		-140.625000
1338		-132.812500
1339		-136.718750
1340		-125.000000
1341		-128.906250
1342		-117.187500
1343		-121.093750
1344		-109.375000
1345		-113.281250
1346		-101.562500
1347		-105.468750
1348		-93.750000
1349		-97.656250
1350		-85.937500
1351		-93.750000
1352		-78.125000
1353		-82.031250
1354		-70.312500
1355		-74.218750
1356		-62.500000
1357		-70.312500
1358		-58.593750
1359		-62.500000
1360		-46.875000
1361		-50.781250
1362		-42.968750
1363		-42.968750
1364		-35.156250
1365		-35.156250
1366		-23.437500
1367		-27.343750
1368		-15.625000
1369		-19.531250
1370		-7.812500
1371		-11.718750
1372		0.000000
1373		-3.906250
1374		7.812500
1375		3.906250
1376		15.625000
1377		11.718750
1378		23.437500
1379		19.531250
1380		31.250000
1381		31.250000
1382		39.062500
1383		35.156250
1384		46.875000
1385		42.968750
1386		54.687500
1387		50.781250
1388		62.500000
1389		58.593750
1390		70.312500
1391		66.406250
1392		78.125000
1393		74.218750
1394		85.937500
1395		82.031250
1396		89.843750
1397		89.843750
1398		97.656250
1399		97.656250
1400		105.468750
1401		101.562500
1402		113.281250
1403		109.375000
1404		121.093750
1405		113.281250
1406		125.000000
1407		121.093750
1408		132.812500
1409		128.906250
1410		140.625000
1411		132.812500
1412		144.531250
1413		140.625000
1414		148.437500
1415		148.437500
1416		156.250000
1417		152.343750
1418		160.156250
1419		156.250000
1420		167.968750
1421		160.156250
1422		171.875000
1423		167.968750
1424		175.781250
1425		171.875000
1426		179.687500
1427		175.781250
1428		183.593750
1429		183.593750
1430		187.500000
1431		187.500000
1432		191.406250
1433		191.406250
1434		199.218750
1435		191.406250
1436		203.125000
1437		195.312500
1438		207.031250
1439		199.218750
1440		207.031250
1441		203.125000
1442		210.937500
1443		207.031250
1444		214.843750
1445		210.937500
1446		218.750000
1447		214.843750
1448		218.750000
1449		218.750000
1450		222.656250
1451		218.750000
1452		226.562500
1453		218.750000
1454		230.468750
1455		222.656250
1456		230.468750
1457		226.562500
1458		234.375000
1459		226.562500
1460		234.375000
1461		230.468750
1462		234.375000
1463		234.375000
1464		238.281250
1465		234.375000
1466		238.281250
1467		234.375000
1468		242.187500
1469		234.375000
1470		242.187500
1471		234.375000
1472		242.187500
1473		238.281250
1474		242.187500
1475		238.281250
1476		246.093750
1477		238.281250
1478		246.093750
1479		242.187500
1480		242.187500
1481		242.187500
1482		246.093750
1483		238.281250
1484		246.093750
1485		238.281250
1486		246.093750
1487		238.281250
1488		246.093750
1489		238.281250
1490		246.093750
1491		238.281250
1492		246.093750
1493		238.281250
1494		246.093750
1495		238.281250
1496		242.187500
1497		238.281250
1498		242.187500
1499		238.281250
1500		242.187500
1501		234.375000
1502		242.187500
1503		234.375000
1504		242.187500
1505		230.468750
1506		238.281250
1507		230.468750
1508		238.281250
1509		230.468750
1510		238.281250
1511		226.562500
1512		234.375000
1513		226.562500
1514		230.468750
1515		222.656250
1516		226.562500
1517		218.750000
1518		226.562500
1519		214.843750
1520		226.562500
1521		214.843750
1522		222.656250
1523		210.937500
1524		218.750000
1525		207.031250
1526		218.750000
1527		203.125000
1528		214.843750
1529		203.125000
1530		210.937500
1531		199.218750
1532		203.125000
1533		195.312500
1534		199.218750
1535		191.406250
1536		199.218750
1537		183.593750
1538		195.312500
1539		179.687500
1540		191.406250
1541		175.781250
1542		187.500000
1543		171.875000
1544		179.687500
1545		167.968750
1546		175.781250
1547		164.062500
1548		167.968750
1549		156.250000
1550		164.062500
1551		148.437500
1552		160.156250
1553		144.531250
1554		152.343750
1555		136.718750
1556		148.437500
1557		132.812500
1558		144.531250
1559		125.000000
1560		136.718750
1561		117.187500
1562		128.906250
1563		113.281250
1564		121.093750
1565		105.468750
1566		113.281250
1567		97.656250
1568		109.375000
1569		89.843750
1570		101.562500
1571		82.031250
1572		93.750000
1573		78.125000
1574		89.843750
1575		66.406250
1576		82.031250
1577		62.500000
1578		74.218750
1579		54.687500
1580		66.406250
1581		46.875000
1582		58.593750
1583		39.062500
1584		50.781250
1585		27.343750
1586		42.968750
1587		23.437500
1588		35.156250
1589		15.625000
1590		27.343750
1591		7.812500
1592		19.531250
1593		0.000000
1594		11.718750
1595		-7.812500
1596		3.906250
1597		-15.625000
1598		-7.812500
1599		-23.437500
1600		-11.718750
1601		-31.250000
1602		-23.437500
1603		-42.968750
1604		-27.343750
1605		-46.875000
1606		-35.156250
1607		-58.593750
1608		-42.968750
1609		-62.500000
1610		-50.781250
1611		-70.312500
1612		-58.593750
1613		-78.125000
1614		-66.406250
1615		-85.937500
1616		-74.218750
1617		-93.750000
1618		-82.031250
1619		-101.562500
1620		-89.843750
1621		-109.375000
1622		-97.656250
1623		-117.187500
1624		-105.468750
1625		-121.093750
1626		-109.375000
1627		-128.906250
1628		-117.187500
1629		-136.718750
1630		-125.000000
1631		-140.625000
1632		-132.812500
1633		-148.437500
1634		-140.625000
1635		-156.250000
1636		-144.531250
1637		-160.156250
1638		-152.343750
1639		-167.968750
1640		-156.250000
1641		-171.875000
1642		-164.062500
1643		-175.781250
1644		-167.968750
1645		-183.593750
1646		-175.781250
1647		-187.500000
1648		-179.687500
1649		-191.406250
1650		-183.593750
1651		-199.218750
1652		-191.406250
1653		-203.125000
1654		-191.406250
1655		-207.031250
1656		-199.218750
1657		-210.937500
1658		-203.125000
1659		-214.843750
1660		-207.031250
1661		-218.750000
1662		-207.031250
1663		-218.750000
1664		-214.843750
1665		-222.656250
1666		-218.750000
1667		-226.562500
1668		-222.656250
1669		-230.468750
1670		-222.656250
1671		-230.468750
1672		-222.656250
1673		-234.375000
1674		-226.562500
1675		-234.375000
1676		-226.562500
1677		-234.375000
1678		-230.468750
1679		-238.281250
1680		-230.468750
1681		-234.375000
1682		-230.468750
1683		-238.281250
1684		-234.375000
1685		-238.281250
1686		-230.468750
1687		-238.281250
1688		-230.468750
1689		-238.281250
1690		-230.468750
1691		-238.281250
1692		-230.468750
1693		-238.281250
1694		-230.468750
1695		-238.281250
1696		-230.468750
1697		-234.375000
1698		-230.468750
1699		-230.468750
1700		-226.562500
1701		-230.468750
1702		-222.656250
1703		-230.468750
1704		-222.656250
1705		-226.562500
1706		-218.750000
1707		-226.562500
1708		-214.843750
1709		-222.656250
1710		-214.843750
1711		-218.750000
1712		-210.937500
1713		-214.843750
1714		-207.031250
1715		-210.937500
1716		-203.125000
1717		-207.031250
1718		-199.218750
1719		-203.125000
1720		-191.406250
1721		-199.218750
1722		-187.500000
1723		-191.406250
1724		-183.593750
1725		-187.500000
1726		-179.687500
1727		-183.593750
1728		-171.875000
1729		-179.687500
1730		-167.968750
1731		-171.875000
1732		-164.062500
1733		-164.062500
1734		-156.250000
1735		-160.156250
1736		-148.437500
1737		-156.250000
1738		-144.531250
1739		-148.437500
1740		-136.718750
1741		-140.625000
1742		-128.906250
1743		-132.812500
1744		-125.000000
1745		-128.906250
1746		-113.281250
1747		-121.093750
1748		-109.375000
1749		-109.375000
1750		-101.562500
1751		-101.562500
1752		-93.750000
1753		-97.656250
1754		-85.937500
1755		-89.843750
1756		-78.125000
1757		-82.031250
1758		-70.312500
1759		-74.218750
1760		-62.500000
1761		-66.406250
1762		-54.687500
1763		-58.593750
1764		-46.875000
1765		-46.875000
1766		-39.062500
1767		-42.968750
1768		-31.250000
1769		-31.250000
1770		-23.437500
1771		-23.437500
1772		-15.625000
1773		-15.625000
1774		-3.906250
1775		-7.812500
1776		3.906250
1777		0.000000
1778		11.718750
1779		7.812500
1780		19.531250
1781		15.625000
1782		27.343750
1783		23.437500
1784		35.156250
1785		31.250000
1786		42.968750
1787		39.062500
1788		50.781250
1789		46.875000
1790		58.593750
1791		54.687500
1792		66.406250
1793		62.500000
1794		74.218750
1795		70.312500
1796		82.031250
1797		74.218750
1798		85.937500
1799		85.937500
1800		93.750000
1801		89.843750
1802		101.562500
1803		97.656250
1804		105.468750
1805		101.562500
1806		117.187500
1807		109.375000
1808		121.093750
1809		117.187500
1810		128.906250
1811		125.000000
1812		132.812500
1813		128.906250
1814		140.625000
1815		136.718750
1816		144.531250
1817		144.531250
1818		148.437500
1819		148.437500
1820		156.250000
1821		152.343750
1822		164.062500
1823		156.250000
1824		167.968750
1825		164.062500
1826		171.875000
1827		167.968750
1828		179.687500
1829		171.875000
1830		183.593750
1831		175.781250
1832		183.593750
1833		183.593750
1834		191.406250
1835		187.500000
1836		195.312500
1837		191.406250
1838		199.218750
1839		195.312500
1840		203.125000
1841		199.218750
1842		207.031250
1843		199.218750
1844		210.937500
1845		207.031250
1846		214.843750
1847		207.031250
1848		214.843750
1849		214.843750
1850		218.750000
1851		214.843750
1852		218.750000
1853		218.750000
1854		226.562500
1855		218.750000
1856		226.562500
1857		222.656250
1858		230.468750
1859		222.656250
1860		230.468750
1861		226.562500
1862		234.375000
1863		226.562500
1864		234.375000
1865		230.468750
1866		234.375000
1867		234.375000
1868		238.281250
1869		234.375000
1870		238.281250
1871		234.375000
1872		242.187500
1873		234.375000
1874		242.187500
1875		234.375000
1876		242.187500
1877		238.281250
1878		246.093750
1879		238.281250
1880		246.093750
1881		238.281250
1882		246.093750
1883		242.187500
1884		242.187500
1885		242.187500
1886		246.093750
1887		238.281250
1888		246.093750
1889		238.281250
1890		246.093750
1891		238.281250
1892		246.093750
1893		238.281250
1894		246.093750
1895		238.281250
1896		246.093750
1897		238.281250
1898		246.093750
1899		238.281250
1900		242.187500
1901		238.281250
1902		242.187500
1903		234.375000
1904		242.187500
1905		234.375000
1906		242.187500
1907		230.468750
1908		242.187500
1909		230.468750
1910		238.281250
1911		230.468750
1912		238.281250
1913		226.562500
1914		234.375000
1915		226.562500
1916		234.375000
1917		226.562500
1918		230.468750
1919		222.656250
1920		226.562500
1921		218.750000
1922		226.562500
1923		214.843750
1924		226.562500
1925		214.843750
1926		222.656250
1927		210.937500
1928		218.750000
1929		207.031250
1930		214.843750
1931		203.125000
1932		210.937500
1933		203.125000
1934		207.031250
1935		199.218750
1936		203.125000
1937		191.406250
1938		199.218750
1939		187.500000
1940		199.218750
1941		183.593750
1942		191.406250
1943		179.687500
1944		191.406250
1945		175.781250
1946		183.593750
1947		167.968750
1948		179.687500
1949		167.968750
1950		175.781250
1951		160.156250
1952		167.968750
1953		152.343750
1954		164.062500
1955		148.437500
1956		156.250000
1957		144.531250
1958		152.343750
1959		136.718750
1960		148.437500
1961		128.906250
1962		140.625000
1963		125.000000
1964		132.812500
1965		117.187500
1966		128.906250
1967		113.281250
1968		121.093750
1969		105.468750
1970		113.281250
1971		97.656250
1972		105.468750
1973		89.843750
1974		101.562500
1975		82.031250
1976		93.750000
1977		74.218750
1978		89.843750
1979		66.406250
1980		78.125000
1981		62.500000
1982		74.218750
1983		54.687500
1984		62.500000
1985		46.875000
1986		54.687500
1987		39.062500
1988		46.875000
1989		31.250000
1990		42.968750
1991		19.531250
1992		35.156250
1993		15.625000
1994		27.343750
1995		7.812500
1996		19.531250
1997		-3.906250
1998		7.812500
1999		-7.812500
2000		3.906250
2001		-15.625000
2002		-7.812500
2003		-27.343750
2004		-15.625000
2005		-35.156250
2006		-23.437500
2007		-39.062500
2008		-31.250000
2009		-50.781250
2010		-35.156250
2011		-58.593750
2012		-46.875000
2013		-66.406250
2014		-50.781250
2015		-70.312500
2016		-58.593750
2017		-78.125000
2018		-70.312500
2019		-85.937500
2020		-78.125000
2021		-93.750000
2022		-85.937500
2023		-101.562500
2024		-89.843750
2025		-109.375000
2026		-97.656250
2027		-117.187500
2028		-105.468750
2029		-125.000000
2030		-113.281250
2031		-128.906250
2032		-121.093750
2033		-136.718750
2034		-125.000000
2035		-140.625000
2036		-132.812500
2037		-152.343750
2038		-140.625000
2039		-156.250000
2040		-144.531250
2041		-164.062500
2042		-148.437500
2043		-167.968750
2044		-156.250000
2045		-171.875000
2046		-164.062500
2047		-179.687500
2048		-167.968750
2049		-183.593750
2050		-175.781250
2051		-187.500000
2052		-179.687500
2053		-191.406250
2054		-187.500000
2055		-199.218750
2056		-191.406250
2057		-203.125000
2058		-195.312500
2059		-207.031250
2060		-199.218750
2061		-210.937500
2062		-203.125000
2063		-214.843750
2064		-207.031250
2065		-218.750000
2066		-207.031250
2067		-218.750000
2068		-210.937500
2069		-222.656250
2070		-218.750000
2071		-226.562500
2072		-218.750000
2073		-230.468750
2074		-218.750000
2075		-230.468750
2076		-222.656250
2077		-230.468750
2078		-226.562500
2079		-234.375000
2080		-226.562500
2081		-234.375000
2082		-230.468750
2083		-238.281250
2084		-230.468750
2085		-234.375000
2086		-234.375000
2087		-238.281250
2088		-234.375000
2089		-238.281250
2090		-230.468750
2091		-238.281250
2092		-230.468750
2093		-238.281250
2094		-230.468750
2095		-238.281250
2096		-230.468750
2097		-238.281250
2098		-230.468750
2099		-234.375000
2100		-226.562500
2101		-230.468750
2102		-230.468750
2103		-230.468750
2104		-226.562500
2105		-230.468750
2106		-222.656250
2107		-226.562500
2108		-218.750000
2109		-226.562500
2110		-218.750000
2111		-222.656250
2112		-214.843750
2113		-218.750000
2114		-210.937500
2115		-218.750000
2116		-207.031250
2117		-214.843750
2118		-207.031250
2119		-207.031250
2120		-203.125000
2121		-203.125000
2122		-195.312500
2123		-203.125000
2124		-191.406250
2125		-195.312500
2126		-187.500000
2127		-191.406250
2128		-179.687500
2129		-187.500000
2130		-175.781250
2131		-179.687500
2132		-171.875000
2133		-175.781250
2134		-167.968750
2135		-167.968750
2136		-160.156250
2137		-164.062500
2138		-156.250000
2139		-156.250000
2140		-148.437500
2141		-152.343750
2142		-140.625000
2143		-144.531250
2144		-132.812500
2145		-140.625000
2146		-125.000000
2147		-132.812500
2148		-121.093750
2149		-125.000000
2150		-113.281250
2151		-117.187500
2152		-105.468750
2153		-109.375000
2154		-101.562500
2155		-101.562500
2156		-89.843750
2157		-93.750000
2158		-82.031250
2159		-89.843750
2160		-74.218750
2161		-78.125000
2162		-66.406250
2163		-70.312500
2164		-58.593750
2165		-66.406250
2166		-50.781250
2167		-54.687500
2168		-46.875000
2169		-46.875000
2170		-35.156250
2171		-39.062500
2172		-27.343750
2173		-31.250000
2174		-19.531250
2175		-23.437500
2176		-11.718750
2177		-15.625000
2178		-3.906250
2179		-7.812500
2180		3.906250
2181		0.000000
2182		11.718750
2183		7.812500
2184		19.531250
2185		19.531250
2186		27.343750
2187		27.343750
2188		35.156250
2189		35.156250
2190		42.968750
2191		39.062500
2192		54.687500
2193		46.875000
2194		58.593750
2195		54.687500
2196		66.406250
2197		62.500000
2198		74.218750
2199		70.312500
2200		82.031250
2201		78.125000
2202		85.937500
2203		85.937500
2204		93.750000
2205		93.750000
2206		101.562500
2207		97.656250
2208		109.375000
2209		105.468750
2210		117.187500
2211		109.375000
2212		125.000000
2213		121.093750
2214		128.906250
2215		125.000000
2216		136.718750
2217		128.906250
2218		140.625000
2219		136.718750
2220		144.531250
2221		144.531250
2222		152.343750
2223		148.437500
2224		156.250000
2225		152.343750
2226		164.062500
2227		160.156250
2228		167.968750
2229		164.062500
2230		175.781250
2231		167.968750
2232		179.687500
2233		175.781250
2234		183.593750
2235		179.687500
2236		187.500000
2237		183.593750
2238		191.406250
2239		187.500000
2240		195.312500
2241		191.406250
2242		199.218750
2243		195.312500
2244		203.125000
2245		199.218750
2246		207.031250
2247		203.125000
2248		210.937500
2249		203.125000
2250		214.843750
2251		210.937500
2252		214.843750
2253		214.843750
2254		218.750000
2255		214.843750
2256		222.656250
2257		218.750000
2258		226.562500
2259		222.656250
2260		230.468750
2261		222.656250
2262		230.468750
2263		222.656250
2264		230.468750
2265		226.562500
2266		234.375000
2267		226.562500
2268		234.375000
2269		230.468750
2270		238.281250
2271		234.375000
2272		238.281250
2273		234.375000
2274		242.187500
2275		234.375000
2276		242.187500
2277		234.375000
2278		242.187500
2279		234.375000
2280		242.187500
2281		238.281250
2282		242.187500
2283		238.281250
2284		246.093750
2285		238.281250
2286		246.093750
2287		242.187500
2288		246.093750
2289		238.281250
2290		246.093750
2291		238.281250
2292		246.093750
2293		238.281250
2294		246.093750
2295		238.281250
2296		246.093750
2297		238.281250
2298		246.093750
2299		238.281250
2300		246.093750
2301		238.281250
2302		246.093750
2303		238.281250
2304		242.187500
2305		238.281250
2306		242.187500
2307		234.375000
2308		242.187500
2309		234.375000
2310		242.187500
2311		234.375000
2312		238.281250
2313		230.468750
2314		238.281250
2315		226.562500
2316		234.375000
2317		226.562500
2318		234.375000
2319		226.562500
2320		230.468750
2321		222.656250
2322		230.468750
2323		218.750000
2324		226.562500
2325		218.750000
2326		226.562500
2327		214.843750
2328		222.656250
2329		210.937500
2330		218.750000
2331		210.937500
2332		218.750000
2333		207.031250
2334		214.843750
2335		203.125000
2336		210.937500
2337		199.218750
2338		207.031250
2339		195.312500
2340		203.125000
2341		191.406250
2342		199.218750
2343		187.500000
2344		195.312500
2345		183.593750
2346		191.406250
2347		175.781250
2348		187.500000
2349		171.875000
2350		183.593750
2351		167.968750
2352		179.687500
2353		164.062500
2354		171.875000
2355		160.156250
2356		167.968750
2357		152.343750
2358		160.156250
2359		144.531250
2360		156.250000
2361		140.625000
2362		152.343750
2363		132.812500
2364		144.531250
2365		128.906250
2366		140.625000
2367		121.093750
2368		132.812500
2369		117.187500
2370		125.000000
2371		109.375000
2372		117.187500
2373		101.562500
2374		109.375000
2375		93.750000
2376		105.468750
2377		85.937500
2378		97.656250
2379		78.125000
2380		89.843750
2381		74.218750
2382		85.937500
2383		62.500000
2384		78.125000
2385		58.593750
2386		70.312500
2387		50.781250
2388		62.500000
2389		42.968750
2390		50.781250
2391		35.156250
2392		46.875000
2393		27.343750
2394		39.062500
2395		19.531250
2396		31.250000
2397		11.718750
2398		23.437500
2399		3.906250
2400		15.625000
2401		-3.906250
2402		7.812500
2403		-11.718750
2404		0.000000
2405		-19.531250
2406		-11.718750
2407		-27.343750
2408		-19.531250
2409		-35.156250
2410		-23.437500
2411		-46.875000
2412		-31.250000
2413		-54.687500
2414		-39.062500
2415		-58.593750
2416		-46.875000
2417		-70.312500
2418		-54.687500
2419		-74.218750
2420		-62.500000
2421		-82.031250
2422		-74.218750
2423		-89.843750
2424		-82.031250
2425		-97.656250
2426		-85.937500
2427		-105.468750
2428		-93.750000
2429		-113.281250
2430		-101.562500
2431		-121.093750
2432		-109.375000
2433		-125.000000
2434		-117.187500
2435		-136.718750
2436		-125.000000
2437		-140.625000
2438		-128.906250
2439		-144.531250
2440		-136.718750
2441		-152.343750
2442		-144.531250
2443		-160.156250
2444		-148.437500
2445		-164.062500
2446		-156.250000
2447		-171.875000
2448		-160.156250
2449		-175.781250
2450		-167.968750
2451		-179.687500
2452		-171.875000
2453		-187.500000
2454		-175.781250
2455		-191.406250
2456		-183.593750
2457		-195.312500
2458		-187.500000
2459		-199.218750
2460		-191.406250
2461		-207.031250
2462		-195.312500
2463		-210.937500
2464		-199.218750
2465		-210.937500
2466		-203.125000
2467		-218.750000
2468		-207.031250
2469		-218.750000
2470		-210.937500
2471		-222.656250
2472		-214.843750
2473		-226.562500
2474		-218.750000
2475		-230.468750
2476		-222.656250
2477		-230.468750
2478		-222.656250
2479		-234.375000
2480		-226.562500
2481		-234.375000
2482		-226.562500
2483		-238.281250
2484		-230.468750
2485		-238.281250
2486		-230.468750
2487		-238.281250
2488		-230.468750
2489		-238.281250
2490		-234.375000
2491		-238.281250
2492		-234.375000
2493		-242.187500
2494		-234.375000
2495		-242.187500
2496		-234.375000
2497		-238.281250
2498		-234.375000
2499		-238.281250
2500		-230.468750
2501		-238.281250
2502		-230.468750
2503		-238.281250
2504		-230.468750
2505		-234.375000
2506		-230.468750
2507		-230.468750
2508		-226.562500
2509		-230.468750
2510		-222.656250
2511		-230.468750
2512		-222.656250
2513		-226.562500
2514		-218.750000
2515		-222.656250
2516		-214.843750
2517		-218.750000
2518		-210.937500
2519		-218.750000
2520		-207.031250
2521		-214.843750
2522		-207.031250
2523		-207.031250
2524		-203.125000
2525		-203.125000
2526		-195.312500
2527		-203.125000
2528		-191.406250
2529		-195.312500
2530		-187.500000
2531		-191.406250
2532		-179.687500
2533		-187.500000
2534		-175.781250
2535		-179.687500
2536		-171.875000
2537		-175.781250
2538		-167.968750
2539		-167.968750
2540		-160.156250
2541		-164.062500
2542		-152.343750
2543		-156.250000
2544		-144.531250
2545		-152.343750
2546		-140.625000
2547		-144.531250
2548		-132.812500
2549		-136.718750
2550		-125.000000
2551		-132.812500
2552		-121.093750
2553		-125.000000
2554		-113.281250
2555		-113.281250
2556		-105.468750
2557		-109.375000
2558		-97.656250
2559		-101.562500
2560		-89.843750
2561		-93.750000
2562		-82.031250
2563		-85.937500
2564		-74.218750
2565		-78.125000
2566		-66.406250
2567		-70.312500
2568		-58.593750
2569		-62.500000
2570		-50.781250
2571		-54.687500
2572		-42.968750
2573		-42.968750
2574		-35.156250
2575		-39.062500
2576		-27.343750
2577		-31.250000
2578		-19.531250
2579		-23.437500
2580		-11.718750
2581		-15.625000
2582		-3.906250
2583		-3.906250
2584		7.812500
2585		0.000000
2586		15.625000
2587		11.718750
2588		23.437500
2589		19.531250
2590		27.343750
2591		27.343750
2592		35.156250
2593		35.156250
2594		46.875000
2595		42.968750
2596		54.687500
2597		46.875000
2598		62.500000
2599		54.687500
2600		70.312500
2601		66.406250
2602		78.125000
2603		70.312500
2604		82.031250
2605		78.125000
2606		89.843750
2607		85.937500
2608		93.750000
2609		93.750000
2610		105.468750
2611		97.656250
2612		109.375000
2613		105.468750
2614		117.187500
2615		113.281250
2616		125.000000
2617		117.187500
2618		128.906250
2619		125.000000
2620		136.718750
2621		132.812500
2622		140.625000
2623		140.625000
2624		148.437500
2625		144.531250
2626		152.343750
2627		148.437500
2628		160.156250
2629		152.343750
2630		164.062500
2631		160.156250
2632		171.875000
2633		164.062500
2634		175.781250
2635		167.968750
2636		179.687500
2637		175.781250
2638		183.593750
2639		179.687500
2640		187.500000
2641		183.593750
2642		191.406250
2643		191.406250
2644		199.218750
2645		191.406250
2646		203.125000
2647		195.312500
2648		207.031250
2649		199.218750
2650		210.937500
2651		203.125000
2652		210.937500
2653		207.031250
2654		214.843750
2655		207.031250
2656		214.843750
2657		214.843750
2658		218.750000
2659		218.750000
2660		222.656250
2661		218.750000
2662		226.562500
2663		218.750000
2664		226.562500
2665		222.656250
2666		230.468750
2667		222.656250
2668		234.375000
2669		226.562500
2670		234.375000
2671		230.468750
2672		234.375000
2673		230.468750
2674		234.375000
2675		234.375000
2676		238.281250
2677		234.375000
2678		242.187500
2679		234.375000
2680		242.187500
2681		234.375000
2682		242.187500
2683		234.375000
2684		242.187500
2685		238.281250
2686		242.187500
2687		238.281250
2688		242.187500
2689		238.281250
2690		242.187500
2691		238.281250
2692		242.187500
2693		238.281250
2694		246.093750
2695		238.281250
2696		246.093750
2697		238.281250
2698		246.093750
2699		238.281250
2700		246.093750
2701		238.281250
2702		246.093750
2703		238.281250
2704		246.093750
2705		238.281250
2706		246.093750
2707		238.281250
2708		242.187500
2709		234.375000
2710		242.187500
2711		234.375000
2712		242.187500
2713		230.468750
2714		238.281250
2715		230.468750
2716		238.281250
2717		230.468750
2718		238.281250
2719		226.562500
2720		234.375000
2721		226.562500
2722		234.375000
2723		226.562500
2724		230.468750
2725		222.656250
2726		226.562500
2727		218.750000
2728		226.562500
2729		214.843750
2730		226.562500
2731		214.843750
2732		222.656250
2733		210.937500
2734		218.750000
2735		207.031250
2736		214.843750
2737		203.125000
2738		210.937500
2739		203.125000
2740		210.937500
2741		199.218750
2742		203.125000
2743		191.406250
2744		199.218750
2745		187.500000
2746		199.218750
2747		183.593750
2748		195.312500
2749		179.687500
2750		191.406250
2751		175.781250
2752		187.500000
2753		167.968750
2754		179.687500
2755		167.968750
2756		175.781250
2757		160.156250
2758		167.968750
2759		156.250000
2760		164.062500
2761		148.437500
2762		160.156250
2763		144.531250
2764		152.343750
2765		136.718750
2766		148.437500
2767		128.906250
2768		140.625000
2769		121.093750
2770		132.812500
2771		117.187500
2772		128.906250
2773		113.281250
2774		121.093750
2775		105.468750
2776		113.281250
2777		97.656250
2778		105.468750
2779		89.843750
2780		101.562500
2781		82.031250
2782		93.750000
2783		74.218750
2784		85.937500
2785		66.406250
2786		78.125000
2787		62.500000
2788		74.218750
2789		54.687500
2790		62.500000
2791		46.875000
2792		54.687500
2793		39.062500
2794		50.781250
2795		31.250000
2796		42.968750
2797		23.437500
2798		35.156250
2799		11.718750
2800		27.343750
2801		7.812500
2802		19.531250
2803		-3.906250
2804		7.812500
2805		-11.718750
2806		3.906250
2807		-15.625000
2808		-7.812500
2809		-23.437500
2810		-15.625000
2811		-35.156250
2812		-23.437500
2813		-39.062500
2814		-27.343750
2815		-50.781250
2816		-35.156250
2817		-58.593750
2818		-46.875000
2819		-66.406250
2820		-54.687500
2821		-70.312500
2822		-62.500000
2823		-78.125000
2824		-70.312500
2825		-85.937500
2826		-78.125000
2827		-97.656250
2828		-85.937500
2829		-101.562500
2830		-89.843750
2831		-113.281250
2832		-97.656250
2833		-117.187500
2834		-105.468750
2835		-125.000000
2836		-113.281250
2837		-128.906250
2838		-117.187500
2839		-136.718750
2840		-125.000000
2841		-144.531250
2842		-136.718750
2843		-148.437500
2844		-140.625000
2845		-156.250000
2846		-144.531250
2847		-164.062500
2848		-152.343750
2849		-167.968750
2850		-160.156250
2851		-171.875000
2852		-164.062500
2853		-179.687500
2854		-167.968750
2855		-183.593750
2856		-175.781250
2857		-187.500000
2858		-179.687500
2859		-195.312500
2860		-187.500000
2861		-199.218750
2862		-191.406250
2863		-203.125000
2864		-195.312500
2865		-207.031250
2866		-199.218750
2867		-210.937500
2868		-203.125000
2869		-218.750000
2870		-207.031250
2871		-218.750000
2872		-210.937500
2873		-222.656250
2874		-214.843750
2875		-226.562500
2876		-218.750000
2877		-226.562500
2878		-222.656250
2879		-230.468750
2880		-222.656250
2881		-234.375000
2882		-226.562500
2883		-234.375000
2884		-230.468750
2885		-238.281250
2886		-230.468750
2887		-238.281250
2888		-230.468750
2889		-238.281250
2890		-234.375000
2891		-238.281250
2892		-234.375000
2893		-238.281250
2894		-238.281250
2895		-242.187500
2896		-234.375000
2897		-242.187500
2898		-234.375000
2899		-242.187500
2900		-234.375000
2901		-242.187500
2902		-234.375000
2903		-242.187500
2904		-234.375000
2905		-238.281250
2906		-230.468750
2907		-238.281250
2908		-230.468750
2909		-234.375000
2910		-230.468750
2911		-234.375000
2912		-226.562500
2913		-234.375000
2914		-226.562500
2915		-230.468750
2916		-222.656250
2917		-226.562500
2918		-218.750000
2919		-226.562500
2920		-214.843750
2921		-222.656250
2922		-214.843750
2923		-218.750000
2924		-210.937500
2925		-214.843750
2926		-207.031250
2927		-210.937500
2928		-203.125000
2929		-207.031250
2930		-199.218750
2931		-203.125000
2932		-191.406250
2933		-199.218750
2934		-187.500000
2935		-191.406250
2936		-183.593750
2937		-187.500000
2938		-175.781250
2939		-183.593750
2940		-171.875000
2941		-175.781250
2942		-167.968750
2943		-167.968750
2944		-160.156250
2945		-164.062500
2946		-152.343750
2947		-160.156250
2948		-148.437500
2949		-152.343750
2950		-140.625000
2951		-144.531250
2952		-132.812500
2953		-136.718750
2954		-125.000000
2955		-128.906250
2956		-121.093750
2957		-125.000000
2958		-113.281250
2959		-113.281250
2960		-105.468750
2961		-109.375000
2962		-97.656250
2963		-101.562500
2964		-89.843750
2965		-93.750000
2966		-82.031250
2967		-85.937500
2968		-74.218750
2969		-78.125000
2970		-66.406250
2971		-70.312500
2972		-58.593750
2973		-62.500000
2974		-50.781250
2975		-54.687500
2976		-42.968750
2977		-42.968750
2978		-35.156250
2979		-35.156250
2980		-23.437500
2981		-31.250000
2982		-15.625000
2983		-23.437500
2984		-11.718750
2985		-15.625000
2986		0.000000
2987		-3.906250
2988		7.812500
2989		3.906250
2990		15.625000
2991		11.718750
2992		23.437500
2993		19.531250
2994		31.250000
2995		27.343750
2996		39.062500
2997		35.156250
2998		46.875000
2999		42.968750
3000		54.687500
3001		50.781250
3002		62.500000
3003		54.687500
3004		70.312500
3005		62.500000
3006		78.125000
3007		70.312500
3008		82.031250
3009		82.031250
3010		89.843750
3011		85.937500
3012		97.656250
3013		93.750000
3014		105.468750
3015		101.562500
3016		109.375000
3017		105.468750
3018		117.187500
3019		113.281250
3020		125.000000
3021		121.093750
3022		128.906250
3023		125.000000
3024		136.718750
3025		132.812500
3026		140.625000
3027		140.625000
3028		148.437500
3029		144.531250
3030		152.343750
3031		148.437500
3032		160.156250
3033		156.250000
3034		164.062500
3035		160.156250
3036		171.875000
3037		164.062500
3038		175.781250
3039		171.875000
3040		179.687500
3041		171.875000
3042		183.593750
3043		179.687500
3044		187.500000
3045		183.593750
3046		191.406250
3047		187.500000
3048		195.312500
3049		191.406250
3050		199.218750
3051		195.312500
3052		203.125000
3053		199.218750
3054		207.031250
3055		203.125000
3056		210.937500
3057		207.031250
3058		214.843750
3059		210.937500
3060		214.843750
3061		214.843750
3062		218.750000
3063		214.843750
3064		222.656250
3065		214.843750
3066		226.562500
3067		218.750000
3068		226.562500
3069		222.656250
3070		230.468750
3071		222.656250
3072		230.468750
3073		226.562500
3074		234.375000
3075		226.562500
3076		234.375000
3077		230.468750
3078		234.375000
3079		234.375000
3080		238.281250
3081		230.468750
3082		238.281250
3083		234.375000
3084		242.187500
3085		234.375000
3086		242.187500
3087		234.375000
3088		242.187500
3089		234.375000
3090		242.187500
3091		238.281250
3092		242.187500
3093		238.281250
3094		242.187500
3095		238.281250
3096		242.187500
3097		238.281250
3098		246.093750
3099		238.281250
3100		246.093750
3101		238.281250
3102		242.187500
3103		238.281250
3104		242.187500
3105		238.281250
3106		242.187500
3107		234.375000
3108		242.187500
3109		234.375000
3110		242.187500
3111		234.375000
3112		238.281250
3113		234.375000
3114		238.281250
3115		230.468750
3116		238.281250
3117		230.468750
3118		238.281250
3119		230.468750
3120		238.281250
3121		226.562500
3122		234.375000
3123		226.562500
3124		234.375000
3125		222.656250
3126		230.468750
3127		222.656250
3128		226.562500
3129		222.656250
3130		226.562500
3131		214.843750
3132		226.562500
3133		214.843750
3134		222.656250
3135		210.937500
3136		218.750000
3137		207.031250
3138		214.843750
3139		203.125000
3140		214.843750
3141		199.218750
3142		210.937500
3143		199.218750
3144		207.031250
3145		195.312500
3146		203.125000
3147		191.406250
3148		199.218750
3149		183.593750
3150		195.312500
3151		183.593750
3152		191.406250
3153		175.781250
3154		187.500000
3155		171.875000
3156		183.593750
3157		167.968750
3158		175.781250
3159		164.062500
3160		171.875000
3161		156.250000
3162		164.062500
3163		152.343750
3164		160.156250
3165		144.531250
3166		156.250000
3167		136.718750
3168		148.437500
3169		132.812500
3170		144.531250
3171		128.906250
3172		136.718750
3173		121.093750
3174		132.812500
3175		113.281250
3176		125.000000
3177		109.375000
3178		117.187500
3179		101.562500
3180		109.375000
3181		93.750000
3182		105.468750
3183		85.937500
3184		97.656250
3185		78.125000
3186		89.843750
3187		70.312500
3188		82.031250
3189		66.406250
3190		74.218750
3191		54.687500
3192		66.406250
3193		50.781250
3194		62.500000
3195		42.968750
3196		50.781250
3197		35.156250
3198		42.968750
3199		27.343750
3200		39.062500
3201		15.625000
3202		31.250000
3203		11.718750
3204		23.437500
3205		0.000000
3206		15.625000
3207		-7.812500
3208		7.812500
3209		-11.718750
3210		-3.906250
3211		-19.531250
3212		-11.718750
3213		-27.343750
3214		-19.531250
3215		-39.062500
3216		-27.343750
3217		-42.968750
3218		-31.250000
3219		-54.687500
3220		-39.062500
3221		-62.500000
3222		-46.875000
3223		-70.312500
3224		-54.687500
3225		-78.125000
3226		-66.406250
3227		-82.031250
3228		-74.218750
3229		-89.843750
3230		-82.031250
3231		-97.656250
3232		-89.843750
3233		-105.468750
3234		-93.750000
3235		-113.281250
3236		-101.562500
3237		-121.093750
3238		-109.375000
3239		-128.906250
3240		-117.187500
3241		-132.812500
3242		-125.000000
3243		-140.625000
3244		-128.906250
3245		-144.531250
3246		-136.718750
3247		-152.343750
3248		-144.531250
3249		-160.156250
3250		-148.437500
3251		-167.968750
3252		-156.250000
3253		-171.875000
3254		-160.156250
3255		-179.687500
3256		-167.968750
3257		-183.593750
3258		-171.875000
3259		-187.500000
3260		-179.687500
3261		-191.406250
3262		-183.593750
3263		-195.312500
3264		-191.406250
3265		-203.125000
3266		-195.312500
3267		-207.031250
3268		-195.312500
3269		-210.937500
3270		-203.125000
3271		-214.843750
3272		-207.031250
3273		-218.750000
3274		-210.937500
3275		-222.656250
3276		-210.937500
3277		-222.656250
3278		-218.750000
3279		-226.562500
3280		-222.656250
3281		-230.468750
3282		-222.656250
3283		-234.375000
3284		-226.562500
3285		-234.375000
3286		-226.562500
3287		-238.281250
3288		-230.468750
3289		-238.281250
3290		-230.468750
3291		-238.281250
3292		-234.375000
3293		-242.187500
3294		-234.375000
3295		-238.281250
3296		-234.375000
3297		-242.187500
3298		-238.281250
3299		-242.187500
3300		-234.375000
3301		-242.187500
3302		-234.375000
3303		-242.187500
3304		-234.375000
3305		-242.187500
3306		-234.375000
3307		-242.187500
3308		-234.375000
3309		-242.187500
3310		-230.468750
3311		-238.281250
3312		-230.468750
3313		-234.375000
3314		-230.468750
3315		-234.375000
3316		-226.562500
3317		-234.375000
3318		-222.656250
3319		-230.468750
3320		-222.656250
3321		-226.562500
3322		-218.750000
3323		-222.656250
3324		-214.843750
3325		-222.656250
3326		-210.937500
3327		-218.750000
3328		-210.937500
3329		-210.937500
3330		-207.031250
3331		-207.031250
3332		-199.218750
3333		-203.125000
3334		-195.312500
3335		-199.218750
3336		-187.500000
3337		-195.312500
3338		-183.593750
3339		-187.500000
3340		-179.687500
3341		-183.593750
3342		-175.781250
3343		-179.687500
3344		-167.968750
3345		-171.875000
3346		-164.062500
3347		-167.968750
3348		-160.156250
3349		-160.156250
3350		-148.437500
3351		-156.250000
3352		-144.531250
3353		-148.437500
3354		-136.718750
3355		-140.625000
3356		-128.906250
3357		-132.812500
3358		-121.093750
3359		-128.906250
3360		-117.187500
3361		-121.093750
3362		-109.375000
3363		-113.281250
3364		-101.562500
3365		-105.468750
3366		-93.750000
3367		-97.656250
3368		-85.937500
3369		-89.843750
3370		-78.125000
3371		-82.031250
3372		-70.312500
3373		-74.218750
3374		-62.500000
3375		-66.406250
3376		-54.687500
3377		-58.593750
3378		-46.875000
3379		-46.875000
3380		-39.062500
3381		-39.062500
3382		-31.250000
3383		-35.156250
3384		-23.437500
3385		-23.437500
3386		-11.718750
3387		-15.625000
3388		-3.906250
3389		-11.718750
3390		3.906250
3391		0.000000
3392		11.718750
3393		7.812500
3394		19.531250
3395		15.625000
3396		23.437500
3397		23.437500
3398		35.156250
3399		31.250000
3400		42.968750
3401		39.062500
3402		50.781250
3403		46.875000
3404		58.593750
3405		54.687500
3406		66.406250
3407		58.593750
3408		70.312500
3409		66.406250
3410		78.125000
3411		74.218750
3412		85.937500
3413		82.031250
3414		93.750000
3415		89.843750
3416		97.656250
3417		97.656250
3418		109.375000
3419		101.562500
3420		113.281250
3421		109.375000
3422		121.093750
3423		117.187500
3424		128.906250
3425		121.093750
3426		132.812500
3427		128.906250
3428		140.625000
3429		136.718750
3430		144.531250
3431		140.625000
3432		148.437500
3433		148.437500
3434		156.250000
3435		152.343750
3436		160.156250
3437		156.250000
3438		167.968750
3439		164.062500
3440		171.875000
3441		167.968750
3442		179.687500
3443		171.875000
3444		183.593750
3445		175.781250
3446		183.593750
3447		183.593750
3448		187.500000
3449		187.500000
3450		195.312500
3451		191.406250
3452		199.218750
3453		195.312500
3454		203.125000
3455		199.218750
3456		207.031250
3457		203.125000
3458		207.031250
3459		207.031250
3460		210.937500
3461		207.031250
3462		214.843750
3463		210.937500
3464		218.750000
3465		214.843750
3466		218.750000
3467		214.843750
3468		226.562500
3469		218.750000
3470		226.562500
3471		222.656250
3472		230.468750
3473		222.656250
3474		230.468750
3475		226.562500
3476		234.375000
3477		226.562500
3478		234.375000
3479		230.468750
3480		234.375000
3481		234.375000
3482		234.375000
3483		230.468750
3484		238.281250
3485		234.375000
3486		242.187500
3487		234.375000
3488		242.187500
3489		234.375000
3490		242.187500
3491		234.375000
3492		242.187500
3493		238.281250
3494		242.187500
3495		238.281250
3496		242.187500
3497		238.281250
3498		242.187500
3499		238.281250
3500		242.187500
3501		238.281250
3502		246.093750
3503		238.281250
3504		246.093750
3505		238.281250
3506		246.093750
3507		238.281250
3508		246.093750
3509		238.281250
3510		242.187500
3511		234.375000
3512		242.187500
3513		238.281250
3514		242.187500
3515		234.375000
3516		238.281250
3517		234.375000
3518		242.187500
3519		230.468750
3520		238.281250
3521		230.468750
3522		238.281250
3523		230.468750
3524		238.281250
3525		226.562500
3526		234.375000
3527		226.562500
3528		234.375000
3529		222.656250
3530		230.468750
3531		222.656250
3532		226.562500
3533		218.750000
3534		226.562500
3535		214.843750
3536		222.656250
3537		214.843750
3538		222.656250
3539		210.937500
3540		218.750000
3541		207.031250
3542		218.750000
3543		203.125000
3544		210.937500
3545		199.218750
3546		210.937500
3547		199.218750
3548		203.125000
3549		195.312500
3550		199.218750
3551		187.500000
3552		199.218750
3553		183.593750
3554		195.312500
3555		179.687500
3556		187.500000
3557		175.781250
3558		183.593750
3559		171.875000
3560		183.593750
3561		164.062500
3562		175.781250
3563		160.156250
3564		167.968750
3565		156.250000
3566		164.062500
3567		148.437500
3568		160.156250
3569		140.625000
3570		156.250000
3571		136.718750
3572		148.437500
3573		128.906250
3574		140.625000
3575		125.000000
3576		136.718750
3577		121.093750
3578		128.906250
3579		113.281250
3580		125.000000
3581		105.468750
3582		113.281250
3583		97.656250
3584		109.375000
3585		93.750000
3586		101.562500
3587		85.937500
3588		97.656250
3589		78.125000
3590		89.843750
3591		70.312500
3592		82.031250
3593		62.500000
3594		74.218750
3595		54.687500
3596		66.406250
3597		46.875000
3598		58.593750
3599		39.062500
3600		50.781250
3601		31.250000
3602		42.968750
3603		23.437500
3604		35.156250
3605		15.625000
3606		27.343750
3607		7.812500
3608		19.531250
3609		0.000000
3610		11.718750
3611		-7.812500
3612		3.906250
3613		-15.625000
3614		-3.906250
3615		-23.437500
3616		-11.718750
3617		-31.250000
3618		-19.531250
3619		-42.968750
3620		-27.343750
3621		-46.875000
3622		-35.156250
3623		-54.687500
3624		-42.968750
3625		-62.500000
3626		-50.781250
3627		-74.218750
3628		-58.593750
3629		-78.125000
3630		-66.406250
3631		-85.937500
3632		-74.218750
3633		-93.750000
3634		-82.031250
3635		-101.562500
3636		-89.843750
3637		-109.375000
3638		-97.656250
3639		-117.187500
3640		-105.468750
3641		-121.093750
3642		-113.281250
3643		-128.906250
3644		-117.187500
3645		-136.718750
3646		-125.000000
3647		-140.625000
3648		-128.906250
3649		-148.437500
3650		-140.625000
3651		-156.250000
3652		-144.531250
3653		-164.062500
3654		-152.343750
3655		-167.968750
3656		-156.250000
3657		-175.781250
3658		-164.062500
3659		-179.687500
3660		-167.968750
3661		-183.593750
3662		-171.875000
3663		-187.500000
3664		-179.687500
3665		-191.406250
3666		-187.500000
3667		-195.312500
3668		-191.406250
3669		-203.125000
3670		-195.312500
3671		-207.031250
3672		-199.218750
3673		-210.937500
3674		-203.125000
3675		-214.843750
3676		-207.031250
3677		-218.750000
3678		-210.937500
3679		-222.656250
3680		-214.843750
3681		-222.656250
3682		-218.750000
3683		-226.562500
3684		-222.656250
3685		-230.468750
3686		-222.656250
3687		-234.375000
3688		-226.562500
3689		-234.375000
3690		-226.562500
3691		-234.375000
3692		-230.468750
3693		-238.281250
3694		-230.468750
3695		-238.281250
3696		-230.468750
3697		-238.281250
3698		-234.375000
3699		-238.281250
3700		-234.375000
3701		-238.281250
3702		-234.375000
3703		-242.187500
3704		-234.375000
3705		-242.187500
3706		-234.375000
3707		-242.187500
3708		-234.375000
3709		-238.281250
3710		-234.375000
3711		-238.281250
3712		-230.468750
3713		-238.281250
3714		-230.468750
3715		-234.375000
3716		-230.468750
3717		-234.375000
3718		-230.468750
3719		-230.468750
3720		-226.562500
3721		-230.468750
3722		-222.656250
3723		-226.562500
3724		-218.750000
3725		-226.562500
3726		-214.843750
3727		-222.656250
3728		-214.843750
3729		-218.750000
3730		-210.937500
3731		-214.843750
3732		-207.031250
3733		-207.031250
3734		-203.125000
3735		-203.125000
3736		-199.218750
3737		-203.125000
3738		-191.406250
3739		-199.218750
3740		-187.500000
3741		-191.406250
3742		-183.593750
3743		-187.500000
3744		-175.781250
3745		-179.687500
3746		-171.875000
3747		-175.781250
3748		-167.968750
3749		-167.968750
3750		-160.156250
3751		-164.062500
3752		-156.250000
3753		-156.250000
3754		-148.437500
3755		-152.343750
3756		-140.625000
3757		-144.531250
3758		-132.812500
3759		-136.718750
3760		-125.000000
3761		-132.812500
3762		-117.187500
3763		-125.000000
3764		-113.281250
3765		-117.187500
3766		-105.468750
3767		-109.375000
3768		-97.656250
3769		-101.562500
3770		-89.843750
3771		-93.750000
3772		-82.031250
3773		-85.937500
3774		-74.218750
3775		-78.125000
3776		-66.406250
3777		-70.312500
3778		-58.593750
3779		-62.500000
3780		-50.781250
3781		-54.687500
3782		-42.968750
3783		-46.875000
3784		-35.156250
3785		-39.062500
3786		-27.343750
3787		-31.250000
3788		-19.531250
3789		-23.437500
3790		-11.718750
3791		-11.718750
3792		-3.906250
3793		-7.812500
3794		3.906250
3795		0.000000
3796		11.718750
3797		7.812500
3798		19.531250
3799		19.531250
3800		27.343750
3801		27.343750
3802		35.156250
3803		35.156250
3804		42.968750
3805		39.062500
3806		54.687500
3807		46.875000
3808		62.500000
3809		54.687500
3810		70.312500
3811		66.406250
3812		74.218750
3813		70.312500
3814		82.031250
3815		78.125000
3816		89.843750
3817		85.937500
3818		93.750000
3819		93.750000
3820		101.562500
3821		97.656250
3822		109.375000
3823		105.468750
3824		117.187500
3825		109.375000
3826		125.000000
3827		117.187500
3828		128.906250
3829		125.000000
3830		136.718750
3831		132.812500
3832		140.625000
3833		140.625000
3834		144.531250
3835		144.531250
3836		152.343750
3837		148.437500
3838		160.156250
3839		152.343750
3840		164.062500
3841		160.156250
3842		167.968750
3843		164.062500
3844		175.781250
3845		167.968750
3846		179.687500
3847		175.781250
3848		183.593750
3849		179.687500
3850		187.500000
3851		183.593750
3852		191.406250
3853		187.500000
3854		195.312500
3855		191.406250
3856		199.218750
3857		195.312500
3858		203.125000
3859		199.218750
3860		207.031250
3861		203.125000
3862		210.937500
3863		203.125000
3864		214.843750
3865		207.031250
3866		214.843750
3867		214.843750
3868		218.750000
3869		214.843750
3870		222.656250
3871		218.750000
3872		226.562500
3873		218.750000
3874		226.562500
3875		222.656250
3876		230.468750
3877		222.656250
3878		230.468750
3879		226.562500
3880		234.375000
3881		226.562500
3882		234.375000
3883		230.468750
3884		234.375000
3885		234.375000
3886		238.281250
3887		234.375000
3888		238.281250
3889		234.375000
3890		242.187500
3891		234.375000
3892		242.187500
3893		234.375000
3894		242.187500
3895		234.375000
3896		242.187500
3897		238.281250
3898		246.093750
3899		238.281250
3900		242.187500
3901		238.281250
3902		242.187500
3903		238.281250
3904		242.187500
3905		238.281250
3906		246.093750
3907		238.281250
3908		246.093750
3909		238.281250
3910		246.093750
3911		238.281250
3912		246.093750
3913		238.281250
3914		242.187500
3915		234.375000
3916		242.187500
3917		238.281250
3918		242.187500
3919		234.375000
3920		238.281250
3921		234.375000
3922		238.281250
3923		230.468750
3924		238.281250
3925		230.468750
3926		238.281250
3927		230.468750
3928		238.281250
3929		226.562500
3930		234.375000
3931		222.656250
3932		230.468750
3933		226.562500
3934		230.468750
3935		222.656250
3936		226.562500
3937		218.750000
3938		226.562500
3939		214.843750
3940		222.656250
3941		214.843750
3942		222.656250
3943		210.937500
3944		218.750000
3945		207.031250
3946		214.843750
3947		203.125000
3948		210.937500
3949		203.125000
3950		207.031250
3951		199.218750
3952		203.125000
3953		191.406250
3954		199.218750
3955		187.500000
3956		199.218750
3957		183.593750
3958		195.312500
3959		179.687500
3960		187.500000
3961		171.875000
3962		183.593750
3963		167.968750
3964		179.687500
3965		164.062500
3966		175.781250
3967		160.156250
3968		167.968750
3969		152.343750
3970		164.062500
3971		148.437500
3972		156.250000
3973		140.625000
3974		152.343750
3975		132.812500
3976		144.531250
3977		128.906250
3978		140.625000
3979		125.000000
3980		132.812500
3981		117.187500
3982		128.906250
3983		109.375000
3984		121.093750
3985		105.468750
3986		113.281250
3987		97.656250
3988		105.468750
3989		89.843750
3990		97.656250
3991		82.031250
3992		93.750000
3993		74.218750
3994		85.937500
3995		66.406250
3996		78.125000
3997		58.593750
3998		70.312500
3999		54.687500
4000		62.500000
4001		46.875000
4002		54.687500
4003		39.062500
4004		46.875000
4005		31.250000
4006		39.062500
4007		19.531250
4008		31.250000
4009		15.625000
4010		23.437500
4011		3.906250
4012		19.531250
4013		-3.906250
4014		11.718750
4015		-11.718750
4016		3.906250
4017		-19.531250
4018		-7.812500
4019		-23.437500
4020		-15.625000
4021		-35.156250
4022		-23.437500
4023		-42.968750
4024		-31.250000
4025		-50.781250
4026		-39.062500
4027		-58.593750
4028		-46.875000
4029		-66.406250
4030		-54.687500
4031		-74.218750
4032		-62.500000
4033		-78.125000
4034		-70.312500
4035		-85.937500
4036		-78.125000
4037		-93.750000
4038		-85.937500
4039		-101.562500
4040		-93.750000
4041		-109.375000
4042		-97.656250
4043		-117.187500
4044		-105.468750
4045		-125.000000
4046		-113.281250
4047		-132.812500
4048		-121.093750
4049		-136.718750
4050		-128.906250
4051		-144.531250
4052		-136.718750
4053		-148.437500
4054		-140.625000
4055		-156.250000
4056		-148.437500
4057		-164.062500
4058		-152.343750
4059		-171.875000
4060		-160.156250
4061		-175.781250
4062		-164.062500
4063		-183.593750
4064		-171.875000
4065		-187.500000
4066		-175.781250
4067		-191.406250
4068		-183.593750
4069		-195.312500
4070		-187.500000
4071		-203.125000
4072		-191.406250
4073		-203.125000
4074		-195.312500
4075		-210.937500
4076		-199.218750
4077		-214.843750
4078		-203.125000
4079		-218.750000
4080		-207.031250
4081		-222.656250
4082		-210.937500
4083		-222.656250
4084		-214.843750
4085		-226.562500
4086		-218.750000
4087		-226.562500
4088		-222.656250
4089		-234.375000
4090		-226.562500
4091		-234.375000
4092		-226.562500
4093		-234.375000
4094		-230.468750
4095		-238.281250
4096		-230.468750
4097		-238.281250
4098		-230.468750
4099		-242.187500
4100		-234.375000
4101		-238.281250
4102		-234.375000
4103		-242.187500
4104		-238.281250
4105		-242.187500
4106		-234.375000
4107		-242.187500
4108		-234.375000
4109		-242.187500
4110		-234.375000
4111		-242.187500
4112		-234.375000
4113		-242.187500
4114		-234.375000
4115		-242.187500
4116		-234.375000
4117		-238.281250
4118		-230.468750
4119		-234.375000
4120		-230.468750
4121		-234.375000
4122		-230.468750
4123		-234.375000
4124		-226.562500
4125		-230.468750
4126		-222.656250
4127		-230.468750
4128		-222.656250
4129		-226.562500
4130		-218.750000
4131		-222.656250
4132		-214.843750
4133		-218.750000
4134		-210.937500
4135		-214.843750
4136		-207.031250
4137		-210.937500
4138		-203.125000
4139		-207.031250
4140		-199.218750
4141		-203.125000
4142		-191.406250
4143		-199.218750
4144		-187.500000
4145		-195.312500
4146		-183.593750
4147		-187.500000
4148		-175.781250
4149		-183.593750
4150		-171.875000
4151		-175.781250
4152		-167.968750
4153		-167.968750
4154		-164.062500
4155		-164.062500
4156		-156.250000
4157		-160.156250
4158		-148.437500
4159		-152.343750
4160		-140.625000
4161		-144.531250
4162		-136.718750
4163		-140.625000
4164		-128.906250
4165		-132.812500
4166		-117.187500
4167		-125.000000
4168		-113.281250
4169		-117.187500
4170		-105.468750
4171		-109.375000
4172		-97.656250
4173		-101.562500
4174		-89.843750
4175		-93.750000
4176		-82.031250
4177		-85.937500
4178		-74.218750
4179		-78.125000
4180		-66.406250
4181		-70.312500
4182		-58.593750
4183		-62.500000
4184		-50.781250
4185		-54.687500
4186		-42.968750
4187		-46.875000
4188		-35.156250
4189		-39.062500
4190		-27.343750
4191		-31.250000
4192		-15.625000
4193		-23.437500
4194		-7.812500
4195		-15.625000
4196		0.000000
4197		-3.906250
4198		7.812500
4199		0.000000
4200		11.718750
4201		7.812500
4202		19.531250
4203		19.531250
4204		27.343750
4205		27.343750
4206		35.156250
4207		31.250000
4208		42.968750
4209		42.968750
4210		50.781250
4211		46.875000
4212		62.500000
4213		54.687500
4214		70.312500
4215		62.500000
4216		74.218750
4217		70.312500
4218		82.031250
4219		78.125000
4220		89.843750
4221		85.937500
4222		93.750000
4223		93.750000
4224		101.562500
4225		97.656250
4226		109.375000
4227		105.468750
4228		117.187500
4229		113.281250
4230		125.000000
4231		117.187500
4232		132.812500
4233		125.000000
4234		136.718750
4235		132.812500
4236		140.625000
4237		140.625000
4238		144.531250
4239		144.531250
4240		152.343750
4241		148.437500
4242		160.156250
4243		156.250000
4244		164.062500
4245		160.156250
4246		167.968750
4247		164.062500
4248		171.875000
4249		167.968750
4250		179.687500
4251		171.875000
4252		183.593750
4253		179.687500
4254		187.500000
4255		183.593750
4256		191.406250
4257		187.500000
4258		195.312500
4259		191.406250
4260		199.218750
4261		195.312500
4262		203.125000
4263		199.218750
4264		207.031250
4265		203.125000
4266		210.937500
4267		203.125000
4268		214.843750
4269		207.031250
4270		214.843750
4271		210.937500
4272		218.750000
4273		214.843750
4274		222.656250
4275		214.843750
4276		222.656250
4277		218.750000
4278		226.562500
4279		222.656250
4280		230.468750
4281		222.656250
4282		230.468750
4283		226.562500
4284		234.375000
4285		226.562500
4286		234.375000
4287		230.468750
4288		234.375000
4289		230.468750
4290		234.375000
4291		234.375000
4292		238.281250
4293		234.375000
4294		238.281250
4295		234.375000
4296		238.281250
4297		234.375000
4298		242.187500
4299		234.375000
4300		242.187500
4301		238.281250
4302		242.187500
4303		238.281250
4304		242.187500
4305		238.281250
4306		242.187500
4307		238.281250
4308		242.187500
4309		234.375000
4310		242.187500
4311		234.375000
4312		242.187500
4313		234.375000
4314		242.187500
4315		234.375000
4316		242.187500
4317		234.375000
4318		242.187500
4319		234.375000
4320		242.187500
4321		234.375000
4322		238.281250
4323		230.468750
4324		238.281250
4325		230.468750
4326		238.281250
4327		230.468750
4328		238.281250
4329		226.562500
4330		234.375000
4331		226.562500
4332		234.375000
4333		222.656250
4334		230.468750
4335		222.656250
4336		230.468750
4337		222.656250
4338		226.562500
4339		218.750000
4340		226.562500
4341		214.843750
4342		222.656250
4343		210.937500
4344		222.656250
4345		210.937500
4346		218.750000
4347		207.031250
4348		214.843750
4349		203.125000
4350		210.937500
4351		199.218750
4352		207.031250
4353		199.218750
4354		203.125000
4355		195.312500
4356		199.218750
4357		187.500000
4358		195.312500
4359		183.593750
4360		195.312500
4361		179.687500
4362		187.500000
4363		175.781250
4364		183.593750
4365		167.968750
4366		179.687500
4367		164.062500
4368		175.781250
4369		160.156250
4370		171.875000
4371		156.250000
4372		164.062500
4373		152.343750
4374		156.250000
4375		144.531250
4376		152.343750
4377		136.718750
4378		148.437500
4379		132.812500
4380		140.625000
4381		125.000000
4382		136.718750
4383		117.187500
4384		128.906250
4385		113.281250
4386		121.093750
4387		105.468750
4388		113.281250
4389		97.656250
4390		109.375000
4391		89.843750
4392		101.562500
4393		82.031250
4394		93.750000
4395		74.218750
4396		89.843750
4397		70.312500
4398		82.031250
4399		62.500000
4400		74.218750
4401		50.781250
4402		66.406250
4403		46.875000
4404		58.593750
4405		39.062500
4406		50.781250
4407		31.250000
4408		42.968750
4409		23.437500
4410		35.156250
4411		15.625000
4412		27.343750
4413		7.812500
4414		19.531250
4415		0.000000
4416		11.718750
4417		-7.812500
4418		3.906250
4419		-15.625000
4420		-3.906250
4421		-23.437500
4422		-15.625000
4423		-31.250000
4424		-19.531250
4425		-39.062500
4426		-31.250000
4427		-50.781250
4428		-35.156250
4429		-58.593750
4430		-42.968750
4431		-62.500000
4432		-54.687500
4433		-74.218750
4434		-58.593750
4435		-78.125000
4436		-66.406250
4437		-85.937500
4438		-74.218750
4439		-93.750000
4440		-85.937500
4441		-101.562500
4442		-89.843750
4443		-109.375000
4444		-97.656250
4445		-117.187500
4446		-105.468750
4447		-125.000000
4448		-109.375000
4449		-132.812500
4450		-121.093750
4451		-136.718750
4452		-125.000000
4453		-140.625000
4454		-132.812500
4455		-148.437500
4456		-140.625000
4457		-156.250000
4458		-148.437500
4459		-164.062500
4460		-152.343750
4461		-167.968750
4462		-160.156250
4463		-175.781250
4464		-164.062500
4465		-179.687500
4466		-167.968750
4467		-187.500000
4468		-175.781250
4469		-191.406250
4470		-183.593750
4471		-195.312500
4472		-187.500000
4473		-199.218750
4474		-191.406250
4475		-207.031250
4476		-199.218750
4477		-210.937500
4478		-203.125000
4479		-214.843750
4480		-207.031250
4481		-218.750000
4482		-210.937500
4483		-222.656250
4484		-210.937500
4485		-226.562500
4486		-214.843750
4487		-226.562500
4488		-218.750000
4489		-230.468750
4490		-226.562500
4491		-234.375000
4492		-226.562500
4493		-234.375000
4494		-230.468750
4495		-238.281250
4496		-230.468750
4497		-242.187500
4498		-234.375000
4499		-242.187500
4500		-234.375000
4501		-242.187500
4502		-238.281250
4503		-246.093750
4504		-238.281250
4505		-242.187500
4506		-238.281250
4507		-242.187500
4508		-242.187500
4509		-246.093750
4510		-238.281250
4511		-246.093750
4512		-238.281250
4513		-246.093750
4514		-238.281250
4515		-246.093750
4516		-234.375000
4517		-242.187500
4518		-238.281250
4519		-242.187500
4520		-234.375000
4521		-242.187500
4522		-234.375000
4523		-238.281250
4524		-234.375000
4525		-234.375000
4526		-230.468750
4527		-238.281250
4528		-226.562500
4529		-234.375000
4530		-222.656250
4531		-230.468750
4532		-222.656250
4533		-226.562500
4534		-218.750000
4535		-222.656250
4536		-214.843750
4537		-218.750000
4538		-210.937500
4539		-214.843750
4540		-210.937500
4541		-210.937500
4542		-203.125000
4543		-207.031250
4544		-199.218750
4545		-203.125000
4546		-195.312500
4547		-199.218750
4548		-191.406250
4549		-195.312500
4550		-183.593750
4551		-191.406250
4552		-175.781250
4553		-183.593750
4554		-171.875000
4555		-175.781250
4556		-167.968750
4557		-171.875000
4558		-160.156250
4559		-164.062500
4560		-152.343750
4561		-160.156250
4562		-148.437500
4563		-152.343750
4564		-140.625000
4565		-144.531250
4566		-132.812500
4567		-136.718750
4568		-128.906250
4569		-132.812500
4570		-121.093750
4571		-125.000000
4572		-113.281250
4573		-117.187500
4574		-105.468750
4575		-109.375000
4576		-97.656250
4577		-101.562500
4578		-89.843750
4579		-93.750000
4580		-82.031250
4581		-85.937500
4582		-74.218750
4583		-78.125000
4584		-66.406250
4585		-70.312500
4586		-58.593750
4587		-62.500000
4588		-50.781250
4589		-54.687500
4590		-42.968750
4591		-42.968750
4592		-35.156250
4593		-35.156250
4594		-27.343750
4595		-31.250000
4596		-19.531250
4597		-23.437500
4598		-7.812500
4599		-15.625000
4600		0.000000
4601		-3.906250
4602		7.812500
4603		3.906250
4604		11.718750
4605		11.718750
4606		19.531250
4607		19.531250
4608		27.343750
4609		27.343750
4610		39.062500
4611		35.156250
4612		46.875000
4613		42.968750
4614		54.687500
4615		46.875000
4616		58.593750
4617		54.687500
4618		66.406250
4619		66.406250
4620		74.218750
4621		74.218750
4622		82.031250
4623		78.125000
4624		89.843750
4625		85.937500
4626		97.656250
4627		93.750000
4628		101.562500
4629		101.562500
4630		109.375000
4631		105.468750
4632		117.187500
4633		113.281250
4634		121.093750
4635		117.187500
4636		128.906250
4637		125.000000
4638		132.812500
4639		132.812500
4640		140.625000
4641		136.718750
4642		144.531250
4643		144.531250
4644		152.343750
4645		148.437500
4646		160.156250
4647		156.250000
4648		164.062500
4649		160.156250
4650		167.968750
4651		164.062500
4652		171.875000
4653		167.968750
4654		175.781250
4655		175.781250
4656		179.687500
4657		179.687500
4658		187.500000
4659		183.593750
4660		191.406250
4661		187.500000
4662		195.312500
4663		191.406250
4664		199.218750
4665		195.312500
4666		203.125000
4667		199.218750
4668		203.125000
4669		203.125000
4670		207.031250
4671		207.031250
4672		210.937500
4673		210.937500
4674		214.843750
4675		210.937500
4676		218.750000
4677		214.843750
4678		222.656250
4679		214.843750
4680		222.656250
4681		218.750000
4682		222.656250
4683		222.656250
4684		226.562500
4685		222.656250
4686		230.468750
4687		226.562500
4688		230.468750
4689		226.562500
4690		230.468750
4691		230.468750
4692		234.375000
4693		230.468750
4694		234.375000
4695		230.468750
4696		238.281250
4697		234.375000
4698		238.281250
4699		234.375000
4700		238.281250
4701		234.375000
4702		238.281250
4703		234.375000
4704		238.281250
4705		234.375000
4706		238.281250
4707		238.281250
4708		238.281250
4709		238.281250
4710		242.187500
4711		234.375000
4712		242.187500
4713		238.281250
4714		242.187500
4715		238.281250
4716		242.187500
4717		238.281250
4718		238.281250
4719		234.375000
4720		238.281250
4721		234.375000
4722		238.281250
4723		234.375000
4724		238.281250
4725		234.375000
4726		238.281250
4727		230.468750
4728		238.281250
4729		230.468750
4730		234.375000
4731		230.468750
4732		234.375000
4733		226.562500
4734		234.375000
4735		226.562500
4736		230.468750
4737		226.562500
4738		230.468750
4739		222.656250
4740		226.562500
4741		218.750000
4742		222.656250
4743		218.750000
4744		222.656250
4745		214.843750
4746		222.656250
4747		210.937500
4748		218.750000
4749		210.937500
4750		214.843750
4751		207.031250
4752		210.937500
4753		203.125000
4754		207.031250
4755		199.218750
4756		207.031250
4757		195.312500
4758		203.125000
4759		191.406250
4760		199.218750
4761		187.500000
4762		195.312500
4763		183.593750
4764		191.406250
4765		179.687500
4766		187.500000
4767		171.875000
4768		179.687500
4769		167.968750
4770		175.781250
4771		164.062500
4772		171.875000
4773		160.156250
4774		164.062500
4775		152.343750
4776		160.156250
4777		148.437500
4778		156.250000
4779		140.625000
4780		148.437500
4781		136.718750
4782		144.531250
4783		128.906250
4784		140.625000
4785		125.000000
4786		132.812500
4787		117.187500
4788		125.000000
4789		109.375000
4790		117.187500
4791		101.562500
4792		113.281250
4793		97.656250
4794		105.468750
4795		89.843750
4796		97.656250
4797		82.031250
4798		89.843750
4799		74.218750
4800		85.937500
4801		66.406250
4802		78.125000
4803		58.593750
4804		70.312500
4805		50.781250
4806		62.500000
4807		42.968750
4808		54.687500
4809		39.062500
4810		46.875000
4811		27.343750
4812		39.062500
4813		19.531250
4814		31.250000
4815		11.718750
4816		23.437500
4817		3.906250
4818		15.625000
4819		-3.906250
4820		7.812500
4821		-11.718750
4822		0.000000
4823		-19.531250
4824		-7.812500
4825		-27.343750
4826		-15.625000
4827		-35.156250
4828		-23.437500
4829		-42.968750
4830		-31.250000
4831		-50.781250
4832		-39.062500
4833		-58.593750
4834		-46.875000
4835		-66.406250
4836		-54.687500
4837		-74.218750
4838		-62.500000
4839		-82.031250
4840		-70.312500
4841		-89.843750
4842		-78.125000
4843		-97.656250
4844		-85.937500
4845		-105.468750
4846		-93.750000
4847		-109.375000
4848		-101.562500
4849		-117.187500
4850		-109.375000
4851		-125.000000
4852		-117.187500
4853		-132.812500
4854		-125.000000
4855		-140.625000
4856		-128.906250
4857		-144.531250
4858		-136.718750
4859		-152.343750
4860		-144.531250
4861		-160.156250
4862		-152.343750
4863		-164.062500
4864		-156.250000
4865		-171.875000
4866		-164.062500
4867		-175.781250
4868		-167.968750
4869		-183.593750
4870		-175.781250
4871		-187.500000
4872		-179.687500
4873		-195.312500
4874		-187.500000
4875		-199.218750
4876		-191.406250
4877		-203.125000
4878		-195.312500
4879		-207.031250
4880		-199.218750
4881		-210.937500
4882		-203.125000
4883		-214.843750
4884		-210.937500
4885		-218.750000
4886		-214.843750
4887		-222.656250
4888		-214.843750
4889		-226.562500
4890		-218.750000
4891		-226.562500
4892		-222.656250
4893		-230.468750
4894		-226.562500
4895		-234.375000
4896		-230.468750
4897		-234.375000
4898		-230.468750
4899		-238.281250
4900		-234.375000
4901		-238.281250
4902		-234.375000
4903		-238.281250
4904		-238.281250
4905		-242.187500
4906		-238.281250
4907		-242.187500
4908		-238.281250
4909		-242.187500
4910		-238.281250
4911		-246.093750
4912		-238.281250
4913		-246.093750
4914		-242.187500
4915		-242.187500
4916		-238.281250
4917		-242.187500
4918		-238.281250
4919		-242.187500
4920		-238.281250
4921		-242.187500
4922		-238.281250
4923		-242.187500
4924		-238.281250
4925		-238.281250
4926		-234.375000
4927		-238.281250
4928		-234.375000
4929		-238.281250
4930		-230.468750
4931		-234.375000
4932		-226.562500
4933		-230.468750
4934		-226.562500
4935		-230.468750
4936		-222.656250
4937		-226.562500
4938		-218.750000
4939		-222.656250
4940		-214.843750
4941		-218.750000
4942		-210.937500
4943		-214.843750
4944		-207.031250
4945		-210.937500
4946		-203.125000
4947		-207.031250
4948		-199.218750
4949		-203.125000
4950		-195.312500
4951		-195.312500
4952		-191.406250
4953		-191.406250
4954		-183.593750
4955		-187.500000
4956		-179.687500
4957		-179.687500
4958		-171.875000
4959		-175.781250
4960		-167.968750
4961		-167.968750
4962		-160.156250
4963		-164.062500
4964		-152.343750
4965		-156.250000
4966		-148.437500
4967		-148.437500
4968		-140.625000
4969		-144.531250
4970		-132.812500
4971		-136.718750
4972		-125.000000
4973		-128.906250
4974		-121.093750
4975		-121.093750
4976		-113.281250
4977		-113.281250
4978		-105.468750
4979		-105.468750
4980		-97.656250
4981		-97.656250
4982		-89.843750
4983		-89.843750
4984		-82.031250
4985		-82.031250
4986		-74.218750
4987		-74.218750
4988		-66.406250
4989		-66.406250
4990		-58.593750
4991		-58.593750
4992		-50.781250
4993		-50.781250
4994		-42.968750
4995		-42.968750
4996		-35.156250
4997		-35.156250
4998		-23.437500
4999		-27.343750
5000		-15.625000
5001		-19.531250
5002		-7.812500
5003		-11.718750
5004		0.000000
5005		-3.906250
5006		7.812500
5007		3.906250
5008		15.625000
5009		11.718750
5010		23.437500
5011		23.437500
5012		31.250000
5013		27.343750
5014		39.062500
5015		39.062500
5016		46.875000
5017		42.968750
5018		54.687500
5019		50.781250
5020		62.500000
5021		58.593750
5022		70.312500
5023		66.406250
5024		78.125000
5025		74.218750
5026		82.031250
5027		82.031250
5028		89.843750
5029		89.843750
5030		97.656250
5031		97.656250
5032		105.468750
5033		101.562500
5034		109.375000
5035		109.375000
5036		117.187500
5037		117.187500
5038		125.000000
5039		121.093750
5040		128.906250
5041		128.906250
5042		136.718750
5043		132.812500
5044		144.531250
5045		140.625000
5046		148.437500
5047		144.531250
5048		152.343750
5049		152.343750
5050		160.156250
5051		156.250000
5052		164.062500
5053		160.156250
5054		167.968750
5055		167.968750
5056		171.875000
5057		171.875000
5058		179.687500
5059		175.781250
5060		183.593750
5061		179.687500
5062		187.500000
5063		183.593750
5064		191.406250
5065		187.500000
5066		195.312500
5067		195.312500
5068		199.218750
5069		199.218750
5070		203.125000
5071		199.218750
5072		207.031250
5073		203.125000
5074		210.937500
5075		207.031250
5076		210.937500
5077		210.937500
5078		214.843750
5079		214.843750
5080		218.750000
5081		214.843750
5082		222.656250
5083		218.750000
5084		222.656250
5085		222.656250
5086		226.562500
5087		222.656250
5088		226.562500
5089		226.562500
5090		230.468750
5091		226.562500
5092		230.468750
5093		230.468750
5094		234.375000
5095		230.468750
5096		234.375000
5097		230.468750
5098		234.375000
5099		234.375000
5100		238.281250
5101		234.375000
5102		238.281250
5103		234.375000
5104		238.281250
5105		234.375000
5106		238.281250
5107		234.375000
5108		242.187500
5109		238.281250
5110		242.187500
5111		238.281250
5112		242.187500
5113		238.281250
5114		242.187500
5115		238.281250
5116		242.187500
5117		238.281250
5118		242.187500
5119		238.281250
5120		242.187500
5121		238.281250
5122		242.187500
5123		234.375000
5124		238.281250
5125		234.375000
5126		238.281250
5127		234.375000
5128		238.281250
5129		234.375000
5130		238.281250
5131		234.375000
5132		238.281250
5133		230.468750
5134		234.375000
5135		230.468750
5136		234.375000
5137		226.562500
5138		230.468750
5139		226.562500
5140		230.468750
5141		222.656250
5142		226.562500
5143		222.656250
5144		226.562500
5145		218.750000
5146		222.656250
5147		214.843750
5148		222.656250
5149		214.843750
5150		218.750000
5151		210.937500
5152		218.750000
5153		207.031250
5154		214.843750
5155		203.125000
5156		210.937500
5157		199.218750
5158		207.031250
5159		199.218750
5160		203.125000
5161		195.312500
5162		199.218750
5163		191.406250
5164		195.312500
5165		187.500000
5166		191.406250
5167		183.593750
5168		187.500000
5169		175.781250
5170		183.593750
5171		171.875000
5172		179.687500
5173		167.968750
5174		175.781250
5175		164.062500
5176		167.968750
5177		156.250000
5178		164.062500
5179		152.343750
5180		160.156250
5181		144.531250
5182		152.343750
5183		140.625000
5184		148.437500
5185		132.812500
5186		140.625000
5187		128.906250
5188		136.718750
5189		121.093750
5190		128.906250
5191		113.281250
5192		121.093750
5193		105.468750
5194		117.187500
5195		101.562500
5196		109.375000
5197		93.750000
5198		101.562500
5199		85.937500
5200		97.656250
5201		78.125000
5202		89.843750
5203		70.312500
5204		82.031250
5205		66.406250
5206		74.218750
5207		54.687500
5208		66.406250
5209		50.781250
5210		58.593750
5211		42.968750
5212		50.781250
5213		35.156250
5214		42.968750
5215		27.343750
5216		35.156250
5217		19.531250
5218		27.343750
5219		11.718750
5220		19.531250
5221		3.906250
5222		11.718750
5223		-7.812500
5224		3.906250
5225		-11.718750
5226		-3.906250
5227		-23.437500
5228		-11.718750
5229		-31.250000
5230		-19.531250
5231		-39.062500
5232		-27.343750
5233		-46.875000
5234		-35.156250
5235		-54.687500
5236		-42.968750
5237		-62.500000
5238		-50.781250
5239		-70.312500
5240		-58.593750
5241		-78.125000
5242		-66.406250
5243		-85.937500
5244		-74.218750
5245		-93.750000
5246		-82.031250
5247		-97.656250
5248		-89.843750
5249		-105.468750
5250		-97.656250
5251		-113.281250
5252		-105.468750
5253		-121.093750
5254		-113.281250
5255		-128.906250
5256		-121.093750
5257		-136.718750
5258		-125.000000
5259		-140.625000
5260		-132.812500
5261		-148.437500
5262		-140.625000
5263		-156.250000
5264		-144.531250
5265		-160.156250
5266		-152.343750
5267		-167.968750
5268		-160.156250
5269		-171.875000
5270		-164.062500
5271		-179.687500
5272		-171.875000
5273		-183.593750
5274		-175.781250
5275		-191.406250
5276		-183.593750
5277		-195.312500
5278		-187.500000
5279		-199.218750
5280		-191.406250
5281		-203.125000
5282		-195.312500
5283		-207.031250
5284		-199.218750
5285		-214.843750
5286		-207.031250
5287		-214.843750
5288		-210.937500
5289		-218.750000
5290		-214.843750
5291		-222.656250
5292		-218.750000
5293		-226.562500
5294		-222.656250
5295		-230.468750
5296		-222.656250
5297		-230.468750
5298		-226.562500
5299		-234.375000
5300		-230.468750
5301		-238.281250
5302		-234.375000
5303		-238.281250
5304		-234.375000
5305		-242.187500
5306		-238.281250
5307		-242.187500
5308		-238.281250
5309		-242.187500
5310		-238.281250
5311		-246.093750
5312		-242.187500
5313		-246.093750
5314		-242.187500
5315		-246.093750
5316		-242.187500
5317		-246.093750
5318		-242.187500
5319		-246.093750
5320		-242.187500
5321		-246.093750
5322		-242.187500
5323		-246.093750
5324		-238.281250
5325		-242.187500
5326		-238.281250
5327		-242.187500
5328		-238.281250
5329		-238.281250
5330		-234.375000
5331		-238.281250
5332		-234.375000
5333		-238.281250
5334		-230.468750
5335		-234.375000
5336		-230.468750
5337		-230.468750
5338		-226.562500
5339		-226.562500
5340		-222.656250
5341		-226.562500
5342		-218.750000
5343		-222.656250
5344		-214.843750
5345		-218.750000
5346		-210.937500
5347		-214.843750
5348		-207.031250
5349		-210.937500
5350		-203.125000
5351		-207.031250
5352		-199.218750
5353		-199.218750
5354		-195.312500
5355		-195.312500
5356		-187.500000
5357		-191.406250
5358		-183.593750
5359		-183.593750
5360		-175.781250
5361		-179.687500
5362		-171.875000
5363		-171.875000
5364		-164.062500
5365		-167.968750
5366		-160.156250
5367		-160.156250
5368		-152.343750
5369		-156.250000
5370		-144.531250
5371		-148.437500
5372		-140.625000
5373		-140.625000
5374		-132.812500
5375		-132.812500
5376		-125.000000
5377		-128.906250
5378		-117.187500
5379		-121.093750
5380		-109.375000
5381		-113.281250
5382		-101.562500
5383		-105.468750
5384		-93.750000
5385		-97.656250
5386		-85.937500
5387		-89.843750
5388		-78.125000
5389		-82.031250
5390		-70.312500
5391		-74.218750
5392		-62.500000
5393		-66.406250
5394		-54.687500
5395		-58.593750
5396		-46.875000
5397		-46.875000
5398		-39.062500
5399		-39.062500
5400		-31.250000
5401		-31.250000
5402		-23.437500
5403		-23.437500
5404		-15.625000
5405		-15.625000
5406		-7.812500
5407		-7.812500
5408		0.000000
5409		0.000000
5410		7.812500
5411		7.812500
5412		19.531250
5413		15.625000
5414		27.343750
5415		23.437500
5416		35.156250
5417		31.250000
5418		42.968750
5419		39.062500
5420		50.781250
5421		46.875000
5422		54.687500
5423		54.687500
5424		62.500000
5425		62.500000
5426		70.312500
5427		70.312500
5428		78.125000
5429		78.125000
5430		85.937500
5431		85.937500
5432		93.750000
5433		89.843750
5434		101.562500
5435		97.656250
5436		105.468750
5437		105.468750
5438		113.281250
5439		109.375000
5440		117.187500
5441		117.187500
5442		125.000000
5443		125.000000
5444		132.812500
5445		128.906250
5446		136.718750
5447		136.718750
5448		144.531250
5449		140.625000
5450		148.437500
5451		144.531250
5452		156.250000
5453		152.343750
5454		160.156250
5455		156.250000
5456		164.062500
5457		164.062500
5458		171.875000
5459		167.968750
5460		175.781250
5461		171.875000
5462		179.687500
5463		175.781250
5464		183.593750
5465		183.593750
5466		187.500000
5467		187.500000
5468		191.406250
5469		191.406250
5470		195.312500
5471		195.312500
5472		199.218750
5473		199.218750
5474		203.125000
5475		199.218750
5476		207.031250
5477		203.125000
5478		210.937500
5479		207.031250
5480		210.937500
5481		210.937500
5482		214.843750
5483		214.843750
5484		218.750000
5485		214.843750
5486		222.656250
5487		218.750000
5488		222.656250
5489		222.656250
5490		226.562500
5491		222.656250
5492		226.562500
5493		222.656250
5494		230.468750
5495		226.562500
5496		230.468750
5497		230.468750
5498		234.375000
5499		230.468750
5500		234.375000
5501		230.468750
5502		234.375000
5503		234.375000
5504		234.375000
5505		234.375000
5506		238.281250
5507		234.375000
5508		238.281250
5509		234.375000
5510		238.281250
5511		234.375000
5512		238.281250
5513		234.375000
5514		238.281250
5515		238.281250
5516		238.281250
5517		238.281250
5518		242.187500
5519		238.281250
5520		242.187500
5521		238.281250
5522		242.187500
5523		238.281250
5524		238.281250
5525		234.375000
5526		238.281250
5527		234.375000
5528		238.281250
5529		234.375000
5530		238.281250
5531		234.375000
5532		238.281250
5533		230.468750
5534		234.375000
5535		230.468750
5536		234.375000
5537		230.468750
5538		234.375000
5539		226.562500
5540		234.375000
5541		226.562500
5542		230.468750
5543		226.562500
5544		230.468750
5545		222.656250
5546		226.562500
5547		222.656250
5548		226.562500
5549		218.750000
5550		222.656250
5551		214.843750
5552		218.750000
5553		210.937500
5554		218.750000
5555		210.937500
5556		214.843750
5557		207.031250
5558		210.937500
5559		203.125000
5560		210.937500
5561		199.218750
5562		207.031250
5563		195.312500
5564		203.125000
5565		191.406250
5566		199.218750
5567		187.500000
5568		195.312500
5569		183.593750
5570		191.406250
5571		179.687500
5572		187.500000
5573		175.781250
5574		183.593750
5575		171.875000
5576		175.781250
5577		164.062500
5578		171.875000
5579		160.156250
5580		167.968750
5581		156.250000
5582		164.062500
5583		148.437500
5584		156.250000
5585		144.531250
5586		152.343750
5587		136.718750
5588		144.531250
5589		132.812500
5590		140.625000
5591		125.000000
5592		132.812500
5593		117.187500
5594		125.000000
5595		113.281250
5596		121.093750
5597		105.468750
5598		113.281250
5599		97.656250
5600		105.468750
5601		89.843750
5602		101.562500
5603		85.937500
5604		93.750000
5605		78.125000
5606		85.937500
5607		70.312500
5608		78.125000
5609		62.500000
5610		70.312500
5611		54.687500
5612		62.500000
5613		46.875000
5614		54.687500
5615		39.062500
5616		46.875000
5617		31.250000
5618		39.062500
5619		23.437500
5620		31.250000
5621		15.625000
5622		23.437500
5623		7.812500
5624		15.625000
5625		0.000000
5626		7.812500
5627		-7.812500
5628		0.000000
5629		-15.625000
5630		-7.812500
5631		-23.437500
5632		-15.625000
5633		-31.250000
5634		-23.437500
5635		-39.062500
5636		-31.250000
5637		-46.875000
5638		-39.062500
5639		-54.687500
5640		-46.875000
5641		-62.500000
5642		-54.687500
5643		-70.312500
5644		-62.500000
5645		-78.125000
5646		-70.312500
5647		-85.937500
5648		-78.125000
5649		-93.750000
5650		-85.937500
5651		-101.562500
5652		-93.750000
5653		-109.375000
5654		-101.562500
5655		-117.187500
5656		-105.468750
5657		-125.000000
5658		-113.281250
5659		-128.906250
5660		-121.093750
5661		-136.718750
5662		-128.906250
5663		-144.531250
5664		-136.718750
5665		-152.343750
5666		-144.531250
5667		-156.250000
5668		-148.437500
5669		-164.062500
5670		-156.250000
5671		-167.968750
5672		-160.156250
5673		-175.781250
5674		-167.968750
5675		-179.687500
5676		-171.875000
5677		-187.500000
5678		-179.687500
5679		-191.406250
5680		-183.593750
5681		-195.312500
5682		-187.500000
5683		-203.125000
5684		-195.312500
5685		-207.031250
5686		-199.218750
5687		-210.937500
5688		-203.125000
5689		-214.843750
5690		-207.031250
5691		-218.750000
5692		-210.937500
5693		-222.656250
5694		-214.843750
5695		-226.562500
5696		-218.750000
5697		-226.562500
5698		-222.656250
5699		-230.468750
5700		-226.562500
5701		-234.375000
5702		-230.468750
5703		-234.375000
5704		-230.468750
5705		-238.281250
5706		-234.375000
5707		-238.281250
5708		-234.375000
5709		-242.187500
5710		-238.281250
5711		-242.187500
5712		-238.281250
5713		-242.187500
5714		-238.281250
5715		-246.093750
5716		-242.187500
5717		-246.093750
5718		-242.187500
5719		-246.093750
5720		-242.187500
5721		-246.093750
5722		-242.187500
5723		-246.093750
5724		-242.187500
5725		-246.093750
5726		-242.187500
5727		-242.187500
5728		-238.281250
5729		-242.187500
5730		-238.281250
5731		-242.187500
5732		-238.281250
5733		-238.281250
5734		-234.375000
5735		-238.281250
5736		-234.375000
5737		-234.375000
5738		-230.468750
5739		-234.375000
5740		-226.562500
5741		-230.468750
5742		-226.562500
5743		-226.562500
5744		-222.656250
5745		-222.656250
5746		-218.750000
5747		-218.750000
5748		-214.843750
5749		-214.843750
5750		-210.937500
5751		-210.937500
5752		-207.031250
5753		-207.031250
5754		-203.125000
5755		-203.125000
5756		-195.312500
5757		-199.218750
5758		-191.406250
5759		-195.312500
5760		-187.500000
5761		-187.500000
5762		-179.687500
5763		-183.593750
5764		-175.781250
5765		-175.781250
5766		-167.968750
5767		-171.875000
5768		-164.062500
5769		-164.062500
5770		-156.250000
5771		-160.156250
5772		-148.437500
5773		-152.343750
5774		-144.531250
5775		-144.531250
5776		-136.718750
5777		-136.718750
5778		-128.906250
5779		-132.812500
5780		-121.093750
5781		-125.000000
5782		-113.281250
5783		-117.187500
5784		-105.468750
5785		-109.375000
5786		-101.562500
5787		-101.562500
5788		-93.750000
5789		-93.750000
5790		-82.031250
5791		-85.937500
5792		-74.218750
5793		-78.125000
5794		-66.406250
5795		-70.312500
5796		-58.593750
5797		-62.500000
5798		-50.781250
5799		-54.687500
5800		-42.968750
5801		-46.875000
5802		-35.156250
5803		-39.062500
5804		-27.343750
5805		-27.343750
5806		-19.531250
5807		-23.437500
5808		-11.718750
5809		-11.718750
5810		-3.906250
5811		-3.906250
5812		3.906250
5813		3.906250
5814		11.718750
5815		11.718750
5816		19.531250
5817		19.531250
5818		27.343750
5819		27.343750
5820		35.156250
5821		31.250000
5822		42.968750
5823		42.968750
5824		50.781250
5825		50.781250
5826		58.593750
5827		58.593750
5828		66.406250
5829		66.406250
5830		74.218750
5831		74.218750
5832		82.031250
5833		78.125000
5834		89.843750
5835		85.937500
5836		93.750000
5837		93.750000
5838		101.562500
5839		101.562500
5840		109.375000
5841		105.468750
5842		117.187500
5843		113.281250
5844		121.093750
5845		121.093750
5846		128.906250
5847		125.000000
5848		132.812500
5849		132.812500
5850		140.625000
5851		136.718750
5852		148.437500
5853		144.531250
5854		152.343750
5855		148.437500
5856		156.250000
5857		156.250000
5858		164.062500
5859		160.156250
5860		167.968750
5861		164.062500
5862		171.875000
5863		171.875000
5864		175.781250
5865		175.781250
5866		183.593750
5867		179.687500
5868		187.500000
5869		183.593750
5870		191.406250
5871		187.500000
5872		195.312500
5873		191.406250
5874		199.218750
5875		195.312500
5876		203.125000
5877		199.218750
5878		207.031250
5879		203.125000
5880		207.031250
5881		207.031250
5882		210.937500
5883		210.937500
5884		214.843750
5885		210.937500
5886		218.750000
5887		214.843750
5888		218.750000
5889		218.750000
5890		222.656250
5891		218.750000
5892		226.562500
5893		222.656250
5894		226.562500
5895		222.656250
5896		230.468750
5897		226.562500
5898		230.468750
5899		226.562500
5900		230.468750
5901		230.468750
5902		234.375000
5903		230.468750
5904		234.375000
5905		230.468750
5906		238.281250
5907		230.468750
5908		238.281250
5909		234.375000
5910		238.281250
5911		234.375000
5912		238.281250
5913		234.375000
5914		242.187500
5915		234.375000
5916		242.187500
5917		234.375000
5918		242.187500
5919		238.281250
5920		242.187500
5921		238.281250
5922		242.187500
5923		234.375000
5924		242.187500
5925		234.375000
5926		242.187500
5927		234.375000
5928		242.187500
5929		234.375000
5930		242.187500
5931		234.375000
5932		238.281250
5933		234.375000
5934		238.281250
5935		234.375000
5936		238.281250
5937		230.468750
5938		234.375000
5939		230.468750
5940		234.375000
5941		230.468750
5942		234.375000
5943		226.562500
5944		234.375000
5945		226.562500
5946		230.468750
5947		222.656250
5948		230.468750
5949		222.656250
5950		226.562500
5951		218.750000
5952		226.562500
5953		218.750000
5954		222.656250
5955		214.843750
5956		218.750000
5957		210.937500
5958		218.750000
5959		210.937500
5960		214.843750
5961		207.031250
5962		210.937500
5963		203.125000
5964		210.937500
5965		199.218750
5966		207.031250
5967		195.312500
5968		203.125000
5969		191.406250
5970		199.218750
5971		187.500000
5972		195.312500
5973		183.593750
5974		191.406250
5975		179.687500
5976		183.593750
5977		175.781250
5978		179.687500
5979		167.968750
5980		175.781250
5981		164.062500
5982		171.875000
5983		160.156250
5984		164.062500
5985		152.343750
5986		160.156250
5987		148.437500
5988		156.250000
5989		140.625000
5990		148.437500
5991		136.718750
5992		144.531250
5993		128.906250
5994		136.718750
5995		125.000000
5996		132.812500
5997		117.187500
5998		125.000000
5999		109.375000
6000		117.187500
6001		101.562500
6002		113.281250
6003		97.656250
6004		105.468750
6005		89.843750
6006		97.656250
6007		82.031250
6008		89.843750
6009		74.218750
6010		82.031250
6011		66.406250
6012		78.125000
6013		58.593750
6014		70.312500
6015		50.781250
6016		62.500000
6017		42.968750
6018		54.687500
6019		35.156250
6020		46.875000
6021		27.343750
6022		39.062500
6023		19.531250
6024		31.250000
6025		11.718750
6026		23.437500
6027		3.906250
6028		15.625000
6029		-3.906250
6030		7.812500
6031		-11.718750
6032		0.000000
6033		-19.531250
6034		-7.812500
6035		-27.343750
6036		-15.625000
6037		-35.156250
6038		-23.437500
6039		-42.968750
6040		-35.156250
6041		-50.781250
6042		-39.062500
6043		-58.593750
6044		-50.781250
6045		-66.406250
6046		-54.687500
6047		-74.218750
6048		-66.406250
6049		-82.031250
6050		-74.218750
6051		-89.843750
6052		-82.031250
6053		-97.656250
6054		-85.937500
6055		-105.468750
6056		-93.750000
6057		-113.281250
6058		-101.562500
6059		-117.187500
6060		-109.375000
6061		-125.000000
6062		-117.187500
6063		-132.812500
6064		-125.000000
6065		-140.625000
6066		-132.812500
6067		-144.531250
6068		-136.718750
6069		-152.343750
6070		-144.531250
6071		-160.156250
6072		-152.343750
6073		-164.062500
6074		-156.250000
6075		-171.875000
6076		-160.156250
6077		-175.781250
6078		-167.968750
6079		-183.593750
6080		-175.781250
6081		-187.500000
6082		-179.687500
6083		-191.406250
6084		-187.500000
6085		-199.218750
6086		-191.406250
6087		-203.125000
6088		-195.312500
6089		-210.937500
6090		-199.218750
6091		-214.843750
6092		-203.125000
6093		-218.750000
6094		-207.031250
6095		-218.750000
6096		-214.843750
6097		-222.656250
6098		-214.843750
6099		-226.562500
6100		-218.750000
6101		-226.562500
6102		-222.656250
6103		-230.468750
6104		-226.562500
6105		-238.281250
6106		-230.468750
6107		-238.281250
6108		-230.468750
6109		-238.281250
6110		-230.468750
6111		-242.187500
6112		-234.375000
6113		-242.187500
6114		-238.281250
6115		-242.187500
6116		-238.281250
6117		-242.187500
6118		-238.281250
6119		-242.187500
6120		-242.187500
6121		-242.187500
6122		-238.281250
6123		-246.093750
6124		-238.281250
6125		-246.093750
6126		-238.281250
6127		-246.093750
6128		-234.375000
6129		-242.187500
6130		-238.281250
6131		-242.187500
6132		-238.281250
6133		-242.187500
6134		-234.375000
6135		-238.281250
6136		-234.375000
6137		-238.281250
6138		-234.375000
6139		-234.375000
6140		-226.562500
6141		-234.375000
6142		-226.562500
6143		-234.375000
6144		-222.656250
6145		-230.468750
6146		-222.656250
6147		-222.656250
6148		-218.750000
6149		-222.656250
6150		-214.843750
6151		-218.750000
6152		-210.937500
6153		-214.843750
6154		-207.031250
6155		-210.937500
6156		-203.125000
6157		-207.031250
6158		-195.312500
6159		-203.125000
6160		-191.406250
6161		-199.218750
6162		-187.500000
6163		-191.406250
6164		-183.593750
6165		-183.593750
6166		-175.781250
6167		-179.687500
6168		-171.875000
6169		-171.875000
6170		-164.062500
6171		-167.968750
6172		-160.156250
6173		-160.156250
6174		-148.437500
6175		-156.250000
6176		-144.531250
6177		-148.437500
6178		-136.718750
6179		-140.625000
6180		-132.812500
6181		-132.812500
6182		-125.000000
6183		-125.000000
6184		-117.187500
6185		-121.093750
6186		-109.375000
6187		-113.281250
6188		-101.562500
6189		-105.468750
6190		-93.750000
6191		-101.562500
6192		-82.031250
6193		-93.750000
6194		-78.125000
6195		-82.031250
6196		-70.312500
6197		-74.218750
6198		-62.500000
6199		-66.406250
6200		-54.687500
6201		-58.593750
6202		-46.875000
6203		-50.781250
6204		-39.062500
6205		-42.968750
6206		-31.250000
6207		-35.156250
6208		-23.437500
6209		-27.343750
6210		-11.718750
6211		-15.625000
6212		-3.906250
6213		-7.812500
6214		0.000000
6215		0.000000
6216		7.812500
6217		7.812500
6218		15.625000
6219		15.625000
6220		23.437500
6221		23.437500
6222		31.250000
6223		31.250000
6224		42.968750
6225		35.156250
6226		50.781250
6227		42.968750
6228		58.593750
6229		50.781250
6230		62.500000
6231		62.500000
6232		70.312500
6233		70.312500
6234		78.125000
6235		78.125000
6236		85.937500
6237		82.031250
6238		93.750000
6239		89.843750
6240		97.656250
6241		93.750000
6242		105.468750
6243		101.562500
6244		113.281250
6245		109.375000
6246		121.093750
6247		117.187500
6248		125.000000
6249		125.000000
6250		132.812500
6251		128.906250
6252		136.718750
6253		136.718750
6254		144.531250
6255		140.625000
6256		148.437500
6257		148.437500
6258		152.343750
6259		152.343750
6260		160.156250
6261		156.250000
6262		167.968750
6263		164.062500
6264		171.875000
6265		167.968750
6266		175.781250
6267		171.875000
6268		179.687500
6269		175.781250
6270		183.593750
6271		183.593750
6272		187.500000
6273		187.500000
6274		191.406250
6275		191.406250
6276		199.218750
6277		195.312500
6278		203.125000
6279		195.312500
6280		203.125000
6281		203.125000
6282		207.031250
6283		207.031250
6284		210.937500
6285		207.031250
6286		214.843750
6287		210.937500
6288		214.843750
6289		214.843750
6290		218.750000
6291		214.843750
6292		222.656250
6293		218.750000
6294		226.562500
6295		222.656250
6296		226.562500
6297		222.656250
6298		226.562500
6299		226.562500
6300		230.468750
6301		226.562500
6302		230.468750
6303		230.468750
6304		234.375000
6305		230.468750
6306		234.375000
6307		230.468750
6308		238.281250
6309		234.375000
6310		238.281250
6311		234.375000
6312		238.281250
6313		234.375000
6314		238.281250
6315		238.281250
6316		238.281250
6317		238.281250
6318		242.187500
6319		238.281250
6320		242.187500
6321		238.281250
6322		242.187500
6323		238.281250
6324		242.187500
6325		238.281250
6326		242.187500
6327		238.281250
6328		242.187500
6329		238.281250
6330		242.187500
6331		238.281250
6332		242.187500
6333		238.281250
6334		242.187500
6335		234.375000
6336		238.281250
6337		234.375000
6338		238.281250
6339		234.375000
6340		238.281250
6341		234.375000
6342		238.281250
6343		230.468750
6344		234.375000
6345		230.468750
6346		234.375000
6347		230.468750
6348		234.375000
6349		226.562500
6350		230.468750
6351		226.562500
6352		230.468750
6353		222.656250
6354		226.562500
6355		218.750000
6356		226.562500
6357		218.750000
6358		222.656250
6359		214.843750
6360		222.656250
6361		210.937500
6362		218.750000
6363		210.937500
6364		214.843750
6365		207.031250
6366		210.937500
6367		203.125000
6368		210.937500
6369		199.218750
6370		203.125000
6371		195.312500
6372		199.218750
6373		191.406250
6374		199.218750
6375		187.500000
6376		195.312500
6377		183.593750
6378		187.500000
6379		179.687500
6380		183.593750
6381		171.875000
6382		179.687500
6383		167.968750
6384		175.781250
6385		164.062500
6386		171.875000
6387		160.156250
6388		164.062500
6389		152.343750
6390		160.156250
6391		144.531250
6392		156.250000
6393		140.625000
6394		148.437500
6395		136.718750
6396		140.625000
6397		128.906250
6398		136.718750
6399		121.093750
6400		128.906250
6401		117.187500
6402		125.000000
6403		109.375000
6404		117.187500
6405		101.562500
6406		109.375000
6407		93.750000
6408		101.562500
6409		85.937500
6410		97.656250
6411		82.031250
6412		89.843750
6413		74.218750
6414		82.031250
6415		66.406250
6416		74.218750
6417		58.593750
6418		70.312500
6419		50.781250
6420		58.593750
6421		42.968750
6422		50.781250
6423		35.156250
6424		46.875000
6425		27.343750
6426		35.156250
6427		19.531250
6428		27.343750
6429		11.718750
6430		19.531250
6431		3.906250
6432		11.718750
6433		-3.906250
6434		3.906250
6435		-11.718750
6436		-3.906250
6437		-19.531250
6438		-11.718750
6439		-27.343750
6440		-19.531250
6441		-39.062500
6442		-27.343750
6443		-42.968750
6444		-35.156250
6445		-50.781250
6446		-42.968750
6447		-58.593750
6448		-50.781250
6449		-70.312500
6450		-58.593750
6451		-74.218750
6452		-66.406250
6453		-82.031250
6454		-74.218750
6455		-89.843750
6456		-82.031250
6457		-97.656250
6458		-85.937500
6459		-105.468750
6460		-97.656250
6461		-113.281250
6462		-105.468750
6463		-121.093750
6464		-109.375000
6465		-125.000000
6466		-117.187500
6467		-132.812500
6468		-125.000000
6469		-140.625000
6470		-132.812500
6471		-148.437500
6472		-136.718750
6473		-152.343750
6474		-144.531250
6475		-160.156250
6476		-152.343750
6477		-167.968750
6478		-156.250000
6479		-171.875000
6480		-164.062500
6481		-175.781250
6482		-167.968750
6483		-183.593750
6484		-175.781250
6485		-187.500000
6486		-179.687500
6487		-191.406250
6488		-187.500000
6489		-199.218750
6490		-191.406250
6491		-203.125000
6492		-195.312500
6493		-207.031250
6494		-199.218750
6495		-210.937500
6496		-207.031250
6497		-214.843750
6498		-210.937500
6499		-218.750000
6500		-214.843750
6501		-222.656250
6502		-214.843750
6503		-226.562500
6504		-222.656250
6505		-230.468750
6506		-222.656250
6507		-230.468750
6508		-226.562500
6509		-234.375000
6510		-230.468750
6511		-234.375000
6512		-230.468750
6513		-238.281250
6514		-234.375000
6515		-242.187500
6516		-234.375000
6517		-242.187500
6518		-234.375000
6519		-242.187500
6520		-238.281250
6521		-242.187500
6522		-238.281250
6523		-242.187500
6524		-238.281250
6525		-246.093750
6526		-238.281250
6527		-246.093750
6528		-242.187500
6529		-246.093750
6530		-242.187500
6531		-242.187500
6532		-242.187500
6533		-242.187500
6534		-238.281250
6535		-242.187500
6536		-238.281250
6537		-242.187500
6538		-238.281250
6539		-238.281250
6540		-234.375000
6541		-238.281250
6542		-234.375000
6543		-234.375000
6544		-230.468750
6545		-234.375000
6546		-226.562500
6547		-230.468750
6548		-226.562500
6549		-226.562500
6550		-222.656250
6551		-226.562500
6552		-218.750000
6553		-222.656250
6554		-214.843750
6555		-218.750000
6556		-210.937500
6557		-214.843750
6558		-207.031250
6559		-210.937500
6560		-203.125000
6561		-203.125000
6562		-199.218750
6563		-199.218750
6564		-195.312500
6565		-195.312500
6566		-187.500000
6567		-191.406250
6568		-183.593750
6569		-183.593750
6570		-175.781250
6571		-179.687500
6572		-171.875000
6573		-171.875000
6574		-164.062500
6575		-167.968750
6576		-160.156250
6577		-160.156250
6578		-152.343750
6579		-156.250000
6580		-144.531250
6581		-148.437500
6582		-140.625000
6583		-140.625000
6584		-132.812500
6585		-132.812500
6586		-125.000000
6587		-125.000000
6588		-117.187500
6589		-121.093750
6590		-109.375000
6591		-113.281250
6592		-101.562500
6593		-105.468750
6594		-93.750000
6595		-97.656250
6596		-85.937500
6597		-89.843750
6598		-78.125000
6599		-82.031250
6600		-70.312500
6601		-74.218750
6602		-62.500000
6603		-66.406250
6604		-54.687500
6605		-54.687500
6606		-46.875000
6607		-50.781250
6608		-39.062500
6609		-39.062500
6610		-31.250000
6611		-31.250000
6612		-23.437500
6613		-23.437500
6614		-15.625000
6615		-15.625000
6616		-7.812500
6617		-7.812500
6618		0.000000
6619		0.000000
6620		7.812500
6621		7.812500
6622		19.531250
6623		15.625000
6624		27.343750
6625		23.437500
6626		31.250000
6627		31.250000
6628		42.968750
6629		39.062500
6630		46.875000
6631		46.875000
6632		54.687500
6633		54.687500
6634		62.500000
6635		62.500000
6636		70.312500
6637		70.312500
6638		78.125000
6639		78.125000
6640		85.937500
6641		82.031250
6642		93.750000
6643		89.843750
6644		101.562500
6645		97.656250
6646		105.468750
6647		105.468750
6648		113.281250
6649		109.375000
6650		121.093750
6651		117.187500
6652		125.000000
6653		125.000000
6654		132.812500
6655		128.906250
6656		136.718750
6657		136.718750
6658		144.531250
6659		140.625000
6660		148.437500
6661		148.437500
6662		156.250000
6663		152.343750
6664		160.156250
6665		160.156250
6666		164.062500
6667		164.062500
6668		171.875000
6669		167.968750
6670		175.781250
6671		175.781250
6672		179.687500
6673		175.781250
6674		183.593750
6675		183.593750
6676		187.500000
6677		187.500000
6678		191.406250
6679		191.406250
6680		195.312500
6681		195.312500
6682		199.218750
6683		199.218750
6684		203.125000
6685		203.125000
6686		207.031250
6687		207.031250
6688		210.937500
6689		207.031250
6690		214.843750
6691		210.937500
6692		214.843750
6693		214.843750
6694		218.750000
6695		214.843750
6696		222.656250
6697		218.750000
6698		222.656250
6699		222.656250
6700		226.562500
6701		222.656250
6702		226.562500
6703		226.562500
6704		230.468750
6705		226.562500
6706		230.468750
6707		230.468750
6708		234.375000
6709		230.468750
6710		234.375000
6711		230.468750
6712		238.281250
6713		234.375000
6714		238.281250
6715		234.375000
6716		238.281250
6717		234.375000
6718		238.281250
6719		234.375000
6720		238.281250
6721		234.375000
6722		238.281250
6723		238.281250
6724		238.281250
6725		238.281250
6726		242.187500
6727		234.375000
6728		242.187500
6729		234.375000
6730		242.187500
6731		238.281250
6732		242.187500
6733		238.281250
6734		242.187500
6735		238.281250
6736		238.281250
6737		234.375000
6738		238.281250
6739		234.375000
6740		238.281250
6741		234.375000
6742		238.281250
6743		234.375000
6744		238.281250
6745		230.468750
6746		238.281250
6747		230.468750
6748		234.375000
6749		230.468750
6750		234.375000
6751		226.562500
6752		230.468750
6753		226.562500
6754		230.468750
6755		222.656250
6756		226.562500
6757		222.656250
6758		226.562500
6759		218.750000
6760		222.656250
6761		214.843750
6762		222.656250
6763		210.937500
6764		218.750000
6765		210.937500
6766		214.843750
6767		207.031250
6768		210.937500
6769		203.125000
6770		210.937500
6771		199.218750
6772		207.031250
6773		195.312500
6774		203.125000
6775		191.406250
6776		199.218750
6777		187.500000
6778		195.312500
6779		183.593750
6780		191.406250
6781		179.687500
6782		187.500000
6783		175.781250
6784		183.593750
6785		171.875000
6786		179.687500
6787		164.062500
6788		171.875000
6789		160.156250
6790		167.968750
6791		156.250000
6792		160.156250
6793		148.437500
6794		156.250000
6795		144.531250
6796		152.343750
6797		136.718750
6798		144.531250
6799		132.812500
6800		140.625000
6801		125.000000
6802		132.812500
6803		117.187500
6804		125.000000
6805		113.281250
6806		121.093750
6807		105.468750
6808		113.281250
6809		97.656250
6810		105.468750
6811		89.843750
6812		101.562500
6813		82.031250
6814		93.750000
6815		78.125000
6816		85.937500
6817		70.312500
6818		78.125000
6819		62.500000
6820		70.312500
6821		54.687500
6822		62.500000
6823		46.875000
6824		54.687500
6825		39.062500
6826		46.875000
6827		31.250000
6828		39.062500
6829		23.437500
6830		31.250000
6831		15.625000
6832		23.437500
6833		7.812500
6834		15.625000
6835		0.000000
6836		7.812500
6837		-7.812500
6838		0.000000
6839		-15.625000
6840		-7.812500
6841		-23.437500
6842		-15.625000
6843		-31.250000
6844		-23.437500
6845		-42.968750
6846		-31.250000
6847		-50.781250
6848		-35.156250
6849		-58.593750
6850		-46.875000
6851		-62.500000
6852		-54.687500
6853		-70.312500
6854		-62.500000
6855		-78.125000
6856		-70.312500
6857		-85.937500
6858		-78.125000
6859		-93.750000
6860		-85.937500
6861		-101.562500
6862		-93.750000
6863		-109.375000
6864		-97.656250
6865		-117.187500
6866		-105.468750
6867		-125.000000
6868		-117.187500
6869		-132.812500
6870		-121.093750
6871		-136.718750
6872		-128.906250
6873		-144.531250
6874		-136.718750
6875		-152.343750
6876		-144.531250
6877		-156.250000
6878		-148.437500
6879		-164.062500
6880		-156.250000
6881		-167.968750
6882		-160.156250
6883		-175.781250
6884		-167.968750
6885		-179.687500
6886		-175.781250
6887		-187.500000
6888		-179.687500
6889		-191.406250
6890		-183.593750
6891		-195.312500
6892		-191.406250
6893		-203.125000
6894		-195.312500
6895		-207.031250
6896		-199.218750
6897		-210.937500
6898		-203.125000
6899		-214.843750
6900		-207.031250
6901		-218.750000
6902		-210.937500
6903		-222.656250
6904		-214.843750
6905		-226.562500
6906		-218.750000
6907		-230.468750
6908		-222.656250
6909		-230.468750
6910		-226.562500
6911		-234.375000
6912		-230.468750
6913		-238.281250
6914		-230.468750
6915		-238.281250
6916		-234.375000
6917		-238.281250
6918		-234.375000
6919		-242.187500
6920		-238.281250
6921		-242.187500
6922		-238.281250
6923		-246.093750
6924		-238.281250
6925		-246.093750
6926		-242.187500
6927		-246.093750
6928		-242.187500
6929		-246.093750
6930		-242.187500
6931		-246.093750
6932		-242.187500
6933		-246.093750
6934		-242.187500
6935		-246.093750
6936		-242.187500
6937		-246.093750
6938		-242.187500
6939		-242.187500
6940		-238.281250
6941		-242.187500
6942		-238.281250
6943		-238.281250
6944		-234.375000
6945		-238.281250
6946		-234.375000
6947		-234.375000
6948		-230.468750
6949		-234.375000
6950		-230.468750
6951		-230.468750
6952		-226.562500
6953		-226.562500
6954		-222.656250
6955		-222.656250
6956		-218.750000
6957		-222.656250
6958		-214.843750
6959		-218.750000
6960		-210.937500
6961		-214.843750
6962		-207.031250
6963		-207.031250
6964		-203.125000
6965		-203.125000
6966		-199.218750
6967		-199.218750
6968		-191.406250
6969		-195.312500
6970		-187.500000
6971		-187.500000
6972		-183.593750
6973		-183.593750
6974		-175.781250
6975		-179.687500
6976		-171.875000
6977		-171.875000
6978		-164.062500
6979		-164.062500
6980		-156.250000
6981		-160.156250
6982		-152.343750
6983		-152.343750
6984		-144.531250
6985		-144.531250
6986		-136.718750
6987		-140.625000
6988		-128.906250
6989		-132.812500
6990		-121.093750
6991		-125.000000
6992		-117.187500
6993		-117.187500
6994		-109.375000
6995		-109.375000
6996		-101.562500
6997		-101.562500
6998		-93.750000
6999		-93.750000
7000		-85.937500
7001		-85.937500
7002		-78.125000
7003		-78.125000
7004		-70.312500
7005		-70.312500
7006		-62.500000
7007		-62.500000
7008		-54.687500
7009		-54.687500
7010		-42.968750
7011		-46.875000
7012		-39.062500
7013		-39.062500
7014		-27.343750
7015		-31.250000
7016		-19.531250
7017		-23.437500
7018		-11.718750
7019		-15.625000
7020		-3.906250
7021		-7.812500
7022		3.906250
7023		0.000000
7024		11.718750
7025		11.718750
7026		19.531250
7027		19.531250
7028		27.343750
7029		27.343750
7030		35.156250
7031		35.156250
7032		42.968750
7033		42.968750
7034		50.781250
7035		50.781250
7036		58.593750
7037		54.687500
7038		66.406250
7039		62.500000
7040		74.218750
7041		70.312500
7042		82.031250
7043		78.125000
7044		89.843750
7045		85.937500
7046		93.750000
7047		93.750000
7048		101.562500
7049		97.656250
7050		109.375000
7051		105.468750
7052		113.281250
7053		113.281250
7054		121.093750
7055		121.093750
7056		128.906250
7057		125.000000
7058		132.812500
7059		132.812500
7060		140.625000
7061		136.718750
7062		144.531250
7063		144.531250
7064		152.343750
7065		148.437500
7066		156.250000
7067		156.250000
7068		160.156250
7069		160.156250
7070		167.968750
7071		164.062500
7072		171.875000
7073		167.968750
7074		175.781250
7075		175.781250
7076		179.687500
7077		179.687500
7078		183.593750
7079		183.593750
7080		187.500000
7081		187.500000
7082		195.312500
7083		191.406250
7084		199.218750
7085		195.312500
7086		199.218750
7087		199.218750
7088		203.125000
7089		203.125000
7090		207.031250
7091		207.031250
7092		210.937500
7093		207.031250
7094		214.843750
7095		210.937500
7096		214.843750
7097		214.843750
7098		218.750000
7099		214.843750
7100		222.656250
7101		218.750000
7102		222.656250
7103		222.656250
7104		226.562500
7105		222.656250
7106		226.562500
7107		226.562500
7108		230.468750
7109		226.562500
7110		230.468750
7111		230.468750
7112		234.375000
7113		230.468750
7114		234.375000
7115		230.468750
7116		234.375000
7117		234.375000
7118		238.281250
7119		234.375000
7120		238.281250
7121		234.375000
7122		238.281250
7123		234.375000
7124		238.281250
7125		234.375000
7126		238.281250
7127		238.281250
7128		238.281250
7129		238.281250
7130		242.187500
7131		238.281250
7132		238.281250
7133		238.281250
7134		242.187500
7135		238.281250
7136		238.281250
7137		234.375000
7138		238.281250
7139		234.375000
7140		238.281250
7141		234.375000
7142		238.281250
7143		234.375000
7144		238.281250
7145		234.375000
7146		238.281250
7147		230.468750
7148		234.375000
7149		230.468750
7150		234.375000
7151		230.468750
7152		234.375000
7153		226.562500
7154		230.468750
7155		226.562500
7156		230.468750
7157		222.656250
7158		226.562500
7159		222.656250
7160		226.562500
7161		218.750000
7162		226.562500
7163		218.750000
7164		222.656250
7165		214.843750
7166		218.750000
7167		210.937500
7168		218.750000
7169		210.937500
7170		214.843750
7171		207.031250
7172		210.937500
7173		203.125000
7174		207.031250
7175		199.218750
7176		203.125000
7177		195.312500
7178		199.218750
7179		191.406250
7180		195.312500
7181		187.500000
7182		191.406250
7183		183.593750
7184		187.500000
7185		179.687500
7186		183.593750
7187		171.875000
7188		179.687500
7189		167.968750
7190		175.781250
7191		164.062500
7192		171.875000
7193		156.250000
7194		164.062500
7195		152.343750
7196		160.156250
7197		148.437500
7198		156.250000
7199		140.625000
7200		148.437500
7201		136.718750
7202		144.531250
7203		128.906250
7204		136.718750
7205		121.093750
7206		128.906250
7207		117.187500
7208		125.000000
7209		109.375000
7210		117.187500
7211		101.562500
7212		109.375000
7213		93.750000
7214		105.468750
7215		89.843750
7216		97.656250
7217		82.031250
7218		89.843750
7219		74.218750
7220		82.031250
7221		66.406250
7222		74.218750
7223		58.593750
7224		66.406250
7225		50.781250
7226		58.593750
7227		42.968750
7228		50.781250
7229		35.156250
7230		42.968750
7231		27.343750
7232		35.156250
7233		19.531250
7234		27.343750
7235		11.718750
7236		19.531250
7237		3.906250
7238		15.625000
7239		-3.906250
7240		3.906250
7241		-11.718750
7242		-3.906250
7243		-19.531250
7244		-11.718750
7245		-27.343750
7246		-19.531250
7247		-35.156250
7248		-27.343750
7249		-42.968750
7250		-35.156250
7251		-50.781250
7252		-42.968750
7253		-58.593750
7254		-50.781250
7255		-66.406250
7256		-58.593750
7257		-74.218750
7258		-66.406250
7259		-82.031250
7260		-74.218750
7261		-89.843750
7262		-82.031250
7263		-97.656250
7264		-89.843750
7265		-105.468750
7266		-97.656250
7267		-113.281250
7268		-105.468750
7269		-121.093750
7270		-109.375000
7271		-128.906250
7272		-117.187500
7273		-132.812500
7274		-125.000000
7275		-140.625000
7276		-132.812500
7277		-148.437500
7278		-136.718750
7279		-152.343750
7280		-144.531250
7281		-160.156250
7282		-152.343750
7283		-167.968750
7284		-160.156250
7285		-171.875000
7286		-164.062500
7287		-175.781250
7288		-171.875000
7289		-183.593750
7290		-175.781250
7291		-187.500000
7292		-183.593750
7293		-195.312500
7294		-187.500000
7295		-199.218750
7296		-191.406250
7297		-203.125000
7298		-195.312500
7299		-207.031250
7300		-199.218750
7301		-210.937500
7302		-207.031250
7303		-214.843750
7304		-210.937500
7305		-218.750000
7306		-214.843750
7307		-222.656250
7308		-218.750000
7309		-226.562500
7310		-222.656250
7311		-230.468750
7312		-222.656250
7313		-230.468750
7314		-226.562500
7315		-234.375000
7316		-230.468750
7317		-238.281250
7318		-234.375000
7319		-238.281250
7320		-234.375000
7321		-242.187500
7322		-234.375000
7323		-242.187500
7324		-238.281250
7325		-242.187500
7326		-238.281250
7327		-246.093750
7328		-238.281250
7329		-246.093750
7330		-242.187500
7331		-246.093750
7332		-242.187500
7333		-246.093750
7334		-242.187500
7335		-246.093750
7336		-242.187500
7337		-246.093750
7338		-242.187500
7339		-242.187500
7340		-242.187500
7341		-242.187500
7342		-238.281250
7343		-242.187500
7344		-238.281250
7345		-238.281250
7346		-234.375000
7347		-238.281250
7348		-234.375000
7349		-238.281250
7350		-234.375000
7351		-234.375000
7352		-230.468750
7353		-230.468750
7354		-226.562500
7355		-230.468750
7356		-222.656250
7357		-226.562500
7358		-218.750000
7359		-222.656250
7360		-214.843750
7361		-218.750000
7362		-214.843750
7363		-214.843750
7364		-210.937500
7365		-210.937500
7366		-207.031250
7367		-207.031250
7368		-199.218750
7369		-203.125000
7370		-195.312500
7371		-195.312500
7372		-191.406250
7373		-191.406250
7374		-183.593750
7375		-187.500000
7376		-179.687500
7377		-179.687500
7378		-171.875000
7379		-175.781250
7380		-167.968750
7381		-167.968750
7382		-160.156250
7383		-164.062500
7384		-156.250000
7385		-156.250000
7386		-148.437500
7387		-148.437500
7388		-140.625000
7389		-144.531250
7390		-132.812500
7391		-136.718750
7392		-128.906250
7393		-128.906250
7394		-121.093750
7395		-121.093750
7396		-113.281250
7397		-113.281250
7398		-105.468750
7399		-105.468750
7400		-97.656250
7401		-97.656250
7402		-89.843750
7403		-89.843750
7404		-82.031250
7405		-82.031250
7406		-74.218750
7407		-74.218750
7408		-66.406250
7409		-66.406250
7410		-58.593750
7411		-58.593750
7412		-50.781250
7413		-50.781250
7414		-42.968750
7415		-42.968750
7416		-35.156250
7417		-35.156250
7418		-27.343750
7419		-27.343750
7420		-15.625000
7421		-19.531250
7422		-7.812500
7423		-11.718750
7424		0.000000
7425		-3.906250
7426		7.812500
7427		3.906250
7428		15.625000
7429		11.718750
7430		23.437500
7431		19.531250
7432		31.250000
7433		27.343750
7434		39.062500
7435		35.156250
7436		46.875000
7437		42.968750
7438		54.687500
7439		50.781250
7440		62.500000
7441		58.593750
7442		70.312500
7443		66.406250
7444		78.125000
7445		74.218750
7446		82.031250
7447		82.031250
7448		89.843750
7449		89.843750
7450		97.656250
7451		93.750000
7452		105.468750
7453		101.562500
7454		109.375000
7455		109.375000
7456		117.187500
7457		117.187500
7458		125.000000
7459		121.093750
7460		128.906250
7461		128.906250
7462		136.718750
7463		132.812500
7464		140.625000
7465		140.625000
7466		148.437500
7467		144.531250
7468		152.343750
7469		152.343750
7470		156.250000
7471		156.250000
7472		164.062500
7473		160.156250
7474		167.968750
7475		167.968750
7476		171.875000
7477		171.875000
7478		179.687500
7479		175.781250
7480		183.593750
7481		179.687500
7482		187.500000
7483		183.593750
7484		191.406250
7485		187.500000
7486		195.312500
7487		191.406250
7488		199.218750
7489		195.312500
7490		203.125000
7491		199.218750
7492		207.031250
7493		203.125000
7494		210.937500
7495		207.031250
7496		210.937500
7497		210.937500
7498		214.843750
7499		214.843750
7500		218.750000
7501		214.843750
7502		218.750000
7503		218.750000
7504		222.656250
7505		218.750000
7506		226.562500
7507		222.656250
7508		226.562500
7509		226.562500
7510		230.468750
7511		226.562500
7512		230.468750
7513		226.562500
7514		230.468750
7515		230.468750
7516		234.375000
7517		230.468750
7518		234.375000
7519		230.468750
7520		238.281250
7521		234.375000
7522		238.281250
7523		234.375000
7524		238.281250
7525		234.375000
7526		238.281250
7527		234.375000
7528		238.281250
7529		234.375000
7530		242.187500
7531		238.281250
7532		238.281250
7533		238.281250
7534		238.281250
7535		238.281250
7536		242.187500
7537		238.281250
7538		238.281250
7539		238.281250
7540		238.281250
7541		238.281250
7542		242.187500
7543		234.375000
7544		238.281250
7545		234.375000
7546		238.281250
7547		234.375000
7548		238.281250
7549		234.375000
7550		238.281250
7551		230.468750
7552		234.375000
7553		230.468750
7554		234.375000
7555		230.468750
7556		234.375000
7557		226.562500
7558		234.375000
7559		226.562500
7560		230.468750
7561		222.656250
7562		226.562500
7563		222.656250
7564		226.562500
7565		218.750000
7566		222.656250
7567		218.750000
7568		222.656250
7569		214.843750
7570		218.750000
7571		210.937500
7572		214.843750
7573		207.031250
7574		214.843750
7575		207.031250
7576		210.937500
7577		203.125000
7578		207.031250
7579		199.218750
7580		203.125000
7581		195.312500
7582		199.218750
7583		191.406250
7584		195.312500
7585		187.500000
7586		191.406250
7587		183.593750
7588		187.500000
7589		175.781250
7590		183.593750
7591		171.875000
7592		179.687500
7593		167.968750
7594		171.875000
7595		160.156250
7596		167.968750
7597		156.250000
7598		164.062500
7599		152.343750
7600		160.156250
7601		144.531250
7602		152.343750
7603		140.625000
7604		148.437500
7605		132.812500
7606		140.625000
7607		125.000000
7608		136.718750
7609		121.093750
7610		128.906250
7611		113.281250
7612		121.093750
7613		105.468750
7614		117.187500
7615		101.562500
7616		109.375000
7617		93.750000
7618		101.562500
7619		85.937500
7620		93.750000
7621		78.125000
7622		89.843750
7623		70.312500
7624		82.031250
7625		62.500000
7626		74.218750
7627		54.687500
7628		66.406250
7629		46.875000
7630		58.593750
7631		39.062500
7632		50.781250
7633		35.156250
7634		42.968750
7635		27.343750
7636		35.156250
7637		15.625000
7638		27.343750
7639		11.718750
7640		19.531250
7641		0.000000
7642		11.718750
7643		-7.812500
7644		3.906250
7645		-15.625000
7646		-3.906250
7647		-23.437500
7648		-11.718750
7649		-31.250000
7650		-19.531250
7651		-39.062500
7652		-27.343750
7653		-46.875000
7654		-35.156250
7655		-54.687500
7656		-42.968750
7657		-62.500000
7658		-50.781250
7659		-70.312500
7660		-58.593750
7661		-78.125000
7662		-66.406250
7663		-85.937500
7664		-74.218750
7665		-93.750000
7666		-82.031250
7667		-101.562500
7668		-89.843750
7669		-109.375000
7670		-97.656250
7671		-113.281250
7672		-105.468750
7673		-121.093750
7674		-113.281250
7675		-128.906250
7676		-121.093750
7677		-136.718750
7678		-128.906250
7679		-144.531250
7680		-132.812500
7681		-148.437500
7682		-140.625000
7683		-156.250000
7684		-148.437500
7685		-160.156250
7686		-152.343750
7687		-167.968750
7688		-160.156250
7689		-171.875000
7690		-167.968750
7691		-179.687500
7692		-171.875000
7693		-183.593750
7694		-175.781250
7695		-191.406250
7696		-183.593750
7697		-195.312500
7698		-187.500000
7699		-203.125000
7700		-195.312500
7701		-203.125000
7702		-199.218750
7703		-210.937500
7704		-203.125000
7705		-214.843750
7706		-207.031250
7707		-218.750000
7708		-210.937500
7709		-222.656250
7710		-214.843750
7711		-226.562500
7712		-218.750000
7713		-226.562500
7714		-222.656250
7715		-230.468750
7716		-226.562500
7717		-234.375000
7718		-230.468750
7719		-238.281250
7720		-230.468750
7721		-238.281250
7722		-234.375000
7723		-242.187500
7724		-234.375000
7725		-242.187500
7726		-238.281250
7727		-246.093750
7728		-238.281250
7729		-246.093750
7730		-242.187500
7731		-246.093750
7732		-242.187500
7733		-246.093750
7734		-242.187500
7735		-246.093750
7736		-242.187500
7737		-246.093750
7738		-242.187500
7739		-246.093750
7740		-242.187500
7741		-246.093750
7742		-242.187500
7743		-246.093750
7744		-242.187500
7745		-246.093750
7746		-238.281250
7747		-242.187500
7748		-238.281250
7749		-242.187500
7750		-234.375000
7751		-238.281250
7752		-234.375000
7753		-238.281250
7754		-230.468750
7755		-234.375000
7756		-230.468750
7757		-230.468750
7758		-226.562500
7759		-230.468750
7760		-222.656250
7761		-226.562500
7762		-218.750000
7763		-222.656250
7764		-218.750000
7765		-218.750000
7766		-210.937500
7767		-214.843750
7768		-210.937500
7769		-210.937500
7770		-203.125000
7771		-207.031250
7772		-199.218750
7773		-203.125000
7774		-191.406250
7775		-195.312500
7776		-191.406250
7777		-191.406250
7778		-183.593750
7779		-187.500000
7780		-179.687500
7781		-179.687500
7782		-171.875000
7783		-175.781250
7784		-167.968750
7785		-167.968750
7786		-160.156250
7787		-160.156250
7788		-152.343750
7789		-156.250000
7790		-148.437500
7791		-148.437500
7792		-140.625000
7793		-140.625000
7794		-132.812500
7795		-132.812500
7796		-125.000000
7797		-128.906250
7798		-117.187500
7799		-121.093750
7800		-113.281250
7801		-113.281250
7802		-101.562500
7803		-105.468750
7804		-93.750000
7805		-97.656250
7806		-85.937500
7807		-89.843750
7808		-78.125000
7809		-82.031250
7810		-70.312500
7811		-74.218750
7812		-62.500000
7813		-66.406250
7814		-54.687500
7815		-58.593750
7816		-46.875000
7817		-50.781250
7818		-39.062500
7819		-42.968750
7820		-31.250000
7821		-31.250000
7822		-23.437500
7823		-27.343750
7824		-15.625000
7825		-19.531250
7826		-7.812500
7827		-7.812500
7828		0.000000
7829		0.000000
7830		11.718750
7831		7.812500
7832		15.625000
7833		11.718750
7834		23.437500
7835		23.437500
7836		31.250000
7837		31.250000
7838		42.968750
7839		39.062500
7840		50.781250
7841		46.875000
7842		54.687500
7843		54.687500
7844		62.500000
7845		62.500000
7846		74.218750
7847		66.406250
7848		78.125000
7849		78.125000
7850		85.937500
7851		82.031250
7852		93.750000
7853		89.843750
7854		101.562500
7855		97.656250
7856		105.468750
7857		101.562500
7858		113.281250
7859		109.375000
7860		121.093750
7861		117.187500
7862		125.000000
7863		121.093750
7864		132.812500
7865		128.906250
7866		140.625000
7867		136.718750
7868		144.531250
7869		140.625000
7870		148.437500
7871		148.437500
7872		156.250000
7873		152.343750
7874		160.156250
7875		160.156250
7876		164.062500
7877		164.062500
7878		171.875000
7879		167.968750
7880		175.781250
7881		167.968750
7882		179.687500
7883		175.781250
7884		183.593750
7885		183.593750
7886		187.500000
7887		187.500000
7888		195.312500
7889		191.406250
7890		199.218750
7891		191.406250
7892		199.218750
7893		199.218750
7894		203.125000
7895		203.125000
7896		207.031250
7897		203.125000
7898		210.937500
7899		207.031250
7900		214.843750
7901		210.937500
7902		214.843750
7903		214.843750
7904		218.750000
7905		214.843750
7906		222.656250
7907		218.750000
7908		226.562500
7909		218.750000
7910		226.562500
7911		222.656250
7912		226.562500
7913		222.656250
7914		234.375000
7915		222.656250
7916		230.468750
7917		226.562500
7918		234.375000
7919		230.468750
7920		234.375000
7921		230.468750
7922		238.281250
7923		230.468750
7924		238.281250
7925		234.375000
7926		238.281250
7927		234.375000
7928		238.281250
7929		234.375000
7930		242.187500
7931		234.375000
7932		242.187500
7933		234.375000
7934		242.187500
7935		238.281250
7936		242.187500
7937		238.281250
7938		242.187500
7939		238.281250
7940		242.187500
7941		234.375000
7942		242.187500
7943		238.281250
7944		242.187500
7945		234.375000
7946		242.187500
7947		234.375000
7948		242.187500
7949		234.375000
7950		242.187500
7951		234.375000
7952		238.281250
7953		230.468750
7954		238.281250
7955		230.468750
7956		234.375000
7957		230.468750
7958		238.281250
7959		230.468750
7960		234.375000
7961		226.562500
7962		230.468750
7963		222.656250
7964		230.468750
7965		222.656250
7966		230.468750
7967		218.750000
7968		226.562500
7969		218.750000
7970		222.656250
7971		214.843750
7972		222.656250
7973		214.843750
7974		218.750000
7975		210.937500
7976		218.750000
7977		207.031250
7978		214.843750
7979		203.125000
7980		210.937500
7981		199.218750
7982		210.937500
7983		195.312500
7984		203.125000
7985		191.406250
7986		199.218750
7987		191.406250
7988		195.312500
7989		183.593750
7990		191.406250
7991		179.687500
7992		187.500000
7993		175.781250
7994		183.593750
7995		171.875000
7996		179.687500
7997		167.968750
7998		171.875000
7999		160.156250
8000		167.968750
8001		156.250000
8002		164.062500
8003		152.343750
8004		156.250000
8005		144.531250
8006		152.343750
8007		136.718750
8008		144.531250
8009		132.812500
8010		140.625000
8011		125.000000
8012		132.812500
8013		117.187500
8014		128.906250
8015		113.281250
8016		121.093750
8017		105.468750
8018		113.281250
8019		97.656250
8020		109.375000
8021		93.750000
8022		101.562500
8023		85.937500
8024		93.750000
8025		74.218750
8026		89.843750
8027		70.312500
8028		78.125000
8029		62.500000
8030		70.312500
8031		54.687500
8032		66.406250
8033		46.875000
8034		58.593750
8035		39.062500
8036		50.781250
8037		31.250000
8038		42.968750
8039		23.437500
8040		35.156250
8041		15.625000
8042		27.343750
8043		7.812500
8044		19.531250
8045		0.000000
8046		11.718750
8047		-7.812500
8048		0.000000
8049		-15.625000
8050		-7.812500
8051		-23.437500
8052		-11.718750
8053		-31.250000
8054		-23.437500
8055		-39.062500
8056		-31.250000
8057		-46.875000
8058		-39.062500
8059		-54.687500
8060		-46.875000
8061		-62.500000
8062		-54.687500
8063		-70.312500
8064		-62.500000
8065		-78.125000
8066		-70.312500
8067		-85.937500
8068		-78.125000
8069		-93.750000
8070		-85.937500
8071		-101.562500
8072		-93.750000
8073		-109.375000
8074		-97.656250
8075		-117.187500
8076		-105.468750
8077		-125.000000
8078		-113.281250
8079		-128.906250
8080		-121.093750
8081		-136.718750
8082		-125.000000
8083		-144.531250
8084		-132.812500
8085		-148.437500
8086		-140.625000
8087		-156.250000
8088		-148.437500
8089		-164.062500
8090		-152.343750
8091		-167.968750
8092		-160.156250
8093		-175.781250
8094		-164.062500
8095		-179.687500
8096		-171.875000
8097		-187.500000
8098		-175.781250
8099		-191.406250
8100		-183.593750
8101		-195.312500
8102		-187.500000
8103		-199.218750
8104		-191.406250
8105		-207.031250
8106		-199.218750
8107		-207.031250
8108		-203.125000
8109		-214.843750
8110		-207.031250
8111		-218.750000
8112		-210.937500
8113		-222.656250
8114		-214.843750
8115		-222.656250
8116		-214.843750
8117		-226.562500
8118		-222.656250
8119		-230.468750
8120		-222.656250
8121		-230.468750
8122		-226.562500
8123		-234.375000
8124		-230.468750
8125		-238.281250
8126		-230.468750
8127		-238.281250
8128		-234.375000
8129		-242.187500
8130		-234.375000
8131		-242.187500
8132		-238.281250
8133		-242.187500
8134		-238.281250
8135		-242.187500
8136		-238.281250
8137		-242.187500
8138		-238.281250
8139		-242.187500
8140		-238.281250
8141		-242.187500
8142		-238.281250
8143		-242.187500
8144		-238.281250
8145		-242.187500
8146		-238.281250
8147		-242.187500
8148		-238.281250
8149		-242.187500
8150		-234.375000
8151		-238.281250
8152		-234.375000
8153		-238.281250
8154		-234.375000
8155		-234.375000
8156		-230.468750
8157		-234.375000
8158		-226.562500
8159		-230.468750
8160		-226.562500
8161		-226.562500
8162		-222.656250
8163		-226.562500
8164		-218.750000
8165		-222.656250
8166		-214.843750
8167		-218.750000
8168		-210.937500
8169		-214.843750
8170		-207.031250
8171		-210.937500
8172		-203.125000
8173		-207.031250
8174		-199.218750
8175		-203.125000
8176		-195.312500
8177		-195.312500
8178		-187.500000
8179		-191.406250
8180		-183.593750
8181		-187.500000
8182		-175.781250
8183		-179.687500
8184		-171.875000
8185		-175.781250
8186		-167.968750
8187		-167.968750
8188		-160.156250
8189		-164.062500
8190		-156.250000
8191		-156.250000
8192		-148.437500
8193		-148.437500
8194		-140.625000
8195		-144.531250
8196		-132.812500
8197		-136.718750
8198		-125.000000
8199		-128.906250
8200		-121.093750
8201		-121.093750
8202		-113.281250
8203		-113.281250
8204		-105.468750
8205		-105.468750
8206		-97.656250
8207		-101.562500
8208		-89.843750
8209		-93.750000
8210		-82.031250
8211		-82.031250
8212		-74.218750
8213		-78.125000
8214		-66.406250
8215		-66.406250
8216		-58.593750
8217		-58.593750
8218		-50.781250
8219		-50.781250
8220		-42.968750
8221		-42.968750
8222		-35.156250
8223		-35.156250
8224		-23.437500
8225		-27.343750
8226		-15.625000
8227		-19.531250
8228		-7.812500
8229		-11.718750
8230		0.000000
8231		-3.906250
8232		7.812500
8233		3.906250
8234		15.625000
8235		11.718750
8236		23.437500
8237		19.531250
8238		31.250000
8239		27.343750
8240		39.062500
8241		35.156250
8242		46.875000
8243		42.968750
8244		54.687500
8245		50.781250
8246		62.500000
8247		58.593750
8248		70.312500
8249		66.406250
8250		78.125000
8251		74.218750
8252		82.031250
8253		82.031250
8254		89.843750
8255		89.843750
8256		97.656250
8257		93.750000
8258		105.468750
8259		101.562500
8260		109.375000
8261		109.375000
8262		117.187500
8263		113.281250
8264		125.000000
8265		121.093750
8266		128.906250
8267		128.906250
8268		136.718750
8269		132.812500
8270		140.625000
8271		140.625000
8272		148.437500
8273		144.531250
8274		152.343750
8275		152.343750
8276		160.156250
8277		156.250000
8278		164.062500
8279		160.156250
8280		167.968750
8281		164.062500
8282		175.781250
8283		171.875000
8284		179.687500
8285		175.781250
8286		183.593750
8287		179.687500
8288		187.500000
8289		183.593750
8290		191.406250
8291		191.406250
8292		195.312500
8293		195.312500
8294		199.218750
8295		195.312500
8296		203.125000
8297		199.218750
8298		207.031250
8299		203.125000
8300		210.937500
8301		207.031250
8302		214.843750
8303		210.937500
8304		214.843750
8305		214.843750
8306		218.750000
8307		214.843750
8308		222.656250
8309		218.750000
8310		222.656250
8311		222.656250
8312		226.562500
8313		222.656250
8314		226.562500
8315		222.656250
8316		230.468750
8317		226.562500
8318		230.468750
8319		230.468750
8320		234.375000
8321		230.468750
8322		234.375000
8323		230.468750
8324		234.375000
8325		234.375000
8326		238.281250
8327		234.375000
8328		238.281250
8329		234.375000
8330		238.281250
8331		238.281250
8332		242.187500
8333		238.281250
8334		242.187500
8335		238.281250
8336		242.187500
8337		238.281250
8338		242.187500
8339		238.281250
8340		242.187500
8341		238.281250
8342		242.187500
8343		238.281250
8344		242.187500
8345		238.281250
8346		242.187500
8347		238.281250
8348		242.187500
8349		238.281250
8350		242.187500
8351		238.281250
8352		242.187500
8353		234.375000
8354		242.187500
8355		234.375000
8356		238.281250
8357		234.375000
8358		238.281250
8359		230.468750
8360		238.281250
8361		230.468750
8362		234.375000
8363		230.468750
8364		234.375000
8365		226.562500
8366		234.375000
8367		226.562500
8368		230.468750
8369		222.656250
8370		230.468750
8371		222.656250
8372		226.562500
8373		218.750000
8374		222.656250
8375		214.843750
8376		222.656250
8377		214.843750
8378		218.750000
8379		210.937500
8380		218.750000
8381		207.031250
8382		214.843750
8383		203.125000
8384		210.937500
8385		199.218750
8386		207.031250
8387		199.218750
8388		203.125000
8389		195.312500
8390		199.218750
8391		191.406250
8392		195.312500
8393		187.500000
8394		191.406250
8395		179.687500
8396		187.500000
8397		175.781250
8398		183.593750
8399		171.875000
8400		179.687500
8401		167.968750
8402		171.875000
8403		160.156250
8404		167.968750
8405		156.250000
8406		164.062500
8407		148.437500
8408		156.250000
8409		144.531250
8410		152.343750
8411		136.718750
8412		148.437500
8413		132.812500
8414		140.625000
8415		125.000000
8416		132.812500
8417		117.187500
8418		128.906250
8419		113.281250
8420		121.093750
8421		105.468750
8422		113.281250
8423		97.656250
8424		105.468750
8425		89.843750
8426		101.562500
8427		85.937500
8428		93.750000
8429		78.125000
8430		85.937500
8431		70.312500
8432		78.125000
8433		62.500000
8434		70.312500
8435		54.687500
8436		62.500000
8437		46.875000
8438		54.687500
8439		39.062500
8440		50.781250
8441		31.250000
8442		42.968750
8443		23.437500
8444		35.156250
8445		15.625000
8446		27.343750
8447		7.812500
8448		15.625000
8449		0.000000
8450		7.812500
8451		-7.812500
8452		0.000000
8453		-15.625000
8454		-7.812500
8455		-23.437500
8456		-15.625000
8457		-31.250000
8458		-23.437500
8459		-39.062500
8460		-31.250000
8461		-46.875000
8462		-39.062500
8463		-54.687500
8464		-46.875000
8465		-62.500000
8466		-54.687500
8467		-70.312500
8468		-62.500000
8469		-78.125000
8470		-70.312500
8471		-85.937500
8472		-78.125000
8473		-93.750000
8474		-85.937500
8475		-101.562500
8476		-93.750000
8477		-109.375000
8478		-97.656250
8479		-117.187500
8480		-105.468750
8481		-121.093750
8482		-113.281250
8483		-128.906250
8484		-121.093750
8485		-136.718750
8486		-125.000000
8487		-144.531250
8488		-132.812500
8489		-148.437500
8490		-140.625000
8491		-156.250000
8492		-148.437500
8493		-164.062500
8494		-152.343750
8495		-167.968750
8496		-160.156250
8497		-171.875000
8498		-167.968750
8499		-179.687500
8500		-171.875000
8501		-183.593750
8502		-175.781250
8503		-191.406250
8504		-183.593750
8505		-195.312500
8506		-187.500000
8507		-199.218750
8508		-191.406250
8509		-207.031250
8510		-199.218750
8511		-210.937500
8512		-203.125000
8513		-214.843750
8514		-207.031250
8515		-214.843750
8516		-210.937500
8517		-218.750000
8518		-214.843750
8519		-222.656250
8520		-218.750000
8521		-226.562500
8522		-222.656250
8523		-230.468750
8524		-222.656250
8525		-230.468750
8526		-226.562500
8527		-234.375000
8528		-230.468750
8529		-234.375000
8530		-230.468750
8531		-238.281250
8532		-234.375000
8533		-238.281250
8534		-234.375000
8535		-242.187500
8536		-234.375000
8537		-242.187500
8538		-238.281250
8539		-242.187500
8540		-238.281250
8541		-242.187500
8542		-238.281250
8543		-242.187500
8544		-238.281250
8545		-242.187500
8546		-238.281250
8547		-242.187500
8548		-238.281250
8549		-242.187500
8550		-238.281250
8551		-238.281250
8552		-234.375000
8553		-238.281250
8554		-234.375000
8555		-238.281250
8556		-234.375000
8557		-234.375000
8558		-230.468750
8559		-234.375000
8560		-230.468750
8561		-230.468750
8562		-226.562500
8563		-230.468750
8564		-222.656250
8565		-226.562500
8566		-222.656250
8567		-222.656250
8568		-218.750000
8569		-218.750000
8570		-214.843750
8571		-218.750000
8572		-210.937500
8573		-214.843750
8574		-207.031250
8575		-207.031250
8576		-203.125000
8577		-203.125000
8578		-199.218750
8579		-199.218750
8580		-191.406250
8581		-195.312500
8582		-187.500000
8583		-191.406250
8584		-183.593750
8585		-183.593750
8586		-175.781250
8587		-179.687500
8588		-171.875000
8589		-171.875000
8590		-164.062500
8591		-167.968750
8592		-160.156250
8593		-160.156250
8594		-152.343750
8595		-152.343750
8596		-144.531250
8597		-148.437500
8598		-136.718750
8599		-140.625000
8600		-132.812500
8601		-132.812500
8602		-125.000000
8603		-125.000000
8604		-117.187500
8605		-117.187500
8606		-109.375000
8607		-113.281250
8608		-101.562500
8609		-105.468750
8610		-93.750000
8611		-97.656250
8612		-85.937500
8613		-89.843750
8614		-78.125000
8615		-82.031250
8616		-70.312500
8617		-74.218750
8618		-62.500000
8619		-66.406250
8620		-54.687500
8621		-54.687500
8622		-46.875000
8623		-46.875000
8624		-39.062500
8625		-39.062500
8626		-31.250000
8627		-31.250000
8628		-19.531250
8629		-23.437500
8630		-15.625000
8631		-15.625000
8632		-7.812500
8633		-7.812500
8634		0.000000
8635		0.000000
8636		7.812500
8637		7.812500
8638		19.531250
8639		15.625000
8640		27.343750
8641		23.437500
8642		35.156250
8643		31.250000
8644		42.968750
8645		39.062500
8646		50.781250
8647		46.875000
8648		58.593750
8649		54.687500
8650		62.500000
8651		62.500000
8652		70.312500
8653		70.312500
8654		78.125000
8655		78.125000
8656		85.937500
8657		85.937500
8658		93.750000
8659		89.843750
8660		101.562500
8661		97.656250
8662		105.468750
8663		105.468750
8664		113.281250
8665		113.281250
8666		121.093750
8667		117.187500
8668		125.000000
8669		125.000000
8670		132.812500
8671		128.906250
8672		140.625000
8673		136.718750
8674		144.531250
8675		140.625000
8676		148.437500
8677		148.437500
8678		156.250000
8679		152.343750
8680		160.156250
8681		160.156250
8682		164.062500
8683		164.062500
8684		171.875000
8685		167.968750
8686		175.781250
8687		171.875000
8688		179.687500
8689		179.687500
8690		183.593750
8691		183.593750
8692		187.500000
8693		187.500000
8694		195.312500
8695		191.406250
8696		199.218750
8697		195.312500
8698		199.218750
8699		199.218750
8700		203.125000
8701		203.125000
8702		207.031250
8703		207.031250
8704		210.937500
8705		207.031250
8706		214.843750
8707		210.937500
8708		218.750000
8709		214.843750
8710		218.750000
8711		218.750000
8712		222.656250
8713		218.750000
8714		222.656250
8715		222.656250
8716		226.562500
8717		222.656250
8718		230.468750
8719		226.562500
8720		230.468750
8721		230.468750
8722		234.375000
8723		230.468750
8724		234.375000
8725		230.468750
8726		234.375000
8727		234.375000
8728		238.281250
8729		234.375000
8730		238.281250
8731		234.375000
8732		238.281250
8733		234.375000
8734		242.187500
8735		238.281250
8736		242.187500
8737		238.281250
8738		242.187500
8739		238.281250
8740		242.187500
8741		238.281250
8742		242.187500
8743		238.281250
8744		242.187500
8745		238.281250
8746		242.187500
8747		238.281250
8748		242.187500
8749		238.281250
8750		242.187500
8751		238.281250
8752		242.187500
8753		238.281250
8754		242.187500
8755		238.281250
8756		242.187500
8757		234.375000
8758		242.187500
8759		234.375000
8760		238.281250
8761		234.375000
8762		238.281250
8763		234.375000
8764		238.281250
8765		230.468750
8766		234.375000
8767		230.468750
8768		234.375000
8769		226.562500
8770		230.468750
8771		226.562500
8772		230.468750
8773		222.656250
8774		230.468750
8775		222.656250
8776		226.562500
8777		218.750000
8778		222.656250
8779		214.843750
8780		222.656250
8781		214.843750
8782		218.750000
8783		210.937500
8784		214.843750
8785		207.031250
8786		214.843750
8787		203.125000
8788		210.937500
8789		199.218750
8790		207.031250
8791		195.312500
8792		203.125000
8793		191.406250
8794		199.218750
8795		187.500000
8796		195.312500
8797		183.593750
8798		191.406250
8799		179.687500
8800		187.500000
8801		175.781250
8802		183.593750
8803		171.875000
8804		175.781250
8805		164.062500
8806		171.875000
8807		160.156250
8808		167.968750
8809		156.250000
8810		160.156250
8811		148.437500
8812		156.250000
8813		144.531250
8814		152.343750
8815		136.718750
8816		144.531250
8817		128.906250
8818		140.625000
8819		125.000000
8820		132.812500
8821		117.187500
8822		125.000000
8823		109.375000
8824		121.093750
8825		105.468750
8826		113.281250
8827		97.656250
8828		105.468750
8829		89.843750
8830		97.656250
8831		82.031250
8832		89.843750
8833		74.218750
8834		85.937500
8835		66.406250
8836		78.125000
8837		58.593750
8838		70.312500
8839		50.781250
8840		62.500000
8841		46.875000
8842		54.687500
8843		35.156250
8844		46.875000
8845		27.343750
8846		39.062500
8847		23.437500
8848		31.250000
8849		15.625000
8850		23.437500
8851		3.906250
8852		15.625000
8853		-3.906250
8854		7.812500
8855		-11.718750
8856		0.000000
8857		-19.531250
8858		-7.812500
8859		-27.343750
8860		-15.625000
8861		-35.156250
8862		-23.437500
8863		-42.968750
8864		-31.250000
8865		-50.781250
8866		-39.062500
8867		-58.593750
8868		-46.875000
8869		-66.406250
8870		-54.687500
8871		-74.218750
8872		-62.500000
8873		-82.031250
8874		-70.312500
8875		-85.937500
8876		-78.125000
8877		-93.750000
8878		-85.937500
8879		-101.562500
8880		-93.750000
8881		-109.375000
8882		-101.562500
8883		-117.187500
8884		-109.375000
8885		-125.000000
8886		-113.281250
8887		-132.812500
8888		-121.093750
8889		-136.718750
8890		-128.906250
8891		-144.531250
8892		-136.718750
8893		-152.343750
8894		-144.531250
8895		-156.250000
8896		-148.437500
8897		-164.062500
8898		-156.250000
8899		-167.968750
8900		-160.156250
8901		-175.781250
8902		-164.062500
8903		-179.687500
8904		-171.875000
8905		-183.593750
8906		-179.687500
8907		-191.406250
8908		-183.593750
8909		-195.312500
8910		-187.500000
8911		-199.218750
8912		-191.406250
8913		-203.125000
8914		-195.312500
8915		-207.031250
8916		-203.125000
8917		-210.937500
8918		-207.031250
8919		-214.843750
8920		-210.937500
8921		-218.750000
8922		-214.843750
8923		-222.656250
8924		-218.750000
8925		-222.656250
8926		-218.750000
8927		-226.562500
8928		-222.656250
8929		-230.468750
8930		-226.562500
8931		-230.468750
8932		-226.562500
8933		-234.375000
8934		-230.468750
8935		-234.375000
8936		-230.468750
8937		-238.281250
8938		-234.375000
8939		-238.281250
8940		-234.375000
8941		-238.281250
8942		-234.375000
8943		-238.281250
8944		-234.375000
8945		-238.281250
8946		-234.375000
8947		-238.281250
8948		-234.375000
8949		-238.281250
8950		-234.375000
8951		-238.281250
8952		-234.375000
8953		-238.281250
8954		-234.375000
8955		-238.281250
8956		-234.375000
8957		-234.375000
8958		-230.468750
8959		-234.375000
8960		-230.468750
8961		-230.468750
8962		-226.562500
8963		-230.468750
8964		-226.562500
8965		-226.562500
8966		-222.656250
8967		-226.562500
8968		-218.750000
8969		-222.656250
8970		-218.750000
8971		-218.750000
8972		-214.843750
8973		-214.843750
8974		-210.937500
8975		-210.937500
8976		-207.031250
8977		-207.031250
8978		-203.125000
8979		-203.125000
8980		-195.312500
8981		-199.218750
8982		-191.406250
8983		-195.312500
8984		-187.500000
8985		-187.500000
8986		-179.687500
8987		-183.593750
8988		-175.781250
8989		-179.687500
8990		-171.875000
8991		-171.875000
8992		-164.062500
8993		-167.968750
8994		-160.156250
8995		-160.156250
8996		-152.343750
8997		-156.250000
8998		-144.531250
8999		-148.437500
9000		-140.625000
9001		-140.625000
9002		-132.812500
9003		-132.812500
9004		-125.000000
9005		-128.906250
9006		-117.187500
9007		-121.093750
9008		-109.375000
9009		-113.281250
9010		-101.562500
9011		-105.468750
9012		-97.656250
9013		-97.656250
9014		-89.843750
9015		-89.843750
9016		-82.031250
9017		-82.031250
9018		-70.312500
9019		-74.218750
9020		-66.406250
9021		-66.406250
9022		-54.687500
9023		-58.593750
9024		-46.875000
9025		-50.781250
9026		-39.062500
9027		-42.968750
9028		-31.250000
9029		-35.156250
9030		-23.437500
9031		-27.343750
9032		-15.625000
9033		-15.625000
9034		-7.812500
9035		-7.812500
9036		0.000000
9037		-3.906250
9038		7.812500
9039		7.812500
9040		15.625000
9041		15.625000
9042		23.437500
9043		23.437500
9044		31.250000
9045		31.250000
9046		39.062500
9047		39.062500
9048		46.875000
9049		46.875000
9050		54.687500
9051		54.687500
9052		62.500000
9053		62.500000
9054		70.312500
9055		66.406250
9056		78.125000
9057		74.218750
9058		85.937500
9059		82.031250
9060		93.750000
9061		89.843750
9062		97.656250
9063		97.656250
9064		105.468750
9065		105.468750
9066		113.281250
9067		109.375000
9068		117.187500
9069		117.187500
9070		125.000000
9071		121.093750
9072		132.812500
9073		128.906250
9074		136.718750
9075		136.718750
9076		144.531250
9077		140.625000
9078		148.437500
9079		148.437500
9080		156.250000
9081		152.343750
9082		160.156250
9083		160.156250
9084		164.062500
9085		164.062500
9086		171.875000
9087		167.968750
9088		175.781250
9089		171.875000
9090		179.687500
9091		179.687500
9092		183.593750
9093		183.593750
9094		187.500000
9095		187.500000
9096		191.406250
9097		191.406250
9098		195.312500
9099		195.312500
9100		199.218750
9101		199.218750
9102		207.031250
9103		203.125000
9104		207.031250
9105		207.031250
9106		210.937500
9107		210.937500
9108		214.843750
9109		210.937500
9110		218.750000
9111		214.843750
9112		218.750000
9113		218.750000
9114		222.656250
9115		218.750000
9116		226.562500
9117		222.656250
9118		226.562500
9119		226.562500
9120		230.468750
9121		226.562500
9122		230.468750
9123		230.468750
9124		234.375000
9125		230.468750
9126		234.375000
9127		234.375000
9128		238.281250
9129		234.375000
9130		238.281250
9131		234.375000
9132		238.281250
9133		234.375000
9134		242.187500
9135		238.281250
9136		242.187500
9137		238.281250
9138		242.187500
9139		238.281250
9140		242.187500
9141		238.281250
9142		242.187500
9143		238.281250
9144		242.187500
9145		238.281250
9146		242.187500
9147		242.187500
9148		242.187500
9149		238.281250
9150		242.187500
9151		242.187500
9152		242.187500
9153		238.281250
9154		242.187500
9155		238.281250
9156		242.187500
9157		238.281250
9158		242.187500
9159		238.281250
9160		242.187500
9161		238.281250
9162		242.187500
9163		234.375000
9164		238.281250
9165		234.375000
9166		238.281250
9167		234.375000
9168		238.281250
9169		230.468750
9170		234.375000
9171		230.468750
9172		234.375000
9173		230.468750
9174		234.375000
9175		226.562500
9176		230.468750
9177		222.656250
9178		230.468750
9179		222.656250
9180		226.562500
9181		218.750000
9182		222.656250
9183		214.843750
9184		222.656250
9185		214.843750
9186		218.750000
9187		210.937500
9188		214.843750
9189		207.031250
9190		210.937500
9191		203.125000
9192		210.937500
9193		199.218750
9194		207.031250
9195		195.312500
9196		203.125000
9197		191.406250
9198		199.218750
9199		187.500000
9200		195.312500
9201		183.593750
9202		191.406250
9203		179.687500
9204		187.500000
9205		175.781250
9206		183.593750
9207		167.968750
9208		175.781250
9209		164.062500
9210		171.875000
9211		160.156250
9212		167.968750
9213		152.343750
9214		160.156250
9215		144.531250
9216		156.250000
9217		140.625000
9218		148.437500
9219		136.718750
9220		144.531250
9221		128.906250
9222		136.718750
9223		121.093750
9224		128.906250
9225		117.187500
9226		125.000000
9227		109.375000
9228		117.187500
9229		101.562500
9230		109.375000
9231		97.656250
9232		105.468750
9233		89.843750
9234		97.656250
9235		82.031250
9236		89.843750
9237		74.218750
9238		82.031250
9239		66.406250
9240		74.218750
9241		58.593750
9242		66.406250
9243		50.781250
9244		58.593750
9245		42.968750
9246		54.687500
9247		35.156250
9248		46.875000
9249		27.343750
9250		39.062500
9251		19.531250
9252		31.250000
9253		11.718750
9254		23.437500
9255		3.906250
9256		15.625000
9257		-3.906250
9258		7.812500
9259		-11.718750
9260		0.000000
9261		-19.531250
9262		-7.812500
9263		-27.343750
9264		-15.625000
9265		-35.156250
9266		-23.437500
9267		-42.968750
9268		-31.250000
9269		-50.781250
9270		-42.968750
9271		-58.593750
9272		-50.781250
9273		-66.406250
9274		-54.687500
9275		-74.218750
9276		-62.500000
9277		-82.031250
9278		-70.312500
9279		-89.843750
9280		-78.125000
9281		-97.656250
9282		-85.937500
9283		-101.562500
9284		-93.750000
9285		-113.281250
9286		-101.562500
9287		-117.187500
9288		-109.375000
9289		-125.000000
9290		-117.187500
9291		-132.812500
9292		-121.093750
9293		-136.718750
9294		-128.906250
9295		-144.531250
9296		-136.718750
9297		-152.343750
9298		-144.531250
9299		-156.250000
9300		-148.437500
9301		-164.062500
9302		-156.250000
9303		-167.968750
9304		-160.156250
9305		-175.781250
9306		-167.968750
9307		-179.687500
9308		-171.875000
9309		-183.593750
9310		-179.687500
9311		-191.406250
9312		-183.593750
9313		-195.312500
9314		-187.500000
9315		-199.218750
9316		-191.406250
9317		-203.125000
9318		-199.218750
9319		-207.031250
9320		-203.125000
9321		-210.937500
9322		-207.031250
9323		-214.843750
9324		-210.937500
9325		-218.750000
9326		-214.843750
9327		-222.656250
9328		-218.750000
9329		-226.562500
9330		-218.750000
9331		-226.562500
9332		-222.656250
9333		-230.468750
9334		-222.656250
9335		-234.375000
9336		-226.562500
9337		-234.375000
9338		-230.468750
9339		-234.375000
9340		-230.468750
9341		-238.281250
9342		-234.375000
9343		-238.281250
9344		-234.375000
9345		-238.281250
9346		-234.375000
9347		-238.281250
9348		-234.375000
9349		-238.281250
9350		-234.375000
9351		-238.281250
9352		-234.375000
9353		-238.281250
9354		-234.375000
9355		-238.281250
9356		-234.375000
9357		-238.281250
9358		-230.468750
9359		-238.281250
9360		-230.468750
9361		-234.375000
9362		-230.468750
9363		-234.375000
9364		-230.468750
9365		-230.468750
9366		-226.562500
9367		-230.468750
9368		-222.656250
9369		-226.562500
9370		-222.656250
9371		-226.562500
9372		-218.750000
9373		-222.656250
9374		-214.843750
9375		-218.750000
9376		-210.937500
9377		-214.843750
9378		-207.031250
9379		-210.937500
9380		-203.125000
9381		-207.031250
9382		-199.218750
9383		-203.125000
9384		-195.312500
9385		-199.218750
9386		-191.406250
9387		-195.312500
9388		-183.593750
9389		-187.500000
9390		-179.687500
9391		-183.593750
9392		-175.781250
9393		-179.687500
9394		-167.968750
9395		-171.875000
9396		-160.156250
9397		-164.062500
9398		-156.250000
9399		-160.156250
9400		-152.343750
9401		-152.343750
9402		-140.625000
9403		-148.437500
9404		-136.718750
9405		-140.625000
9406		-128.906250
9407		-132.812500
9408		-121.093750
9409		-128.906250
9410		-117.187500
9411		-117.187500
9412		-105.468750
9413		-113.281250
9414		-101.562500
9415		-105.468750
9416		-93.750000
9417		-93.750000
9418		-85.937500
9419		-89.843750
9420		-78.125000
9421		-82.031250
9422		-70.312500
9423		-74.218750
9424		-62.500000
9425		-66.406250
9426		-54.687500
9427		-58.593750
9428		-46.875000
9429		-50.781250
9430		-39.062500
9431		-39.062500
9432		-31.250000
9433		-31.250000
9434		-23.437500
9435		-23.437500
9436		-11.718750
9437		-15.625000
9438		-3.906250
9439		-11.718750
9440		3.906250
9441		0.000000
9442		11.718750
9443		7.812500
9444		19.531250
9445		15.625000
9446		27.343750
9447		23.437500
9448		35.156250
9449		31.250000
9450		39.062500
9451		39.062500
9452		50.781250
9453		46.875000
9454		58.593750
9455		54.687500
9456		62.500000
9457		58.593750
9458		74.218750
9459		66.406250
9460		82.031250
9461		74.218750
9462		85.937500
9463		82.031250
9464		93.750000
9465		89.843750
9466		101.562500
9467		97.656250
9468		105.468750
9469		105.468750
9470		117.187500
9471		109.375000
9472		121.093750
9473		117.187500
9474		125.000000
9475		121.093750
9476		132.812500
9477		128.906250
9478		140.625000
9479		136.718750
9480		144.531250
9481		140.625000
9482		148.437500
9483		148.437500
9484		156.250000
9485		152.343750
9486		164.062500
9487		160.156250
9488		167.968750
9489		164.062500
9490		171.875000
9491		167.968750
9492		175.781250
9493		171.875000
9494		183.593750
9495		175.781250
9496		187.500000
9497		179.687500
9498		187.500000
9499		187.500000
9500		195.312500
9501		191.406250
9502		199.218750
9503		195.312500
9504		203.125000
9505		199.218750
9506		207.031250
9507		203.125000
9508		210.937500
9509		203.125000
9510		214.843750
9511		207.031250
9512		214.843750
9513		210.937500
9514		218.750000
9515		214.843750
9516		218.750000
9517		218.750000
9518		222.656250
9519		218.750000
9520		226.562500
9521		222.656250
9522		230.468750
9523		222.656250
9524		230.468750
9525		226.562500
9526		234.375000
9527		226.562500
9528		234.375000
9529		230.468750
9530		238.281250
9531		230.468750
9532		238.281250
9533		234.375000
9534		238.281250
9535		234.375000
9536		242.187500
9537		234.375000
9538		242.187500
9539		234.375000
9540		242.187500
9541		234.375000
9542		242.187500
9543		238.281250
9544		246.093750
9545		238.281250
9546		246.093750
9547		238.281250
9548		246.093750
9549		238.281250
9550		242.187500
9551		242.187500
9552		242.187500
9553		238.281250
9554		246.093750
9555		238.281250
9556		246.093750
9557		238.281250
9558		246.093750
9559		238.281250
9560		246.093750
9561		238.281250
9562		242.187500
9563		234.375000
9564		242.187500
9565		238.281250
9566		242.187500
9567		234.375000
9568		238.281250
9569		234.375000
9570		238.281250
9571		230.468750
9572		238.281250
9573		230.468750
9574		238.281250
9575		226.562500
9576		234.375000
9577		226.562500
9578		234.375000
9579		222.656250
9580		230.468750
9581		222.656250
9582		230.468750
9583		222.656250
9584		226.562500
9585		218.750000
9586		222.656250
9587		214.843750
9588		222.656250
9589		210.937500
9590		218.750000
9591		207.031250
9592		218.750000
9593		207.031250
9594		214.843750
9595		203.125000
9596		210.937500
9597		199.218750
9598		207.031250
9599		195.312500
9600		203.125000
9601		191.406250
9602		199.218750
9603		187.500000
9604		195.312500
9605		179.687500
9606		191.406250
9607		175.781250
9608		187.500000
9609		171.875000
9610		183.593750
9611		167.968750
9612		175.781250
9613		160.156250
9614		171.875000
9615		160.156250
9616		167.968750
9617		152.343750
9618		160.156250
9619		144.531250
9620		152.343750
9621		140.625000
9622		148.437500
9623		132.812500
9624		144.531250
9625		125.000000
9626		136.718750
9627		121.093750
9628		132.812500
9629		113.281250
9630		125.000000
9631		105.468750
9632		117.187500
9633		101.562500
9634		109.375000
9635		93.750000
9636		101.562500
9637		85.937500
9638		97.656250
9639		78.125000
9640		89.843750
9641		70.312500
9642		82.031250
9643		62.500000
9644		74.218750
9645		58.593750
9646		70.312500
9647		46.875000
9648		62.500000
9649		42.968750
9650		54.687500
9651		35.156250
9652		42.968750
9653		27.343750
9654		35.156250
9655		15.625000
9656		31.250000
9657		7.812500
9658		19.531250
9659		0.000000
9660		15.625000
9661		-7.812500
9662		3.906250
9663		-11.718750
9664		0.000000
9665		-19.531250
9666		-7.812500
9667		-27.343750
9668		-19.531250
9669		-35.156250
9670		-27.343750
9671		-42.968750
9672		-35.156250
9673		-54.687500
9674		-42.968750
9675		-62.500000
9676		-50.781250
9677		-70.312500
9678		-58.593750
9679		-78.125000
9680		-66.406250
9681		-82.031250
9682		-74.218750
9683		-89.843750
9684		-82.031250
9685		-97.656250
9686		-89.843750
9687		-105.468750
9688		-97.656250
9689		-113.281250
9690		-101.562500
9691		-121.093750
9692		-109.375000
9693		-128.906250
9694		-117.187500
9695		-136.718750
9696		-121.093750
9697		-140.625000
9698		-128.906250
9699		-144.531250
9700		-136.718750
9701		-152.343750
9702		-144.531250
9703		-160.156250
9704		-152.343750
9705		-164.062500
9706		-156.250000
9707		-171.875000
9708		-160.156250
9709		-175.781250
9710		-167.968750
9711		-183.593750
9712		-171.875000
9713		-187.500000
9714		-179.687500
9715		-191.406250
9716		-183.593750
9717		-195.312500
9718		-187.500000
9719		-199.218750
9720		-195.312500
9721		-207.031250
9722		-195.312500
9723		-210.937500
9724		-203.125000
9725		-214.843750
9726		-207.031250
9727		-218.750000
9728		-210.937500
9729		-222.656250
9730		-210.937500
9731		-222.656250
9732		-214.843750
9733		-226.562500
9734		-218.750000
9735		-226.562500
9736		-222.656250
9737		-230.468750
9738		-222.656250
9739		-234.375000
9740		-226.562500
9741		-234.375000
9742		-226.562500
9743		-238.281250
9744		-230.468750
9745		-238.281250
9746		-230.468750
9747		-238.281250
9748		-230.468750
9749		-238.281250
9750		-230.468750
9751		-238.281250
9752		-234.375000
9753		-238.281250
9754		-234.375000
9755		-238.281250
9756		-234.375000
9757		-238.281250
9758		-234.375000
9759		-238.281250
9760		-230.468750
9761		-238.281250
9762		-230.468750
9763		-238.281250
9764		-230.468750
9765		-234.375000
9766		-226.562500
9767		-230.468750
9768		-226.562500
9769		-230.468750
9770		-226.562500
9771		-226.562500
9772		-222.656250
9773		-226.562500
9774		-218.750000
9775		-222.656250
9776		-214.843750
9777		-222.656250
9778		-210.937500
9779		-218.750000
9780		-207.031250
9781		-210.937500
9782		-203.125000
9783		-210.937500
9784		-199.218750
9785		-203.125000
9786		-199.218750
9787		-199.218750
9788		-191.406250
9789		-195.312500
9790		-187.500000
9791		-191.406250
9792		-179.687500
9793		-187.500000
9794		-175.781250
9795		-179.687500
9796		-171.875000
9797		-175.781250
9798		-164.062500
9799		-167.968750
9800		-160.156250
9801		-160.156250
9802		-152.343750
9803		-156.250000
9804		-148.437500
9805		-148.437500
9806		-136.718750
9807		-144.531250
9808		-132.812500
9809		-136.718750
9810		-125.000000
9811		-128.906250
9812		-117.187500
9813		-121.093750
9814		-113.281250
9815		-117.187500
9816		-101.562500
9817		-109.375000
9818		-97.656250
9819		-97.656250
9820		-89.843750
9821		-89.843750
9822		-82.031250
9823		-85.937500
9824		-70.312500
9825		-78.125000
9826		-62.500000
9827		-70.312500
9828		-54.687500
9829		-62.500000
9830		-46.875000
9831		-54.687500
9832		-42.968750
9833		-42.968750
9834		-35.156250
9835		-35.156250
9836		-27.343750
9837		-27.343750
9838		-15.625000
9839		-19.531250
9840		-7.812500
9841		-11.718750
9842		0.000000
9843		-7.812500
9844		7.812500
9845		3.906250
9846		15.625000
9847		11.718750
9848		23.437500
9849		19.531250
9850		31.250000
9851		27.343750
9852		39.062500
9853		35.156250
9854		46.875000
9855		42.968750
9856		54.687500
9857		50.781250
9858		62.500000
9859		58.593750
9860		70.312500
9861		62.500000
9862		78.125000
9863		70.312500
9864		85.937500
9865		78.125000
9866		93.750000
9867		85.937500
9868		97.656250
9869		93.750000
9870		105.468750
9871		101.562500
9872		113.281250
9873		105.468750
9874		121.093750
9875		113.281250
9876		125.000000
9877		121.093750
9878		132.812500
9879		125.000000
9880		136.718750
9881		132.812500
9882		144.531250
9883		140.625000
9884		148.437500
9885		144.531250
9886		152.343750
9887		152.343750
9888		160.156250
9889		156.250000
9890		167.968750
9891		160.156250
9892		171.875000
9893		164.062500
9894		175.781250
9895		171.875000
9896		179.687500
9897		175.781250
9898		183.593750
9899		179.687500
9900		187.500000
9901		183.593750
9902		191.406250
9903		191.406250
9904		195.312500
9905		195.312500
9906		203.125000
9907		195.312500
9908		207.031250
9909		199.218750
9910		207.031250
9911		203.125000
9912		210.937500
9913		207.031250
9914		214.843750
9915		210.937500
9916		218.750000
9917		210.937500
9918		218.750000
9919		214.843750
9920		222.656250
9921		218.750000
9922		226.562500
9923		222.656250
9924		230.468750
9925		222.656250
9926		230.468750
9927		226.562500
9928		234.375000
9929		226.562500
9930		234.375000
9931		230.468750
9932		238.281250
9933		230.468750
9934		238.281250
9935		234.375000
9936		238.281250
9937		234.375000
9938		238.281250
9939		234.375000
9940		242.187500
9941		234.375000
9942		242.187500
9943		238.281250
9944		242.187500
9945		238.281250
9946		246.093750
9947		238.281250
9948		246.093750
9949		238.281250
9950		246.093750
9951		238.281250
9952		246.093750
9953		242.187500
9954		242.187500
9955		238.281250
9956		246.093750
9957		238.281250
9958		246.093750
9959		238.281250
9960		246.093750
9961		238.281250
9962		246.093750
9963		238.281250
9964		246.093750
9965		238.281250
9966		246.093750
9967		238.281250
9968		242.187500
9969		238.281250
9970		242.187500
9971		234.375000
9972		238.281250
9973		234.375000
9974		238.281250
9975		230.468750
9976		238.281250
9977		230.468750
9978		238.281250
9979		226.562500
9980		234.375000
9981		226.562500
9982		234.375000
9983		222.656250
9984		230.468750
9985		222.656250
9986		230.468750
9987		222.656250
9988		226.562500
9989		218.750000
9990		222.656250
9991		214.843750
9992		222.656250
9993		210.937500
9994		218.750000
9995		207.031250
9996		214.843750
9997		203.125000
9998		214.843750
9999		203.125000
10000		210.937500
