Channel              :		CH1
Frequency            :		1.240kHz
Period               :		0.807ms
PK-PK                :		464.8mV
Probe attenuation    :		1X
Voltage per ADC value:		0.244141mV
Time interval        :		2.00000us

index		CH1_Voltage(mV)
1		-89.843750
2		-89.843750
3		-105.468750
4		-97.656250
5		-113.281250
6		-101.562500
7		-117.187500
8		-109.375000
9		-125.000000
10		-117.187500
11		-132.812500
12		-121.093750
13		-140.625000
14		-128.906250
15		-144.531250
16		-132.812500
17		-148.437500
18		-140.625000
19		-156.250000
20		-148.437500
21		-160.156250
22		-152.343750
23		-167.968750
24		-156.250000
25		-171.875000
26		-160.156250
27		-175.781250
28		-167.968750
29		-179.687500
30		-171.875000
31		-187.500000
32		-175.781250
33		-191.406250
34		-179.687500
35		-191.406250
36		-183.593750
37		-195.312500
38		-191.406250
39		-199.218750
40		-195.312500
41		-203.125000
42		-195.312500
43		-207.031250
44		-199.218750
45		-210.937500
46		-203.125000
47		-214.843750
48		-207.031250
49		-214.843750
50		-207.031250
51		-214.843750
52		-210.937500
53		-218.750000
54		-214.843750
55		-218.750000
56		-214.843750
57		-222.656250
58		-214.843750
59		-222.656250
60		-214.843750
61		-226.562500
62		-218.750000
63		-226.562500
64		-218.750000
65		-226.562500
66		-218.750000
67		-226.562500
68		-218.750000
69		-226.562500
70		-218.750000
71		-226.562500
72		-218.750000
73		-226.562500
74		-218.750000
75		-226.562500
76		-218.750000
77		-226.562500
78		-214.843750
79		-222.656250
80		-214.843750
81		-222.656250
82		-214.843750
83		-218.750000
84		-210.937500
85		-218.750000
86		-210.937500
87		-214.843750
88		-210.937500
89		-210.937500
90		-207.031250
91		-210.937500
92		-203.125000
93		-207.031250
94		-199.218750
95		-203.125000
96		-195.312500
97		-199.218750
98		-191.406250
99		-195.312500
100		-187.500000
101		-195.312500
102		-183.593750
103		-187.500000
104		-179.687500
105		-183.593750
106		-175.781250
107		-179.687500
108		-167.968750
109		-175.781250
110		-164.062500
111		-171.875000
112		-160.156250
113		-164.062500
114		-156.250000
115		-160.156250
116		-148.437500
117		-152.343750
118		-144.531250
119		-148.437500
120		-140.625000
121		-140.625000
122		-132.812500
123		-132.812500
124		-125.000000
125		-128.906250
126		-117.187500
127		-121.093750
128		-113.281250
129		-117.187500
130		-105.468750
131		-109.375000
132		-97.656250
133		-101.562500
134		-93.750000
135		-97.656250
136		-85.937500
137		-85.937500
138		-78.125000
139		-82.031250
140		-70.312500
141		-74.218750
142		-62.500000
143		-70.312500
144		-54.687500
145		-62.500000
146		-46.875000
147		-54.687500
148		-39.062500
149		-46.875000
150		-31.250000
151		-39.062500
152		-27.343750
153		-31.250000
154		-19.531250
155		-23.437500
156		-11.718750
157		-15.625000
158		-3.906250
159		-7.812500
160		3.906250
161		0.000000
162		11.718750
163		3.906250
164		19.531250
165		11.718750
166		23.437500
167		19.531250
168		35.156250
169		27.343750
170		39.062500
171		35.156250
172		46.875000
173		42.968750
174		50.781250
175		50.781250
176		62.500000
177		54.687500
178		66.406250
179		62.500000
180		74.218750
181		70.312500
182		82.031250
183		74.218750
184		89.843750
185		82.031250
186		93.750000
187		89.843750
188		97.656250
189		97.656250
190		105.468750
191		101.562500
192		113.281250
193		105.468750
194		117.187500
195		113.281250
196		125.000000
197		121.093750
198		128.906250
199		125.000000
200		136.718750
201		128.906250
202		140.625000
203		136.718750
204		144.531250
205		140.625000
206		148.437500
207		148.437500
208		156.250000
209		148.437500
210		160.156250
211		156.250000
212		164.062500
213		160.156250
214		167.968750
215		164.062500
216		171.875000
217		167.968750
218		175.781250
219		171.875000
220		179.687500
221		175.781250
222		183.593750
223		179.687500
224		187.500000
225		183.593750
226		191.406250
227		187.500000
228		195.312500
229		187.500000
230		199.218750
231		191.406250
232		199.218750
233		195.312500
234		203.125000
235		199.218750
236		207.031250
237		199.218750
238		207.031250
239		203.125000
240		207.031250
241		207.031250
242		210.937500
243		207.031250
244		214.843750
245		207.031250
246		214.843750
247		210.937500
248		218.750000
249		210.937500
250		218.750000
251		214.843750
252		222.656250
253		214.843750
254		222.656250
255		218.750000
256		218.750000
257		218.750000
258		222.656250
259		218.750000
260		222.656250
261		218.750000
262		226.562500
263		218.750000
264		226.562500
265		218.750000
266		226.562500
267		218.750000
268		226.562500
269		218.750000
270		226.562500
271		218.750000
272		222.656250
273		222.656250
274		222.656250
275		218.750000
276		226.562500
277		218.750000
278		226.562500
279		218.750000
280		226.562500
281		214.843750
282		222.656250
283		214.843750
284		222.656250
285		214.843750
286		222.656250
287		214.843750
288		218.750000
289		214.843750
290		218.750000
291		210.937500
292		218.750000
293		207.031250
294		218.750000
295		207.031250
296		214.843750
297		207.031250
298		214.843750
299		203.125000
300		210.937500
301		199.218750
302		210.937500
303		199.218750
304		207.031250
305		199.218750
306		203.125000
307		195.312500
308		199.218750
309		191.406250
310		199.218750
311		187.500000
312		195.312500
313		183.593750
314		191.406250
315		179.687500
316		187.500000
317		175.781250
318		187.500000
319		171.875000
320		183.593750
321		171.875000
322		175.781250
323		167.968750
324		171.875000
325		160.156250
326		167.968750
327		156.250000
328		164.062500
329		152.343750
330		160.156250
331		144.531250
332		156.250000
333		140.625000
334		152.343750
335		136.718750
336		144.531250
337		132.812500
338		140.625000
339		125.000000
340		132.812500
341		121.093750
342		128.906250
343		113.281250
344		125.000000
345		105.468750
346		117.187500
347		101.562500
348		109.375000
349		93.750000
350		105.468750
351		89.843750
352		97.656250
353		82.031250
354		93.750000
355		78.125000
356		85.937500
357		70.312500
358		78.125000
359		62.500000
360		70.312500
361		54.687500
362		66.406250
363		46.875000
364		58.593750
365		39.062500
366		50.781250
367		35.156250
368		42.968750
369		27.343750
370		39.062500
371		19.531250
372		31.250000
373		11.718750
374		23.437500
375		3.906250
376		15.625000
377		-3.906250
378		7.812500
379		-7.812500
380		3.906250
381		-19.531250
382		-7.812500
383		-27.343750
384		-11.718750
385		-31.250000
386		-19.531250
387		-39.062500
388		-27.343750
389		-46.875000
390		-35.156250
391		-54.687500
392		-42.968750
393		-62.500000
394		-50.781250
395		-70.312500
396		-58.593750
397		-74.218750
398		-62.500000
399		-82.031250
400		-70.312500
401		-89.843750
402		-78.125000
403		-97.656250
404		-85.937500
405		-101.562500
406		-89.843750
407		-109.375000
408		-101.562500
409		-117.187500
410		-105.468750
411		-125.000000
412		-113.281250
413		-128.906250
414		-117.187500
415		-132.812500
416		-125.000000
417		-140.625000
418		-128.906250
419		-148.437500
420		-136.718750
421		-152.343750
422		-140.625000
423		-156.250000
424		-148.437500
425		-164.062500
426		-156.250000
427		-167.968750
428		-160.156250
429		-175.781250
430		-164.062500
431		-179.687500
432		-167.968750
433		-183.593750
434		-171.875000
435		-187.500000
436		-175.781250
437		-191.406250
438		-183.593750
439		-191.406250
440		-187.500000
441		-199.218750
442		-191.406250
443		-203.125000
444		-195.312500
445		-207.031250
446		-199.218750
447		-210.937500
448		-199.218750
449		-210.937500
450		-203.125000
451		-214.843750
452		-207.031250
453		-218.750000
454		-210.937500
455		-218.750000
456		-210.937500
457		-218.750000
458		-214.843750
459		-222.656250
460		-214.843750
461		-226.562500
462		-218.750000
463		-226.562500
464		-218.750000
465		-226.562500
466		-218.750000
467		-226.562500
468		-218.750000
469		-226.562500
470		-218.750000
471		-226.562500
472		-222.656250
473		-226.562500
474		-222.656250
475		-226.562500
476		-222.656250
477		-226.562500
478		-218.750000
479		-226.562500
480		-218.750000
481		-226.562500
482		-218.750000
483		-222.656250
484		-214.843750
485		-222.656250
486		-214.843750
487		-218.750000
488		-210.937500
489		-218.750000
490		-210.937500
491		-214.843750
492		-210.937500
493		-214.843750
494		-207.031250
495		-210.937500
496		-203.125000
497		-207.031250
498		-199.218750
499		-207.031250
500		-195.312500
501		-203.125000
502		-191.406250
503		-199.218750
504		-187.500000
505		-195.312500
506		-187.500000
507		-187.500000
508		-183.593750
509		-183.593750
510		-175.781250
511		-179.687500
512		-171.875000
513		-175.781250
514		-167.968750
515		-171.875000
516		-160.156250
517		-164.062500
518		-156.250000
519		-160.156250
520		-148.437500
521		-152.343750
522		-144.531250
523		-148.437500
524		-136.718750
525		-140.625000
526		-132.812500
527		-136.718750
528		-125.000000
529		-128.906250
530		-117.187500
531		-125.000000
532		-113.281250
533		-117.187500
534		-105.468750
535		-109.375000
536		-97.656250
537		-101.562500
538		-93.750000
539		-97.656250
540		-85.937500
541		-89.843750
542		-78.125000
543		-82.031250
544		-70.312500
545		-74.218750
546		-62.500000
547		-66.406250
548		-54.687500
549		-58.593750
550		-46.875000
551		-50.781250
552		-42.968750
553		-46.875000
554		-31.250000
555		-39.062500
556		-27.343750
557		-27.343750
558		-19.531250
559		-23.437500
560		-11.718750
561		-15.625000
562		-3.906250
563		-7.812500
564		3.906250
565		0.000000
566		11.718750
567		7.812500
568		19.531250
569		15.625000
570		27.343750
571		19.531250
572		31.250000
573		27.343750
574		39.062500
575		39.062500
576		46.875000
577		42.968750
578		54.687500
579		50.781250
580		62.500000
581		58.593750
582		70.312500
583		62.500000
584		74.218750
585		70.312500
586		82.031250
587		74.218750
588		89.843750
589		82.031250
590		93.750000
591		89.843750
592		97.656250
593		97.656250
594		105.468750
595		101.562500
596		113.281250
597		109.375000
598		117.187500
599		113.281250
600		125.000000
601		121.093750
602		128.906250
603		125.000000
604		136.718750
605		128.906250
606		140.625000
607		136.718750
608		144.531250
609		140.625000
610		148.437500
611		148.437500
612		156.250000
613		148.437500
614		160.156250
615		156.250000
616		164.062500
617		160.156250
618		167.968750
619		164.062500
620		171.875000
621		167.968750
622		175.781250
623		171.875000
624		179.687500
625		175.781250
626		183.593750
627		179.687500
628		187.500000
629		183.593750
630		191.406250
631		187.500000
632		195.312500
633		187.500000
634		199.218750
635		191.406250
636		199.218750
637		195.312500
638		203.125000
639		195.312500
640		207.031250
641		203.125000
642		207.031250
643		203.125000
644		207.031250
645		207.031250
646		210.937500
647		207.031250
648		214.843750
649		210.937500
650		214.843750
651		210.937500
652		218.750000
653		210.937500
654		218.750000
655		214.843750
656		218.750000
657		214.843750
658		218.750000
659		218.750000
660		222.656250
661		218.750000
662		222.656250
663		218.750000
664		222.656250
665		218.750000
666		226.562500
667		218.750000
668		226.562500
669		218.750000
670		226.562500
671		218.750000
672		226.562500
673		218.750000
674		226.562500
675		222.656250
676		222.656250
677		222.656250
678		222.656250
679		218.750000
680		226.562500
681		218.750000
682		226.562500
683		218.750000
684		222.656250
685		214.843750
686		222.656250
687		214.843750
688		222.656250
689		214.843750
690		222.656250
691		214.843750
692		222.656250
693		214.843750
694		218.750000
695		210.937500
696		218.750000
697		210.937500
698		214.843750
699		207.031250
700		214.843750
701		207.031250
702		210.937500
703		203.125000
704		210.937500
705		199.218750
706		207.031250
707		199.218750
708		207.031250
709		195.312500
710		203.125000
711		195.312500
712		199.218750
713		187.500000
714		199.218750
715		187.500000
716		195.312500
717		183.593750
718		191.406250
719		179.687500
720		187.500000
721		175.781250
722		183.593750
723		171.875000
724		183.593750
725		167.968750
726		175.781250
727		164.062500
728		171.875000
729		160.156250
730		167.968750
731		152.343750
732		164.062500
733		148.437500
734		160.156250
735		144.531250
736		156.250000
737		140.625000
738		148.437500
739		132.812500
740		144.531250
741		128.906250
742		140.625000
743		125.000000
744		132.812500
745		117.187500
746		128.906250
747		109.375000
748		121.093750
749		105.468750
750		117.187500
751		97.656250
752		109.375000
753		93.750000
754		101.562500
755		85.937500
756		97.656250
757		82.031250
758		89.843750
759		74.218750
760		82.031250
761		66.406250
762		78.125000
763		58.593750
764		70.312500
765		50.781250
766		66.406250
767		46.875000
768		58.593750
769		39.062500
770		50.781250
771		31.250000
772		42.968750
773		23.437500
774		35.156250
775		19.531250
776		27.343750
777		11.718750
778		19.531250
779		3.906250
780		11.718750
781		-3.906250
782		7.812500
783		-15.625000
784		0.000000
785		-19.531250
786		-7.812500
787		-27.343750
788		-15.625000
789		-35.156250
790		-23.437500
791		-39.062500
792		-31.250000
793		-46.875000
794		-39.062500
795		-54.687500
796		-46.875000
797		-62.500000
798		-50.781250
799		-70.312500
800		-58.593750
801		-78.125000
802		-66.406250
803		-85.937500
804		-74.218750
805		-89.843750
806		-82.031250
807		-97.656250
808		-85.937500
809		-105.468750
810		-93.750000
811		-109.375000
812		-101.562500
813		-117.187500
814		-109.375000
815		-125.000000
816		-113.281250
817		-128.906250
818		-121.093750
819		-136.718750
820		-125.000000
821		-144.531250
822		-132.812500
823		-148.437500
824		-136.718750
825		-152.343750
826		-144.531250
827		-160.156250
828		-152.343750
829		-167.968750
830		-156.250000
831		-167.968750
832		-160.156250
833		-175.781250
834		-164.062500
835		-179.687500
836		-171.875000
837		-183.593750
838		-175.781250
839		-187.500000
840		-179.687500
841		-191.406250
842		-183.593750
843		-195.312500
844		-191.406250
845		-199.218750
846		-191.406250
847		-207.031250
848		-195.312500
849		-207.031250
850		-199.218750
851		-210.937500
852		-203.125000
853		-214.843750
854		-207.031250
855		-214.843750
856		-207.031250
857		-218.750000
858		-210.937500
859		-218.750000
860		-214.843750
861		-218.750000
862		-214.843750
863		-222.656250
864		-218.750000
865		-226.562500
866		-218.750000
867		-226.562500
868		-218.750000
869		-226.562500
870		-218.750000
871		-230.468750
872		-218.750000
873		-226.562500
874		-222.656250
875		-230.468750
876		-222.656250
877		-226.562500
878		-222.656250
879		-226.562500
880		-222.656250
881		-226.562500
882		-218.750000
883		-226.562500
884		-218.750000
885		-226.562500
886		-218.750000
887		-222.656250
888		-218.750000
889		-222.656250
890		-214.843750
891		-218.750000
892		-214.843750
893		-218.750000
894		-210.937500
895		-214.843750
896		-210.937500
897		-214.843750
898		-207.031250
899		-210.937500
900		-203.125000
901		-207.031250
902		-199.218750
903		-203.125000
904		-195.312500
905		-199.218750
906		-191.406250
907		-195.312500
908		-187.500000
909		-191.406250
910		-183.593750
911		-187.500000
912		-179.687500
913		-183.593750
914		-171.875000
915		-179.687500
916		-167.968750
917		-171.875000
918		-164.062500
919		-171.875000
920		-160.156250
921		-164.062500
922		-152.343750
923		-156.250000
924		-148.437500
925		-152.343750
926		-144.531250
927		-144.531250
928		-136.718750
929		-140.625000
930		-132.812500
931		-132.812500
932		-125.000000
933		-128.906250
934		-117.187500
935		-121.093750
936		-109.375000
937		-113.281250
938		-105.468750
939		-109.375000
940		-97.656250
941		-101.562500
942		-89.843750
943		-93.750000
944		-85.937500
945		-85.937500
946		-78.125000
947		-78.125000
948		-66.406250
949		-74.218750
950		-62.500000
951		-66.406250
952		-54.687500
953		-58.593750
954		-46.875000
955		-50.781250
956		-39.062500
957		-42.968750
958		-31.250000
959		-35.156250
960		-27.343750
961		-27.343750
962		-19.531250
963		-19.531250
964		-11.718750
965		-11.718750
966		0.000000
967		-7.812500
968		7.812500
969		0.000000
970		11.718750
971		7.812500
972		19.531250
973		15.625000
974		27.343750
975		23.437500
976		35.156250
977		31.250000
978		39.062500
979		39.062500
980		46.875000
981		46.875000
982		54.687500
983		50.781250
984		62.500000
985		58.593750
986		70.312500
987		66.406250
988		78.125000
989		70.312500
990		82.031250
991		78.125000
992		89.843750
993		85.937500
994		93.750000
995		89.843750
996		101.562500
997		97.656250
998		105.468750
999		105.468750
1000		113.281250
1001		109.375000
1002		121.093750
1003		117.187500
1004		125.000000
1005		121.093750
1006		132.812500
1007		125.000000
1008		136.718750
1009		132.812500
1010		140.625000
1011		136.718750
1012		144.531250
1013		144.531250
1014		152.343750
1015		148.437500
1016		156.250000
1017		152.343750
1018		160.156250
1019		156.250000
1020		164.062500
1021		160.156250
1022		167.968750
1023		164.062500
1024		171.875000
1025		167.968750
1026		179.687500
1027		171.875000
1028		179.687500
1029		179.687500
1030		183.593750
1031		183.593750
1032		187.500000
1033		183.593750
1034		191.406250
1035		187.500000
1036		195.312500
1037		191.406250
1038		199.218750
1039		191.406250
1040		199.218750
1041		195.312500
1042		203.125000
1043		199.218750
1044		207.031250
1045		203.125000
1046		207.031250
1047		203.125000
1048		210.937500
1049		207.031250
1050		210.937500
1051		207.031250
1052		214.843750
1053		207.031250
1054		214.843750
1055		210.937500
1056		218.750000
1057		210.937500
1058		218.750000
1059		214.843750
1060		218.750000
1061		214.843750
1062		222.656250
1063		218.750000
1064		218.750000
1065		218.750000
1066		222.656250
1067		218.750000
1068		222.656250
1069		218.750000
1070		226.562500
1071		218.750000
1072		226.562500
1073		218.750000
1074		226.562500
1075		218.750000
1076		226.562500
1077		218.750000
1078		226.562500
1079		222.656250
1080		222.656250
1081		218.750000
1082		226.562500
1083		218.750000
1084		226.562500
1085		218.750000
1086		226.562500
1087		218.750000
1088		222.656250
1089		214.843750
1090		222.656250
1091		214.843750
1092		222.656250
1093		214.843750
1094		222.656250
1095		214.843750
1096		218.750000
1097		214.843750
1098		218.750000
1099		210.937500
1100		218.750000
1101		210.937500
1102		214.843750
1103		207.031250
1104		214.843750
1105		203.125000
1106		210.937500
1107		203.125000
1108		210.937500
1109		203.125000
1110		210.937500
1111		199.218750
1112		207.031250
1113		199.218750
1114		203.125000
1115		191.406250
1116		199.218750
1117		191.406250
1118		199.218750
1119		187.500000
1120		195.312500
1121		183.593750
1122		191.406250
1123		179.687500
1124		187.500000
1125		175.781250
1126		183.593750
1127		171.875000
1128		183.593750
1129		167.968750
1130		175.781250
1131		164.062500
1132		171.875000
1133		160.156250
1134		167.968750
1135		156.250000
1136		164.062500
1137		148.437500
1138		160.156250
1139		144.531250
1140		152.343750
1141		140.625000
1142		148.437500
1143		136.718750
1144		144.531250
1145		128.906250
1146		140.625000
1147		125.000000
1148		132.812500
1149		117.187500
1150		128.906250
1151		113.281250
1152		121.093750
1153		105.468750
1154		117.187500
1155		101.562500
1156		109.375000
1157		93.750000
1158		105.468750
1159		85.937500
1160		97.656250
1161		82.031250
1162		89.843750
1163		74.218750
1164		82.031250
1165		66.406250
1166		78.125000
1167		62.500000
1168		70.312500
1169		54.687500
1170		66.406250
1171		46.875000
1172		58.593750
1173		39.062500
1174		50.781250
1175		31.250000
1176		42.968750
1177		23.437500
1178		35.156250
1179		19.531250
1180		27.343750
1181		11.718750
1182		19.531250
1183		3.906250
1184		11.718750
1185		-3.906250
1186		7.812500
1187		-11.718750
1188		0.000000
1189		-19.531250
1190		-7.812500
1191		-27.343750
1192		-15.625000
1193		-35.156250
1194		-23.437500
1195		-39.062500
1196		-31.250000
1197		-46.875000
1198		-39.062500
1199		-54.687500
1200		-46.875000
1201		-62.500000
1202		-50.781250
1203		-70.312500
1204		-58.593750
1205		-78.125000
1206		-66.406250
1207		-85.937500
1208		-74.218750
1209		-93.750000
1210		-78.125000
1211		-97.656250
1212		-85.937500
1213		-105.468750
1214		-93.750000
1215		-109.375000
1216		-101.562500
1217		-117.187500
1218		-105.468750
1219		-125.000000
1220		-113.281250
1221		-128.906250
1222		-121.093750
1223		-136.718750
1224		-125.000000
1225		-144.531250
1226		-132.812500
1227		-148.437500
1228		-136.718750
1229		-152.343750
1230		-144.531250
1231		-160.156250
1232		-152.343750
1233		-164.062500
1234		-156.250000
1235		-171.875000
1236		-160.156250
1237		-175.781250
1238		-164.062500
1239		-179.687500
1240		-167.968750
1241		-183.593750
1242		-175.781250
1243		-191.406250
1244		-179.687500
1245		-191.406250
1246		-183.593750
1247		-195.312500
1248		-187.500000
1249		-199.218750
1250		-191.406250
1251		-203.125000
1252		-195.312500
1253		-207.031250
1254		-199.218750
1255		-210.937500
1256		-203.125000
1257		-210.937500
1258		-203.125000
1259		-214.843750
1260		-207.031250
1261		-218.750000
1262		-210.937500
1263		-218.750000
1264		-214.843750
1265		-218.750000
1266		-214.843750
1267		-222.656250
1268		-214.843750
1269		-222.656250
1270		-214.843750
1271		-226.562500
1272		-218.750000
1273		-226.562500
1274		-218.750000
1275		-226.562500
1276		-218.750000
1277		-226.562500
1278		-222.656250
1279		-226.562500
1280		-222.656250
1281		-226.562500
1282		-222.656250
1283		-226.562500
1284		-218.750000
1285		-226.562500
1286		-218.750000
1287		-226.562500
1288		-218.750000
1289		-226.562500
1290		-218.750000
1291		-222.656250
1292		-214.843750
1293		-222.656250
1294		-214.843750
1295		-218.750000
1296		-214.843750
1297		-214.843750
1298		-210.937500
1299		-214.843750
1300		-210.937500
1301		-210.937500
1302		-203.125000
1303		-210.937500
1304		-203.125000
1305		-207.031250
1306		-199.218750
1307		-203.125000
1308		-195.312500
1309		-199.218750
1310		-191.406250
1311		-195.312500
1312		-187.500000
1313		-191.406250
1314		-183.593750
1315		-187.500000
1316		-179.687500
1317		-183.593750
1318		-171.875000
1319		-179.687500
1320		-167.968750
1321		-171.875000
1322		-164.062500
1323		-167.968750
1324		-156.250000
1325		-164.062500
1326		-152.343750
1327		-156.250000
1328		-148.437500
1329		-152.343750
1330		-140.625000
1331		-144.531250
1332		-136.718750
1333		-136.718750
1334		-128.906250
1335		-132.812500
1336		-121.093750
1337		-125.000000
1338		-117.187500
1339		-121.093750
1340		-109.375000
1341		-113.281250
1342		-101.562500
1343		-109.375000
1344		-97.656250
1345		-101.562500
1346		-89.843750
1347		-93.750000
1348		-82.031250
1349		-85.937500
1350		-78.125000
1351		-78.125000
1352		-66.406250
1353		-74.218750
1354		-58.593750
1355		-62.500000
1356		-54.687500
1357		-58.593750
1358		-46.875000
1359		-50.781250
1360		-39.062500
1361		-42.968750
1362		-31.250000
1363		-35.156250
1364		-23.437500
1365		-27.343750
1366		-15.625000
1367		-19.531250
1368		-7.812500
1369		-11.718750
1370		0.000000
1371		-3.906250
1372		3.906250
1373		0.000000
1374		15.625000
1375		7.812500
1376		19.531250
1377		15.625000
1378		31.250000
1379		23.437500
1380		35.156250
1381		31.250000
1382		42.968750
1383		39.062500
1384		46.875000
1385		46.875000
1386		58.593750
1387		50.781250
1388		62.500000
1389		58.593750
1390		70.312500
1391		66.406250
1392		78.125000
1393		70.312500
1394		82.031250
1395		78.125000
1396		89.843750
1397		85.937500
1398		93.750000
1399		93.750000
1400		101.562500
1401		97.656250
1402		109.375000
1403		101.562500
1404		113.281250
1405		109.375000
1406		121.093750
1407		117.187500
1408		125.000000
1409		121.093750
1410		132.812500
1411		125.000000
1412		136.718750
1413		132.812500
1414		140.625000
1415		140.625000
1416		144.531250
1417		144.531250
1418		152.343750
1419		148.437500
1420		156.250000
1421		152.343750
1422		160.156250
1423		156.250000
1424		164.062500
1425		160.156250
1426		171.875000
1427		164.062500
1428		175.781250
1429		167.968750
1430		179.687500
1431		175.781250
1432		179.687500
1433		179.687500
1434		183.593750
1435		183.593750
1436		187.500000
1437		183.593750
1438		191.406250
1439		187.500000
1440		195.312500
1441		191.406250
1442		199.218750
1443		195.312500
1444		199.218750
1445		195.312500
1446		203.125000
1447		199.218750
1448		207.031250
1449		203.125000
1450		207.031250
1451		207.031250
1452		210.937500
1453		207.031250
1454		210.937500
1455		207.031250
1456		214.843750
1457		210.937500
1458		218.750000
1459		210.937500
1460		218.750000
1461		210.937500
1462		218.750000
1463		214.843750
1464		222.656250
1465		214.843750
1466		218.750000
1467		218.750000
1468		222.656250
1469		218.750000
1470		222.656250
1471		218.750000
1472		226.562500
1473		218.750000
1474		226.562500
1475		218.750000
1476		226.562500
1477		218.750000
1478		226.562500
1479		218.750000
1480		226.562500
1481		222.656250
1482		226.562500
1483		222.656250
1484		222.656250
1485		218.750000
1486		226.562500
1487		218.750000
1488		226.562500
1489		218.750000
1490		226.562500
1491		218.750000
1492		226.562500
1493		218.750000
1494		222.656250
1495		214.843750
1496		222.656250
1497		214.843750
1498		222.656250
1499		214.843750
1500		218.750000
1501		214.843750
1502		218.750000
1503		210.937500
1504		218.750000
1505		210.937500
1506		214.843750
1507		207.031250
1508		214.843750
1509		203.125000
1510		214.843750
1511		203.125000
1512		210.937500
1513		199.218750
1514		207.031250
1515		199.218750
1516		203.125000
1517		199.218750
1518		203.125000
1519		191.406250
1520		199.218750
1521		191.406250
1522		199.218750
1523		187.500000
1524		195.312500
1525		183.593750
1526		191.406250
1527		179.687500
1528		187.500000
1529		175.781250
1530		183.593750
1531		175.781250
1532		179.687500
1533		167.968750
1534		175.781250
1535		164.062500
1536		171.875000
1537		160.156250
1538		167.968750
1539		156.250000
1540		164.062500
1541		152.343750
1542		160.156250
1543		144.531250
1544		156.250000
1545		140.625000
1546		148.437500
1547		136.718750
1548		144.531250
1549		128.906250
1550		136.718750
1551		125.000000
1552		132.812500
1553		117.187500
1554		128.906250
1555		113.281250
1556		125.000000
1557		105.468750
1558		117.187500
1559		97.656250
1560		109.375000
1561		93.750000
1562		105.468750
1563		85.937500
1564		97.656250
1565		82.031250
1566		89.843750
1567		74.218750
1568		82.031250
1569		66.406250
1570		78.125000
1571		62.500000
1572		74.218750
1573		54.687500
1574		62.500000
1575		46.875000
1576		58.593750
1577		39.062500
1578		50.781250
1579		31.250000
1580		42.968750
1581		27.343750
1582		35.156250
1583		19.531250
1584		27.343750
1585		11.718750
1586		19.531250
1587		3.906250
1588		11.718750
1589		-7.812500
1590		7.812500
1591		-11.718750
1592		0.000000
1593		-19.531250
1594		-7.812500
1595		-27.343750
1596		-15.625000
1597		-35.156250
1598		-23.437500
1599		-39.062500
1600		-31.250000
1601		-46.875000
1602		-39.062500
1603		-58.593750
1604		-46.875000
1605		-62.500000
1606		-50.781250
1607		-70.312500
1608		-58.593750
1609		-78.125000
1610		-66.406250
1611		-85.937500
1612		-74.218750
1613		-89.843750
1614		-78.125000
1615		-97.656250
1616		-89.843750
1617		-105.468750
1618		-93.750000
1619		-113.281250
1620		-101.562500
1621		-117.187500
1622		-105.468750
1623		-125.000000
1624		-113.281250
1625		-128.906250
1626		-121.093750
1627		-136.718750
1628		-125.000000
1629		-144.531250
1630		-132.812500
1631		-148.437500
1632		-136.718750
1633		-152.343750
1634		-144.531250
1635		-160.156250
1636		-152.343750
1637		-164.062500
1638		-156.250000
1639		-171.875000
1640		-160.156250
1641		-175.781250
1642		-164.062500
1643		-179.687500
1644		-171.875000
1645		-183.593750
1646		-175.781250
1647		-187.500000
1648		-179.687500
1649		-191.406250
1650		-183.593750
1651		-195.312500
1652		-187.500000
1653		-199.218750
1654		-191.406250
1655		-203.125000
1656		-195.312500
1657		-207.031250
1658		-199.218750
1659		-210.937500
1660		-203.125000
1661		-214.843750
1662		-207.031250
1663		-214.843750
1664		-207.031250
1665		-218.750000
1666		-210.937500
1667		-218.750000
1668		-214.843750
1669		-218.750000
1670		-214.843750
1671		-222.656250
1672		-214.843750
1673		-226.562500
1674		-218.750000
1675		-226.562500
1676		-218.750000
1677		-226.562500
1678		-218.750000
1679		-226.562500
1680		-218.750000
1681		-226.562500
1682		-222.656250
1683		-226.562500
1684		-222.656250
1685		-226.562500
1686		-222.656250
1687		-226.562500
1688		-218.750000
1689		-226.562500
1690		-218.750000
1691		-226.562500
1692		-218.750000
1693		-226.562500
1694		-218.750000
1695		-222.656250
1696		-214.843750
1697		-222.656250
1698		-214.843750
1699		-222.656250
1700		-210.937500
1701		-214.843750
1702		-210.937500
1703		-214.843750
1704		-207.031250
1705		-210.937500
1706		-203.125000
1707		-210.937500
1708		-203.125000
1709		-207.031250
1710		-199.218750
1711		-203.125000
1712		-195.312500
1713		-199.218750
1714		-191.406250
1715		-195.312500
1716		-187.500000
1717		-191.406250
1718		-183.593750
1719		-187.500000
1720		-179.687500
1721		-179.687500
1722		-171.875000
1723		-179.687500
1724		-167.968750
1725		-171.875000
1726		-164.062500
1727		-167.968750
1728		-156.250000
1729		-164.062500
1730		-152.343750
1731		-156.250000
1732		-148.437500
1733		-152.343750
1734		-144.531250
1735		-144.531250
1736		-136.718750
1737		-136.718750
1738		-128.906250
1739		-132.812500
1740		-121.093750
1741		-128.906250
1742		-113.281250
1743		-121.093750
1744		-109.375000
1745		-113.281250
1746		-101.562500
1747		-105.468750
1748		-93.750000
1749		-101.562500
1750		-89.843750
1751		-89.843750
1752		-82.031250
1753		-85.937500
1754		-74.218750
1755		-78.125000
1756		-66.406250
1757		-70.312500
1758		-58.593750
1759		-62.500000
1760		-50.781250
1761		-58.593750
1762		-42.968750
1763		-46.875000
1764		-35.156250
1765		-42.968750
1766		-31.250000
1767		-35.156250
1768		-23.437500
1769		-27.343750
1770		-15.625000
1771		-19.531250
1772		-7.812500
1773		-11.718750
1774		0.000000
1775		-3.906250
1776		7.812500
1777		3.906250
1778		15.625000
1779		7.812500
1780		23.437500
1781		19.531250
1782		31.250000
1783		23.437500
1784		35.156250
1785		35.156250
1786		42.968750
1787		39.062500
1788		50.781250
1789		46.875000
1790		58.593750
1791		50.781250
1792		62.500000
1793		58.593750
1794		70.312500
1795		66.406250
1796		78.125000
1797		74.218750
1798		82.031250
1799		78.125000
1800		89.843750
1801		85.937500
1802		93.750000
1803		93.750000
1804		101.562500
1805		101.562500
1806		109.375000
1807		105.468750
1808		113.281250
1809		113.281250
1810		121.093750
1811		117.187500
1812		125.000000
1813		125.000000
1814		132.812500
1815		128.906250
1816		136.718750
1817		132.812500
1818		140.625000
1819		140.625000
1820		148.437500
1821		144.531250
1822		152.343750
1823		148.437500
1824		156.250000
1825		152.343750
1826		164.062500
1827		156.250000
1828		167.968750
1829		160.156250
1830		171.875000
1831		167.968750
1832		175.781250
1833		171.875000
1834		179.687500
1835		175.781250
1836		179.687500
1837		179.687500
1838		183.593750
1839		179.687500
1840		191.406250
1841		183.593750
1842		195.312500
1843		187.500000
1844		195.312500
1845		191.406250
1846		199.218750
1847		195.312500
1848		203.125000
1849		195.312500
1850		203.125000
1851		199.218750
1852		207.031250
1853		203.125000
1854		207.031250
1855		203.125000
1856		210.937500
1857		207.031250
1858		214.843750
1859		207.031250
1860		214.843750
1861		207.031250
1862		218.750000
1863		210.937500
1864		218.750000
1865		214.843750
1866		218.750000
1867		214.843750
1868		218.750000
1869		218.750000
1870		218.750000
1871		218.750000
1872		222.656250
1873		218.750000
1874		222.656250
1875		218.750000
1876		226.562500
1877		218.750000
1878		226.562500
1879		218.750000
1880		226.562500
1881		218.750000
1882		226.562500
1883		218.750000
1884		226.562500
1885		222.656250
1886		222.656250
1887		222.656250
1888		226.562500
1889		218.750000
1890		226.562500
1891		218.750000
1892		226.562500
1893		218.750000
1894		226.562500
1895		218.750000
1896		222.656250
1897		214.843750
1898		222.656250
1899		214.843750
1900		222.656250
1901		214.843750
1902		222.656250
1903		214.843750
1904		218.750000
1905		210.937500
1906		218.750000
1907		210.937500
1908		218.750000
1909		207.031250
1910		214.843750
1911		207.031250
1912		214.843750
1913		207.031250
1914		210.937500
1915		203.125000
1916		210.937500
1917		203.125000
1918		207.031250
1919		199.218750
1920		203.125000
1921		195.312500
1922		203.125000
1923		183.593750
1924		210.937500
1925		191.406250
1926		199.218750
1927		183.593750
1928		195.312500
1929		183.593750
1930		191.406250
1931		179.687500
1932		187.500000
1933		175.781250
1934		183.593750
1935		171.875000
1936		179.687500
1937		167.968750
1938		175.781250
1939		164.062500
1940		171.875000
1941		156.250000
1942		167.968750
1943		152.343750
1944		164.062500
1945		148.437500
1946		160.156250
1947		144.531250
1948		152.343750
1949		136.718750
1950		148.437500
1951		136.718750
1952		144.531250
1953		128.906250
1954		136.718750
1955		125.000000
1956		132.812500
1957		117.187500
1958		128.906250
1959		109.375000
1960		121.093750
1961		105.468750
1962		113.281250
1963		97.656250
1964		109.375000
1965		89.843750
1966		105.468750
1967		85.937500
1968		97.656250
1969		78.125000
1970		89.843750
1971		74.218750
1972		82.031250
1973		66.406250
1974		74.218750
1975		58.593750
1976		70.312500
1977		50.781250
1978		62.500000
1979		42.968750
1980		54.687500
1981		39.062500
1982		46.875000
1983		31.250000
1984		42.968750
1985		23.437500
1986		35.156250
1987		15.625000
1988		27.343750
1989		7.812500
1990		19.531250
1991		0.000000
1992		11.718750
1993		-7.812500
1994		3.906250
1995		-15.625000
1996		0.000000
1997		-19.531250
1998		-7.812500
1999		-27.343750
2000		-15.625000
2001		-35.156250
2002		-23.437500
2003		-42.968750
2004		-31.250000
2005		-50.781250
2006		-39.062500
2007		-58.593750
2008		-46.875000
2009		-66.406250
2010		-54.687500
2011		-74.218750
2012		-62.500000
2013		-78.125000
2014		-66.406250
2015		-85.937500
2016		-74.218750
2017		-93.750000
2018		-82.031250
2019		-97.656250
2020		-89.843750
2021		-105.468750
2022		-97.656250
2023		-113.281250
2024		-105.468750
2025		-121.093750
2026		-109.375000
2027		-125.000000
2028		-113.281250
2029		-132.812500
2030		-121.093750
2031		-136.718750
2032		-128.906250
2033		-144.531250
2034		-132.812500
2035		-148.437500
2036		-140.625000
2037		-152.343750
2038		-148.437500
2039		-160.156250
2040		-152.343750
2041		-164.062500
2042		-156.250000
2043		-171.875000
2044		-160.156250
2045		-175.781250
2046		-167.968750
2047		-179.687500
2048		-171.875000
2049		-187.500000
2050		-175.781250
2051		-187.500000
2052		-179.687500
2053		-191.406250
2054		-187.500000
2055		-195.312500
2056		-191.406250
2057		-203.125000
2058		-195.312500
2059		-203.125000
2060		-195.312500
2061		-207.031250
2062		-199.218750
2063		-210.937500
2064		-203.125000
2065		-214.843750
2066		-207.031250
2067		-218.750000
2068		-207.031250
2069		-218.750000
2070		-210.937500
2071		-218.750000
2072		-214.843750
2073		-222.656250
2074		-218.750000
2075		-222.656250
2076		-218.750000
2077		-226.562500
2078		-218.750000
2079		-226.562500
2080		-218.750000
2081		-226.562500
2082		-218.750000
2083		-226.562500
2084		-222.656250
2085		-226.562500
2086		-222.656250
2087		-226.562500
2088		-222.656250
2089		-226.562500
2090		-222.656250
2091		-226.562500
2092		-222.656250
2093		-226.562500
2094		-218.750000
2095		-226.562500
2096		-218.750000
2097		-226.562500
2098		-218.750000
2099		-222.656250
2100		-214.843750
2101		-222.656250
2102		-214.843750
2103		-218.750000
2104		-214.843750
2105		-214.843750
2106		-210.937500
2107		-214.843750
2108		-207.031250
2109		-210.937500
2110		-203.125000
2111		-210.937500
2112		-199.218750
2113		-207.031250
2114		-199.218750
2115		-203.125000
2116		-195.312500
2117		-199.218750
2118		-191.406250
2119		-195.312500
2120		-187.500000
2121		-191.406250
2122		-183.593750
2123		-187.500000
2124		-179.687500
2125		-183.593750
2126		-171.875000
2127		-175.781250
2128		-167.968750
2129		-171.875000
2130		-164.062500
2131		-167.968750
2132		-156.250000
2133		-160.156250
2134		-152.343750
2135		-156.250000
2136		-144.531250
2137		-148.437500
2138		-140.625000
2139		-144.531250
2140		-136.718750
2141		-136.718750
2142		-128.906250
2143		-132.812500
2144		-121.093750
2145		-125.000000
2146		-117.187500
2147		-121.093750
2148		-109.375000
2149		-113.281250
2150		-101.562500
2151		-105.468750
2152		-93.750000
2153		-97.656250
2154		-89.843750
2155		-89.843750
2156		-82.031250
2157		-82.031250
2158		-70.312500
2159		-78.125000
2160		-66.406250
2161		-70.312500
2162		-58.593750
2163		-62.500000
2164		-50.781250
2165		-54.687500
2166		-42.968750
2167		-50.781250
2168		-35.156250
2169		-39.062500
2170		-31.250000
2171		-31.250000
2172		-23.437500
2173		-23.437500
2174		-15.625000
2175		-15.625000
2176		-7.812500
2177		-11.718750
2178		3.906250
2179		-3.906250
2180		7.812500
2181		3.906250
2182		15.625000
2183		11.718750
2184		23.437500
2185		19.531250
2186		31.250000
2187		27.343750
2188		35.156250
2189		35.156250
2190		42.968750
2191		42.968750
2192		50.781250
2193		46.875000
2194		58.593750
2195		54.687500
2196		66.406250
2197		58.593750
2198		74.218750
2199		66.406250
2200		78.125000
2201		74.218750
2202		85.937500
2203		78.125000
2204		89.843750
2205		89.843750
2206		97.656250
2207		93.750000
2208		101.562500
2209		101.562500
2210		109.375000
2211		105.468750
2212		117.187500
2213		109.375000
2214		121.093750
2215		117.187500
2216		128.906250
2217		121.093750
2218		132.812500
2219		128.906250
2220		136.718750
2221		132.812500
2222		140.625000
2223		140.625000
2224		148.437500
2225		144.531250
2226		152.343750
2227		148.437500
2228		160.156250
2229		152.343750
2230		164.062500
2231		156.250000
2232		167.968750
2233		164.062500
2234		171.875000
2235		164.062500
2236		175.781250
2237		171.875000
2238		175.781250
2239		175.781250
2240		179.687500
2241		179.687500
2242		187.500000
2243		179.687500
2244		191.406250
2245		183.593750
2246		191.406250
2247		187.500000
2248		195.312500
2249		191.406250
2250		199.218750
2251		195.312500
2252		203.125000
2253		195.312500
2254		203.125000
2255		199.218750
2256		207.031250
2257		203.125000
2258		207.031250
2259		203.125000
2260		210.937500
2261		203.125000
2262		214.843750
2263		207.031250
2264		214.843750
2265		210.937500
2266		218.750000
2267		210.937500
2268		218.750000
2269		210.937500
2270		218.750000
2271		214.843750
2272		218.750000
2273		214.843750
2274		222.656250
2275		218.750000
2276		222.656250
2277		218.750000
2278		222.656250
2279		218.750000
2280		222.656250
2281		218.750000
2282		226.562500
2283		218.750000
2284		226.562500
2285		218.750000
2286		226.562500
2287		218.750000
2288		226.562500
2289		222.656250
2290		222.656250
2291		222.656250
2292		222.656250
2293		218.750000
2294		226.562500
2295		218.750000
2296		226.562500
2297		218.750000
2298		226.562500
2299		218.750000
2300		222.656250
2301		214.843750
2302		222.656250
2303		214.843750
2304		222.656250
2305		214.843750
2306		222.656250
2307		214.843750
2308		218.750000
2309		210.937500
2310		218.750000
2311		210.937500
2312		218.750000
2313		207.031250
2314		214.843750
2315		207.031250
2316		214.843750
2317		207.031250
2318		210.937500
2319		203.125000
2320		210.937500
2321		203.125000
2322		207.031250
2323		199.218750
2324		203.125000
2325		195.312500
2326		203.125000
2327		191.406250
2328		199.218750
2329		187.500000
2330		199.218750
2331		187.500000
2332		195.312500
2333		183.593750
2334		191.406250
2335		179.687500
2336		187.500000
2337		175.781250
2338		183.593750
2339		171.875000
2340		179.687500
2341		167.968750
2342		175.781250
2343		164.062500
2344		171.875000
2345		160.156250
2346		167.968750
2347		152.343750
2348		164.062500
2349		148.437500
2350		156.250000
2351		144.531250
2352		152.343750
2353		136.718750
2354		148.437500
2355		132.812500
2356		144.531250
2357		128.906250
2358		136.718750
2359		121.093750
2360		128.906250
2361		117.187500
2362		125.000000
2363		109.375000
2364		121.093750
2365		101.562500
2366		113.281250
2367		97.656250
2368		109.375000
2369		93.750000
2370		101.562500
2371		85.937500
2372		97.656250
2373		78.125000
2374		85.937500
2375		74.218750
2376		82.031250
2377		66.406250
2378		74.218750
2379		58.593750
2380		70.312500
2381		50.781250
2382		62.500000
2383		42.968750
2384		54.687500
2385		35.156250
2386		46.875000
2387		31.250000
2388		39.062500
2389		23.437500
2390		31.250000
2391		15.625000
2392		23.437500
2393		7.812500
2394		19.531250
2395		0.000000
2396		11.718750
2397		-7.812500
2398		3.906250
2399		-15.625000
2400		-3.906250
2401		-23.437500
2402		-7.812500
2403		-31.250000
2404		-15.625000
2405		-35.156250
2406		-23.437500
2407		-42.968750
2408		-35.156250
2409		-50.781250
2410		-39.062500
2411		-58.593750
2412		-46.875000
2413		-66.406250
2414		-54.687500
2415		-70.312500
2416		-62.500000
2417		-78.125000
2418		-70.312500
2419		-85.937500
2420		-74.218750
2421		-93.750000
2422		-82.031250
2423		-97.656250
2424		-89.843750
2425		-105.468750
2426		-97.656250
2427		-113.281250
2428		-105.468750
2429		-121.093750
2430		-109.375000
2431		-128.906250
2432		-117.187500
2433		-132.812500
2434		-121.093750
2435		-140.625000
2436		-128.906250
2437		-144.531250
2438		-132.812500
2439		-148.437500
2440		-140.625000
2441		-156.250000
2442		-148.437500
2443		-164.062500
2444		-152.343750
2445		-167.968750
2446		-156.250000
2447		-171.875000
2448		-160.156250
2449		-175.781250
2450		-167.968750
2451		-183.593750
2452		-171.875000
2453		-187.500000
2454		-179.687500
2455		-187.500000
2456		-179.687500
2457		-191.406250
2458		-187.500000
2459		-195.312500
2460		-191.406250
2461		-203.125000
2462		-191.406250
2463		-207.031250
2464		-195.312500
2465		-207.031250
2466		-199.218750
2467		-210.937500
2468		-203.125000
2469		-214.843750
2470		-207.031250
2471		-214.843750
2472		-207.031250
2473		-218.750000
2474		-210.937500
2475		-218.750000
2476		-214.843750
2477		-222.656250
2478		-214.843750
2479		-222.656250
2480		-214.843750
2481		-226.562500
2482		-218.750000
2483		-226.562500
2484		-218.750000
2485		-226.562500
2486		-218.750000
2487		-226.562500
2488		-218.750000
2489		-226.562500
2490		-222.656250
2491		-226.562500
2492		-222.656250
2493		-226.562500
2494		-222.656250
2495		-226.562500
2496		-218.750000
2497		-226.562500
2498		-218.750000
2499		-226.562500
2500		-218.750000
2501		-226.562500
2502		-218.750000
2503		-222.656250
2504		-214.843750
2505		-222.656250
2506		-214.843750
2507		-218.750000
2508		-210.937500
2509		-214.843750
2510		-210.937500
2511		-214.843750
2512		-207.031250
2513		-210.937500
2514		-203.125000
2515		-210.937500
2516		-199.218750
2517		-207.031250
2518		-195.312500
2519		-203.125000
2520		-191.406250
2521		-199.218750
2522		-191.406250
2523		-195.312500
2524		-187.500000
2525		-187.500000
2526		-183.593750
2527		-183.593750
2528		-175.781250
2529		-183.593750
2530		-171.875000
2531		-175.781250
2532		-167.968750
2533		-171.875000
2534		-160.156250
2535		-167.968750
2536		-156.250000
2537		-160.156250
2538		-152.343750
2539		-156.250000
2540		-144.531250
2541		-148.437500
2542		-140.625000
2543		-140.625000
2544		-132.812500
2545		-136.718750
2546		-125.000000
2547		-132.812500
2548		-121.093750
2549		-125.000000
2550		-113.281250
2551		-117.187500
2552		-109.375000
2553		-113.281250
2554		-101.562500
2555		-105.468750
2556		-93.750000
2557		-97.656250
2558		-85.937500
2559		-89.843750
2560		-82.031250
2561		-82.031250
2562		-70.312500
2563		-78.125000
2564		-62.500000
2565		-66.406250
2566		-58.593750
2567		-62.500000
2568		-50.781250
2569		-54.687500
2570		-42.968750
2571		-46.875000
2572		-35.156250
2573		-39.062500
2574		-27.343750
2575		-31.250000
2576		-23.437500
2577		-23.437500
2578		-15.625000
2579		-15.625000
2580		-3.906250
2581		-11.718750
2582		3.906250
2583		0.000000
2584		7.812500
2585		7.812500
2586		15.625000
2587		11.718750
2588		23.437500
2589		19.531250
2590		31.250000
2591		27.343750
2592		39.062500
2593		35.156250
2594		42.968750
2595		42.968750
2596		50.781250
2597		46.875000
2598		58.593750
2599		54.687500
2600		66.406250
2601		62.500000
2602		74.218750
2603		70.312500
2604		82.031250
2605		74.218750
2606		85.937500
2607		82.031250
2608		89.843750
2609		89.843750
2610		97.656250
2611		97.656250
2612		105.468750
2613		101.562500
2614		109.375000
2615		105.468750
2616		117.187500
2617		113.281250
2618		121.093750
2619		117.187500
2620		128.906250
2621		125.000000
2622		136.718750
2623		128.906250
2624		136.718750
2625		136.718750
2626		144.531250
2627		140.625000
2628		148.437500
2629		144.531250
2630		156.250000
2631		148.437500
2632		160.156250
2633		152.343750
2634		164.062500
2635		160.156250
2636		167.968750
2637		164.062500
2638		171.875000
2639		164.062500
2640		175.781250
2641		171.875000
2642		179.687500
2643		175.781250
2644		183.593750
2645		179.687500
2646		187.500000
2647		183.593750
2648		191.406250
2649		187.500000
2650		195.312500
2651		191.406250
2652		195.312500
2653		191.406250
2654		199.218750
2655		195.312500
2656		203.125000
2657		199.218750
2658		203.125000
2659		203.125000
2660		207.031250
2661		203.125000
2662		207.031250
2663		203.125000
2664		210.937500
2665		207.031250
2666		214.843750
2667		207.031250
2668		214.843750
2669		210.937500
2670		218.750000
2671		210.937500
2672		218.750000
2673		210.937500
2674		218.750000
2675		214.843750
2676		218.750000
2677		218.750000
2678		218.750000
2679		214.843750
2680		222.656250
2681		218.750000
2682		222.656250
2683		218.750000
2684		222.656250
2685		218.750000
2686		226.562500
2687		218.750000
2688		226.562500
2689		218.750000
2690		226.562500
2691		218.750000
2692		226.562500
2693		222.656250
2694		222.656250
2695		218.750000
2696		226.562500
2697		218.750000
2698		226.562500
2699		218.750000
2700		226.562500
2701		218.750000
2702		222.656250
2703		214.843750
2704		222.656250
2705		214.843750
2706		222.656250
2707		214.843750
2708		222.656250
2709		214.843750
2710		218.750000
2711		214.843750
2712		218.750000
2713		207.031250
2714		218.750000
2715		210.937500
2716		214.843750
2717		207.031250
2718		214.843750
2719		207.031250
2720		214.843750
2721		203.125000
2722		210.937500
2723		203.125000
2724		210.937500
2725		199.218750
2726		207.031250
2727		199.218750
2728		203.125000
2729		195.312500
2730		199.218750
2731		191.406250
2732		199.218750
2733		187.500000
2734		195.312500
2735		183.593750
2736		191.406250
2737		179.687500
2738		187.500000
2739		175.781250
2740		187.500000
2741		175.781250
2742		183.593750
2743		171.875000
2744		175.781250
2745		167.968750
2746		171.875000
2747		160.156250
2748		167.968750
2749		156.250000
2750		167.968750
2751		152.343750
2752		160.156250
2753		144.531250
2754		156.250000
2755		140.625000
2756		152.343750
2757		136.718750
2758		144.531250
2759		132.812500
2760		140.625000
2761		125.000000
2762		132.812500
2763		117.187500
2764		128.906250
2765		113.281250
2766		125.000000
2767		109.375000
2768		117.187500
2769		101.562500
2770		113.281250
2771		93.750000
2772		105.468750
2773		89.843750
2774		97.656250
2775		82.031250
2776		93.750000
2777		78.125000
2778		85.937500
2779		70.312500
2780		78.125000
2781		62.500000
2782		70.312500
2783		54.687500
2784		66.406250
2785		46.875000
2786		58.593750
2787		39.062500
2788		50.781250
2789		31.250000
2790		46.875000
2791		27.343750
2792		39.062500
2793		19.531250
2794		27.343750
2795		11.718750
2796		23.437500
2797		3.906250
2798		15.625000
2799		-3.906250
2800		7.812500
2801		-11.718750
2802		0.000000
2803		-15.625000
2804		-7.812500
2805		-23.437500
2806		-15.625000
2807		-31.250000
2808		-19.531250
2809		-39.062500
2810		-27.343750
2811		-46.875000
2812		-35.156250
2813		-54.687500
2814		-42.968750
2815		-62.500000
2816		-50.781250
2817		-70.312500
2818		-58.593750
2819		-78.125000
2820		-66.406250
2821		-82.031250
2822		-70.312500
2823		-89.843750
2824		-78.125000
2825		-93.750000
2826		-85.937500
2827		-101.562500
2828		-93.750000
2829		-109.375000
2830		-101.562500
2831		-117.187500
2832		-105.468750
2833		-121.093750
2834		-113.281250
2835		-128.906250
2836		-117.187500
2837		-136.718750
2838		-125.000000
2839		-140.625000
2840		-132.812500
2841		-148.437500
2842		-136.718750
2843		-152.343750
2844		-144.531250
2845		-156.250000
2846		-152.343750
2847		-164.062500
2848		-156.250000
2849		-167.968750
2850		-160.156250
2851		-175.781250
2852		-167.968750
2853		-179.687500
2854		-171.875000
2855		-183.593750
2856		-175.781250
2857		-187.500000
2858		-179.687500
2859		-191.406250
2860		-183.593750
2861		-195.312500
2862		-191.406250
2863		-199.218750
2864		-195.312500
2865		-203.125000
2866		-195.312500
2867		-207.031250
2868		-199.218750
2869		-210.937500
2870		-203.125000
2871		-210.937500
2872		-207.031250
2873		-214.843750
2874		-210.937500
2875		-218.750000
2876		-210.937500
2877		-218.750000
2878		-214.843750
2879		-222.656250
2880		-214.843750
2881		-222.656250
2882		-218.750000
2883		-226.562500
2884		-218.750000
2885		-226.562500
2886		-222.656250
2887		-226.562500
2888		-222.656250
2889		-226.562500
2890		-222.656250
2891		-226.562500
2892		-226.562500
2893		-230.468750
2894		-222.656250
2895		-230.468750
2896		-226.562500
2897		-230.468750
2898		-222.656250
2899		-230.468750
2900		-222.656250
2901		-226.562500
2902		-222.656250
2903		-226.562500
2904		-222.656250
2905		-230.468750
2906		-214.843750
2907		-222.656250
2908		-218.750000
2909		-222.656250
2910		-214.843750
2911		-218.750000
2912		-214.843750
2913		-218.750000
2914		-210.937500
2915		-214.843750
2916		-210.937500
2917		-210.937500
2918		-207.031250
2919		-210.937500
2920		-203.125000
2921		-207.031250
2922		-199.218750
2923		-203.125000
2924		-199.218750
2925		-199.218750
2926		-191.406250
2927		-195.312500
2928		-187.500000
2929		-191.406250
2930		-183.593750
2931		-187.500000
2932		-179.687500
2933		-183.593750
2934		-175.781250
2935		-175.781250
2936		-171.875000
2937		-171.875000
2938		-164.062500
2939		-167.968750
2940		-160.156250
2941		-164.062500
2942		-156.250000
2943		-156.250000
2944		-148.437500
2945		-152.343750
2946		-140.625000
2947		-144.531250
2948		-136.718750
2949		-136.718750
2950		-128.906250
2951		-132.812500
2952		-125.000000
2953		-125.000000
2954		-117.187500
2955		-117.187500
2956		-109.375000
2957		-113.281250
2958		-101.562500
2959		-105.468750
2960		-97.656250
2961		-97.656250
2962		-89.843750
2963		-93.750000
2964		-82.031250
2965		-82.031250
2966		-74.218750
2967		-78.125000
2968		-66.406250
2969		-70.312500
2970		-58.593750
2971		-62.500000
2972		-54.687500
2973		-54.687500
2974		-46.875000
2975		-46.875000
2976		-39.062500
2977		-39.062500
2978		-31.250000
2979		-31.250000
2980		-23.437500
2981		-23.437500
2982		-15.625000
2983		-15.625000
2984		-7.812500
2985		-11.718750
2986		0.000000
2987		-3.906250
2988		7.812500
2989		3.906250
2990		15.625000
2991		11.718750
2992		19.531250
2993		19.531250
2994		27.343750
2995		27.343750
2996		35.156250
2997		35.156250
2998		42.968750
2999		39.062500
3000		50.781250
3001		46.875000
3002		58.593750
3003		54.687500
3004		62.500000
3005		62.500000
3006		70.312500
3007		66.406250
3008		78.125000
3009		74.218750
3010		82.031250
3011		82.031250
3012		89.843750
3013		85.937500
3014		97.656250
3015		93.750000
3016		101.562500
3017		101.562500
3018		109.375000
3019		105.468750
3020		113.281250
3021		113.281250
3022		121.093750
3023		117.187500
3024		125.000000
3025		125.000000
3026		132.812500
3027		128.906250
3028		136.718750
3029		132.812500
3030		140.625000
3031		140.625000
3032		148.437500
3033		144.531250
3034		152.343750
3035		148.437500
3036		156.250000
3037		152.343750
3038		160.156250
3039		160.156250
3040		164.062500
3041		164.062500
3042		167.968750
3043		167.968750
3044		175.781250
3045		171.875000
3046		175.781250
3047		175.781250
3048		179.687500
3049		179.687500
3050		187.500000
3051		183.593750
3052		187.500000
3053		187.500000
3054		191.406250
3055		191.406250
3056		195.312500
3057		191.406250
3058		199.218750
3059		195.312500
3060		199.218750
3061		199.218750
3062		203.125000
3063		199.218750
3064		203.125000
3065		203.125000
3066		207.031250
3067		203.125000
3068		210.937500
3069		207.031250
3070		210.937500
3071		207.031250
3072		214.843750
3073		210.937500
3074		214.843750
3075		210.937500
3076		214.843750
3077		214.843750
3078		218.750000
3079		214.843750
3080		218.750000
3081		214.843750
3082		218.750000
3083		214.843750
3084		222.656250
3085		218.750000
3086		222.656250
3087		218.750000
3088		222.656250
3089		218.750000
3090		222.656250
3091		218.750000
3092		222.656250
3093		218.750000
3094		222.656250
3095		218.750000
3096		222.656250
3097		218.750000
3098		222.656250
3099		218.750000
3100		222.656250
3101		218.750000
3102		222.656250
3103		218.750000
3104		222.656250
3105		218.750000
3106		222.656250
3107		218.750000
3108		222.656250
3109		218.750000
3110		222.656250
3111		214.843750
3112		218.750000
3113		214.843750
3114		218.750000
3115		214.843750
3116		218.750000
3117		210.937500
3118		214.843750
3119		210.937500
3120		214.843750
3121		207.031250
3122		214.843750
3123		207.031250
3124		210.937500
3125		203.125000
3126		210.937500
3127		203.125000
3128		207.031250
3129		199.218750
3130		203.125000
3131		195.312500
3132		203.125000
3133		195.312500
3134		199.218750
3135		191.406250
3136		199.218750
3137		187.500000
3138		195.312500
3139		183.593750
3140		191.406250
3141		179.687500
3142		187.500000
3143		179.687500
3144		183.593750
3145		175.781250
3146		179.687500
3147		171.875000
3148		175.781250
3149		167.968750
3150		171.875000
3151		160.156250
3152		167.968750
3153		156.250000
3154		164.062500
3155		152.343750
3156		160.156250
3157		148.437500
3158		156.250000
3159		140.625000
3160		148.437500
3161		136.718750
3162		144.531250
3163		132.812500
3164		140.625000
3165		125.000000
3166		132.812500
3167		121.093750
3168		128.906250
3169		113.281250
3170		121.093750
3171		109.375000
3172		117.187500
3173		101.562500
3174		109.375000
3175		97.656250
3176		105.468750
3177		89.843750
3178		97.656250
3179		82.031250
3180		89.843750
3181		78.125000
3182		85.937500
3183		70.312500
3184		78.125000
3185		62.500000
3186		70.312500
3187		54.687500
3188		66.406250
3189		46.875000
3190		58.593750
3191		39.062500
3192		50.781250
3193		35.156250
3194		42.968750
3195		27.343750
3196		35.156250
3197		19.531250
3198		27.343750
3199		11.718750
3200		23.437500
3201		3.906250
3202		15.625000
3203		-3.906250
3204		7.812500
3205		-7.812500
3206		0.000000
3207		-15.625000
3208		-7.812500
3209		-23.437500
3210		-15.625000
3211		-31.250000
3212		-23.437500
3213		-39.062500
3214		-31.250000
3215		-46.875000
3216		-39.062500
3217		-54.687500
3218		-42.968750
3219		-62.500000
3220		-50.781250
3221		-66.406250
3222		-58.593750
3223		-74.218750
3224		-66.406250
3225		-82.031250
3226		-74.218750
3227		-89.843750
3228		-82.031250
3229		-97.656250
3230		-85.937500
3231		-101.562500
3232		-93.750000
3233		-109.375000
3234		-101.562500
3235		-117.187500
3236		-109.375000
3237		-121.093750
3238		-113.281250
3239		-128.906250
3240		-121.093750
3241		-136.718750
3242		-128.906250
3243		-140.625000
3244		-132.812500
3245		-144.531250
3246		-136.718750
3247		-152.343750
3248		-144.531250
3249		-156.250000
3250		-152.343750
3251		-164.062500
3252		-156.250000
3253		-167.968750
3254		-160.156250
3255		-171.875000
3256		-164.062500
3257		-175.781250
3258		-171.875000
3259		-183.593750
3260		-175.781250
3261		-187.500000
3262		-179.687500
3263		-191.406250
3264		-183.593750
3265		-195.312500
3266		-187.500000
3267		-199.218750
3268		-191.406250
3269		-203.125000
3270		-195.312500
3271		-207.031250
3272		-199.218750
3273		-207.031250
3274		-203.125000
3275		-210.937500
3276		-207.031250
3277		-214.843750
3278		-210.937500
3279		-214.843750
3280		-210.937500
3281		-218.750000
3282		-214.843750
3283		-218.750000
3284		-214.843750
3285		-222.656250
3286		-218.750000
3287		-222.656250
3288		-218.750000
3289		-222.656250
3290		-218.750000
3291		-226.562500
3292		-222.656250
3293		-226.562500
3294		-222.656250
3295		-226.562500
3296		-222.656250
3297		-226.562500
3298		-222.656250
3299		-226.562500
3300		-222.656250
3301		-226.562500
3302		-222.656250
3303		-226.562500
3304		-222.656250
3305		-226.562500
3306		-218.750000
3307		-222.656250
3308		-218.750000
3309		-222.656250
3310		-218.750000
3311		-222.656250
3312		-214.843750
3313		-218.750000
3314		-214.843750
3315		-214.843750
3316		-210.937500
3317		-214.843750
3318		-207.031250
3319		-210.937500
3320		-207.031250
3321		-207.031250
3322		-203.125000
3323		-207.031250
3324		-199.218750
3325		-203.125000
3326		-195.312500
3327		-199.218750
3328		-191.406250
3329		-195.312500
3330		-187.500000
3331		-191.406250
3332		-183.593750
3333		-187.500000
3334		-179.687500
3335		-183.593750
3336		-175.781250
3337		-179.687500
3338		-171.875000
3339		-171.875000
3340		-164.062500
3341		-167.968750
3342		-156.250000
3343		-164.062500
3344		-156.250000
3345		-156.250000
3346		-148.437500
3347		-152.343750
3348		-144.531250
3349		-144.531250
3350		-136.718750
3351		-140.625000
3352		-132.812500
3353		-132.812500
3354		-125.000000
3355		-128.906250
3356		-117.187500
3357		-121.093750
3358		-113.281250
3359		-113.281250
3360		-105.468750
3361		-105.468750
3362		-97.656250
3363		-101.562500
3364		-93.750000
3365		-93.750000
3366		-85.937500
3367		-85.937500
3368		-78.125000
3369		-78.125000
3370		-70.312500
3371		-70.312500
3372		-62.500000
3373		-66.406250
3374		-54.687500
3375		-58.593750
3376		-46.875000
3377		-50.781250
3378		-39.062500
3379		-42.968750
3380		-35.156250
3381		-35.156250
3382		-23.437500
3383		-27.343750
3384		-19.531250
3385		-19.531250
3386		-11.718750
3387		-11.718750
3388		-3.906250
3389		-3.906250
3390		3.906250
3391		3.906250
3392		11.718750
3393		7.812500
3394		19.531250
3395		15.625000
3396		27.343750
3397		23.437500
3398		31.250000
3399		31.250000
3400		39.062500
3401		39.062500
3402		46.875000
3403		46.875000
3404		54.687500
3405		50.781250
3406		62.500000
3407		58.593750
3408		66.406250
3409		66.406250
3410		74.218750
3411		70.312500
3412		82.031250
3413		78.125000
3414		89.843750
3415		85.937500
3416		93.750000
3417		93.750000
3418		101.562500
3419		97.656250
3420		105.468750
3421		105.468750
3422		113.281250
3423		109.375000
3424		117.187500
3425		117.187500
3426		125.000000
3427		121.093750
3428		128.906250
3429		128.906250
3430		136.718750
3431		132.812500
3432		140.625000
3433		136.718750
3434		144.531250
3435		144.531250
3436		152.343750
3437		148.437500
3438		156.250000
3439		152.343750
3440		160.156250
3441		156.250000
3442		164.062500
3443		160.156250
3444		167.968750
3445		164.062500
3446		171.875000
3447		167.968750
3448		175.781250
3449		175.781250
3450		179.687500
3451		179.687500
3452		183.593750
3453		179.687500
3454		187.500000
3455		183.593750
3456		191.406250
3457		187.500000
3458		195.312500
3459		191.406250
3460		195.312500
3461		195.312500
3462		199.218750
3463		199.218750
3464		203.125000
3465		199.218750
3466		203.125000
3467		203.125000
3468		207.031250
3469		203.125000
3470		210.937500
3471		207.031250
3472		210.937500
3473		210.937500
3474		214.843750
3475		210.937500
3476		214.843750
3477		214.843750
3478		214.843750
3479		214.843750
3480		218.750000
3481		214.843750
3482		218.750000
3483		214.843750
3484		218.750000
3485		218.750000
3486		222.656250
3487		218.750000
3488		222.656250
3489		218.750000
3490		222.656250
3491		222.656250
3492		222.656250
3493		222.656250
3494		226.562500
3495		222.656250
3496		222.656250
3497		222.656250
3498		226.562500
3499		222.656250
3500		226.562500
3501		222.656250
3502		226.562500
3503		222.656250
3504		226.562500
3505		222.656250
3506		226.562500
3507		218.750000
3508		222.656250
3509		218.750000
3510		222.656250
3511		218.750000
3512		222.656250
3513		218.750000
3514		222.656250
3515		218.750000
3516		222.656250
3517		214.843750
3518		218.750000
3519		214.843750
3520		218.750000
3521		214.843750
3522		218.750000
3523		210.937500
3524		214.843750
3525		210.937500
3526		214.843750
3527		207.031250
3528		210.937500
3529		207.031250
3530		210.937500
3531		203.125000
3532		207.031250
3533		199.218750
3534		207.031250
3535		199.218750
3536		203.125000
3537		195.312500
3538		203.125000
3539		191.406250
3540		195.312500
3541		187.500000
3542		195.312500
3543		183.593750
3544		191.406250
3545		183.593750
3546		187.500000
3547		179.687500
3548		183.593750
3549		175.781250
3550		179.687500
3551		171.875000
3552		175.781250
3553		167.968750
3554		171.875000
3555		160.156250
3556		167.968750
3557		156.250000
3558		164.062500
3559		152.343750
3560		160.156250
3561		148.437500
3562		156.250000
3563		144.531250
3564		148.437500
3565		136.718750
3566		144.531250
3567		132.812500
3568		140.625000
3569		125.000000
3570		132.812500
3571		121.093750
3572		128.906250
3573		113.281250
3574		121.093750
3575		109.375000
3576		117.187500
3577		101.562500
3578		109.375000
3579		97.656250
3580		105.468750
3581		89.843750
3582		97.656250
3583		82.031250
3584		89.843750
3585		78.125000
3586		85.937500
3587		70.312500
3588		78.125000
3589		62.500000
3590		70.312500
3591		54.687500
3592		62.500000
3593		46.875000
3594		58.593750
3595		42.968750
3596		50.781250
3597		35.156250
3598		42.968750
3599		27.343750
3600		35.156250
3601		19.531250
3602		27.343750
3603		11.718750
3604		23.437500
3605		3.906250
3606		15.625000
3607		-3.906250
3608		7.812500
3609		-7.812500
3610		0.000000
3611		-15.625000
3612		-7.812500
3613		-23.437500
3614		-15.625000
3615		-31.250000
3616		-23.437500
3617		-39.062500
3618		-31.250000
3619		-46.875000
3620		-35.156250
3621		-54.687500
3622		-42.968750
3623		-62.500000
3624		-50.781250
3625		-66.406250
3626		-58.593750
3627		-74.218750
3628		-66.406250
3629		-82.031250
3630		-74.218750
3631		-89.843750
3632		-78.125000
3633		-93.750000
3634		-85.937500
3635		-101.562500
3636		-93.750000
3637		-109.375000
3638		-101.562500
3639		-117.187500
3640		-105.468750
3641		-121.093750
3642		-113.281250
3643		-128.906250
3644		-121.093750
3645		-132.812500
3646		-125.000000
3647		-140.625000
3648		-132.812500
3649		-144.531250
3650		-136.718750
3651		-152.343750
3652		-144.531250
3653		-156.250000
3654		-148.437500
3655		-160.156250
3656		-152.343750
3657		-167.968750
3658		-160.156250
3659		-171.875000
3660		-164.062500
3661		-175.781250
3662		-167.968750
3663		-179.687500
3664		-171.875000
3665		-187.500000
3666		-179.687500
3667		-191.406250
3668		-183.593750
3669		-191.406250
3670		-187.500000
3671		-195.312500
3672		-191.406250
3673		-199.218750
3674		-195.312500
3675		-203.125000
3676		-199.218750
3677		-207.031250
3678		-203.125000
3679		-210.937500
3680		-203.125000
3681		-210.937500
3682		-207.031250
3683		-214.843750
3684		-207.031250
3685		-214.843750
3686		-210.937500
3687		-218.750000
3688		-214.843750
3689		-218.750000
3690		-214.843750
3691		-218.750000
3692		-218.750000
3693		-222.656250
3694		-218.750000
3695		-222.656250
3696		-218.750000
3697		-222.656250
3698		-218.750000
3699		-222.656250
3700		-218.750000
3701		-222.656250
3702		-218.750000
3703		-222.656250
3704		-218.750000
3705		-222.656250
3706		-218.750000
3707		-222.656250
3708		-218.750000
3709		-222.656250
3710		-214.843750
3711		-218.750000
3712		-214.843750
3713		-218.750000
3714		-214.843750
3715		-218.750000
3716		-214.843750
3717		-214.843750
3718		-210.937500
3719		-210.937500
3720		-207.031250
3721		-210.937500
3722		-207.031250
3723		-207.031250
3724		-203.125000
3725		-207.031250
3726		-199.218750
3727		-203.125000
3728		-195.312500
3729		-199.218750
3730		-195.312500
3731		-195.312500
3732		-187.500000
3733		-191.406250
3734		-183.593750
3735		-187.500000
3736		-179.687500
3737		-183.593750
3738		-175.781250
3739		-179.687500
3740		-171.875000
3741		-171.875000
3742		-167.968750
3743		-167.968750
3744		-160.156250
3745		-164.062500
3746		-156.250000
3747		-160.156250
3748		-152.343750
3749		-152.343750
3750		-144.531250
3751		-148.437500
3752		-140.625000
3753		-140.625000
3754		-132.812500
3755		-136.718750
3756		-128.906250
3757		-128.906250
3758		-121.093750
3759		-121.093750
3760		-113.281250
3761		-117.187500
3762		-105.468750
3763		-109.375000
3764		-101.562500
3765		-101.562500
3766		-93.750000
3767		-97.656250
3768		-85.937500
3769		-89.843750
3770		-82.031250
3771		-82.031250
3772		-74.218750
3773		-74.218750
3774		-66.406250
3775		-66.406250
3776		-58.593750
3777		-58.593750
3778		-50.781250
3779		-50.781250
3780		-42.968750
3781		-46.875000
3782		-35.156250
3783		-39.062500
3784		-27.343750
3785		-31.250000
3786		-19.531250
3787		-23.437500
3788		-15.625000
3789		-15.625000
3790		-7.812500
3791		-7.812500
3792		0.000000
3793		0.000000
3794		7.812500
3795		7.812500
3796		15.625000
3797		15.625000
3798		23.437500
3799		19.531250
3800		31.250000
3801		27.343750
3802		39.062500
3803		35.156250
3804		46.875000
3805		42.968750
3806		50.781250
3807		50.781250
3808		58.593750
3809		54.687500
3810		66.406250
3811		62.500000
3812		74.218750
3813		70.312500
3814		78.125000
3815		78.125000
3816		85.937500
3817		82.031250
3818		89.843750
3819		89.843750
3820		97.656250
3821		97.656250
3822		105.468750
3823		101.562500
3824		109.375000
3825		109.375000
3826		117.187500
3827		113.281250
3828		125.000000
3829		121.093750
3830		128.906250
3831		125.000000
3832		132.812500
3833		132.812500
3834		140.625000
3835		136.718750
3836		144.531250
3837		140.625000
3838		148.437500
3839		144.531250
3840		152.343750
3841		152.343750
3842		160.156250
3843		156.250000
3844		164.062500
3845		160.156250
3846		167.968750
3847		164.062500
3848		171.875000
3849		167.968750
3850		175.781250
3851		171.875000
3852		179.687500
3853		175.781250
3854		183.593750
3855		179.687500
3856		187.500000
3857		183.593750
3858		191.406250
3859		187.500000
3860		191.406250
3861		191.406250
3862		195.312500
3863		195.312500
3864		199.218750
3865		195.312500
3866		203.125000
3867		199.218750
3868		203.125000
3869		203.125000
3870		207.031250
3871		203.125000
3872		207.031250
3873		207.031250
3874		210.937500
3875		207.031250
3876		214.843750
3877		210.937500
3878		214.843750
3879		210.937500
3880		214.843750
3881		214.843750
3882		218.750000
3883		214.843750
3884		218.750000
3885		214.843750
3886		218.750000
3887		218.750000
3888		222.656250
3889		218.750000
3890		222.656250
3891		218.750000
3892		222.656250
3893		222.656250
3894		226.562500
3895		222.656250
3896		222.656250
3897		222.656250
3898		226.562500
3899		222.656250
3900		226.562500
3901		222.656250
3902		226.562500
3903		222.656250
3904		226.562500
3905		222.656250
3906		226.562500
3907		222.656250
3908		226.562500
3909		222.656250
3910		226.562500
3911		222.656250
3912		226.562500
3913		218.750000
3914		222.656250
3915		218.750000
3916		222.656250
3917		218.750000
3918		222.656250
3919		218.750000
3920		222.656250
3921		214.843750
3922		218.750000
3923		214.843750
3924		218.750000
3925		214.843750
3926		218.750000
3927		210.937500
3928		214.843750
3929		210.937500
3930		214.843750
3931		207.031250
3932		214.843750
3933		203.125000
3934		210.937500
3935		203.125000
3936		210.937500
3937		199.218750
3938		207.031250
3939		199.218750
3940		203.125000
3941		195.312500
3942		199.218750
3943		191.406250
3944		199.218750
3945		187.500000
3946		195.312500
3947		187.500000
3948		191.406250
3949		183.593750
3950		187.500000
3951		175.781250
3952		183.593750
3953		175.781250
3954		179.687500
3955		171.875000
3956		175.781250
3957		167.968750
3958		171.875000
3959		160.156250
3960		167.968750
3961		156.250000
3962		164.062500
3963		152.343750
3964		160.156250
3965		148.437500
3966		156.250000
3967		140.625000
3968		148.437500
3969		136.718750
3970		144.531250
3971		132.812500
3972		140.625000
3973		125.000000
3974		132.812500
3975		121.093750
3976		128.906250
3977		113.281250
3978		121.093750
3979		109.375000
3980		117.187500
3981		101.562500
3982		109.375000
3983		93.750000
3984		105.468750
3985		89.843750
3986		97.656250
3987		82.031250
3988		89.843750
3989		74.218750
3990		85.937500
3991		70.312500
3992		78.125000
3993		62.500000
3994		70.312500
3995		54.687500
3996		62.500000
3997		46.875000
3998		58.593750
3999		42.968750
4000		50.781250
4001		35.156250
4002		42.968750
4003		27.343750
4004		35.156250
4005		19.531250
4006		27.343750
4007		11.718750
4008		19.531250
4009		3.906250
4010		15.625000
4011		-3.906250
4012		7.812500
4013		-11.718750
4014		0.000000
4015		-15.625000
4016		-7.812500
4017		-23.437500
4018		-15.625000
4019		-31.250000
4020		-23.437500
4021		-39.062500
4022		-31.250000
4023		-46.875000
4024		-35.156250
4025		-54.687500
4026		-42.968750
4027		-58.593750
4028		-50.781250
4029		-66.406250
4030		-58.593750
4031		-74.218750
4032		-66.406250
4033		-82.031250
4034		-74.218750
4035		-89.843750
4036		-82.031250
4037		-97.656250
4038		-85.937500
4039		-101.562500
4040		-93.750000
4041		-113.281250
4042		-101.562500
4043		-117.187500
4044		-109.375000
4045		-121.093750
4046		-113.281250
4047		-128.906250
4048		-121.093750
4049		-132.812500
4050		-125.000000
4051		-140.625000
4052		-132.812500
4053		-144.531250
4054		-136.718750
4055		-152.343750
4056		-144.531250
4057		-156.250000
4058		-148.437500
4059		-160.156250
4060		-156.250000
4061		-167.968750
4062		-160.156250
4063		-171.875000
4064		-164.062500
4065		-175.781250
4066		-171.875000
4067		-179.687500
4068		-175.781250
4069		-187.500000
4070		-179.687500
4071		-191.406250
4072		-183.593750
4073		-195.312500
4074		-187.500000
4075		-199.218750
4076		-191.406250
4077		-203.125000
4078		-195.312500
4079		-203.125000
4080		-199.218750
4081		-207.031250
4082		-203.125000
4083		-210.937500
4084		-203.125000
4085		-218.750000
4086		-199.218750
4087		-214.843750
4088		-210.937500
4089		-218.750000
4090		-210.937500
4091		-218.750000
4092		-214.843750
4093		-222.656250
4094		-214.843750
4095		-222.656250
4096		-218.750000
4097		-222.656250
4098		-218.750000
4099		-222.656250
4100		-218.750000
4101		-222.656250
4102		-218.750000
4103		-226.562500
4104		-218.750000
4105		-222.656250
4106		-222.656250
4107		-226.562500
4108		-218.750000
4109		-222.656250
4110		-218.750000
4111		-222.656250
4112		-218.750000
4113		-222.656250
4114		-218.750000
4115		-222.656250
4116		-218.750000
4117		-218.750000
4118		-214.843750
4119		-218.750000
4120		-214.843750
4121		-214.843750
4122		-210.937500
4123		-214.843750
4124		-210.937500
4125		-210.937500
4126		-207.031250
4127		-210.937500
4128		-203.125000
4129		-207.031250
4130		-199.218750
4131		-203.125000
4132		-199.218750
4133		-199.218750
4134		-195.312500
4135		-195.312500
4136		-191.406250
4137		-191.406250
4138		-187.500000
4139		-187.500000
4140		-183.593750
4141		-183.593750
4142		-175.781250
4143		-179.687500
4144		-171.875000
4145		-175.781250
4146		-167.968750
4147		-171.875000
4148		-164.062500
4149		-164.062500
4150		-156.250000
4151		-160.156250
4152		-152.343750
4153		-156.250000
4154		-148.437500
4155		-148.437500
4156		-140.625000
4157		-144.531250
4158		-132.812500
4159		-136.718750
4160		-128.906250
4161		-128.906250
4162		-121.093750
4163		-125.000000
4164		-117.187500
4165		-117.187500
4166		-109.375000
4167		-109.375000
4168		-101.562500
4169		-105.468750
4170		-97.656250
4171		-97.656250
4172		-89.843750
4173		-89.843750
4174		-82.031250
4175		-82.031250
4176		-74.218750
4177		-74.218750
4178		-66.406250
4179		-70.312500
4180		-58.593750
4181		-62.500000
4182		-50.781250
4183		-54.687500
4184		-46.875000
4185		-46.875000
4186		-39.062500
4187		-39.062500
4188		-31.250000
4189		-31.250000
4190		-23.437500
4191		-23.437500
4192		-15.625000
4193		-15.625000
4194		-7.812500
4195		-11.718750
4196		0.000000
4197		-3.906250
4198		7.812500
4199		3.906250
4200		15.625000
4201		11.718750
4202		23.437500
4203		19.531250
4204		27.343750
4205		27.343750
4206		35.156250
4207		35.156250
4208		42.968750
4209		39.062500
4210		50.781250
4211		46.875000
4212		58.593750
4213		54.687500
4214		66.406250
4215		62.500000
4216		70.312500
4217		70.312500
4218		78.125000
4219		74.218750
4220		85.937500
4221		82.031250
4222		89.843750
4223		89.843750
4224		97.656250
4225		93.750000
4226		105.468750
4227		101.562500
4228		109.375000
4229		105.468750
4230		117.187500
4231		113.281250
4232		121.093750
4233		117.187500
4234		125.000000
4235		125.000000
4236		132.812500
4237		128.906250
4238		136.718750
4239		136.718750
4240		140.625000
4241		140.625000
4242		148.437500
4243		144.531250
4244		152.343750
4245		148.437500
4246		156.250000
4247		156.250000
4248		160.156250
4249		160.156250
4250		167.968750
4251		164.062500
4252		171.875000
4253		167.968750
4254		175.781250
4255		171.875000
4256		179.687500
4257		175.781250
4258		179.687500
4259		179.687500
4260		187.500000
4261		183.593750
4262		191.406250
4263		183.593750
4264		195.312500
4265		187.500000
4266		195.312500
4267		191.406250
4268		199.218750
4269		195.312500
4270		203.125000
4271		199.218750
4272		203.125000
4273		203.125000
4274		207.031250
4275		203.125000
4276		210.937500
4277		203.125000
4278		210.937500
4279		207.031250
4280		210.937500
4281		210.937500
4282		214.843750
4283		210.937500
4284		214.843750
4285		210.937500
4286		218.750000
4287		214.843750
4288		218.750000
4289		214.843750
4290		218.750000
4291		218.750000
4292		222.656250
4293		218.750000
4294		222.656250
4295		218.750000
4296		222.656250
4297		218.750000
4298		226.562500
4299		218.750000
4300		226.562500
4301		218.750000
4302		226.562500
4303		222.656250
4304		226.562500
4305		222.656250
4306		226.562500
4307		222.656250
4308		226.562500
4309		222.656250
4310		226.562500
4311		218.750000
4312		226.562500
4313		218.750000
4314		226.562500
4315		218.750000
4316		222.656250
4317		218.750000
4318		222.656250
4319		218.750000
4320		222.656250
4321		218.750000
4322		222.656250
4323		218.750000
4324		222.656250
4325		214.843750
4326		218.750000
4327		214.843750
4328		218.750000
4329		210.937500
4330		214.843750
4331		210.937500
4332		214.843750
4333		207.031250
4334		214.843750
4335		207.031250
4336		210.937500
4337		203.125000
4338		210.937500
4339		203.125000
4340		207.031250
4341		199.218750
4342		203.125000
4343		195.312500
4344		203.125000
4345		195.312500
4346		199.218750
4347		191.406250
4348		195.312500
4349		187.500000
4350		191.406250
4351		183.593750
4352		191.406250
4353		179.687500
4354		187.500000
4355		175.781250
4356		183.593750
4357		171.875000
4358		179.687500
4359		167.968750
4360		175.781250
4361		164.062500
4362		171.875000
4363		160.156250
4364		167.968750
4365		156.250000
4366		164.062500
4367		152.343750
4368		156.250000
4369		144.531250
4370		152.343750
4371		140.625000
4372		148.437500
4373		132.812500
4374		140.625000
4375		128.906250
4376		136.718750
4377		125.000000
4378		128.906250
4379		117.187500
4380		125.000000
4381		113.281250
4382		121.093750
4383		105.468750
4384		113.281250
4385		97.656250
4386		105.468750
4387		93.750000
4388		101.562500
4389		85.937500
4390		93.750000
4391		78.125000
4392		89.843750
4393		74.218750
4394		82.031250
4395		66.406250
4396		74.218750
4397		58.593750
4398		66.406250
4399		50.781250
4400		62.500000
4401		46.875000
4402		54.687500
4403		39.062500
4404		46.875000
4405		31.250000
4406		39.062500
4407		23.437500
4408		31.250000
4409		15.625000
4410		27.343750
4411		7.812500
4412		19.531250
4413		0.000000
4414		11.718750
4415		-3.906250
4416		3.906250
4417		-11.718750
4418		-3.906250
4419		-19.531250
4420		-11.718750
4421		-27.343750
4422		-19.531250
4423		-35.156250
4424		-27.343750
4425		-42.968750
4426		-31.250000
4427		-50.781250
4428		-39.062500
4429		-58.593750
4430		-46.875000
4431		-66.406250
4432		-50.781250
4433		-70.312500
4434		-62.500000
4435		-78.125000
4436		-70.312500
4437		-85.937500
4438		-74.218750
4439		-93.750000
4440		-82.031250
4441		-97.656250
4442		-89.843750
4443		-105.468750
4444		-97.656250
4445		-113.281250
4446		-101.562500
4447		-121.093750
4448		-105.468750
4449		-125.000000
4450		-113.281250
4451		-132.812500
4452		-121.093750
4453		-136.718750
4454		-128.906250
4455		-144.531250
4456		-136.718750
4457		-148.437500
4458		-140.625000
4459		-152.343750
4460		-148.437500
4461		-160.156250
4462		-152.343750
4463		-167.968750
4464		-156.250000
4465		-171.875000
4466		-160.156250
4467		-175.781250
4468		-167.968750
4469		-179.687500
4470		-171.875000
4471		-183.593750
4472		-179.687500
4473		-187.500000
4474		-183.593750
4475		-191.406250
4476		-187.500000
4477		-199.218750
4478		-191.406250
4479		-203.125000
4480		-191.406250
4481		-207.031250
4482		-195.312500
4483		-207.031250
4484		-199.218750
4485		-210.937500
4486		-203.125000
4487		-210.937500
4488		-207.031250
4489		-214.843750
4490		-210.937500
4491		-218.750000
4492		-214.843750
4493		-218.750000
4494		-214.843750
4495		-222.656250
4496		-214.843750
4497		-226.562500
4498		-214.843750
4499		-226.562500
4500		-218.750000
4501		-226.562500
4502		-222.656250
4503		-226.562500
4504		-222.656250
4505		-226.562500
4506		-222.656250
4507		-226.562500
4508		-222.656250
4509		-226.562500
4510		-222.656250
4511		-230.468750
4512		-218.750000
4513		-230.468750
4514		-218.750000
4515		-230.468750
4516		-218.750000
4517		-230.468750
4518		-218.750000
4519		-222.656250
4520		-218.750000
4521		-222.656250
4522		-218.750000
4523		-222.656250
4524		-218.750000
4525		-218.750000
4526		-214.843750
4527		-218.750000
4528		-210.937500
4529		-218.750000
4530		-207.031250
4531		-214.843750
4532		-203.125000
4533		-214.843750
4534		-203.125000
4535		-207.031250
4536		-199.218750
4537		-203.125000
4538		-195.312500
4539		-199.218750
4540		-191.406250
4541		-195.312500
4542		-191.406250
4543		-191.406250
4544		-183.593750
4545		-187.500000
4546		-179.687500
4547		-183.593750
4548		-171.875000
4549		-179.687500
4550		-167.968750
4551		-171.875000
4552		-164.062500
4553		-167.968750
4554		-160.156250
4555		-164.062500
4556		-156.250000
4557		-156.250000
4558		-148.437500
4559		-152.343750
4560		-144.531250
4561		-144.531250
4562		-132.812500
4563		-140.625000
4564		-128.906250
4565		-136.718750
4566		-121.093750
4567		-128.906250
4568		-117.187500
4569		-121.093750
4570		-109.375000
4571		-113.281250
4572		-105.468750
4573		-105.468750
4574		-97.656250
4575		-97.656250
4576		-89.843750
4577		-93.750000
4578		-82.031250
4579		-85.937500
4580		-74.218750
4581		-78.125000
4582		-66.406250
4583		-74.218750
4584		-62.500000
4585		-62.500000
4586		-54.687500
4587		-54.687500
4588		-46.875000
4589		-46.875000
4590		-39.062500
4591		-39.062500
4592		-31.250000
4593		-35.156250
4594		-23.437500
4595		-27.343750
4596		-11.718750
4597		-19.531250
4598		-7.812500
4599		-15.625000
4600		0.000000
4601		-7.812500
4602		3.906250
4603		3.906250
4604		11.718750
4605		11.718750
4606		19.531250
4607		19.531250
4608		27.343750
4609		27.343750
4610		35.156250
4611		31.250000
4612		42.968750
4613		39.062500
4614		46.875000
4615		46.875000
4616		54.687500
4617		54.687500
4618		62.500000
4619		62.500000
4620		70.312500
4621		66.406250
4622		74.218750
4623		74.218750
4624		82.031250
4625		82.031250
4626		89.843750
4627		85.937500
4628		93.750000
4629		93.750000
4630		101.562500
4631		101.562500
4632		109.375000
4633		105.468750
4634		113.281250
4635		109.375000
4636		117.187500
4637		117.187500
4638		125.000000
4639		125.000000
4640		128.906250
4641		128.906250
4642		136.718750
4643		132.812500
4644		140.625000
4645		136.718750
4646		144.531250
4647		144.531250
4648		152.343750
4649		148.437500
4650		156.250000
4651		152.343750
4652		160.156250
4653		156.250000
4654		164.062500
4655		164.062500
4656		171.875000
4657		167.968750
4658		171.875000
4659		171.875000
4660		175.781250
4661		175.781250
4662		179.687500
4663		179.687500
4664		183.593750
4665		183.593750
4666		187.500000
4667		183.593750
4668		191.406250
4669		187.500000
4670		195.312500
4671		191.406250
4672		195.312500
4673		195.312500
4674		199.218750
4675		199.218750
4676		203.125000
4677		199.218750
4678		203.125000
4679		203.125000
4680		207.031250
4681		203.125000
4682		210.937500
4683		207.031250
4684		210.937500
4685		207.031250
4686		214.843750
4687		210.937500
4688		214.843750
4689		210.937500
4690		214.843750
4691		214.843750
4692		218.750000
4693		214.843750
4694		218.750000
4695		214.843750
4696		218.750000
4697		218.750000
4698		222.656250
4699		218.750000
4700		222.656250
4701		218.750000
4702		222.656250
4703		218.750000
4704		222.656250
4705		218.750000
4706		222.656250
4707		218.750000
4708		222.656250
4709		218.750000
4710		222.656250
4711		218.750000
4712		222.656250
4713		218.750000
4714		222.656250
4715		218.750000
4716		222.656250
4717		218.750000
4718		222.656250
4719		218.750000
4720		222.656250
4721		218.750000
4722		222.656250
4723		218.750000
4724		222.656250
4725		214.843750
4726		218.750000
4727		214.843750
4728		218.750000
4729		214.843750
4730		218.750000
4731		210.937500
4732		218.750000
4733		210.937500
4734		214.843750
4735		210.937500
4736		214.843750
4737		207.031250
4738		210.937500
4739		207.031250
4740		210.937500
4741		203.125000
4742		207.031250
4743		199.218750
4744		207.031250
4745		199.218750
4746		203.125000
4747		195.312500
4748		199.218750
4749		191.406250
4750		199.218750
4751		187.500000
4752		195.312500
4753		187.500000
4754		191.406250
4755		183.593750
4756		187.500000
4757		179.687500
4758		183.593750
4759		175.781250
4760		179.687500
4761		171.875000
4762		175.781250
4763		167.968750
4764		171.875000
4765		164.062500
4766		167.968750
4767		160.156250
4768		164.062500
4769		152.343750
4770		160.156250
4771		148.437500
4772		156.250000
4773		144.531250
4774		152.343750
4775		136.718750
4776		144.531250
4777		132.812500
4778		140.625000
4779		128.906250
4780		136.718750
4781		121.093750
4782		132.812500
4783		117.187500
4784		125.000000
4785		109.375000
4786		117.187500
4787		105.468750
4788		113.281250
4789		97.656250
4790		105.468750
4791		89.843750
4792		101.562500
4793		85.937500
4794		93.750000
4795		78.125000
4796		85.937500
4797		70.312500
4798		82.031250
4799		66.406250
4800		74.218750
4801		58.593750
4802		66.406250
4803		50.781250
4804		58.593750
4805		42.968750
4806		54.687500
4807		35.156250
4808		46.875000
4809		27.343750
4810		39.062500
4811		23.437500
4812		31.250000
4813		15.625000
4814		23.437500
4815		7.812500
4816		15.625000
4817		0.000000
4818		7.812500
4819		-7.812500
4820		0.000000
4821		-15.625000
4822		-3.906250
4823		-23.437500
4824		-11.718750
4825		-27.343750
4826		-19.531250
4827		-35.156250
4828		-27.343750
4829		-42.968750
4830		-35.156250
4831		-50.781250
4832		-42.968750
4833		-58.593750
4834		-50.781250
4835		-66.406250
4836		-54.687500
4837		-74.218750
4838		-62.500000
4839		-78.125000
4840		-70.312500
4841		-85.937500
4842		-78.125000
4843		-93.750000
4844		-85.937500
4845		-101.562500
4846		-93.750000
4847		-109.375000
4848		-97.656250
4849		-113.281250
4850		-105.468750
4851		-121.093750
4852		-113.281250
4853		-128.906250
4854		-117.187500
4855		-132.812500
4856		-125.000000
4857		-140.625000
4858		-132.812500
4859		-144.531250
4860		-136.718750
4861		-152.343750
4862		-144.531250
4863		-156.250000
4864		-148.437500
4865		-160.156250
4866		-152.343750
4867		-167.968750
4868		-160.156250
4869		-171.875000
4870		-164.062500
4871		-175.781250
4872		-171.875000
4873		-183.593750
4874		-175.781250
4875		-187.500000
4876		-179.687500
4877		-191.406250
4878		-183.593750
4879		-195.312500
4880		-187.500000
4881		-199.218750
4882		-191.406250
4883		-203.125000
4884		-195.312500
4885		-203.125000
4886		-199.218750
4887		-207.031250
4888		-203.125000
4889		-210.937500
4890		-207.031250
4891		-214.843750
4892		-207.031250
4893		-214.843750
4894		-210.937500
4895		-218.750000
4896		-214.843750
4897		-218.750000
4898		-214.843750
4899		-222.656250
4900		-218.750000
4901		-222.656250
4902		-218.750000
4903		-226.562500
4904		-218.750000
4905		-226.562500
4906		-222.656250
4907		-226.562500
4908		-222.656250
4909		-226.562500
4910		-222.656250
4911		-226.562500
4912		-222.656250
4913		-226.562500
4914		-222.656250
4915		-226.562500
4916		-222.656250
4917		-226.562500
4918		-222.656250
4919		-226.562500
4920		-222.656250
4921		-222.656250
4922		-222.656250
4923		-222.656250
4924		-218.750000
4925		-222.656250
4926		-218.750000
4927		-218.750000
4928		-214.843750
4929		-218.750000
4930		-214.843750
4931		-214.843750
4932		-210.937500
4933		-214.843750
4934		-207.031250
4935		-210.937500
4936		-207.031250
4937		-207.031250
4938		-203.125000
4939		-203.125000
4940		-199.218750
4941		-199.218750
4942		-195.312500
4943		-195.312500
4944		-191.406250
4945		-191.406250
4946		-187.500000
4947		-187.500000
4948		-183.593750
4949		-183.593750
4950		-179.687500
4951		-179.687500
4952		-171.875000
4953		-175.781250
4954		-167.968750
4955		-171.875000
4956		-164.062500
4957		-164.062500
4958		-156.250000
4959		-160.156250
4960		-152.343750
4961		-152.343750
4962		-148.437500
4963		-148.437500
4964		-140.625000
4965		-140.625000
4966		-132.812500
4967		-136.718750
4968		-128.906250
4969		-128.906250
4970		-121.093750
4971		-125.000000
4972		-113.281250
4973		-117.187500
4974		-109.375000
4975		-109.375000
4976		-101.562500
4977		-101.562500
4978		-93.750000
4979		-97.656250
4980		-85.937500
4981		-89.843750
4982		-82.031250
4983		-82.031250
4984		-74.218750
4985		-74.218750
4986		-66.406250
4987		-66.406250
4988		-58.593750
4989		-62.500000
4990		-50.781250
4991		-54.687500
4992		-42.968750
4993		-46.875000
4994		-35.156250
4995		-39.062500
4996		-27.343750
4997		-31.250000
4998		-23.437500
4999		-23.437500
5000		-15.625000
5001		-15.625000
5002		-7.812500
5003		-7.812500
5004		0.000000
5005		0.000000
5006		7.812500
5007		7.812500
5008		15.625000
5009		15.625000
5010		23.437500
5011		19.531250
5012		31.250000
5013		27.343750
5014		35.156250
5015		35.156250
5016		42.968750
5017		42.968750
5018		50.781250
5019		50.781250
5020		58.593750
5021		54.687500
5022		66.406250
5023		62.500000
5024		70.312500
5025		70.312500
5026		78.125000
5027		78.125000
5028		85.937500
5029		82.031250
5030		89.843750
5031		89.843750
5032		97.656250
5033		93.750000
5034		105.468750
5035		101.562500
5036		109.375000
5037		109.375000
5038		117.187500
5039		113.281250
5040		121.093750
5041		121.093750
5042		128.906250
5043		125.000000
5044		132.812500
5045		128.906250
5046		136.718750
5047		136.718750
5048		144.531250
5049		140.625000
5050		148.437500
5051		144.531250
5052		152.343750
5053		152.343750
5054		156.250000
5055		156.250000
5056		160.156250
5057		160.156250
5058		167.968750
5059		164.062500
5060		171.875000
5061		167.968750
5062		175.781250
5063		171.875000
5064		179.687500
5065		175.781250
5066		183.593750
5067		179.687500
5068		187.500000
5069		183.593750
5070		187.500000
5071		187.500000
5072		191.406250
5073		191.406250
5074		195.312500
5075		191.406250
5076		199.218750
5077		195.312500
5078		199.218750
5079		199.218750
5080		203.125000
5081		203.125000
5082		207.031250
5083		203.125000
5084		210.937500
5085		203.125000
5086		210.937500
5087		207.031250
5088		210.937500
5089		210.937500
5090		214.843750
5091		210.937500
5092		214.843750
5093		214.843750
5094		218.750000
5095		214.843750
5096		218.750000
5097		214.843750
5098		222.656250
5099		214.843750
5100		222.656250
5101		218.750000
5102		222.656250
5103		218.750000
5104		222.656250
5105		218.750000
5106		222.656250
5107		218.750000
5108		222.656250
5109		222.656250
5110		222.656250
5111		222.656250
5112		222.656250
5113		222.656250
5114		226.562500
5115		222.656250
5116		226.562500
5117		218.750000
5118		226.562500
5119		218.750000
5120		226.562500
5121		222.656250
5122		222.656250
5123		218.750000
5124		222.656250
5125		218.750000
5126		222.656250
5127		218.750000
5128		222.656250
5129		218.750000
5130		222.656250
5131		214.843750
5132		218.750000
5133		214.843750
5134		218.750000
5135		210.937500
5136		218.750000
5137		210.937500
5138		214.843750
5139		210.937500
5140		214.843750
5141		207.031250
5142		210.937500
5143		207.031250
5144		210.937500
5145		203.125000
5146		207.031250
5147		199.218750
5148		207.031250
5149		199.218750
5150		203.125000
5151		195.312500
5152		203.125000
5153		191.406250
5154		199.218750
5155		191.406250
5156		195.312500
5157		187.500000
5158		191.406250
5159		183.593750
5160		191.406250
5161		179.687500
5162		183.593750
5163		175.781250
5164		183.593750
5165		171.875000
5166		179.687500
5167		167.968750
5168		175.781250
5169		164.062500
5170		171.875000
5171		160.156250
5172		164.062500
5173		152.343750
5174		160.156250
5175		148.437500
5176		156.250000
5177		144.531250
5178		152.343750
5179		140.625000
5180		144.531250
5181		132.812500
5182		140.625000
5183		128.906250
5184		136.718750
5185		121.093750
5186		132.812500
5187		117.187500
5188		125.000000
5189		109.375000
5190		117.187500
5191		105.468750
5192		113.281250
5193		97.656250
5194		105.468750
5195		89.843750
5196		101.562500
5197		85.937500
5198		93.750000
5199		78.125000
5200		85.937500
5201		70.312500
5202		82.031250
5203		66.406250
5204		74.218750
5205		58.593750
5206		66.406250
5207		50.781250
5208		58.593750
5209		42.968750
5210		54.687500
5211		35.156250
5212		46.875000
5213		31.250000
5214		39.062500
5215		23.437500
5216		31.250000
5217		15.625000
5218		23.437500
5219		7.812500
5220		19.531250
5221		0.000000
5222		7.812500
5223		-7.812500
5224		0.000000
5225		-15.625000
5226		-3.906250
5227		-23.437500
5228		-11.718750
5229		-31.250000
5230		-19.531250
5231		-35.156250
5232		-27.343750
5233		-42.968750
5234		-35.156250
5235		-50.781250
5236		-42.968750
5237		-58.593750
5238		-50.781250
5239		-66.406250
5240		-54.687500
5241		-74.218750
5242		-62.500000
5243		-78.125000
5244		-70.312500
5245		-85.937500
5246		-78.125000
5247		-93.750000
5248		-85.937500
5249		-101.562500
5250		-93.750000
5251		-105.468750
5252		-97.656250
5253		-113.281250
5254		-105.468750
5255		-121.093750
5256		-113.281250
5257		-125.000000
5258		-117.187500
5259		-132.812500
5260		-125.000000
5261		-140.625000
5262		-128.906250
5263		-144.531250
5264		-136.718750
5265		-148.437500
5266		-140.625000
5267		-156.250000
5268		-148.437500
5269		-160.156250
5270		-152.343750
5271		-167.968750
5272		-160.156250
5273		-171.875000
5274		-164.062500
5275		-175.781250
5276		-167.968750
5277		-179.687500
5278		-175.781250
5279		-183.593750
5280		-179.687500
5281		-191.406250
5282		-183.593750
5283		-195.312500
5284		-187.500000
5285		-195.312500
5286		-191.406250
5287		-199.218750
5288		-195.312500
5289		-203.125000
5290		-199.218750
5291		-207.031250
5292		-203.125000
5293		-210.937500
5294		-203.125000
5295		-210.937500
5296		-207.031250
5297		-214.843750
5298		-210.937500
5299		-218.750000
5300		-210.937500
5301		-218.750000
5302		-214.843750
5303		-222.656250
5304		-214.843750
5305		-222.656250
5306		-218.750000
5307		-222.656250
5308		-218.750000
5309		-226.562500
5310		-222.656250
5311		-226.562500
5312		-222.656250
5313		-226.562500
5314		-222.656250
5315		-226.562500
5316		-222.656250
5317		-226.562500
5318		-222.656250
5319		-226.562500
5320		-222.656250
5321		-226.562500
5322		-222.656250
5323		-222.656250
5324		-218.750000
5325		-222.656250
5326		-218.750000
5327		-222.656250
5328		-218.750000
5329		-222.656250
5330		-214.843750
5331		-218.750000
5332		-214.843750
5333		-218.750000
5334		-214.843750
5335		-214.843750
5336		-210.937500
5337		-210.937500
5338		-207.031250
5339		-210.937500
5340		-207.031250
5341		-207.031250
5342		-203.125000
5343		-203.125000
5344		-199.218750
5345		-199.218750
5346		-195.312500
5347		-195.312500
5348		-191.406250
5349		-191.406250
5350		-187.500000
5351		-187.500000
5352		-183.593750
5353		-183.593750
5354		-179.687500
5355		-179.687500
5356		-171.875000
5357		-175.781250
5358		-167.968750
5359		-171.875000
5360		-164.062500
5361		-164.062500
5362		-156.250000
5363		-160.156250
5364		-152.343750
5365		-152.343750
5366		-144.531250
5367		-148.437500
5368		-140.625000
5369		-140.625000
5370		-132.812500
5371		-136.718750
5372		-128.906250
5373		-128.906250
5374		-121.093750
5375		-121.093750
5376		-113.281250
5377		-117.187500
5378		-109.375000
5379		-109.375000
5380		-101.562500
5381		-101.562500
5382		-93.750000
5383		-97.656250
5384		-85.937500
5385		-89.843750
5386		-78.125000
5387		-82.031250
5388		-74.218750
5389		-74.218750
5390		-66.406250
5391		-66.406250
5392		-58.593750
5393		-58.593750
5394		-50.781250
5395		-50.781250
5396		-42.968750
5397		-46.875000
5398		-35.156250
5399		-39.062500
5400		-27.343750
5401		-31.250000
5402		-19.531250
5403		-23.437500
5404		-11.718750
5405		-15.625000
5406		-3.906250
5407		-7.812500
5408		0.000000
5409		0.000000
5410		7.812500
5411		7.812500
5412		15.625000
5413		15.625000
5414		23.437500
5415		23.437500
5416		31.250000
5417		27.343750
5418		39.062500
5419		35.156250
5420		46.875000
5421		42.968750
5422		50.781250
5423		50.781250
5424		58.593750
5425		58.593750
5426		66.406250
5427		62.500000
5428		74.218750
5429		70.312500
5430		78.125000
5431		78.125000
5432		85.937500
5433		82.031250
5434		93.750000
5435		89.843750
5436		97.656250
5437		97.656250
5438		105.468750
5439		101.562500
5440		109.375000
5441		109.375000
5442		117.187500
5443		113.281250
5444		125.000000
5445		121.093750
5446		128.906250
5447		125.000000
5448		132.812500
5449		132.812500
5450		136.718750
5451		136.718750
5452		144.531250
5453		140.625000
5454		148.437500
5455		144.531250
5456		152.343750
5457		152.343750
5458		156.250000
5459		156.250000
5460		164.062500
5461		160.156250
5462		167.968750
5463		164.062500
5464		171.875000
5465		167.968750
5466		175.781250
5467		171.875000
5468		179.687500
5469		175.781250
5470		183.593750
5471		179.687500
5472		187.500000
5473		183.593750
5474		187.500000
5475		187.500000
5476		191.406250
5477		191.406250
5478		195.312500
5479		191.406250
5480		199.218750
5481		195.312500
5482		203.125000
5483		199.218750
5484		203.125000
5485		203.125000
5486		207.031250
5487		203.125000
5488		207.031250
5489		207.031250
5490		210.937500
5491		207.031250
5492		210.937500
5493		210.937500
5494		214.843750
5495		210.937500
5496		214.843750
5497		214.843750
5498		218.750000
5499		214.843750
5500		218.750000
5501		214.843750
5502		218.750000
5503		218.750000
5504		222.656250
5505		218.750000
5506		222.656250
5507		218.750000
5508		222.656250
5509		218.750000
5510		222.656250
5511		218.750000
5512		222.656250
5513		222.656250
5514		222.656250
5515		218.750000
5516		226.562500
5517		222.656250
5518		222.656250
5519		222.656250
5520		222.656250
5521		218.750000
5522		222.656250
5523		218.750000
5524		222.656250
5525		218.750000
5526		222.656250
5527		218.750000
5528		222.656250
5529		218.750000
5530		222.656250
5531		218.750000
5532		222.656250
5533		218.750000
5534		222.656250
5535		214.843750
5536		218.750000
5537		214.843750
5538		218.750000
5539		214.843750
5540		214.843750
5541		210.937500
5542		214.843750
5543		210.937500
5544		214.843750
5545		207.031250
5546		210.937500
5547		207.031250
5548		210.937500
5549		203.125000
5550		207.031250
5551		199.218750
5552		207.031250
5553		199.218750
5554		203.125000
5555		195.312500
5556		199.218750
5557		191.406250
5558		195.312500
5559		187.500000
5560		195.312500
5561		187.500000
5562		191.406250
5563		183.593750
5564		187.500000
5565		179.687500
5566		183.593750
5567		175.781250
5568		179.687500
5569		171.875000
5570		175.781250
5571		167.968750
5572		171.875000
5573		160.156250
5574		167.968750
5575		156.250000
5576		164.062500
5577		152.343750
5578		160.156250
5579		148.437500
5580		156.250000
5581		140.625000
5582		148.437500
5583		136.718750
5584		144.531250
5585		132.812500
5586		140.625000
5587		125.000000
5588		132.812500
5589		121.093750
5590		128.906250
5591		113.281250
5592		121.093750
5593		109.375000
5594		117.187500
5595		101.562500
5596		109.375000
5597		97.656250
5598		105.468750
5599		89.843750
5600		97.656250
5601		82.031250
5602		93.750000
5603		78.125000
5604		85.937500
5605		70.312500
5606		78.125000
5607		62.500000
5608		70.312500
5609		54.687500
5610		66.406250
5611		50.781250
5612		58.593750
5613		42.968750
5614		50.781250
5615		35.156250
5616		42.968750
5617		27.343750
5618		35.156250
5619		19.531250
5620		31.250000
5621		11.718750
5622		23.437500
5623		7.812500
5624		15.625000
5625		0.000000
5626		7.812500
5627		-7.812500
5628		0.000000
5629		-15.625000
5630		-7.812500
5631		-23.437500
5632		-15.625000
5633		-31.250000
5634		-23.437500
5635		-39.062500
5636		-27.343750
5637		-46.875000
5638		-35.156250
5639		-54.687500
5640		-42.968750
5641		-58.593750
5642		-50.781250
5643		-66.406250
5644		-58.593750
5645		-74.218750
5646		-66.406250
5647		-82.031250
5648		-74.218750
5649		-89.843750
5650		-78.125000
5651		-93.750000
5652		-85.937500
5653		-101.562500
5654		-93.750000
5655		-109.375000
5656		-101.562500
5657		-117.187500
5658		-105.468750
5659		-121.093750
5660		-113.281250
5661		-128.906250
5662		-121.093750
5663		-132.812500
5664		-125.000000
5665		-140.625000
5666		-132.812500
5667		-144.531250
5668		-136.718750
5669		-152.343750
5670		-144.531250
5671		-156.250000
5672		-148.437500
5673		-164.062500
5674		-156.250000
5675		-167.968750
5676		-160.156250
5677		-171.875000
5678		-164.062500
5679		-175.781250
5680		-171.875000
5681		-183.593750
5682		-175.781250
5683		-187.500000
5684		-179.687500
5685		-191.406250
5686		-183.593750
5687		-195.312500
5688		-187.500000
5689		-199.218750
5690		-191.406250
5691		-203.125000
5692		-195.312500
5693		-203.125000
5694		-199.218750
5695		-207.031250
5696		-203.125000
5697		-210.937500
5698		-207.031250
5699		-214.843750
5700		-207.031250
5701		-214.843750
5702		-210.937500
5703		-218.750000
5704		-214.843750
5705		-218.750000
5706		-214.843750
5707		-222.656250
5708		-218.750000
5709		-222.656250
5710		-218.750000
5711		-226.562500
5712		-218.750000
5713		-226.562500
5714		-222.656250
5715		-226.562500
5716		-222.656250
5717		-226.562500
5718		-222.656250
5719		-226.562500
5720		-222.656250
5721		-226.562500
5722		-222.656250
5723		-226.562500
5724		-222.656250
5725		-226.562500
5726		-222.656250
5727		-226.562500
5728		-222.656250
5729		-222.656250
5730		-218.750000
5731		-222.656250
5732		-218.750000
5733		-222.656250
5734		-218.750000
5735		-218.750000
5736		-214.843750
5737		-218.750000
5738		-214.843750
5739		-214.843750
5740		-210.937500
5741		-214.843750
5742		-207.031250
5743		-210.937500
5744		-207.031250
5745		-207.031250
5746		-203.125000
5747		-203.125000
5748		-199.218750
5749		-199.218750
5750		-195.312500
5751		-195.312500
5752		-191.406250
5753		-191.406250
5754		-187.500000
5755		-187.500000
5756		-183.593750
5757		-183.593750
5758		-175.781250
5759		-179.687500
5760		-171.875000
5761		-175.781250
5762		-167.968750
5763		-167.968750
5764		-164.062500
5765		-164.062500
5766		-156.250000
5767		-160.156250
5768		-152.343750
5769		-152.343750
5770		-144.531250
5771		-148.437500
5772		-140.625000
5773		-140.625000
5774		-132.812500
5775		-136.718750
5776		-128.906250
5777		-128.906250
5778		-121.093750
5779		-121.093750
5780		-113.281250
5781		-117.187500
5782		-105.468750
5783		-109.375000
5784		-101.562500
5785		-101.562500
5786		-93.750000
5787		-93.750000
5788		-85.937500
5789		-89.843750
5790		-78.125000
5791		-82.031250
5792		-74.218750
5793		-74.218750
5794		-66.406250
5795		-66.406250
5796		-58.593750
5797		-58.593750
5798		-50.781250
5799		-50.781250
5800		-42.968750
5801		-46.875000
5802		-35.156250
5803		-39.062500
5804		-27.343750
5805		-31.250000
5806		-19.531250
5807		-23.437500
5808		-11.718750
5809		-15.625000
5810		-3.906250
5811		-7.812500
5812		3.906250
5813		0.000000
5814		11.718750
5815		7.812500
5816		15.625000
5817		15.625000
5818		23.437500
5819		23.437500
5820		31.250000
5821		27.343750
5822		39.062500
5823		35.156250
5824		46.875000
5825		42.968750
5826		50.781250
5827		50.781250
5828		58.593750
5829		58.593750
5830		66.406250
5831		62.500000
5832		74.218750
5833		70.312500
5834		78.125000
5835		78.125000
5836		85.937500
5837		85.937500
5838		93.750000
5839		89.843750
5840		97.656250
5841		97.656250
5842		105.468750
5843		101.562500
5844		109.375000
5845		109.375000
5846		117.187500
5847		113.281250
5848		121.093750
5849		121.093750
5850		128.906250
5851		125.000000
5852		132.812500
5853		132.812500
5854		140.625000
5855		136.718750
5856		144.531250
5857		140.625000
5858		148.437500
5859		148.437500
5860		152.343750
5861		152.343750
5862		160.156250
5863		156.250000
5864		164.062500
5865		160.156250
5866		167.968750
5867		164.062500
5868		171.875000
5869		167.968750
5870		175.781250
5871		171.875000
5872		179.687500
5873		175.781250
5874		183.593750
5875		179.687500
5876		187.500000
5877		183.593750
5878		187.500000
5879		187.500000
5880		191.406250
5881		191.406250
5882		195.312500
5883		195.312500
5884		199.218750
5885		195.312500
5886		203.125000
5887		199.218750
5888		203.125000
5889		203.125000
5890		207.031250
5891		203.125000
5892		207.031250
5893		207.031250
5894		210.937500
5895		207.031250
5896		210.937500
5897		210.937500
5898		214.843750
5899		210.937500
5900		214.843750
5901		214.843750
5902		214.843750
5903		214.843750
5904		218.750000
5905		214.843750
5906		218.750000
5907		214.843750
5908		222.656250
5909		218.750000
5910		222.656250
5911		218.750000
5912		222.656250
5913		218.750000
5914		222.656250
5915		218.750000
5916		222.656250
5917		218.750000
5918		222.656250
5919		218.750000
5920		222.656250
5921		222.656250
5922		222.656250
5923		222.656250
5924		222.656250
5925		222.656250
5926		226.562500
5927		218.750000
5928		222.656250
5929		218.750000
5930		222.656250
5931		218.750000
5932		222.656250
5933		218.750000
5934		222.656250
5935		218.750000
5936		222.656250
5937		214.843750
5938		218.750000
5939		214.843750
5940		218.750000
5941		214.843750
5942		218.750000
5943		210.937500
5944		214.843750
5945		210.937500
5946		214.843750
5947		207.031250
5948		214.843750
5949		207.031250
5950		210.937500
5951		203.125000
5952		210.937500
5953		203.125000
5954		207.031250
5955		199.218750
5956		203.125000
5957		199.218750
5958		203.125000
5959		195.312500
5960		199.218750
5961		191.406250
5962		195.312500
5963		187.500000
5964		195.312500
5965		183.593750
5966		191.406250
5967		179.687500
5968		187.500000
5969		175.781250
5970		183.593750
5971		175.781250
5972		179.687500
5973		167.968750
5974		175.781250
5975		164.062500
5976		171.875000
5977		160.156250
5978		167.968750
5979		156.250000
5980		164.062500
5981		152.343750
5982		156.250000
5983		148.437500
5984		152.343750
5985		140.625000
5986		148.437500
5987		136.718750
5988		144.531250
5989		128.906250
5990		136.718750
5991		125.000000
5992		132.812500
5993		121.093750
5994		128.906250
5995		113.281250
5996		121.093750
5997		105.468750
5998		117.187500
5999		101.562500
6000		109.375000
6001		93.750000
6002		101.562500
6003		89.843750
6004		97.656250
6005		82.031250
6006		89.843750
6007		74.218750
6008		82.031250
6009		70.312500
6010		78.125000
6011		62.500000
6012		70.312500
6013		54.687500
6014		62.500000
6015		46.875000
6016		54.687500
6017		39.062500
6018		50.781250
6019		35.156250
6020		42.968750
6021		27.343750
6022		35.156250
6023		19.531250
6024		27.343750
6025		11.718750
6026		19.531250
6027		3.906250
6028		11.718750
6029		-3.906250
6030		3.906250
6031		-11.718750
6032		3.906250
6033		-19.531250
6034		-7.812500
6035		-23.437500
6036		-15.625000
6037		-39.062500
6038		-7.812500
6039		-39.062500
6040		-31.250000
6041		-46.875000
6042		-39.062500
6043		-54.687500
6044		-46.875000
6045		-62.500000
6046		-54.687500
6047		-70.312500
6048		-58.593750
6049		-74.218750
6050		-66.406250
6051		-82.031250
6052		-74.218750
6053		-89.843750
6054		-82.031250
6055		-97.656250
6056		-85.937500
6057		-105.468750
6058		-93.750000
6059		-109.375000
6060		-101.562500
6061		-117.187500
6062		-109.375000
6063		-125.000000
6064		-113.281250
6065		-128.906250
6066		-121.093750
6067		-136.718750
6068		-128.906250
6069		-140.625000
6070		-132.812500
6071		-148.437500
6072		-140.625000
6073		-152.343750
6074		-144.531250
6075		-156.250000
6076		-148.437500
6077		-164.062500
6078		-156.250000
6079		-167.968750
6080		-160.156250
6081		-171.875000
6082		-167.968750
6083		-179.687500
6084		-171.875000
6085		-183.593750
6086		-175.781250
6087		-187.500000
6088		-179.687500
6089		-191.406250
6090		-183.593750
6091		-195.312500
6092		-187.500000
6093		-199.218750
6094		-191.406250
6095		-203.125000
6096		-195.312500
6097		-207.031250
6098		-199.218750
6099		-210.937500
6100		-203.125000
6101		-210.937500
6102		-207.031250
6103		-214.843750
6104		-207.031250
6105		-214.843750
6106		-210.937500
6107		-218.750000
6108		-214.843750
6109		-218.750000
6110		-214.843750
6111		-222.656250
6112		-218.750000
6113		-222.656250
6114		-218.750000
6115		-222.656250
6116		-222.656250
6117		-226.562500
6118		-218.750000
6119		-226.562500
6120		-218.750000
6121		-226.562500
6122		-222.656250
6123		-226.562500
6124		-222.656250
6125		-226.562500
6126		-222.656250
6127		-226.562500
6128		-222.656250
6129		-226.562500
6130		-222.656250
6131		-222.656250
6132		-222.656250
6133		-222.656250
6134		-218.750000
6135		-222.656250
6136		-218.750000
6137		-222.656250
6138		-214.843750
6139		-218.750000
6140		-214.843750
6141		-214.843750
6142		-210.937500
6143		-214.843750
6144		-207.031250
6145		-214.843750
6146		-207.031250
6147		-207.031250
6148		-203.125000
6149		-207.031250
6150		-199.218750
6151		-203.125000
6152		-195.312500
6153		-199.218750
6154		-191.406250
6155		-195.312500
6156		-187.500000
6157		-191.406250
6158		-183.593750
6159		-187.500000
6160		-179.687500
6161		-183.593750
6162		-175.781250
6163		-179.687500
6164		-171.875000
6165		-171.875000
6166		-164.062500
6167		-167.968750
6168		-156.250000
6169		-164.062500
6170		-156.250000
6171		-160.156250
6172		-148.437500
6173		-152.343750
6174		-144.531250
6175		-144.531250
6176		-136.718750
6177		-140.625000
6178		-128.906250
6179		-132.812500
6180		-125.000000
6181		-125.000000
6182		-117.187500
6183		-121.093750
6184		-109.375000
6185		-113.281250
6186		-105.468750
6187		-105.468750
6188		-97.656250
6189		-97.656250
6190		-89.843750
6191		-93.750000
6192		-85.937500
6193		-85.937500
6194		-74.218750
6195		-78.125000
6196		-70.312500
6197		-74.218750
6198		-62.500000
6199		-62.500000
6200		-54.687500
6201		-58.593750
6202		-46.875000
6203		-46.875000
6204		-35.156250
6205		-42.968750
6206		-31.250000
6207		-35.156250
6208		-23.437500
6209		-27.343750
6210		-15.625000
6211		-19.531250
6212		-7.812500
6213		-11.718750
6214		-3.906250
6215		-3.906250
6216		3.906250
6217		3.906250
6218		15.625000
6219		7.812500
6220		19.531250
6221		15.625000
6222		27.343750
6223		23.437500
6224		35.156250
6225		31.250000
6226		39.062500
6227		39.062500
6228		46.875000
6229		42.968750
6230		54.687500
6231		54.687500
6232		62.500000
6233		58.593750
6234		70.312500
6235		66.406250
6236		78.125000
6237		74.218750
6238		82.031250
6239		82.031250
6240		89.843750
6241		85.937500
6242		93.750000
6243		93.750000
6244		101.562500
6245		97.656250
6246		109.375000
6247		105.468750
6248		113.281250
6249		109.375000
6250		117.187500
6251		117.187500
6252		128.906250
6253		121.093750
6254		128.906250
6255		125.000000
6256		136.718750
6257		132.812500
6258		140.625000
6259		140.625000
6260		144.531250
6261		144.531250
6262		152.343750
6263		144.531250
6264		156.250000
6265		152.343750
6266		160.156250
6267		156.250000
6268		167.968750
6269		160.156250
6270		167.968750
6271		167.968750
6272		175.781250
6273		171.875000
6274		175.781250
6275		175.781250
6276		179.687500
6277		179.687500
6278		187.500000
6279		179.687500
6280		187.500000
6281		183.593750
6282		191.406250
6283		187.500000
6284		195.312500
6285		191.406250
6286		199.218750
6287		195.312500
6288		199.218750
6289		195.312500
6290		203.125000
6291		199.218750
6292		203.125000
6293		203.125000
6294		207.031250
6295		203.125000
6296		210.937500
6297		207.031250
6298		210.937500
6299		210.937500
6300		210.937500
6301		210.937500
6302		218.750000
6303		210.937500
6304		218.750000
6305		210.937500
6306		218.750000
6307		214.843750
6308		218.750000
6309		214.843750
6310		218.750000
6311		218.750000
6312		222.656250
6313		214.843750
6314		222.656250
6315		218.750000
6316		222.656250
6317		218.750000
6318		222.656250
6319		218.750000
6320		226.562500
6321		218.750000
6322		226.562500
6323		222.656250
6324		222.656250
6325		222.656250
6326		226.562500
6327		218.750000
6328		226.562500
6329		218.750000
6330		226.562500
6331		218.750000
6332		226.562500
6333		218.750000
6334		222.656250
6335		218.750000
6336		226.562500
6337		214.843750
6338		226.562500
6339		218.750000
6340		222.656250
6341		218.750000
6342		222.656250
6343		214.843750
6344		218.750000
6345		214.843750
6346		218.750000
6347		210.937500
6348		218.750000
6349		210.937500
6350		214.843750
6351		207.031250
6352		214.843750
6353		207.031250
6354		210.937500
6355		203.125000
6356		210.937500
6357		203.125000
6358		207.031250
6359		199.218750
6360		203.125000
6361		199.218750
6362		203.125000
6363		191.406250
6364		199.218750
6365		191.406250
6366		199.218750
6367		187.500000
6368		195.312500
6369		183.593750
6370		191.406250
6371		179.687500
6372		187.500000
6373		179.687500
6374		183.593750
6375		171.875000
6376		179.687500
6377		167.968750
6378		175.781250
6379		164.062500
6380		171.875000
6381		160.156250
6382		167.968750
6383		156.250000
6384		164.062500
6385		152.343750
6386		160.156250
6387		148.437500
6388		152.343750
6389		140.625000
6390		148.437500
6391		136.718750
6392		144.531250
6393		128.906250
6394		136.718750
6395		125.000000
6396		132.812500
6397		121.093750
6398		128.906250
6399		113.281250
6400		121.093750
6401		105.468750
6402		117.187500
6403		101.562500
6404		109.375000
6405		93.750000
6406		101.562500
6407		89.843750
6408		97.656250
6409		82.031250
6410		89.843750
6411		74.218750
6412		85.937500
6413		70.312500
6414		78.125000
6415		62.500000
6416		70.312500
6417		54.687500
6418		62.500000
6419		46.875000
6420		54.687500
6421		39.062500
6422		50.781250
6423		35.156250
6424		42.968750
6425		27.343750
6426		35.156250
6427		19.531250
6428		27.343750
6429		11.718750
6430		19.531250
6431		3.906250
6432		15.625000
6433		-3.906250
6434		7.812500
6435		-11.718750
6436		0.000000
6437		-19.531250
6438		-7.812500
6439		-23.437500
6440		-15.625000
6441		-31.250000
6442		-23.437500
6443		-39.062500
6444		-31.250000
6445		-46.875000
6446		-39.062500
6447		-54.687500
6448		-42.968750
6449		-62.500000
6450		-50.781250
6451		-70.312500
6452		-58.593750
6453		-78.125000
6454		-66.406250
6455		-85.937500
6456		-74.218750
6457		-89.843750
6458		-78.125000
6459		-97.656250
6460		-85.937500
6461		-105.468750
6462		-93.750000
6463		-109.375000
6464		-101.562500
6465		-117.187500
6466		-109.375000
6467		-125.000000
6468		-113.281250
6469		-128.906250
6470		-121.093750
6471		-136.718750
6472		-125.000000
6473		-140.625000
6474		-132.812500
6475		-144.531250
6476		-140.625000
6477		-152.343750
6478		-144.531250
6479		-160.156250
6480		-148.437500
6481		-164.062500
6482		-156.250000
6483		-167.968750
6484		-160.156250
6485		-171.875000
6486		-164.062500
6487		-179.687500
6488		-171.875000
6489		-183.593750
6490		-175.781250
6491		-187.500000
6492		-179.687500
6493		-191.406250
6494		-183.593750
6495		-195.312500
6496		-187.500000
6497		-199.218750
6498		-191.406250
6499		-203.125000
6500		-195.312500
6501		-207.031250
6502		-199.218750
6503		-207.031250
6504		-203.125000
6505		-210.937500
6506		-203.125000
6507		-214.843750
6508		-207.031250
6509		-214.843750
6510		-210.937500
6511		-218.750000
6512		-214.843750
6513		-218.750000
6514		-214.843750
6515		-222.656250
6516		-214.843750
6517		-222.656250
6518		-218.750000
6519		-222.656250
6520		-218.750000
6521		-226.562500
6522		-218.750000
6523		-226.562500
6524		-218.750000
6525		-226.562500
6526		-222.656250
6527		-226.562500
6528		-222.656250
6529		-226.562500
6530		-222.656250
6531		-226.562500
6532		-222.656250
6533		-226.562500
6534		-218.750000
6535		-226.562500
6536		-218.750000
6537		-222.656250
6538		-218.750000
6539		-222.656250
6540		-218.750000
6541		-218.750000
6542		-214.843750
6543		-218.750000
6544		-214.843750
6545		-214.843750
6546		-210.937500
6547		-214.843750
6548		-207.031250
6549		-210.937500
6550		-207.031250
6551		-207.031250
6552		-203.125000
6553		-207.031250
6554		-199.218750
6555		-203.125000
6556		-195.312500
6557		-199.218750
6558		-191.406250
6559		-195.312500
6560		-187.500000
6561		-191.406250
6562		-183.593750
6563		-187.500000
6564		-179.687500
6565		-183.593750
6566		-175.781250
6567		-175.781250
6568		-171.875000
6569		-175.781250
6570		-164.062500
6571		-167.968750
6572		-160.156250
6573		-160.156250
6574		-156.250000
6575		-156.250000
6576		-148.437500
6577		-152.343750
6578		-144.531250
6579		-144.531250
6580		-136.718750
6581		-140.625000
6582		-132.812500
6583		-132.812500
6584		-125.000000
6585		-125.000000
6586		-117.187500
6587		-121.093750
6588		-113.281250
6589		-113.281250
6590		-105.468750
6591		-105.468750
6592		-97.656250
6593		-101.562500
6594		-89.843750
6595		-93.750000
6596		-82.031250
6597		-85.937500
6598		-74.218750
6599		-78.125000
6600		-70.312500
6601		-70.312500
6602		-62.500000
6603		-62.500000
6604		-54.687500
6605		-58.593750
6606		-46.875000
6607		-50.781250
6608		-39.062500
6609		-42.968750
6610		-31.250000
6611		-35.156250
6612		-23.437500
6613		-27.343750
6614		-15.625000
6615		-19.531250
6616		-11.718750
6617		-11.718750
6618		-3.906250
6619		-3.906250
6620		3.906250
6621		3.906250
6622		11.718750
6623		11.718750
6624		19.531250
6625		19.531250
6626		27.343750
6627		23.437500
6628		35.156250
6629		31.250000
6630		42.968750
6631		39.062500
6632		46.875000
6633		46.875000
6634		54.687500
6635		50.781250
6636		62.500000
6637		58.593750
6638		70.312500
6639		66.406250
6640		74.218750
6641		74.218750
6642		82.031250
6643		82.031250
6644		89.843750
6645		85.937500
6646		93.750000
6647		93.750000
6648		101.562500
6649		97.656250
6650		105.468750
6651		105.468750
6652		113.281250
6653		109.375000
6654		121.093750
6655		117.187500
6656		125.000000
6657		121.093750
6658		128.906250
6659		128.906250
6660		136.718750
6661		132.812500
6662		140.625000
6663		140.625000
6664		144.531250
6665		144.531250
6666		152.343750
6667		148.437500
6668		156.250000
6669		152.343750
6670		160.156250
6671		160.156250
6672		164.062500
6673		164.062500
6674		167.968750
6675		167.968750
6676		171.875000
6677		171.875000
6678		175.781250
6679		175.781250
6680		179.687500
6681		179.687500
6682		183.593750
6683		183.593750
6684		187.500000
6685		187.500000
6686		191.406250
6687		187.500000
6688		195.312500
6689		191.406250
6690		199.218750
6691		195.312500
6692		199.218750
6693		199.218750
6694		203.125000
6695		199.218750
6696		203.125000
6697		203.125000
6698		207.031250
6699		203.125000
6700		210.937500
6701		207.031250
6702		210.937500
6703		210.937500
6704		214.843750
6705		210.937500
6706		214.843750
6707		210.937500
6708		214.843750
6709		214.843750
6710		218.750000
6711		214.843750
6712		218.750000
6713		214.843750
6714		222.656250
6715		218.750000
6716		222.656250
6717		218.750000
6718		222.656250
6719		218.750000
6720		222.656250
6721		218.750000
6722		222.656250
6723		218.750000
6724		222.656250
6725		222.656250
6726		222.656250
6727		222.656250
6728		222.656250
6729		222.656250
6730		222.656250
6731		218.750000
6732		226.562500
6733		218.750000
6734		222.656250
6735		218.750000
6736		222.656250
6737		218.750000
6738		222.656250
6739		218.750000
6740		222.656250
6741		218.750000
6742		222.656250
6743		218.750000
6744		222.656250
6745		214.843750
6746		218.750000
6747		214.843750
6748		218.750000
6749		214.843750
6750		218.750000
6751		210.937500
6752		214.843750
6753		210.937500
6754		214.843750
6755		207.031250
6756		210.937500
6757		207.031250
6758		210.937500
6759		203.125000
6760		210.937500
6761		203.125000
6762		207.031250
6763		199.218750
6764		203.125000
6765		195.312500
6766		203.125000
6767		195.312500
6768		199.218750
6769		191.406250
6770		195.312500
6771		187.500000
6772		191.406250
6773		183.593750
6774		191.406250
6775		179.687500
6776		187.500000
6777		175.781250
6778		183.593750
6779		171.875000
6780		179.687500
6781		167.968750
6782		175.781250
6783		164.062500
6784		171.875000
6785		160.156250
6786		167.968750
6787		156.250000
6788		164.062500
6789		148.437500
6790		156.250000
6791		144.531250
6792		152.343750
6793		140.625000
6794		148.437500
6795		136.718750
6796		140.625000
6797		128.906250
6798		136.718750
6799		125.000000
6800		132.812500
6801		117.187500
6802		125.000000
6803		113.281250
6804		121.093750
6805		105.468750
6806		113.281250
6807		97.656250
6808		109.375000
6809		93.750000
6810		101.562500
6811		85.937500
6812		93.750000
6813		82.031250
6814		89.843750
6815		74.218750
6816		82.031250
6817		66.406250
6818		74.218750
6819		58.593750
6820		70.312500
6821		50.781250
6822		62.500000
6823		46.875000
6824		54.687500
6825		39.062500
6826		46.875000
6827		31.250000
6828		39.062500
6829		23.437500
6830		31.250000
6831		15.625000
6832		27.343750
6833		7.812500
6834		19.531250
6835		3.906250
6836		11.718750
6837		-7.812500
6838		3.906250
6839		-11.718750
6840		-3.906250
6841		-19.531250
6842		-11.718750
6843		-27.343750
6844		-19.531250
6845		-35.156250
6846		-27.343750
6847		-42.968750
6848		-31.250000
6849		-50.781250
6850		-39.062500
6851		-58.593750
6852		-46.875000
6853		-62.500000
6854		-54.687500
6855		-70.312500
6856		-62.500000
6857		-78.125000
6858		-70.312500
6859		-85.937500
6860		-78.125000
6861		-93.750000
6862		-82.031250
6863		-97.656250
6864		-89.843750
6865		-105.468750
6866		-97.656250
6867		-113.281250
6868		-101.562500
6869		-117.187500
6870		-109.375000
6871		-125.000000
6872		-117.187500
6873		-132.812500
6874		-125.000000
6875		-136.718750
6876		-128.906250
6877		-144.531250
6878		-136.718750
6879		-148.437500
6880		-140.625000
6881		-156.250000
6882		-148.437500
6883		-160.156250
6884		-152.343750
6885		-164.062500
6886		-160.156250
6887		-171.875000
6888		-164.062500
6889		-175.781250
6890		-167.968750
6891		-179.687500
6892		-171.875000
6893		-183.593750
6894		-179.687500
6895		-187.500000
6896		-183.593750
6897		-191.406250
6898		-187.500000
6899		-195.312500
6900		-191.406250
6901		-199.218750
6902		-195.312500
6903		-203.125000
6904		-199.218750
6905		-207.031250
6906		-203.125000
6907		-210.937500
6908		-203.125000
6909		-214.843750
6910		-207.031250
6911		-214.843750
6912		-210.937500
6913		-218.750000
6914		-214.843750
6915		-218.750000
6916		-214.843750
6917		-222.656250
6918		-218.750000
6919		-222.656250
6920		-218.750000
6921		-222.656250
6922		-218.750000
6923		-226.562500
6924		-218.750000
6925		-226.562500
6926		-222.656250
6927		-226.562500
6928		-222.656250
6929		-226.562500
6930		-222.656250
6931		-226.562500
6932		-222.656250
6933		-226.562500
6934		-222.656250
6935		-226.562500
6936		-222.656250
6937		-226.562500
6938		-222.656250
6939		-226.562500
6940		-222.656250
6941		-222.656250
6942		-218.750000
6943		-222.656250
6944		-218.750000
6945		-222.656250
6946		-218.750000
6947		-218.750000
6948		-214.843750
6949		-218.750000
6950		-210.937500
6951		-214.843750
6952		-210.937500
6953		-210.937500
6954		-207.031250
6955		-210.937500
6956		-203.125000
6957		-207.031250
6958		-199.218750
6959		-203.125000
6960		-195.312500
6961		-199.218750
6962		-195.312500
6963		-195.312500
6964		-191.406250
6965		-191.406250
6966		-183.593750
6967		-187.500000
6968		-179.687500
6969		-183.593750
6970		-175.781250
6971		-179.687500
6972		-171.875000
6973		-171.875000
6974		-167.968750
6975		-167.968750
6976		-160.156250
6977		-164.062500
6978		-156.250000
6979		-156.250000
6980		-148.437500
6981		-152.343750
6982		-144.531250
6983		-144.531250
6984		-136.718750
6985		-140.625000
6986		-132.812500
6987		-132.812500
6988		-125.000000
6989		-125.000000
6990		-117.187500
6991		-121.093750
6992		-113.281250
6993		-113.281250
6994		-105.468750
6995		-105.468750
6996		-97.656250
6997		-101.562500
6998		-89.843750
6999		-93.750000
7000		-82.031250
7001		-85.937500
7002		-78.125000
7003		-78.125000
7004		-70.312500
7005		-70.312500
7006		-62.500000
7007		-62.500000
7008		-54.687500
7009		-54.687500
7010		-46.875000
7011		-46.875000
7012		-39.062500
7013		-42.968750
7014		-31.250000
7015		-35.156250
7016		-23.437500
7017		-27.343750
7018		-15.625000
7019		-19.531250
7020		-11.718750
7021		-11.718750
7022		-3.906250
7023		-3.906250
7024		3.906250
7025		3.906250
7026		11.718750
7027		11.718750
7028		19.531250
7029		15.625000
7030		27.343750
7031		23.437500
7032		35.156250
7033		31.250000
7034		42.968750
7035		39.062500
7036		46.875000
7037		46.875000
7038		54.687500
7039		54.687500
7040		62.500000
7041		58.593750
7042		70.312500
7043		66.406250
7044		74.218750
7045		74.218750
7046		82.031250
7047		82.031250
7048		89.843750
7049		85.937500
7050		93.750000
7051		93.750000
7052		101.562500
7053		101.562500
7054		109.375000
7055		105.468750
7056		113.281250
7057		113.281250
7058		117.187500
7059		117.187500
7060		125.000000
7061		125.000000
7062		128.906250
7063		128.906250
7064		136.718750
7065		132.812500
7066		140.625000
7067		140.625000
7068		144.531250
7069		144.531250
7070		152.343750
7071		148.437500
7072		156.250000
7073		152.343750
7074		160.156250
7075		160.156250
7076		164.062500
7077		160.156250
7078		167.968750
7079		167.968750
7080		171.875000
7081		171.875000
7082		175.781250
7083		175.781250
7084		179.687500
7085		179.687500
7086		183.593750
7087		179.687500
7088		187.500000
7089		187.500000
7090		191.406250
7091		187.500000
7092		195.312500
7093		191.406250
7094		199.218750
7095		195.312500
7096		199.218750
7097		195.312500
7098		203.125000
7099		199.218750
7100		203.125000
7101		199.218750
7102		207.031250
7103		203.125000
7104		207.031250
7105		207.031250
7106		210.937500
7107		207.031250
7108		210.937500
7109		210.937500
7110		214.843750
7111		210.937500
7112		214.843750
7113		210.937500
7114		218.750000
7115		214.843750
7116		218.750000
7117		214.843750
7118		218.750000
7119		214.843750
7120		218.750000
7121		218.750000
7122		222.656250
7123		218.750000
7124		222.656250
7125		218.750000
7126		222.656250
7127		218.750000
7128		222.656250
7129		218.750000
7130		222.656250
7131		218.750000
7132		222.656250
7133		218.750000
7134		222.656250
7135		218.750000
7136		222.656250
7137		218.750000
7138		222.656250
7139		218.750000
7140		222.656250
7141		218.750000
7142		222.656250
7143		218.750000
7144		222.656250
7145		218.750000
7146		222.656250
7147		214.843750
7148		218.750000
7149		214.843750
7150		218.750000
7151		214.843750
7152		218.750000
7153		210.937500
7154		214.843750
7155		210.937500
7156		214.843750
7157		207.031250
7158		214.843750
7159		207.031250
7160		210.937500
7161		207.031250
7162		210.937500
7163		203.125000
7164		207.031250
7165		199.218750
7166		207.031250
7167		199.218750
7168		203.125000
7169		195.312500
7170		199.218750
7171		191.406250
7172		195.312500
7173		187.500000
7174		195.312500
7175		187.500000
7176		191.406250
7177		183.593750
7178		187.500000
7179		179.687500
7180		187.500000
7181		175.781250
7182		179.687500
7183		171.875000
7184		175.781250
7185		167.968750
7186		175.781250
7187		164.062500
7188		167.968750
7189		156.250000
7190		164.062500
7191		152.343750
7192		160.156250
7193		148.437500
7194		156.250000
7195		144.531250
7196		152.343750
7197		136.718750
7198		144.531250
7199		132.812500
7200		140.625000
7201		128.906250
7202		132.812500
7203		121.093750
7204		128.906250
7205		113.281250
7206		125.000000
7207		109.375000
7208		117.187500
7209		105.468750
7210		113.281250
7211		97.656250
7212		105.468750
7213		89.843750
7214		97.656250
7215		85.937500
7216		93.750000
7217		78.125000
7218		85.937500
7219		70.312500
7220		78.125000
7221		62.500000
7222		74.218750
7223		58.593750
7224		66.406250
7225		50.781250
7226		58.593750
7227		42.968750
7228		50.781250
7229		35.156250
7230		46.875000
7231		27.343750
7232		39.062500
7233		23.437500
7234		31.250000
7235		11.718750
7236		23.437500
7237		7.812500
7238		15.625000
7239		0.000000
7240		7.812500
7241		-7.812500
7242		0.000000
7243		-15.625000
7244		-7.812500
7245		-23.437500
7246		-11.718750
7247		-31.250000
7248		-19.531250
7249		-39.062500
7250		-27.343750
7251		-46.875000
7252		-35.156250
7253		-50.781250
7254		-42.968750
7255		-58.593750
7256		-50.781250
7257		-66.406250
7258		-58.593750
7259		-74.218750
7260		-62.500000
7261		-82.031250
7262		-70.312500
7263		-85.937500
7264		-78.125000
7265		-93.750000
7266		-85.937500
7267		-101.562500
7268		-93.750000
7269		-109.375000
7270		-97.656250
7271		-113.281250
7272		-105.468750
7273		-121.093750
7274		-113.281250
7275		-125.000000
7276		-117.187500
7277		-132.812500
7278		-125.000000
7279		-140.625000
7280		-132.812500
7281		-144.531250
7282		-136.718750
7283		-152.343750
7284		-144.531250
7285		-156.250000
7286		-148.437500
7287		-164.062500
7288		-156.250000
7289		-167.968750
7290		-160.156250
7291		-171.875000
7292		-164.062500
7293		-175.781250
7294		-171.875000
7295		-183.593750
7296		-175.781250
7297		-187.500000
7298		-179.687500
7299		-191.406250
7300		-183.593750
7301		-195.312500
7302		-187.500000
7303		-199.218750
7304		-191.406250
7305		-203.125000
7306		-195.312500
7307		-207.031250
7308		-199.218750
7309		-207.031250
7310		-203.125000
7311		-210.937500
7312		-207.031250
7313		-214.843750
7314		-210.937500
7315		-218.750000
7316		-210.937500
7317		-218.750000
7318		-214.843750
7319		-222.656250
7320		-218.750000
7321		-222.656250
7322		-218.750000
7323		-226.562500
7324		-218.750000
7325		-226.562500
7326		-222.656250
7327		-226.562500
7328		-222.656250
7329		-226.562500
7330		-222.656250
7331		-226.562500
7332		-222.656250
7333		-226.562500
7334		-226.562500
7335		-230.468750
7336		-226.562500
7337		-226.562500
7338		-222.656250
7339		-226.562500
7340		-222.656250
7341		-226.562500
7342		-222.656250
7343		-226.562500
7344		-222.656250
7345		-226.562500
7346		-222.656250
7347		-222.656250
7348		-218.750000
7349		-222.656250
7350		-218.750000
7351		-218.750000
7352		-214.843750
7353		-218.750000
7354		-214.843750
7355		-214.843750
7356		-210.937500
7357		-210.937500
7358		-207.031250
7359		-210.937500
7360		-203.125000
7361		-207.031250
7362		-203.125000
7363		-203.125000
7364		-199.218750
7365		-199.218750
7366		-195.312500
7367		-195.312500
7368		-191.406250
7369		-191.406250
7370		-183.593750
7371		-187.500000
7372		-179.687500
7373		-183.593750
7374		-175.781250
7375		-179.687500
7376		-171.875000
7377		-171.875000
7378		-167.968750
7379		-167.968750
7380		-160.156250
7381		-164.062500
7382		-156.250000
7383		-156.250000
7384		-148.437500
7385		-152.343750
7386		-144.531250
7387		-144.531250
7388		-136.718750
7389		-140.625000
7390		-132.812500
7391		-132.812500
7392		-125.000000
7393		-128.906250
7394		-117.187500
7395		-121.093750
7396		-109.375000
7397		-113.281250
7398		-105.468750
7399		-105.468750
7400		-97.656250
7401		-101.562500
7402		-89.843750
7403		-93.750000
7404		-82.031250
7405		-85.937500
7406		-78.125000
7407		-78.125000
7408		-70.312500
7409		-70.312500
7410		-62.500000
7411		-62.500000
7412		-54.687500
7413		-54.687500
7414		-46.875000
7415		-50.781250
7416		-39.062500
7417		-42.968750
7418		-31.250000
7419		-35.156250
7420		-23.437500
7421		-27.343750
7422		-15.625000
7423		-19.531250
7424		-7.812500
7425		-11.718750
7426		-3.906250
7427		-3.906250
7428		3.906250
7429		3.906250
7430		11.718750
7431		11.718750
7432		19.531250
7433		15.625000
7434		27.343750
7435		27.343750
7436		35.156250
7437		31.250000
7438		42.968750
7439		39.062500
7440		46.875000
7441		46.875000
7442		54.687500
7443		54.687500
7444		62.500000
7445		58.593750
7446		70.312500
7447		66.406250
7448		78.125000
7449		74.218750
7450		82.031250
7451		82.031250
7452		89.843750
7453		85.937500
7454		93.750000
7455		93.750000
7456		101.562500
7457		97.656250
7458		105.468750
7459		105.468750
7460		113.281250
7461		109.375000
7462		117.187500
7463		117.187500
7464		125.000000
7465		121.093750
7466		128.906250
7467		128.906250
7468		136.718750
7469		132.812500
7470		140.625000
7471		136.718750
7472		144.531250
7473		144.531250
7474		152.343750
7475		148.437500
7476		156.250000
7477		152.343750
7478		160.156250
7479		156.250000
7480		164.062500
7481		164.062500
7482		167.968750
7483		167.968750
7484		171.875000
7485		171.875000
7486		175.781250
7487		175.781250
7488		179.687500
7489		179.687500
7490		183.593750
7491		179.687500
7492		187.500000
7493		183.593750
7494		191.406250
7495		187.500000
7496		195.312500
7497		191.406250
7498		195.312500
7499		195.312500
7500		199.218750
7501		195.312500
7502		203.125000
7503		199.218750
7504		203.125000
7505		203.125000
7506		207.031250
7507		203.125000
7508		207.031250
7509		207.031250
7510		210.937500
7511		207.031250
7512		210.937500
7513		210.937500
7514		214.843750
7515		210.937500
7516		218.750000
7517		214.843750
7518		214.843750
7519		214.843750
7520		218.750000
7521		214.843750
7522		218.750000
7523		214.843750
7524		218.750000
7525		218.750000
7526		222.656250
7527		218.750000
7528		222.656250
7529		218.750000
7530		222.656250
7531		218.750000
7532		222.656250
7533		218.750000
7534		222.656250
7535		218.750000
7536		222.656250
7537		218.750000
7538		222.656250
7539		218.750000
7540		222.656250
7541		218.750000
7542		222.656250
7543		218.750000
7544		222.656250
7545		218.750000
7546		222.656250
7547		218.750000
7548		222.656250
7549		214.843750
7550		218.750000
7551		214.843750
7552		218.750000
7553		214.843750
7554		218.750000
7555		214.843750
7556		218.750000
7557		210.937500
7558		214.843750
7559		210.937500
7560		214.843750
7561		207.031250
7562		210.937500
7563		207.031250
7564		210.937500
7565		203.125000
7566		207.031250
7567		203.125000
7568		207.031250
7569		199.218750
7570		203.125000
7571		195.312500
7572		203.125000
7573		195.312500
7574		199.218750
7575		191.406250
7576		199.218750
7577		187.500000
7578		191.406250
7579		183.593750
7580		191.406250
7581		179.687500
7582		187.500000
7583		175.781250
7584		183.593750
7585		171.875000
7586		179.687500
7587		167.968750
7588		175.781250
7589		164.062500
7590		171.875000
7591		160.156250
7592		167.968750
7593		156.250000
7594		164.062500
7595		152.343750
7596		160.156250
7597		148.437500
7598		156.250000
7599		140.625000
7600		148.437500
7601		136.718750
7602		144.531250
7603		132.812500
7604		140.625000
7605		125.000000
7606		132.812500
7607		117.187500
7608		128.906250
7609		113.281250
7610		121.093750
7611		109.375000
7612		117.187500
7613		101.562500
7614		109.375000
7615		93.750000
7616		105.468750
7617		89.843750
7618		97.656250
7619		82.031250
7620		89.843750
7621		74.218750
7622		85.937500
7623		70.312500
7624		78.125000
7625		62.500000
7626		70.312500
7627		54.687500
7628		62.500000
7629		46.875000
7630		58.593750
7631		42.968750
7632		50.781250
7633		35.156250
7634		42.968750
7635		27.343750
7636		35.156250
7637		19.531250
7638		27.343750
7639		11.718750
7640		19.531250
7641		3.906250
7642		15.625000
7643		-3.906250
7644		7.812500
7645		-7.812500
7646		0.000000
7647		-15.625000
7648		-7.812500
7649		-23.437500
7650		-15.625000
7651		-31.250000
7652		-23.437500
7653		-39.062500
7654		-31.250000
7655		-46.875000
7656		-39.062500
7657		-54.687500
7658		-42.968750
7659		-62.500000
7660		-50.781250
7661		-70.312500
7662		-58.593750
7663		-74.218750
7664		-66.406250
7665		-82.031250
7666		-74.218750
7667		-89.843750
7668		-82.031250
7669		-97.656250
7670		-85.937500
7671		-105.468750
7672		-93.750000
7673		-109.375000
7674		-101.562500
7675		-117.187500
7676		-109.375000
7677		-121.093750
7678		-113.281250
7679		-128.906250
7680		-121.093750
7681		-136.718750
7682		-125.000000
7683		-140.625000
7684		-132.812500
7685		-148.437500
7686		-140.625000
7687		-152.343750
7688		-144.531250
7689		-160.156250
7690		-148.437500
7691		-164.062500
7692		-156.250000
7693		-167.968750
7694		-160.156250
7695		-171.875000
7696		-167.968750
7697		-179.687500
7698		-171.875000
7699		-183.593750
7700		-175.781250
7701		-187.500000
7702		-179.687500
7703		-191.406250
7704		-187.500000
7705		-195.312500
7706		-191.406250
7707		-199.218750
7708		-195.312500
7709		-203.125000
7710		-199.218750
7711		-207.031250
7712		-203.125000
7713		-210.937500
7714		-203.125000
7715		-210.937500
7716		-207.031250
7717		-214.843750
7718		-210.937500
7719		-218.750000
7720		-210.937500
7721		-218.750000
7722		-214.843750
7723		-222.656250
7724		-218.750000
7725		-222.656250
7726		-218.750000
7727		-226.562500
7728		-218.750000
7729		-238.281250
7730		-207.031250
7731		-226.562500
7732		-222.656250
7733		-226.562500
7734		-222.656250
7735		-226.562500
7736		-222.656250
7737		-230.468750
7738		-222.656250
7739		-230.468750
7740		-226.562500
7741		-226.562500
7742		-222.656250
7743		-226.562500
7744		-222.656250
7745		-226.562500
7746		-222.656250
7747		-226.562500
7748		-222.656250
7749		-226.562500
7750		-222.656250
7751		-222.656250
7752		-218.750000
7753		-222.656250
7754		-218.750000
7755		-218.750000
7756		-214.843750
7757		-218.750000
7758		-210.937500
7759		-214.843750
7760		-210.937500
7761		-210.937500
7762		-207.031250
7763		-207.031250
7764		-203.125000
7765		-207.031250
7766		-199.218750
7767		-203.125000
7768		-195.312500
7769		-199.218750
7770		-191.406250
7771		-195.312500
7772		-187.500000
7773		-191.406250
7774		-183.593750
7775		-183.593750
7776		-179.687500
7777		-183.593750
7778		-175.781250
7779		-175.781250
7780		-167.968750
7781		-171.875000
7782		-164.062500
7783		-164.062500
7784		-160.156250
7785		-160.156250
7786		-152.343750
7787		-156.250000
7788		-148.437500
7789		-148.437500
7790		-140.625000
7791		-144.531250
7792		-136.718750
7793		-136.718750
7794		-128.906250
7795		-128.906250
7796		-121.093750
7797		-125.000000
7798		-117.187500
7799		-117.187500
7800		-109.375000
7801		-109.375000
7802		-101.562500
7803		-105.468750
7804		-93.750000
7805		-97.656250
7806		-89.843750
7807		-89.843750
7808		-82.031250
7809		-82.031250
7810		-74.218750
7811		-74.218750
7812		-66.406250
7813		-70.312500
7814		-58.593750
7815		-62.500000
7816		-50.781250
7817		-54.687500
7818		-42.968750
7819		-46.875000
7820		-39.062500
7821		-39.062500
7822		-27.343750
7823		-31.250000
7824		-23.437500
7825		-23.437500
7826		-15.625000
7827		-15.625000
7828		-7.812500
7829		-7.812500
7830		0.000000
7831		0.000000
7832		7.812500
7833		3.906250
7834		15.625000
7835		11.718750
7836		23.437500
7837		19.531250
7838		31.250000
7839		27.343750
7840		39.062500
7841		35.156250
7842		42.968750
7843		42.968750
7844		50.781250
7845		50.781250
7846		58.593750
7847		54.687500
7848		66.406250
7849		62.500000
7850		70.312500
7851		70.312500
7852		78.125000
7853		78.125000
7854		85.937500
7855		82.031250
7856		89.843750
7857		89.843750
7858		97.656250
7859		97.656250
7860		101.562500
7861		101.562500
7862		109.375000
7863		109.375000
7864		117.187500
7865		109.375000
7866		121.093750
7867		117.187500
7868		125.000000
7869		125.000000
7870		132.812500
7871		128.906250
7872		136.718750
7873		136.718750
7874		144.531250
7875		140.625000
7876		148.437500
7877		144.531250
7878		152.343750
7879		148.437500
7880		156.250000
7881		156.250000
7882		160.156250
7883		156.250000
7884		167.968750
7885		164.062500
7886		171.875000
7887		167.968750
7888		175.781250
7889		171.875000
7890		179.687500
7891		175.781250
7892		183.593750
7893		179.687500
7894		187.500000
7895		183.593750
7896		191.406250
7897		187.500000
7898		191.406250
7899		187.500000
7900		195.312500
7901		191.406250
7902		199.218750
7903		195.312500
7904		199.218750
7905		199.218750
7906		203.125000
7907		199.218750
7908		207.031250
7909		203.125000
7910		210.937500
7911		203.125000
7912		210.937500
7913		203.125000
7914		214.843750
7915		207.031250
7916		214.843750
7917		210.937500
7918		218.750000
7919		210.937500
7920		218.750000
7921		214.843750
7922		218.750000
7923		214.843750
7924		218.750000
7925		214.843750
7926		222.656250
7927		214.843750
7928		222.656250
7929		214.843750
7930		222.656250
7931		218.750000
7932		222.656250
7933		218.750000
7934		226.562500
7935		218.750000
7936		226.562500
7937		218.750000
7938		226.562500
7939		218.750000
7940		222.656250
7941		218.750000
7942		226.562500
7943		218.750000
7944		226.562500
7945		218.750000
7946		226.562500
7947		218.750000
7948		222.656250
7949		218.750000
7950		222.656250
7951		218.750000
7952		222.656250
7953		218.750000
7954		222.656250
7955		214.843750
7956		218.750000
7957		214.843750
7958		218.750000
7959		210.937500
7960		218.750000
7961		210.937500
7962		218.750000
7963		207.031250
7964		214.843750
7965		207.031250
7966		214.843750
7967		207.031250
7968		210.937500
7969		203.125000
7970		210.937500
7971		203.125000
7972		207.031250
7973		199.218750
7974		203.125000
7975		195.312500
7976		203.125000
7977		191.406250
7978		203.125000
7979		187.500000
7980		199.218750
7981		187.500000
7982		195.312500
7983		183.593750
7984		191.406250
7985		179.687500
7986		187.500000
7987		179.687500
7988		183.593750
7989		175.781250
7990		179.687500
7991		167.968750
7992		175.781250
7993		164.062500
7994		171.875000
7995		160.156250
7996		167.968750
7997		156.250000
7998		164.062500
7999		148.437500
8000		160.156250
8001		144.531250
8002		156.250000
8003		140.625000
8004		152.343750
8005		136.718750
8006		144.531250
8007		128.906250
8008		136.718750
8009		125.000000
8010		132.812500
8011		117.187500
8012		128.906250
8013		113.281250
8014		125.000000
8015		105.468750
8016		117.187500
8017		97.656250
8018		109.375000
8019		93.750000
8020		105.468750
8021		89.843750
8022		97.656250
8023		82.031250
8024		89.843750
8025		74.218750
8026		85.937500
8027		66.406250
8028		78.125000
8029		62.500000
8030		70.312500
8031		54.687500
8032		66.406250
8033		46.875000
8034		58.593750
8035		39.062500
8036		50.781250
8037		35.156250
8038		42.968750
8039		27.343750
8040		35.156250
8041		19.531250
8042		27.343750
8043		7.812500
8044		23.437500
8045		3.906250
8046		15.625000
8047		-3.906250
8048		7.812500
8049		-11.718750
8050		0.000000
8051		-19.531250
8052		-7.812500
8053		-23.437500
8054		-11.718750
8055		-31.250000
8056		-23.437500
8057		-39.062500
8058		-31.250000
8059		-46.875000
8060		-39.062500
8061		-54.687500
8062		-42.968750
8063		-62.500000
8064		-50.781250
8065		-70.312500
8066		-58.593750
8067		-78.125000
8068		-66.406250
8069		-82.031250
8070		-74.218750
8071		-89.843750
8072		-78.125000
8073		-97.656250
8074		-85.937500
8075		-105.468750
8076		-93.750000
8077		-109.375000
8078		-101.562500
8079		-117.187500
8080		-105.468750
8081		-125.000000
8082		-113.281250
8083		-132.812500
8084		-121.093750
8085		-136.718750
8086		-125.000000
8087		-140.625000
8088		-132.812500
8089		-148.437500
8090		-140.625000
8091		-152.343750
8092		-144.531250
8093		-160.156250
8094		-148.437500
8095		-164.062500
8096		-156.250000
8097		-167.968750
8098		-160.156250
8099		-175.781250
8100		-164.062500
8101		-179.687500
8102		-171.875000
8103		-183.593750
8104		-175.781250
8105		-187.500000
8106		-179.687500
8107		-191.406250
8108		-183.593750
8109		-195.312500
8110		-187.500000
8111		-199.218750
8112		-191.406250
8113		-203.125000
8114		-195.312500
8115		-207.031250
8116		-199.218750
8117		-210.937500
8118		-203.125000
8119		-214.843750
8120		-207.031250
8121		-214.843750
8122		-207.031250
8123		-214.843750
8124		-210.937500
8125		-218.750000
8126		-214.843750
8127		-222.656250
8128		-214.843750
8129		-222.656250
8130		-214.843750
8131		-226.562500
8132		-218.750000
8133		-226.562500
8134		-218.750000
8135		-226.562500
8136		-222.656250
8137		-230.468750
8138		-222.656250
8139		-226.562500
8140		-222.656250
8141		-226.562500
8142		-222.656250
8143		-226.562500
8144		-222.656250
8145		-230.468750
8146		-222.656250
8147		-226.562500
8148		-218.750000
8149		-226.562500
8150		-218.750000
8151		-226.562500
8152		-218.750000
8153		-226.562500
8154		-218.750000
8155		-222.656250
8156		-218.750000
8157		-218.750000
8158		-214.843750
8159		-218.750000
8160		-210.937500
8161		-218.750000
8162		-210.937500
8163		-214.843750
8164		-207.031250
8165		-210.937500
8166		-203.125000
8167		-210.937500
8168		-199.218750
8169		-203.125000
8170		-195.312500
8171		-203.125000
8172		-195.312500
8173		-195.312500
8174		-191.406250
8175		-191.406250
8176		-187.500000
8177		-187.500000
8178		-179.687500
8179		-187.500000
8180		-175.781250
8181		-179.687500
8182		-171.875000
8183		-175.781250
8184		-167.968750
8185		-171.875000
8186		-160.156250
8187		-164.062500
8188		-156.250000
8189		-160.156250
8190		-152.343750
8191		-152.343750
8192		-144.531250
8193		-148.437500
8194		-136.718750
8195		-140.625000
8196		-128.906250
8197		-136.718750
8198		-125.000000
8199		-128.906250
8200		-121.093750
8201		-125.000000
8202		-113.281250
8203		-117.187500
8204		-105.468750
8205		-109.375000
8206		-101.562500
8207		-101.562500
8208		-93.750000
8209		-93.750000
8210		-85.937500
8211		-89.843750
8212		-78.125000
8213		-82.031250
8214		-70.312500
8215		-74.218750
8216		-62.500000
8217		-66.406250
8218		-54.687500
8219		-58.593750
8220		-46.875000
8221		-54.687500
8222		-42.968750
8223		-42.968750
8224		-35.156250
8225		-35.156250
8226		-27.343750
8227		-31.250000
8228		-19.531250
8229		-23.437500
8230		-11.718750
8231		-15.625000
8232		-3.906250
8233		-7.812500
8234		3.906250
8235		0.000000
8236		11.718750
8237		7.812500
8238		19.531250
8239		15.625000
8240		23.437500
8241		23.437500
8242		31.250000
8243		31.250000
8244		39.062500
8245		35.156250
8246		46.875000
8247		42.968750
8248		54.687500
8249		50.781250
8250		58.593750
8251		58.593750
8252		66.406250
8253		62.500000
8254		74.218750
8255		70.312500
8256		78.125000
8257		78.125000
8258		85.937500
8259		85.937500
8260		93.750000
8261		89.843750
8262		101.562500
8263		93.750000
8264		105.468750
8265		101.562500
8266		113.281250
8267		109.375000
8268		117.187500
8269		113.281250
8270		125.000000
8271		117.187500
8272		128.906250
8273		125.000000
8274		132.812500
8275		132.812500
8276		136.718750
8277		136.718750
8278		144.531250
8279		140.625000
8280		148.437500
8281		144.531250
8282		156.250000
8283		152.343750
8284		160.156250
8285		156.250000
8286		164.062500
8287		160.156250
8288		167.968750
8289		164.062500
8290		171.875000
8291		167.968750
8292		175.781250
8293		171.875000
8294		179.687500
8295		175.781250
8296		183.593750
8297		179.687500
8298		187.500000
8299		183.593750
8300		191.406250
8301		187.500000
8302		195.312500
8303		187.500000
8304		199.218750
8305		191.406250
8306		199.218750
8307		195.312500
8308		199.218750
8309		199.218750
8310		203.125000
8311		199.218750
8312		207.031250
8313		203.125000
8314		210.937500
8315		203.125000
8316		210.937500
8317		207.031250
8318		214.843750
8319		207.031250
8320		214.843750
8321		210.937500
8322		218.750000
8323		210.937500
8324		218.750000
8325		214.843750
8326		218.750000
8327		214.843750
8328		218.750000
8329		214.843750
8330		222.656250
8331		214.843750
8332		222.656250
8333		214.843750
8334		222.656250
8335		218.750000
8336		222.656250
8337		218.750000
8338		226.562500
8339		218.750000
8340		226.562500
8341		218.750000
8342		222.656250
8343		218.750000
8344		226.562500
8345		218.750000
8346		226.562500
8347		218.750000
8348		226.562500
8349		218.750000
8350		226.562500
8351		218.750000
8352		226.562500
8353		218.750000
8354		222.656250
8355		214.843750
8356		222.656250
8357		218.750000
8358		222.656250
8359		214.843750
8360		218.750000
8361		214.843750
8362		218.750000
8363		210.937500
8364		218.750000
8365		210.937500
8366		218.750000
8367		207.031250
8368		214.843750
8369		207.031250
8370		214.843750
8371		203.125000
8372		210.937500
8373		203.125000
8374		210.937500
8375		203.125000
8376		207.031250
8377		199.218750
8378		203.125000
8379		195.312500
8380		203.125000
8381		191.406250
8382		199.218750
8383		191.406250
8384		199.218750
8385		187.500000
8386		195.312500
8387		183.593750
8388		191.406250
8389		179.687500
8390		187.500000
8391		175.781250
8392		183.593750
8393		171.875000
8394		179.687500
8395		167.968750
8396		175.781250
8397		164.062500
8398		171.875000
8399		160.156250
8400		167.968750
8401		156.250000
8402		164.062500
8403		148.437500
8404		160.156250
8405		144.531250
8406		156.250000
8407		140.625000
8408		148.437500
8409		136.718750
8410		144.531250
8411		128.906250
8412		136.718750
8413		125.000000
8414		132.812500
8415		117.187500
8416		128.906250
8417		113.281250
8418		121.093750
8419		105.468750
8420		117.187500
8421		97.656250
8422		109.375000
8423		93.750000
8424		105.468750
8425		89.843750
8426		97.656250
8427		82.031250
8428		89.843750
8429		74.218750
8430		85.937500
8431		66.406250
8432		78.125000
8433		62.500000
8434		70.312500
8435		54.687500
8436		66.406250
8437		46.875000
8438		58.593750
8439		39.062500
8440		50.781250
8441		35.156250
8442		42.968750
8443		27.343750
8444		35.156250
8445		19.531250
8446		27.343750
8447		7.812500
8448		23.437500
8449		0.000000
8450		15.625000
8451		-3.906250
8452		7.812500
8453		-11.718750
8454		0.000000
8455		-19.531250
8456		-7.812500
8457		-23.437500
8458		-15.625000
8459		-31.250000
8460		-23.437500
8461		-42.968750
8462		-31.250000
8463		-46.875000
8464		-39.062500
8465		-54.687500
8466		-42.968750
8467		-62.500000
8468		-50.781250
8469		-70.312500
8470		-58.593750
8471		-78.125000
8472		-66.406250
8473		-85.937500
8474		-74.218750
8475		-89.843750
8476		-82.031250
8477		-97.656250
8478		-89.843750
8479		-105.468750
8480		-93.750000
8481		-113.281250
8482		-101.562500
8483		-117.187500
8484		-109.375000
8485		-125.000000
8486		-113.281250
8487		-132.812500
8488		-121.093750
8489		-136.718750
8490		-125.000000
8491		-140.625000
8492		-132.812500
8493		-148.437500
8494		-140.625000
8495		-156.250000
8496		-144.531250
8497		-160.156250
8498		-148.437500
8499		-167.968750
8500		-156.250000
8501		-171.875000
8502		-160.156250
8503		-175.781250
8504		-164.062500
8505		-183.593750
8506		-171.875000
8507		-183.593750
8508		-175.781250
8509		-187.500000
8510		-183.593750
8511		-191.406250
8512		-187.500000
8513		-199.218750
8514		-187.500000
8515		-203.125000
8516		-191.406250
8517		-207.031250
8518		-195.312500
8519		-207.031250
8520		-199.218750
8521		-210.937500
8522		-203.125000
8523		-214.843750
8524		-207.031250
8525		-214.843750
8526		-207.031250
8527		-218.750000
8528		-214.843750
8529		-222.656250
8530		-214.843750
8531		-222.656250
8532		-214.843750
8533		-226.562500
8534		-218.750000
8535		-226.562500
8536		-218.750000
8537		-226.562500
8538		-218.750000
8539		-226.562500
8540		-218.750000
8541		-230.468750
8542		-222.656250
8543		-226.562500
8544		-222.656250
8545		-226.562500
8546		-222.656250
8547		-230.468750
8548		-222.656250
8549		-230.468750
8550		-222.656250
8551		-230.468750
8552		-222.656250
8553		-226.562500
8554		-222.656250
8555		-226.562500
8556		-218.750000
8557		-226.562500
8558		-218.750000
8559		-222.656250
8560		-218.750000
8561		-222.656250
8562		-214.843750
8563		-218.750000
8564		-210.937500
8565		-218.750000
8566		-210.937500
8567		-214.843750
8568		-207.031250
8569		-210.937500
8570		-203.125000
8571		-210.937500
8572		-199.218750
8573		-207.031250
8574		-199.218750
8575		-203.125000
8576		-195.312500
8577		-199.218750
8578		-191.406250
8579		-191.406250
8580		-183.593750
8581		-191.406250
8582		-179.687500
8583		-187.500000
8584		-175.781250
8585		-179.687500
8586		-171.875000
8587		-175.781250
8588		-167.968750
8589		-171.875000
8590		-160.156250
8591		-167.968750
8592		-156.250000
8593		-160.156250
8594		-152.343750
8595		-152.343750
8596		-144.531250
8597		-148.437500
8598		-136.718750
8599		-140.625000
8600		-132.812500
8601		-136.718750
8602		-125.000000
8603		-128.906250
8604		-117.187500
8605		-125.000000
8606		-113.281250
8607		-117.187500
8608		-105.468750
8609		-109.375000
8610		-101.562500
8611		-101.562500
8612		-93.750000
8613		-93.750000
8614		-85.937500
8615		-89.843750
8616		-78.125000
8617		-82.031250
8618		-70.312500
8619		-74.218750
8620		-62.500000
8621		-66.406250
8622		-54.687500
8623		-58.593750
8624		-46.875000
8625		-54.687500
8626		-42.968750
8627		-42.968750
8628		-35.156250
8629		-35.156250
8630		-27.343750
8631		-31.250000
8632		-19.531250
8633		-23.437500
8634		-11.718750
8635		-15.625000
8636		-3.906250
8637		-7.812500
8638		3.906250
8639		0.000000
8640		11.718750
8641		7.812500
8642		19.531250
8643		15.625000
8644		23.437500
8645		23.437500
8646		31.250000
8647		31.250000
8648		39.062500
8649		35.156250
8650		46.875000
8651		42.968750
8652		54.687500
8653		50.781250
8654		58.593750
8655		54.687500
8656		70.312500
8657		62.500000
8658		74.218750
8659		70.312500
8660		78.125000
8661		78.125000
8662		85.937500
8663		85.937500
8664		93.750000
8665		89.843750
8666		101.562500
8667		93.750000
8668		105.468750
8669		101.562500
8670		113.281250
8671		109.375000
8672		117.187500
8673		113.281250
8674		125.000000
8675		117.187500
8676		128.906250
8677		125.000000
8678		132.812500
8679		132.812500
8680		140.625000
8681		136.718750
8682		144.531250
8683		140.625000
8684		148.437500
8685		144.531250
8686		156.250000
8687		148.437500
8688		160.156250
8689		156.250000
8690		164.062500
8691		160.156250
8692		167.968750
8693		164.062500
8694		171.875000
8695		167.968750
8696		175.781250
8697		171.875000
8698		179.687500
8699		175.781250
8700		183.593750
8701		179.687500
8702		187.500000
8703		183.593750
8704		191.406250
8705		183.593750
8706		195.312500
8707		187.500000
8708		199.218750
8709		191.406250
8710		199.218750
8711		195.312500
8712		199.218750
8713		199.218750
8714		203.125000
8715		199.218750
8716		207.031250
8717		203.125000
8718		210.937500
8719		203.125000
8720		210.937500
8721		207.031250
8722		214.843750
8723		207.031250
8724		214.843750
8725		207.031250
8726		218.750000
8727		210.937500
8728		214.843750
8729		214.843750
8730		218.750000
8731		214.843750
8732		218.750000
8733		214.843750
8734		222.656250
8735		214.843750
8736		222.656250
8737		214.843750
8738		222.656250
8739		214.843750
8740		222.656250
8741		218.750000
8742		226.562500
8743		218.750000
8744		226.562500
8745		218.750000
8746		222.656250
8747		218.750000
8748		222.656250
8749		218.750000
8750		226.562500
8751		218.750000
8752		226.562500
8753		214.843750
8754		222.656250
8755		218.750000
8756		222.656250
8757		214.843750
8758		222.656250
8759		214.843750
8760		222.656250
8761		214.843750
8762		218.750000
8763		214.843750
8764		218.750000
8765		210.937500
8766		218.750000
8767		210.937500
8768		218.750000
8769		207.031250
8770		214.843750
8771		207.031250
8772		214.843750
8773		207.031250
8774		210.937500
8775		203.125000
8776		210.937500
8777		203.125000
8778		207.031250
8779		199.218750
8780		207.031250
8781		195.312500
8782		203.125000
8783		195.312500
8784		203.125000
8785		191.406250
8786		199.218750
8787		187.500000
8788		195.312500
8789		183.593750
8790		195.312500
8791		179.687500
8792		191.406250
8793		179.687500
8794		187.500000
8795		175.781250
8796		179.687500
8797		171.875000
8798		175.781250
8799		164.062500
8800		175.781250
8801		164.062500
8802		171.875000
8803		156.250000
8804		167.968750
8805		152.343750
8806		164.062500
8807		148.437500
8808		156.250000
8809		144.531250
8810		152.343750
8811		140.625000
8812		148.437500
8813		132.812500
8814		140.625000
8815		128.906250
8816		136.718750
8817		121.093750
8818		132.812500
8819		117.187500
8820		125.000000
8821		109.375000
8822		121.093750
8823		105.468750
8824		113.281250
8825		97.656250
8826		109.375000
8827		89.843750
8828		101.562500
8829		85.937500
8830		93.750000
8831		78.125000
8832		85.937500
8833		70.312500
8834		82.031250
8835		66.406250
8836		74.218750
8837		58.593750
8838		70.312500
8839		50.781250
8840		62.500000
8841		42.968750
8842		54.687500
8843		39.062500
8844		46.875000
8845		31.250000
8846		39.062500
8847		23.437500
8848		31.250000
8849		15.625000
8850		23.437500
8851		7.812500
8852		19.531250
8853		0.000000
8854		11.718750
8855		-7.812500
8856		3.906250
8857		-15.625000
8858		-3.906250
8859		-23.437500
8860		-11.718750
8861		-27.343750
8862		-19.531250
8863		-35.156250
8864		-27.343750
8865		-42.968750
8866		-35.156250
8867		-50.781250
8868		-39.062500
8869		-58.593750
8870		-46.875000
8871		-66.406250
8872		-54.687500
8873		-74.218750
8874		-62.500000
8875		-82.031250
8876		-70.312500
8877		-85.937500
8878		-78.125000
8879		-93.750000
8880		-85.937500
8881		-101.562500
8882		-89.843750
8883		-109.375000
8884		-97.656250
8885		-117.187500
8886		-105.468750
8887		-121.093750
8888		-109.375000
8889		-128.906250
8890		-117.187500
8891		-132.812500
8892		-125.000000
8893		-140.625000
8894		-128.906250
8895		-144.531250
8896		-136.718750
8897		-152.343750
8898		-144.531250
8899		-156.250000
8900		-148.437500
8901		-164.062500
8902		-152.343750
8903		-167.968750
8904		-156.250000
8905		-171.875000
8906		-164.062500
8907		-175.781250
8908		-167.968750
8909		-183.593750
8910		-171.875000
8911		-187.500000
8912		-179.687500
8913		-191.406250
8914		-183.593750
8915		-195.312500
8916		-187.500000
8917		-199.218750
8918		-191.406250
8919		-203.125000
8920		-195.312500
8921		-207.031250
8922		-199.218750
8923		-210.937500
8924		-203.125000
8925		-214.843750
8926		-207.031250
8927		-214.843750
8928		-207.031250
8929		-218.750000
8930		-214.843750
8931		-222.656250
8932		-214.843750
8933		-222.656250
8934		-214.843750
8935		-226.562500
8936		-218.750000
8937		-226.562500
8938		-218.750000
8939		-226.562500
8940		-222.656250
8941		-230.468750
8942		-222.656250
8943		-230.468750
8944		-222.656250
8945		-230.468750
8946		-226.562500
8947		-230.468750
8948		-226.562500
8949		-230.468750
8950		-226.562500
8951		-230.468750
8952		-226.562500
8953		-230.468750
8954		-222.656250
8955		-230.468750
8956		-222.656250
8957		-230.468750
8958		-222.656250
8959		-226.562500
8960		-222.656250
8961		-226.562500
8962		-222.656250
8963		-222.656250
8964		-218.750000
8965		-222.656250
8966		-218.750000
8967		-222.656250
8968		-214.843750
8969		-218.750000
8970		-210.937500
8971		-214.843750
8972		-207.031250
8973		-214.843750
8974		-207.031250
8975		-210.937500
8976		-203.125000
8977		-207.031250
8978		-199.218750
8979		-203.125000
8980		-195.312500
8981		-199.218750
8982		-191.406250
8983		-195.312500
8984		-187.500000
8985		-191.406250
8986		-183.593750
8987		-187.500000
8988		-175.781250
8989		-183.593750
8990		-171.875000
8991		-175.781250
8992		-167.968750
8993		-171.875000
8994		-160.156250
8995		-167.968750
8996		-156.250000
8997		-160.156250
8998		-152.343750
8999		-152.343750
9000		-144.531250
9001		-148.437500
9002		-140.625000
9003		-144.531250
9004		-132.812500
9005		-136.718750
9006		-125.000000
9007		-132.812500
9008		-117.187500
9009		-125.000000
9010		-113.281250
9011		-117.187500
9012		-105.468750
9013		-109.375000
9014		-101.562500
9015		-101.562500
9016		-93.750000
9017		-93.750000
9018		-85.937500
9019		-89.843750
9020		-78.125000
9021		-82.031250
9022		-70.312500
9023		-78.125000
9024		-62.500000
9025		-66.406250
9026		-54.687500
9027		-58.593750
9028		-46.875000
9029		-54.687500
9030		-42.968750
9031		-42.968750
9032		-35.156250
9033		-35.156250
9034		-27.343750
9035		-31.250000
9036		-19.531250
9037		-23.437500
9038		-11.718750
9039		-15.625000
9040		-3.906250
9041		-7.812500
9042		3.906250
9043		0.000000
9044		11.718750
9045		7.812500
9046		15.625000
9047		15.625000
9048		23.437500
9049		23.437500
9050		31.250000
9051		27.343750
9052		39.062500
9053		35.156250
9054		46.875000
9055		42.968750
9056		54.687500
9057		46.875000
9058		58.593750
9059		54.687500
9060		66.406250
9061		62.500000
9062		74.218750
9063		70.312500
9064		78.125000
9065		78.125000
9066		85.937500
9067		85.937500
9068		93.750000
9069		89.843750
9070		101.562500
9071		93.750000
9072		105.468750
9073		101.562500
9074		113.281250
9075		109.375000
9076		121.093750
9077		113.281250
9078		125.000000
9079		121.093750
9080		128.906250
9081		125.000000
9082		132.812500
9083		132.812500
9084		140.625000
9085		136.718750
9086		144.531250
9087		140.625000
9088		152.343750
9089		144.531250
9090		156.250000
9091		148.437500
9092		160.156250
9093		156.250000
9094		164.062500
9095		160.156250
9096		167.968750
9097		164.062500
9098		171.875000
9099		167.968750
9100		175.781250
9101		171.875000
9102		179.687500
9103		175.781250
9104		183.593750
9105		179.687500
9106		187.500000
9107		179.687500
9108		191.406250
9109		183.593750
9110		195.312500
9111		187.500000
9112		195.312500
9113		191.406250
9114		199.218750
9115		195.312500
9116		199.218750
9117		199.218750
9118		203.125000
9119		199.218750
9120		207.031250
9121		199.218750
9122		207.031250
9123		203.125000
9124		210.937500
9125		203.125000
9126		210.937500
9127		207.031250
9128		214.843750
9129		210.937500
9130		214.843750
9131		210.937500
9132		214.843750
9133		214.843750
9134		218.750000
9135		210.937500
9136		218.750000
9137		214.843750
9138		222.656250
9139		214.843750
9140		222.656250
9141		214.843750
9142		222.656250
9143		214.843750
9144		222.656250
9145		214.843750
9146		222.656250
9147		218.750000
9148		222.656250
9149		218.750000
9150		222.656250
9151		218.750000
9152		222.656250
9153		218.750000
9154		222.656250
9155		214.843750
9156		222.656250
9157		218.750000
9158		222.656250
9159		214.843750
9160		222.656250
9161		214.843750
9162		222.656250
9163		214.843750
9164		222.656250
9165		214.843750
9166		218.750000
9167		214.843750
9168		218.750000
9169		210.937500
9170		218.750000
9171		210.937500
9172		218.750000
9173		207.031250
9174		214.843750
9175		207.031250
9176		214.843750
9177		203.125000
9178		210.937500
9179		203.125000
9180		210.937500
9181		199.218750
9182		207.031250
9183		199.218750
9184		203.125000
9185		195.312500
9186		203.125000
9187		191.406250
9188		199.218750
9189		191.406250
9190		199.218750
9191		187.500000
9192		195.312500
9193		183.593750
9194		191.406250
9195		179.687500
9196		187.500000
9197		179.687500
9198		187.500000
9199		175.781250
9200		179.687500
9201		167.968750
9202		175.781250
9203		164.062500
9204		175.781250
9205		160.156250
9206		171.875000
9207		156.250000
9208		164.062500
9209		152.343750
9210		160.156250
9211		144.531250
9212		156.250000
9213		140.625000
9214		152.343750
9215		136.718750
9216		144.531250
9217		132.812500
9218		140.625000
9219		125.000000
9220		136.718750
9221		121.093750
9222		128.906250
9223		113.281250
9224		125.000000
9225		105.468750
9226		117.187500
9227		101.562500
9228		113.281250
9229		97.656250
9230		105.468750
9231		89.843750
9232		101.562500
9233		85.937500
9234		93.750000
9235		78.125000
9236		85.937500
9237		70.312500
9238		82.031250
9239		62.500000
9240		74.218750
9241		58.593750
9242		66.406250
9243		50.781250
9244		58.593750
9245		39.062500
9246		50.781250
9247		35.156250
9248		46.875000
9249		27.343750
9250		39.062500
9251		19.531250
9252		31.250000
9253		11.718750
9254		23.437500
9255		3.906250
9256		15.625000
9257		-3.906250
9258		7.812500
9259		-7.812500
9260		3.906250
9261		-15.625000
9262		-3.906250
9263		-23.437500
9264		-11.718750
9265		-31.250000
9266		-19.531250
9267		-39.062500
9268		-27.343750
9269		-46.875000
9270		-35.156250
9271		-54.687500
9272		-42.968750
9273		-62.500000
9274		-50.781250
9275		-66.406250
9276		-54.687500
9277		-78.125000
9278		-62.500000
9279		-82.031250
9280		-70.312500
9281		-89.843750
9282		-78.125000
9283		-93.750000
9284		-85.937500
9285		-105.468750
9286		-93.750000
9287		-109.375000
9288		-97.656250
9289		-117.187500
9290		-105.468750
9291		-125.000000
9292		-113.281250
9293		-128.906250
9294		-117.187500
9295		-136.718750
9296		-125.000000
9297		-140.625000
9298		-128.906250
9299		-144.531250
9300		-136.718750
9301		-152.343750
9302		-144.531250
9303		-160.156250
9304		-148.437500
9305		-164.062500
9306		-152.343750
9307		-171.875000
9308		-160.156250
9309		-175.781250
9310		-164.062500
9311		-179.687500
9312		-171.875000
9313		-183.593750
9314		-175.781250
9315		-187.500000
9316		-179.687500
9317		-191.406250
9318		-187.500000
9319		-199.218750
9320		-191.406250
9321		-203.125000
9322		-191.406250
9323		-207.031250
9324		-195.312500
9325		-207.031250
9326		-199.218750
9327		-210.937500
9328		-203.125000
9329		-214.843750
9330		-207.031250
9331		-214.843750
9332		-210.937500
9333		-218.750000
9334		-214.843750
9335		-218.750000
9336		-214.843750
9337		-222.656250
9338		-218.750000
9339		-226.562500
9340		-218.750000
9341		-226.562500
9342		-222.656250
9343		-230.468750
9344		-222.656250
9345		-230.468750
9346		-222.656250
9347		-230.468750
9348		-222.656250
9349		-230.468750
9350		-226.562500
9351		-230.468750
9352		-226.562500
9353		-230.468750
9354		-226.562500
9355		-230.468750
9356		-226.562500
9357		-230.468750
9358		-222.656250
9359		-230.468750
9360		-222.656250
9361		-230.468750
9362		-222.656250
9363		-230.468750
9364		-222.656250
9365		-226.562500
9366		-218.750000
9367		-222.656250
9368		-218.750000
9369		-222.656250
9370		-214.843750
9371		-222.656250
9372		-214.843750
9373		-218.750000
9374		-210.937500
9375		-214.843750
9376		-207.031250
9377		-214.843750
9378		-203.125000
9379		-210.937500
9380		-203.125000
9381		-207.031250
9382		-199.218750
9383		-203.125000
9384		-195.312500
9385		-199.218750
9386		-191.406250
9387		-195.312500
9388		-187.500000
9389		-191.406250
9390		-183.593750
9391		-187.500000
9392		-179.687500
9393		-183.593750
9394		-171.875000
9395		-179.687500
9396		-167.968750
9397		-171.875000
9398		-164.062500
9399		-167.968750
9400		-160.156250
9401		-160.156250
9402		-152.343750
9403		-152.343750
9404		-144.531250
9405		-152.343750
9406		-140.625000
9407		-144.531250
9408		-132.812500
9409		-136.718750
9410		-125.000000
9411		-132.812500
9412		-121.093750
9413		-125.000000
9414		-113.281250
9415		-117.187500
9416		-109.375000
9417		-109.375000
9418		-101.562500
9419		-101.562500
9420		-93.750000
9421		-97.656250
9422		-85.937500
9423		-89.843750
9424		-78.125000
9425		-82.031250
9426		-70.312500
9427		-74.218750
9428		-62.500000
9429		-70.312500
9430		-54.687500
9431		-62.500000
9432		-50.781250
9433		-54.687500
9434		-42.968750
9435		-46.875000
9436		-35.156250
9437		-35.156250
9438		-27.343750
9439		-31.250000
9440		-19.531250
9441		-23.437500
9442		-11.718750
9443		-15.625000
9444		-3.906250
9445		-7.812500
9446		3.906250
9447		-3.906250
9448		11.718750
9449		7.812500
9450		15.625000
9451		15.625000
9452		23.437500
9453		23.437500
9454		31.250000
9455		27.343750
9456		39.062500
9457		35.156250
9458		46.875000
9459		42.968750
9460		54.687500
9461		50.781250
9462		62.500000
9463		54.687500
9464		66.406250
9465		62.500000
9466		74.218750
9467		70.312500
9468		78.125000
9469		78.125000
9470		85.937500
9471		82.031250
9472		93.750000
9473		89.843750
9474		101.562500
9475		93.750000
9476		105.468750
9477		101.562500
9478		113.281250
9479		109.375000
9480		117.187500
9481		113.281250
9482		125.000000
9483		117.187500
9484		128.906250
9485		125.000000
9486		132.812500
9487		132.812500
9488		140.625000
9489		136.718750
9490		144.531250
9491		140.625000
9492		148.437500
9493		144.531250
9494		156.250000
9495		148.437500
9496		160.156250
9497		152.343750
9498		164.062500
9499		160.156250
9500		167.968750
9501		164.062500
9502		171.875000
9503		167.968750
9504		175.781250
9505		171.875000
9506		179.687500
9507		175.781250
9508		183.593750
9509		179.687500
9510		187.500000
9511		183.593750
9512		191.406250
9513		183.593750
9514		195.312500
9515		187.500000
9516		195.312500
9517		191.406250
9518		199.218750
9519		195.312500
9520		199.218750
9521		199.218750
9522		203.125000
9523		199.218750
9524		207.031250
9525		203.125000
9526		207.031250
9527		203.125000
9528		210.937500
9529		207.031250
9530		210.937500
9531		207.031250
9532		214.843750
9533		207.031250
9534		214.843750
9535		210.937500
9536		214.843750
9537		210.937500
9538		218.750000
9539		210.937500
9540		218.750000
9541		214.843750
9542		222.656250
9543		214.843750
9544		222.656250
9545		214.843750
9546		222.656250
9547		214.843750
9548		222.656250
9549		218.750000
9550		222.656250
9551		218.750000
9552		222.656250
9553		218.750000
9554		222.656250
9555		218.750000
9556		222.656250
9557		218.750000
9558		226.562500
9559		218.750000
9560		222.656250
9561		214.843750
9562		222.656250
9563		214.843750
9564		222.656250
9565		214.843750
9566		222.656250
9567		214.843750
9568		222.656250
9569		214.843750
9570		218.750000
9571		210.937500
9572		218.750000
9573		210.937500
9574		218.750000
9575		210.937500
9576		214.843750
9577		207.031250
9578		214.843750
9579		207.031250
9580		214.843750
9581		203.125000
9582		210.937500
9583		203.125000
9584		210.937500
9585		203.125000
9586		207.031250
9587		199.218750
9588		203.125000
9589		195.312500
9590		203.125000
9591		191.406250
9592		203.125000
9593		191.406250
9594		199.218750
9595		187.500000
9596		195.312500
9597		183.593750
9598		191.406250
9599		179.687500
9600		191.406250
9601		179.687500
9602		183.593750
9603		175.781250
9604		179.687500
9605		167.968750
9606		175.781250
9607		164.062500
9608		171.875000
9609		160.156250
9610		167.968750
9611		156.250000
9612		164.062500
9613		152.343750
9614		160.156250
9615		148.437500
9616		156.250000
9617		144.531250
9618		152.343750
9619		136.718750
9620		144.531250
9621		132.812500
9622		140.625000
9623		125.000000
9624		136.718750
9625		117.187500
9626		128.906250
9627		113.281250
9628		125.000000
9629		109.375000
9630		117.187500
9631		101.562500
9632		113.281250
9633		93.750000
9634		105.468750
9635		89.843750
9636		97.656250
9637		82.031250
9638		89.843750
9639		74.218750
9640		85.937500
9641		70.312500
9642		78.125000
9643		62.500000
9644		74.218750
9645		54.687500
9646		66.406250
9647		50.781250
9648		58.593750
9649		39.062500
9650		54.687500
9651		35.156250
9652		46.875000
9653		27.343750
9654		35.156250
9655		19.531250
9656		27.343750
9657		11.718750
9658		23.437500
9659		3.906250
9660		15.625000
9661		-3.906250
9662		7.812500
9663		-11.718750
9664		3.906250
9665		-15.625000
9666		-7.812500
9667		-23.437500
9668		-15.625000
9669		-31.250000
9670		-23.437500
9671		-39.062500
9672		-27.343750
9673		-46.875000
9674		-35.156250
9675		-54.687500
9676		-42.968750
9677		-62.500000
9678		-50.781250
9679		-66.406250
9680		-58.593750
9681		-78.125000
9682		-66.406250
9683		-85.937500
9684		-70.312500
9685		-89.843750
9686		-78.125000
9687		-97.656250
9688		-85.937500
9689		-105.468750
9690		-93.750000
9691		-109.375000
9692		-97.656250
9693		-117.187500
9694		-105.468750
9695		-125.000000
9696		-113.281250
9697		-128.906250
9698		-117.187500
9699		-136.718750
9700		-125.000000
9701		-140.625000
9702		-132.812500
9703		-148.437500
9704		-140.625000
9705		-152.343750
9706		-144.531250
9707		-160.156250
9708		-148.437500
9709		-167.968750
9710		-152.343750
9711		-171.875000
9712		-160.156250
9713		-175.781250
9714		-164.062500
9715		-179.687500
9716		-171.875000
9717		-183.593750
9718		-175.781250
9719		-187.500000
9720		-179.687500
9721		-191.406250
9722		-187.500000
9723		-199.218750
9724		-191.406250
9725		-199.218750
9726		-191.406250
9727		-207.031250
9728		-195.312500
9729		-207.031250
9730		-199.218750
9731		-210.937500
9732		-203.125000
9733		-214.843750
9734		-207.031250
9735		-214.843750
9736		-210.937500
9737		-218.750000
9738		-214.843750
9739		-222.656250
9740		-214.843750
9741		-222.656250
9742		-214.843750
9743		-226.562500
9744		-218.750000
9745		-226.562500
9746		-218.750000
9747		-226.562500
9748		-222.656250
9749		-230.468750
9750		-222.656250
9751		-230.468750
9752		-222.656250
9753		-226.562500
9754		-226.562500
9755		-230.468750
9756		-226.562500
9757		-230.468750
9758		-222.656250
9759		-230.468750
9760		-222.656250
9761		-230.468750
9762		-222.656250
9763		-230.468750
9764		-222.656250
9765		-226.562500
9766		-222.656250
9767		-226.562500
9768		-218.750000
9769		-226.562500
9770		-218.750000
9771		-222.656250
9772		-218.750000
9773		-222.656250
9774		-214.843750
9775		-218.750000
9776		-210.937500
9777		-218.750000
9778		-210.937500
9779		-214.843750
9780		-207.031250
9781		-210.937500
9782		-203.125000
9783		-210.937500
9784		-199.218750
9785		-207.031250
9786		-199.218750
9787		-199.218750
9788		-195.312500
9789		-195.312500
9790		-191.406250
9791		-191.406250
9792		-183.593750
9793		-187.500000
9794		-179.687500
9795		-187.500000
9796		-175.781250
9797		-179.687500
9798		-171.875000
9799		-175.781250
9800		-164.062500
9801		-171.875000
9802		-160.156250
9803		-164.062500
9804		-156.250000
9805		-156.250000
9806		-148.437500
9807		-152.343750
9808		-144.531250
9809		-148.437500
9810		-136.718750
9811		-140.625000
9812		-128.906250
9813		-136.718750
9814		-125.000000
9815		-128.906250
9816		-117.187500
9817		-121.093750
9818		-109.375000
9819		-117.187500
9820		-105.468750
9821		-105.468750
9822		-97.656250
9823		-101.562500
9824		-89.843750
9825		-93.750000
9826		-82.031250
9827		-89.843750
9828		-78.125000
9829		-78.125000
9830		-66.406250
9831		-70.312500
9832		-58.593750
9833		-66.406250
9834		-50.781250
9835		-54.687500
9836		-46.875000
9837		-50.781250
9838		-39.062500
9839		-42.968750
9840		-31.250000
9841		-35.156250
9842		-23.437500
9843		-27.343750
9844		-15.625000
9845		-19.531250
9846		-7.812500
9847		-11.718750
9848		0.000000
9849		-3.906250
9850		7.812500
9851		0.000000
9852		11.718750
9853		7.812500
9854		19.531250
9855		19.531250
9856		27.343750
9857		23.437500
9858		35.156250
9859		31.250000
9860		42.968750
9861		39.062500
9862		50.781250
9863		46.875000
9864		54.687500
9865		50.781250
9866		62.500000
9867		58.593750
9868		70.312500
9869		66.406250
9870		74.218750
9871		74.218750
9872		82.031250
9873		82.031250
9874		89.843750
9875		85.937500
9876		97.656250
9877		89.843750
9878		101.562500
9879		97.656250
9880		109.375000
9881		105.468750
9882		113.281250
9883		109.375000
9884		121.093750
9885		117.187500
9886		125.000000
9887		121.093750
9888		128.906250
9889		128.906250
9890		136.718750
9891		132.812500
9892		140.625000
9893		136.718750
9894		148.437500
9895		140.625000
9896		152.343750
9897		144.531250
9898		156.250000
9899		152.343750
9900		160.156250
9901		156.250000
9902		164.062500
9903		160.156250
9904		167.968750
9905		167.968750
9906		171.875000
9907		171.875000
9908		175.781250
9909		171.875000
9910		183.593750
9911		175.781250
9912		183.593750
9913		179.687500
9914		187.500000
9915		183.593750
9916		191.406250
9917		187.500000
9918		195.312500
9919		187.500000
9920		195.312500
9921		195.312500
9922		199.218750
9923		195.312500
9924		203.125000
9925		199.218750
9926		207.031250
9927		199.218750
9928		207.031250
9929		203.125000
9930		210.937500
9931		203.125000
9932		214.843750
9933		207.031250
9934		214.843750
9935		207.031250
9936		214.843750
9937		210.937500
9938		214.843750
9939		210.937500
9940		214.843750
9941		210.937500
9942		218.750000
9943		214.843750
9944		218.750000
9945		214.843750
9946		222.656250
9947		214.843750
9948		222.656250
9949		214.843750
9950		222.656250
9951		214.843750
9952		222.656250
9953		218.750000
9954		222.656250
9955		218.750000
9956		222.656250
9957		218.750000
9958		222.656250
9959		218.750000
9960		222.656250
9961		214.843750
9962		226.562500
9963		218.750000
9964		222.656250
9965		214.843750
9966		222.656250
9967		214.843750
9968		222.656250
9969		214.843750
9970		222.656250
9971		214.843750
9972		218.750000
9973		214.843750
9974		218.750000
9975		210.937500
9976		218.750000
9977		210.937500
9978		218.750000
9979		210.937500
9980		218.750000
9981		207.031250
9982		214.843750
9983		207.031250
9984		214.843750
9985		203.125000
9986		210.937500
9987		203.125000
9988		210.937500
9989		203.125000
9990		207.031250
9991		195.312500
9992		203.125000
9993		195.312500
9994		203.125000
9995		191.406250
9996		199.218750
9997		187.500000
9998		195.312500
9999		183.593750
10000		195.312500
