Channel              :		CH1
Frequency            :		1.238kHz
Period               :		0.808ms
PK-PK                :		78.13mV
Probe attenuation    :		1X
Voltage per ADC value:		0.244141mV
Time interval        :		2.00000us

index		CH1_Voltage(mV)
1		42.968750
2		42.968750
3		46.875000
4		46.875000
5		50.781250
6		46.875000
7		50.781250
8		46.875000
9		50.781250
10		50.781250
11		54.687500
12		50.781250
13		54.687500
14		50.781250
15		54.687500
16		50.781250
17		54.687500
18		54.687500
19		58.593750
20		54.687500
21		58.593750
22		54.687500
23		58.593750
24		54.687500
25		58.593750
26		54.687500
27		58.593750
28		58.593750
29		62.500000
30		58.593750
31		62.500000
32		58.593750
33		62.500000
34		58.593750
35		62.500000
36		62.500000
37		66.406250
38		62.500000
39		66.406250
40		62.500000
41		66.406250
42		62.500000
43		66.406250
44		62.500000
45		66.406250
46		66.406250
47		66.406250
48		66.406250
49		70.312500
50		66.406250
51		70.312500
52		66.406250
53		70.312500
54		66.406250
55		70.312500
56		66.406250
57		70.312500
58		70.312500
59		74.218750
60		70.312500
61		74.218750
62		70.312500
63		74.218750
64		70.312500
65		74.218750
66		70.312500
67		74.218750
68		70.312500
69		74.218750
70		70.312500
71		74.218750
72		70.312500
73		74.218750
74		74.218750
75		74.218750
76		74.218750
77		78.125000
78		74.218750
79		78.125000
80		74.218750
81		78.125000
82		74.218750
83		78.125000
84		74.218750
85		78.125000
86		74.218750
87		78.125000
88		74.218750
89		78.125000
90		74.218750
91		78.125000
92		74.218750
93		78.125000
94		74.218750
95		78.125000
96		74.218750
97		78.125000
98		74.218750
99		78.125000
100		74.218750
101		78.125000
102		74.218750
103		78.125000
104		74.218750
105		78.125000
106		74.218750
107		78.125000
108		74.218750
109		78.125000
110		74.218750
111		78.125000
112		74.218750
113		78.125000
114		74.218750
115		78.125000
116		74.218750
117		78.125000
118		74.218750
119		78.125000
120		74.218750
121		78.125000
122		74.218750
123		78.125000
124		74.218750
125		78.125000
126		74.218750
127		78.125000
128		70.312500
129		78.125000
130		74.218750
131		74.218750
132		70.312500
133		74.218750
134		70.312500
135		74.218750
136		70.312500
137		74.218750
138		70.312500
139		74.218750
140		70.312500
141		74.218750
142		70.312500
143		74.218750
144		70.312500
145		74.218750
146		66.406250
147		74.218750
148		66.406250
149		70.312500
150		66.406250
151		70.312500
152		66.406250
153		70.312500
154		66.406250
155		70.312500
156		62.500000
157		70.312500
158		66.406250
159		66.406250
160		62.500000
161		66.406250
162		62.500000
163		66.406250
164		62.500000
165		66.406250
166		62.500000
167		66.406250
168		58.593750
169		62.500000
170		58.593750
171		62.500000
172		58.593750
173		62.500000
174		58.593750
175		62.500000
176		58.593750
177		62.500000
178		54.687500
179		58.593750
180		54.687500
181		58.593750
182		54.687500
183		58.593750
184		54.687500
185		58.593750
186		50.781250
187		54.687500
188		50.781250
189		54.687500
190		50.781250
191		54.687500
192		50.781250
193		54.687500
194		46.875000
195		50.781250
196		46.875000
197		50.781250
198		46.875000
199		50.781250
200		46.875000
201		50.781250
202		42.968750
203		46.875000
204		42.968750
205		46.875000
206		42.968750
207		46.875000
208		39.062500
209		42.968750
210		39.062500
211		42.968750
212		39.062500
213		42.968750
214		35.156250
215		42.968750
216		35.156250
217		39.062500
218		35.156250
219		39.062500
220		35.156250
221		39.062500
222		35.156250
223		39.062500
224		31.250000
225		35.156250
226		31.250000
227		35.156250
228		31.250000
229		35.156250
230		27.343750
231		35.156250
232		27.343750
233		31.250000
234		27.343750
235		31.250000
236		27.343750
237		31.250000
238		27.343750
239		31.250000
240		23.437500
241		27.343750
242		23.437500
243		27.343750
244		23.437500
245		27.343750
246		19.531250
247		27.343750
248		19.531250
249		23.437500
250		19.531250
251		23.437500
252		19.531250
253		23.437500
254		19.531250
255		23.437500
256		19.531250
257		19.531250
258		15.625000
259		19.531250
260		15.625000
261		19.531250
262		15.625000
263		19.531250
264		15.625000
265		19.531250
266		15.625000
267		19.531250
268		15.625000
269		15.625000
270		11.718750
271		15.625000
272		11.718750
273		15.625000
274		11.718750
275		15.625000
276		11.718750
277		15.625000
278		11.718750
279		15.625000
280		11.718750
281		15.625000
282		11.718750
283		11.718750
284		7.812500
285		11.718750
286		7.812500
287		11.718750
288		7.812500
289		11.718750
290		7.812500
291		11.718750
292		7.812500
293		11.718750
294		7.812500
295		11.718750
296		7.812500
297		11.718750
298		7.812500
299		11.718750
300		7.812500
301		11.718750
302		7.812500
303		11.718750
304		7.812500
305		11.718750
306		7.812500
307		11.718750
308		7.812500
309		11.718750
310		7.812500
311		11.718750
312		7.812500
313		11.718750
314		7.812500
315		11.718750
316		7.812500
317		11.718750
318		7.812500
319		11.718750
320		7.812500
321		11.718750
322		11.718750
323		15.625000
324		11.718750
325		11.718750
326		11.718750
327		15.625000
328		11.718750
329		15.625000
330		11.718750
331		15.625000
332		11.718750
333		15.625000
334		11.718750
335		15.625000
336		11.718750
337		15.625000
338		11.718750
339		15.625000
340		15.625000
341		19.531250
342		15.625000
343		19.531250
344		15.625000
345		19.531250
346		15.625000
347		19.531250
348		15.625000
349		19.531250
350		19.531250
351		19.531250
352		19.531250
353		23.437500
354		19.531250
355		23.437500
356		19.531250
357		23.437500
358		19.531250
359		23.437500
360		23.437500
361		27.343750
362		23.437500
363		27.343750
364		23.437500
365		27.343750
366		23.437500
367		27.343750
368		27.343750
369		27.343750
370		27.343750
371		31.250000
372		27.343750
373		31.250000
374		27.343750
375		31.250000
376		31.250000
377		31.250000
378		31.250000
379		35.156250
380		31.250000
381		35.156250
382		31.250000
383		35.156250
384		35.156250
385		35.156250
386		35.156250
387		39.062500
388		35.156250
389		39.062500
390		35.156250
391		39.062500
392		39.062500
393		42.968750
394		39.062500
395		42.968750
396		39.062500
397		42.968750
398		39.062500
399		42.968750
400		42.968750
401		46.875000
402		42.968750
403		46.875000
404		42.968750
405		46.875000
406		46.875000
407		46.875000
408		46.875000
409		50.781250
410		46.875000
411		50.781250
412		46.875000
413		50.781250
414		50.781250
415		54.687500
416		50.781250
417		54.687500
418		50.781250
419		54.687500
420		50.781250
421		54.687500
422		54.687500
423		58.593750
424		54.687500
425		58.593750
426		54.687500
427		58.593750
428		54.687500
429		58.593750
430		54.687500
431		58.593750
432		58.593750
433		62.500000
434		58.593750
435		62.500000
436		58.593750
437		62.500000
438		58.593750
439		62.500000
440		62.500000
441		66.406250
442		62.500000
443		66.406250
444		62.500000
445		66.406250
446		62.500000
447		66.406250
448		66.406250
449		66.406250
450		66.406250
451		66.406250
452		66.406250
453		70.312500
454		66.406250
455		70.312500
456		66.406250
457		70.312500
458		66.406250
459		70.312500
460		66.406250
461		70.312500
462		70.312500
463		74.218750
464		70.312500
465		74.218750
466		70.312500
467		74.218750
468		70.312500
469		74.218750
470		70.312500
471		74.218750
472		70.312500
473		74.218750
474		70.312500
475		74.218750
476		74.218750
477		74.218750
478		74.218750
479		78.125000
480		74.218750
481		78.125000
482		74.218750
483		78.125000
484		74.218750
485		78.125000
486		74.218750
487		78.125000
488		74.218750
489		78.125000
490		74.218750
491		78.125000
492		74.218750
493		78.125000
494		74.218750
495		78.125000
496		74.218750
497		78.125000
498		74.218750
499		78.125000
500		74.218750
501		78.125000
502		74.218750
503		78.125000
504		74.218750
505		78.125000
506		74.218750
507		78.125000
508		74.218750
509		78.125000
510		74.218750
511		78.125000
512		74.218750
513		78.125000
514		74.218750
515		78.125000
516		74.218750
517		78.125000
518		74.218750
519		78.125000
520		74.218750
521		78.125000
522		74.218750
523		78.125000
524		74.218750
525		78.125000
526		74.218750
527		78.125000
528		74.218750
529		78.125000
530		74.218750
531		78.125000
532		70.312500
533		74.218750
534		70.312500
535		74.218750
536		70.312500
537		74.218750
538		70.312500
539		74.218750
540		70.312500
541		74.218750
542		70.312500
543		74.218750
544		70.312500
545		74.218750
546		70.312500
547		74.218750
548		66.406250
549		70.312500
550		66.406250
551		70.312500
552		66.406250
553		70.312500
554		66.406250
555		70.312500
556		66.406250
557		70.312500
558		66.406250
559		70.312500
560		62.500000
561		70.312500
562		62.500000
563		66.406250
564		62.500000
565		66.406250
566		62.500000
567		66.406250
568		62.500000
569		66.406250
570		58.593750
571		62.500000
572		58.593750
573		62.500000
574		58.593750
575		62.500000
576		58.593750
577		62.500000
578		54.687500
579		58.593750
580		54.687500
581		58.593750
582		54.687500
583		58.593750
584		54.687500
585		58.593750
586		54.687500
587		58.593750
588		50.781250
589		58.593750
590		50.781250
591		54.687500
592		50.781250
593		54.687500
594		50.781250
595		54.687500
596		46.875000
597		50.781250
598		46.875000
599		50.781250
600		46.875000
601		50.781250
602		46.875000
603		46.875000
604		42.968750
605		46.875000
606		42.968750
607		46.875000
608		42.968750
609		46.875000
610		42.968750
611		46.875000
612		39.062500
613		42.968750
614		39.062500
615		42.968750
616		39.062500
617		42.968750
618		39.062500
619		39.062500
620		35.156250
621		39.062500
622		35.156250
623		39.062500
624		35.156250
625		39.062500
626		31.250000
627		35.156250
628		31.250000
629		35.156250
630		31.250000
631		35.156250
632		31.250000
633		35.156250
634		27.343750
635		35.156250
636		27.343750
637		31.250000
638		27.343750
639		31.250000
640		27.343750
641		31.250000
642		23.437500
643		27.343750
644		23.437500
645		27.343750
646		23.437500
647		27.343750
648		23.437500
649		27.343750
650		23.437500
651		23.437500
652		19.531250
653		23.437500
654		19.531250
655		23.437500
656		19.531250
657		23.437500
658		19.531250
659		23.437500
660		19.531250
661		19.531250
662		15.625000
663		19.531250
664		15.625000
665		19.531250
666		15.625000
667		19.531250
668		15.625000
669		19.531250
670		15.625000
671		19.531250
672		15.625000
673		19.531250
674		11.718750
675		15.625000
676		11.718750
677		15.625000
678		11.718750
679		15.625000
680		11.718750
681		15.625000
682		11.718750
683		15.625000
684		11.718750
685		15.625000
686		11.718750
687		11.718750
688		11.718750
689		11.718750
690		11.718750
691		11.718750
692		7.812500
693		11.718750
694		7.812500
695		11.718750
696		7.812500
697		11.718750
698		7.812500
699		11.718750
700		7.812500
701		11.718750
702		7.812500
703		11.718750
704		7.812500
705		11.718750
706		7.812500
707		11.718750
708		7.812500
709		11.718750
710		7.812500
711		11.718750
712		7.812500
713		11.718750
714		7.812500
715		11.718750
716		7.812500
717		11.718750
718		7.812500
719		11.718750
720		11.718750
721		11.718750
722		7.812500
723		11.718750
724		11.718750
725		11.718750
726		11.718750
727		15.625000
728		11.718750
729		15.625000
730		11.718750
731		15.625000
732		11.718750
733		15.625000
734		11.718750
735		15.625000
736		11.718750
737		15.625000
738		11.718750
739		15.625000
740		11.718750
741		15.625000
742		15.625000
743		19.531250
744		15.625000
745		19.531250
746		15.625000
747		19.531250
748		15.625000
749		19.531250
750		15.625000
751		19.531250
752		15.625000
753		19.531250
754		19.531250
755		19.531250
756		19.531250
757		23.437500
758		19.531250
759		23.437500
760		19.531250
761		23.437500
762		19.531250
763		27.343750
764		23.437500
765		27.343750
766		23.437500
767		27.343750
768		23.437500
769		27.343750
770		23.437500
771		27.343750
772		23.437500
773		31.250000
774		27.343750
775		31.250000
776		27.343750
777		31.250000
778		27.343750
779		35.156250
780		31.250000
781		35.156250
782		31.250000
783		35.156250
784		31.250000
785		35.156250
786		31.250000
787		35.156250
788		35.156250
789		39.062500
790		35.156250
791		39.062500
792		35.156250
793		39.062500
794		35.156250
795		39.062500
796		39.062500
797		42.968750
798		39.062500
799		42.968750
800		39.062500
801		42.968750
802		39.062500
803		42.968750
804		42.968750
805		46.875000
806		42.968750
807		46.875000
808		42.968750
809		46.875000
810		42.968750
811		46.875000
812		46.875000
813		50.781250
814		46.875000
815		50.781250
816		46.875000
817		50.781250
818		46.875000
819		50.781250
820		50.781250
821		54.687500
822		50.781250
823		54.687500
824		50.781250
825		54.687500
826		50.781250
827		54.687500
828		54.687500
829		58.593750
830		54.687500
831		58.593750
832		54.687500
833		58.593750
834		54.687500
835		58.593750
836		58.593750
837		62.500000
838		58.593750
839		62.500000
840		58.593750
841		62.500000
842		58.593750
843		62.500000
844		58.593750
845		66.406250
846		62.500000
847		66.406250
848		62.500000
849		66.406250
850		62.500000
851		66.406250
852		62.500000
853		66.406250
854		62.500000
855		66.406250
856		66.406250
857		70.312500
858		66.406250
859		70.312500
860		66.406250
861		70.312500
862		66.406250
863		70.312500
864		66.406250
865		70.312500
866		66.406250
867		70.312500
868		66.406250
869		74.218750
870		70.312500
871		74.218750
872		70.312500
873		74.218750
874		70.312500
875		74.218750
876		70.312500
877		74.218750
878		70.312500
879		74.218750
880		70.312500
881		74.218750
882		70.312500
883		74.218750
884		70.312500
885		74.218750
886		70.312500
887		78.125000
888		74.218750
889		74.218750
890		74.218750
891		78.125000
892		74.218750
893		78.125000
894		74.218750
895		78.125000
896		74.218750
897		78.125000
898		74.218750
899		78.125000
900		74.218750
901		78.125000
902		74.218750
903		78.125000
904		74.218750
905		78.125000
906		74.218750
907		78.125000
908		74.218750
909		78.125000
910		74.218750
911		78.125000
912		74.218750
913		78.125000
914		74.218750
915		78.125000
916		74.218750
917		78.125000
918		74.218750
919		78.125000
920		74.218750
921		78.125000
922		74.218750
923		78.125000
924		74.218750
925		78.125000
926		74.218750
927		78.125000
928		74.218750
929		78.125000
930		74.218750
931		74.218750
932		74.218750
933		74.218750
934		70.312500
935		74.218750
936		70.312500
937		74.218750
938		70.312500
939		74.218750
940		70.312500
941		74.218750
942		70.312500
943		74.218750
944		70.312500
945		74.218750
946		70.312500
947		74.218750
948		70.312500
949		74.218750
950		66.406250
951		74.218750
952		66.406250
953		70.312500
954		66.406250
955		70.312500
956		66.406250
957		70.312500
958		66.406250
959		70.312500
960		66.406250
961		70.312500
962		66.406250
963		66.406250
964		62.500000
965		66.406250
966		62.500000
967		66.406250
968		62.500000
969		66.406250
970		62.500000
971		66.406250
972		62.500000
973		62.500000
974		58.593750
975		62.500000
976		58.593750
977		62.500000
978		58.593750
979		62.500000
980		58.593750
981		62.500000
982		58.593750
983		58.593750
984		54.687500
985		58.593750
986		54.687500
987		58.593750
988		54.687500
989		58.593750
990		50.781250
991		54.687500
992		50.781250
993		54.687500
994		50.781250
995		54.687500
996		50.781250
997		54.687500
998		50.781250
999		50.781250
1000		46.875000
1001		50.781250
1002		46.875000
1003		50.781250
1004		46.875000
1005		50.781250
1006		42.968750
1007		46.875000
1008		42.968750
1009		46.875000
1010		42.968750
1011		46.875000
1012		42.968750
1013		46.875000
1014		39.062500
1015		42.968750
1016		39.062500
1017		42.968750
1018		39.062500
1019		42.968750
1020		39.062500
1021		42.968750
1022		35.156250
1023		39.062500
1024		35.156250
1025		39.062500
1026		35.156250
1027		39.062500
1028		35.156250
1029		35.156250
1030		31.250000
1031		35.156250
1032		31.250000
1033		35.156250
1034		31.250000
1035		35.156250
1036		27.343750
1037		35.156250
1038		27.343750
1039		31.250000
1040		27.343750
1041		31.250000
1042		27.343750
1043		31.250000
1044		27.343750
1045		27.343750
1046		23.437500
1047		27.343750
1048		23.437500
1049		27.343750
1050		23.437500
1051		27.343750
1052		23.437500
1053		27.343750
1054		19.531250
1055		23.437500
1056		19.531250
1057		23.437500
1058		19.531250
1059		23.437500
1060		19.531250
1061		23.437500
1062		15.625000
1063		23.437500
1064		15.625000
1065		19.531250
1066		15.625000
1067		19.531250
1068		15.625000
1069		19.531250
1070		15.625000
1071		19.531250
1072		15.625000
1073		15.625000
1074		11.718750
1075		15.625000
1076		11.718750
1077		15.625000
1078		11.718750
1079		15.625000
1080		11.718750
1081		15.625000
1082		11.718750
1083		15.625000
1084		11.718750
1085		15.625000
1086		7.812500
1087		15.625000
1088		7.812500
1089		11.718750
1090		7.812500
1091		11.718750
1092		7.812500
1093		11.718750
1094		7.812500
1095		11.718750
1096		7.812500
1097		11.718750
1098		7.812500
1099		11.718750
1100		7.812500
1101		11.718750
1102		7.812500
1103		11.718750
1104		7.812500
1105		11.718750
1106		7.812500
1107		11.718750
1108		7.812500
1109		11.718750
1110		7.812500
1111		11.718750
1112		7.812500
1113		11.718750
1114		7.812500
1115		11.718750
1116		7.812500
1117		11.718750
1118		7.812500
1119		11.718750
1120		7.812500
1121		11.718750
1122		7.812500
1123		11.718750
1124		7.812500
1125		11.718750
1126		7.812500
1127		11.718750
1128		7.812500
1129		11.718750
1130		7.812500
1131		11.718750
1132		11.718750
1133		11.718750
1134		7.812500
1135		11.718750
1136		7.812500
1137		15.625000
1138		11.718750
1139		15.625000
1140		11.718750
1141		15.625000
1142		11.718750
1143		15.625000
1144		11.718750
1145		15.625000
1146		11.718750
1147		15.625000
1148		15.625000
1149		15.625000
1150		15.625000
1151		19.531250
1152		15.625000
1153		19.531250
1154		15.625000
1155		19.531250
1156		15.625000
1157		19.531250
1158		15.625000
1159		19.531250
1160		19.531250
1161		23.437500
1162		19.531250
1163		23.437500
1164		19.531250
1165		23.437500
1166		19.531250
1167		23.437500
1168		19.531250
1169		23.437500
1170		23.437500
1171		27.343750
1172		23.437500
1173		27.343750
1174		23.437500
1175		27.343750
1176		23.437500
1177		27.343750
1178		27.343750
1179		31.250000
1180		27.343750
1181		31.250000
1182		27.343750
1183		31.250000
1184		27.343750
1185		31.250000
1186		27.343750
1187		35.156250
1188		31.250000
1189		35.156250
1190		31.250000
1191		35.156250
1192		31.250000
1193		35.156250
1194		35.156250
1195		39.062500
1196		35.156250
1197		39.062500
1198		35.156250
1199		39.062500
1200		35.156250
1201		39.062500
1202		39.062500
1203		42.968750
1204		39.062500
1205		42.968750
1206		39.062500
1207		42.968750
1208		42.968750
1209		42.968750
1210		42.968750
1211		46.875000
1212		42.968750
1213		46.875000
1214		42.968750
1215		46.875000
1216		46.875000
1217		50.781250
1218		46.875000
1219		50.781250
1220		46.875000
1221		50.781250
1222		46.875000
1223		54.687500
1224		50.781250
1225		54.687500
1226		50.781250
1227		54.687500
1228		50.781250
1229		54.687500
1230		50.781250
1231		58.593750
1232		54.687500
1233		58.593750
1234		54.687500
1235		58.593750
1236		54.687500
1237		58.593750
1238		54.687500
1239		58.593750
1240		58.593750
1241		62.500000
1242		58.593750
1243		62.500000
1244		58.593750
1245		62.500000
1246		58.593750
1247		62.500000
1248		58.593750
1249		66.406250
1250		62.500000
1251		66.406250
1252		62.500000
1253		66.406250
1254		62.500000
1255		66.406250
1256		62.500000
1257		66.406250
1258		66.406250
1259		70.312500
1260		66.406250
1261		70.312500
1262		66.406250
1263		70.312500
1264		66.406250
1265		70.312500
1266		66.406250
1267		70.312500
1268		66.406250
1269		70.312500
1270		66.406250
1271		70.312500
1272		70.312500
1273		74.218750
1274		70.312500
1275		74.218750
1276		70.312500
1277		74.218750
1278		70.312500
1279		74.218750
1280		70.312500
1281		74.218750
1282		70.312500
1283		74.218750
1284		70.312500
1285		74.218750
1286		70.312500
1287		74.218750
1288		70.312500
1289		78.125000
1290		74.218750
1291		74.218750
1292		74.218750
1293		78.125000
1294		74.218750
1295		78.125000
1296		74.218750
1297		78.125000
1298		74.218750
1299		78.125000
1300		74.218750
1301		78.125000
1302		74.218750
1303		78.125000
1304		74.218750
1305		78.125000
1306		74.218750
1307		78.125000
1308		74.218750
1309		78.125000
1310		74.218750
1311		78.125000
1312		74.218750
1313		78.125000
1314		74.218750
1315		78.125000
1316		74.218750
1317		78.125000
1318		74.218750
1319		78.125000
1320		74.218750
1321		78.125000
1322		74.218750
1323		78.125000
1324		74.218750
1325		78.125000
1326		74.218750
1327		78.125000
1328		74.218750
1329		78.125000
1330		74.218750
1331		78.125000
1332		74.218750
1333		78.125000
1334		74.218750
1335		74.218750
1336		74.218750
1337		74.218750
1338		70.312500
1339		74.218750
1340		70.312500
1341		74.218750
1342		70.312500
1343		74.218750
1344		70.312500
1345		74.218750
1346		70.312500
1347		74.218750
1348		70.312500
1349		74.218750
1350		70.312500
1351		74.218750
1352		66.406250
1353		70.312500
1354		66.406250
1355		70.312500
1356		66.406250
1357		70.312500
1358		66.406250
1359		70.312500
1360		66.406250
1361		70.312500
1362		66.406250
1363		70.312500
1364		66.406250
1365		70.312500
1366		62.500000
1367		66.406250
1368		62.500000
1369		66.406250
1370		62.500000
1371		66.406250
1372		62.500000
1373		66.406250
1374		62.500000
1375		62.500000
1376		58.593750
1377		62.500000
1378		58.593750
1379		62.500000
1380		58.593750
1381		62.500000
1382		58.593750
1383		62.500000
1384		54.687500
1385		58.593750
1386		54.687500
1387		58.593750
1388		54.687500
1389		58.593750
1390		50.781250
1391		58.593750
1392		50.781250
1393		54.687500
1394		50.781250
1395		54.687500
1396		50.781250
1397		54.687500
1398		50.781250
1399		54.687500
1400		46.875000
1401		54.687500
1402		46.875000
1403		50.781250
1404		46.875000
1405		50.781250
1406		46.875000
1407		50.781250
1408		46.875000
1409		46.875000
1410		42.968750
1411		46.875000
1412		42.968750
1413		46.875000
1414		42.968750
1415		46.875000
1416		39.062500
1417		46.875000
1418		39.062500
1419		42.968750
1420		39.062500
1421		42.968750
1422		39.062500
1423		42.968750
1424		35.156250
1425		39.062500
1426		35.156250
1427		39.062500
1428		35.156250
1429		39.062500
1430		35.156250
1431		39.062500
1432		31.250000
1433		35.156250
1434		31.250000
1435		35.156250
1436		31.250000
1437		35.156250
1438		31.250000
1439		35.156250
1440		27.343750
1441		31.250000
1442		27.343750
1443		31.250000
1444		27.343750
1445		31.250000
1446		27.343750
1447		27.343750
1448		23.437500
1449		27.343750
1450		23.437500
1451		27.343750
1452		23.437500
1453		27.343750
1454		23.437500
1455		27.343750
1456		19.531250
1457		23.437500
1458		19.531250
1459		23.437500
1460		19.531250
1461		23.437500
1462		19.531250
1463		23.437500
1464		19.531250
1465		23.437500
1466		15.625000
1467		19.531250
1468		15.625000
1469		19.531250
1470		15.625000
1471		19.531250
1472		15.625000
1473		19.531250
1474		15.625000
1475		19.531250
1476		15.625000
1477		15.625000
1478		11.718750
1479		15.625000
1480		11.718750
1481		15.625000
1482		11.718750
1483		15.625000
1484		11.718750
1485		15.625000
1486		11.718750
1487		15.625000
1488		11.718750
1489		15.625000
1490		11.718750
1491		15.625000
1492		11.718750
1493		11.718750
1494		7.812500
1495		11.718750
1496		7.812500
1497		11.718750
1498		7.812500
1499		11.718750
1500		7.812500
1501		11.718750
1502		7.812500
1503		11.718750
1504		7.812500
1505		11.718750
1506		7.812500
1507		11.718750
1508		7.812500
1509		11.718750
1510		7.812500
1511		11.718750
1512		7.812500
1513		11.718750
1514		7.812500
1515		11.718750
1516		7.812500
1517		11.718750
1518		7.812500
1519		11.718750
1520		7.812500
1521		11.718750
1522		7.812500
1523		11.718750
1524		7.812500
1525		11.718750
1526		7.812500
1527		11.718750
1528		7.812500
1529		11.718750
1530		7.812500
1531		11.718750
1532		7.812500
1533		11.718750
1534		11.718750
1535		15.625000
1536		11.718750
1537		15.625000
1538		11.718750
1539		15.625000
1540		11.718750
1541		15.625000
1542		11.718750
1543		15.625000
1544		11.718750
1545		15.625000
1546		11.718750
1547		15.625000
1548		11.718750
1549		15.625000
1550		15.625000
1551		19.531250
1552		15.625000
1553		19.531250
1554		15.625000
1555		19.531250
1556		15.625000
1557		19.531250
1558		15.625000
1559		19.531250
1560		19.531250
1561		19.531250
1562		15.625000
1563		23.437500
1564		19.531250
1565		23.437500
1566		19.531250
1567		23.437500
1568		19.531250
1569		23.437500
1570		19.531250
1571		23.437500
1572		23.437500
1573		27.343750
1574		23.437500
1575		27.343750
1576		23.437500
1577		27.343750
1578		23.437500
1579		27.343750
1580		27.343750
1581		31.250000
1582		27.343750
1583		31.250000
1584		27.343750
1585		31.250000
1586		27.343750
1587		31.250000
1588		31.250000
1589		31.250000
1590		31.250000
1591		35.156250
1592		31.250000
1593		35.156250
1594		31.250000
1595		35.156250
1596		35.156250
1597		39.062500
1598		35.156250
1599		39.062500
1600		35.156250
1601		39.062500
1602		35.156250
1603		42.968750
1604		39.062500
1605		42.968750
1606		39.062500
1607		42.968750
1608		39.062500
1609		42.968750
1610		42.968750
1611		42.968750
1612		42.968750
1613		46.875000
1614		42.968750
1615		46.875000
1616		42.968750
1617		46.875000
1618		42.968750
1619		46.875000
1620		46.875000
1621		50.781250
1622		46.875000
1623		50.781250
1624		46.875000
1625		50.781250
1626		50.781250
1627		54.687500
1628		50.781250
1629		54.687500
1630		50.781250
1631		54.687500
1632		50.781250
1633		54.687500
1634		54.687500
1635		54.687500
1636		54.687500
1637		58.593750
1638		54.687500
1639		58.593750
1640		54.687500
1641		58.593750
1642		54.687500
1643		58.593750
1644		58.593750
1645		62.500000
1646		58.593750
1647		62.500000
1648		58.593750
1649		62.500000
1650		58.593750
1651		62.500000
1652		58.593750
1653		62.500000
1654		62.500000
1655		66.406250
1656		62.500000
1657		66.406250
1658		62.500000
1659		66.406250
1660		62.500000
1661		66.406250
1662		66.406250
1663		66.406250
1664		66.406250
1665		70.312500
1666		66.406250
1667		70.312500
1668		66.406250
1669		70.312500
1670		66.406250
1671		70.312500
1672		66.406250
1673		70.312500
1674		66.406250
1675		70.312500
1676		70.312500
1677		74.218750
1678		70.312500
1679		74.218750
1680		70.312500
1681		74.218750
1682		70.312500
1683		74.218750
1684		70.312500
1685		74.218750
1686		70.312500
1687		74.218750
1688		70.312500
1689		74.218750
1690		70.312500
1691		74.218750
1692		70.312500
1693		78.125000
1694		74.218750
1695		74.218750
1696		70.312500
1697		78.125000
1698		70.312500
1699		78.125000
1700		74.218750
1701		78.125000
1702		74.218750
1703		78.125000
1704		74.218750
1705		78.125000
1706		74.218750
1707		78.125000
1708		74.218750
1709		78.125000
1710		74.218750
1711		78.125000
1712		74.218750
1713		78.125000
1714		74.218750
1715		78.125000
1716		74.218750
1717		78.125000
1718		74.218750
1719		78.125000
1720		74.218750
1721		78.125000
1722		74.218750
1723		78.125000
1724		74.218750
1725		78.125000
1726		74.218750
1727		78.125000
1728		74.218750
1729		78.125000
1730		74.218750
1731		78.125000
1732		74.218750
1733		78.125000
1734		74.218750
1735		78.125000
1736		74.218750
1737		78.125000
1738		70.312500
1739		74.218750
1740		70.312500
1741		74.218750
1742		70.312500
1743		74.218750
1744		70.312500
1745		74.218750
1746		70.312500
1747		74.218750
1748		70.312500
1749		74.218750
1750		70.312500
1751		74.218750
1752		70.312500
1753		74.218750
1754		66.406250
1755		74.218750
1756		70.312500
1757		70.312500
1758		66.406250
1759		70.312500
1760		66.406250
1761		70.312500
1762		66.406250
1763		70.312500
1764		66.406250
1765		70.312500
1766		66.406250
1767		70.312500
1768		66.406250
1769		70.312500
1770		62.500000
1771		66.406250
1772		62.500000
1773		66.406250
1774		62.500000
1775		66.406250
1776		62.500000
1777		66.406250
1778		62.500000
1779		62.500000
1780		58.593750
1781		62.500000
1782		58.593750
1783		62.500000
1784		58.593750
1785		62.500000
1786		58.593750
1787		62.500000
1788		54.687500
1789		62.500000
1790		54.687500
1791		58.593750
1792		54.687500
1793		58.593750
1794		54.687500
1795		58.593750
1796		54.687500
1797		58.593750
1798		50.781250
1799		54.687500
1800		50.781250
1801		54.687500
1802		50.781250
1803		54.687500
1804		50.781250
1805		54.687500
1806		46.875000
1807		50.781250
1808		46.875000
1809		50.781250
1810		46.875000
1811		50.781250
1812		46.875000
1813		50.781250
1814		42.968750
1815		46.875000
1816		42.968750
1817		46.875000
1818		42.968750
1819		46.875000
1820		39.062500
1821		46.875000
1822		39.062500
1823		42.968750
1824		39.062500
1825		42.968750
1826		39.062500
1827		42.968750
1828		39.062500
1829		39.062500
1830		35.156250
1831		39.062500
1832		35.156250
1833		39.062500
1834		35.156250
1835		39.062500
1836		31.250000
1837		39.062500
1838		31.250000
1839		35.156250
1840		31.250000
1841		35.156250
1842		31.250000
1843		35.156250
1844		27.343750
1845		35.156250
1846		27.343750
1847		31.250000
1848		27.343750
1849		31.250000
1850		27.343750
1851		31.250000
1852		23.437500
1853		31.250000
1854		23.437500
1855		27.343750
1856		23.437500
1857		27.343750
1858		23.437500
1859		27.343750
1860		19.531250
1861		23.437500
1862		19.531250
1863		23.437500
1864		19.531250
1865		23.437500
1866		19.531250
1867		23.437500
1868		19.531250
1869		23.437500
1870		15.625000
1871		19.531250
1872		15.625000
1873		19.531250
1874		15.625000
1875		19.531250
1876		15.625000
1877		19.531250
1878		15.625000
1879		19.531250
1880		15.625000
1881		15.625000
1882		11.718750
1883		19.531250
1884		11.718750
1885		15.625000
1886		11.718750
1887		15.625000
1888		11.718750
1889		15.625000
1890		11.718750
1891		15.625000
1892		11.718750
1893		15.625000
1894		11.718750
1895		15.625000
1896		11.718750
1897		15.625000
1898		7.812500
1899		11.718750
1900		7.812500
1901		11.718750
1902		7.812500
1903		11.718750
1904		7.812500
1905		11.718750
1906		7.812500
1907		11.718750
1908		7.812500
1909		11.718750
1910		7.812500
1911		11.718750
1912		7.812500
1913		11.718750
1914		7.812500
1915		11.718750
1916		7.812500
1917		11.718750
1918		7.812500
1919		11.718750
1920		7.812500
1921		11.718750
1922		7.812500
1923		11.718750
1924		7.812500
1925		11.718750
1926		7.812500
1927		11.718750
1928		7.812500
1929		11.718750
1930		7.812500
1931		11.718750
1932		7.812500
1933		11.718750
1934		7.812500
1935		11.718750
1936		7.812500
1937		11.718750
1938		7.812500
1939		11.718750
1940		7.812500
1941		11.718750
1942		11.718750
1943		11.718750
1944		11.718750
1945		15.625000
1946		11.718750
1947		15.625000
1948		11.718750
1949		15.625000
1950		11.718750
1951		15.625000
1952		11.718750
1953		15.625000
1954		11.718750
1955		15.625000
1956		11.718750
1957		19.531250
1958		15.625000
1959		19.531250
1960		15.625000
1961		19.531250
1962		15.625000
1963		19.531250
1964		15.625000
1965		19.531250
1966		15.625000
1967		19.531250
1968		19.531250
1969		23.437500
1970		19.531250
1971		23.437500
1972		19.531250
1973		23.437500
1974		19.531250
1975		23.437500
1976		23.437500
1977		27.343750
1978		23.437500
1979		27.343750
1980		23.437500
1981		27.343750
1982		23.437500
1983		27.343750
1984		23.437500
1985		27.343750
1986		27.343750
1987		31.250000
1988		27.343750
1989		31.250000
1990		27.343750
1991		31.250000
1992		27.343750
1993		35.156250
1994		31.250000
1995		35.156250
1996		31.250000
1997		35.156250
1998		31.250000
1999		35.156250
2000		35.156250
2001		39.062500
2002		35.156250
2003		39.062500
2004		35.156250
2005		39.062500
2006		35.156250
2007		39.062500
2008		39.062500
2009		42.968750
2010		39.062500
2011		42.968750
2012		39.062500
2013		42.968750
2014		39.062500
2015		42.968750
2016		42.968750
2017		46.875000
2018		42.968750
2019		46.875000
2020		42.968750
2021		46.875000
2022		46.875000
2023		46.875000
2024		46.875000
2025		50.781250
2026		46.875000
2027		50.781250
2028		46.875000
2029		50.781250
2030		50.781250
2031		50.781250
2032		50.781250
2033		54.687500
2034		50.781250
2035		54.687500
2036		50.781250
2037		54.687500
2038		54.687500
2039		54.687500
2040		54.687500
2041		58.593750
2042		54.687500
2043		58.593750
2044		54.687500
2045		58.593750
2046		54.687500
2047		58.593750
2048		58.593750
2049		62.500000
2050		58.593750
2051		62.500000
2052		58.593750
2053		62.500000
2054		58.593750
2055		62.500000
2056		58.593750
2057		66.406250
2058		62.500000
2059		66.406250
2060		62.500000
2061		66.406250
2062		62.500000
2063		66.406250
2064		66.406250
2065		66.406250
2066		66.406250
2067		70.312500
2068		66.406250
2069		70.312500
2070		66.406250
2071		70.312500
2072		66.406250
2073		70.312500
2074		66.406250
2075		70.312500
2076		66.406250
2077		74.218750
2078		66.406250
2079		74.218750
2080		70.312500
2081		74.218750
2082		70.312500
2083		74.218750
2084		70.312500
2085		74.218750
2086		70.312500
2087		74.218750
2088		70.312500
2089		74.218750
2090		70.312500
2091		74.218750
2092		70.312500
2093		74.218750
2094		74.218750
2095		74.218750
2096		74.218750
2097		78.125000
2098		74.218750
2099		78.125000
2100		74.218750
2101		78.125000
2102		74.218750
2103		78.125000
2104		74.218750
2105		78.125000
2106		74.218750
2107		78.125000
2108		74.218750
2109		78.125000
2110		74.218750
2111		78.125000
2112		74.218750
2113		78.125000
2114		74.218750
2115		78.125000
2116		74.218750
2117		78.125000
2118		74.218750
2119		78.125000
2120		74.218750
2121		78.125000
2122		74.218750
2123		78.125000
2124		74.218750
2125		78.125000
2126		74.218750
2127		78.125000
2128		74.218750
2129		78.125000
2130		74.218750
2131		78.125000
2132		74.218750
2133		78.125000
2134		74.218750
2135		78.125000
2136		74.218750
2137		78.125000
2138		74.218750
2139		78.125000
2140		74.218750
2141		78.125000
2142		74.218750
2143		74.218750
2144		74.218750
2145		78.125000
2146		70.312500
2147		78.125000
2148		70.312500
2149		74.218750
2150		70.312500
2151		74.218750
2152		70.312500
2153		74.218750
2154		70.312500
2155		74.218750
2156		70.312500
2157		74.218750
2158		70.312500
2159		74.218750
2160		66.406250
2161		70.312500
2162		66.406250
2163		74.218750
2164		66.406250
2165		70.312500
2166		66.406250
2167		70.312500
2168		66.406250
2169		70.312500
2170		66.406250
2171		70.312500
2172		66.406250
2173		70.312500
2174		62.500000
2175		66.406250
2176		62.500000
2177		66.406250
2178		62.500000
2179		66.406250
2180		62.500000
2181		66.406250
2182		62.500000
2183		66.406250
2184		58.593750
2185		62.500000
2186		58.593750
2187		62.500000
2188		58.593750
2189		62.500000
2190		58.593750
2191		62.500000
2192		54.687500
2193		58.593750
2194		54.687500
2195		58.593750
2196		54.687500
2197		58.593750
2198		54.687500
2199		58.593750
2200		54.687500
2201		54.687500
2202		50.781250
2203		54.687500
2204		50.781250
2205		54.687500
2206		50.781250
2207		54.687500
2208		50.781250
2209		50.781250
2210		46.875000
2211		50.781250
2212		46.875000
2213		50.781250
2214		46.875000
2215		50.781250
2216		46.875000
2217		46.875000
2218		42.968750
2219		46.875000
2220		42.968750
2221		46.875000
2222		42.968750
2223		46.875000
2224		39.062500
2225		42.968750
2226		39.062500
2227		42.968750
2228		39.062500
2229		42.968750
2230		39.062500
2231		42.968750
2232		35.156250
2233		39.062500
2234		35.156250
2235		39.062500
2236		35.156250
2237		39.062500
2238		31.250000
2239		39.062500
2240		31.250000
2241		35.156250
2242		31.250000
2243		35.156250
2244		31.250000
2245		35.156250
2246		27.343750
2247		35.156250
2248		27.343750
2249		31.250000
2250		27.343750
2251		31.250000
2252		27.343750
2253		31.250000
2254		23.437500
2255		31.250000
2256		23.437500
2257		27.343750
2258		23.437500
2259		27.343750
2260		23.437500
2261		27.343750
2262		23.437500
2263		27.343750
2264		19.531250
2265		23.437500
2266		19.531250
2267		23.437500
2268		19.531250
2269		23.437500
2270		19.531250
2271		23.437500
2272		15.625000
2273		19.531250
2274		15.625000
2275		19.531250
2276		15.625000
2277		19.531250
2278		15.625000
2279		19.531250
2280		15.625000
2281		19.531250
2282		15.625000
2283		19.531250
2284		11.718750
2285		15.625000
2286		11.718750
2287		15.625000
2288		11.718750
2289		15.625000
2290		11.718750
2291		15.625000
2292		11.718750
2293		15.625000
2294		11.718750
2295		15.625000
2296		7.812500
2297		15.625000
2298		7.812500
2299		15.625000
2300		7.812500
2301		11.718750
2302		7.812500
2303		11.718750
2304		7.812500
2305		11.718750
2306		7.812500
2307		11.718750
2308		7.812500
2309		11.718750
2310		7.812500
2311		11.718750
2312		7.812500
2313		11.718750
2314		7.812500
2315		11.718750
2316		7.812500
2317		11.718750
2318		7.812500
2319		11.718750
2320		7.812500
2321		11.718750
2322		7.812500
2323		11.718750
2324		7.812500
2325		11.718750
2326		7.812500
2327		11.718750
2328		7.812500
2329		11.718750
2330		7.812500
2331		11.718750
2332		7.812500
2333		11.718750
2334		7.812500
2335		11.718750
2336		7.812500
2337		11.718750
2338		7.812500
2339		15.625000
2340		7.812500
2341		15.625000
2342		7.812500
2343		15.625000
2344		7.812500
2345		15.625000
2346		11.718750
2347		15.625000
2348		11.718750
2349		15.625000
2350		11.718750
2351		15.625000
2352		11.718750
2353		15.625000
2354		11.718750
2355		15.625000
2356		11.718750
2357		19.531250
2358		11.718750
2359		19.531250
2360		11.718750
2361		19.531250
2362		15.625000
2363		19.531250
2364		15.625000
2365		19.531250
2366		15.625000
2367		19.531250
2368		19.531250
2369		19.531250
2370		15.625000
2371		23.437500
2372		19.531250
2373		23.437500
2374		19.531250
2375		23.437500
2376		19.531250
2377		23.437500
2378		19.531250
2379		27.343750
2380		19.531250
2381		27.343750
2382		23.437500
2383		27.343750
2384		23.437500
2385		27.343750
2386		23.437500
2387		31.250000
2388		23.437500
2389		31.250000
2390		27.343750
2391		31.250000
2392		27.343750
2393		31.250000
2394		27.343750
2395		35.156250
2396		27.343750
2397		35.156250
2398		31.250000
2399		35.156250
2400		31.250000
2401		35.156250
2402		31.250000
2403		39.062500
2404		35.156250
2405		39.062500
2406		35.156250
2407		39.062500
2408		35.156250
2409		39.062500
2410		39.062500
2411		39.062500
2412		39.062500
2413		42.968750
2414		39.062500
2415		42.968750
2416		39.062500
2417		46.875000
2418		39.062500
2419		46.875000
2420		42.968750
2421		46.875000
2422		42.968750
2423		46.875000
2424		42.968750
2425		46.875000
2426		46.875000
2427		50.781250
2428		46.875000
2429		50.781250
2430		46.875000
2431		50.781250
2432		46.875000
2433		50.781250
2434		46.875000
2435		54.687500
2436		50.781250
2437		54.687500
2438		50.781250
2439		54.687500
2440		50.781250
2441		54.687500
2442		54.687500
2443		58.593750
2444		54.687500
2445		58.593750
2446		54.687500
2447		58.593750
2448		54.687500
2449		58.593750
2450		58.593750
2451		62.500000
2452		58.593750
2453		62.500000
2454		58.593750
2455		62.500000
2456		58.593750
2457		62.500000
2458		58.593750
2459		66.406250
2460		62.500000
2461		66.406250
2462		62.500000
2463		66.406250
2464		62.500000
2465		66.406250
2466		62.500000
2467		66.406250
2468		62.500000
2469		66.406250
2470		66.406250
2471		66.406250
2472		66.406250
2473		70.312500
2474		66.406250
2475		70.312500
2476		66.406250
2477		70.312500
2478		66.406250
2479		70.312500
2480		66.406250
2481		70.312500
2482		66.406250
2483		74.218750
2484		70.312500
2485		74.218750
2486		70.312500
2487		74.218750
2488		70.312500
2489		74.218750
2490		70.312500
2491		74.218750
2492		70.312500
2493		74.218750
2494		70.312500
2495		74.218750
2496		70.312500
2497		74.218750
2498		70.312500
2499		74.218750
2500		74.218750
2501		74.218750
2502		74.218750
2503		74.218750
2504		70.312500
2505		78.125000
2506		70.312500
2507		78.125000
2508		70.312500
2509		78.125000
2510		74.218750
2511		78.125000
2512		74.218750
2513		78.125000
2514		74.218750
2515		78.125000
2516		74.218750
2517		78.125000
2518		74.218750
2519		78.125000
2520		70.312500
2521		78.125000
2522		70.312500
2523		82.031250
2524		70.312500
2525		82.031250
2526		70.312500
2527		78.125000
2528		74.218750
2529		78.125000
2530		74.218750
2531		78.125000
2532		74.218750
2533		78.125000
2534		74.218750
2535		78.125000
2536		74.218750
2537		78.125000
2538		70.312500
2539		78.125000
2540		70.312500
2541		78.125000
2542		70.312500
2543		78.125000
2544		74.218750
2545		78.125000
2546		74.218750
2547		74.218750
2548		70.312500
2549		74.218750
2550		70.312500
2551		74.218750
2552		70.312500
2553		74.218750
2554		66.406250
2555		78.125000
2556		66.406250
2557		78.125000
2558		66.406250
2559		74.218750
2560		66.406250
2561		78.125000
2562		70.312500
2563		70.312500
2564		66.406250
2565		70.312500
2566		66.406250
2567		70.312500
2568		66.406250
2569		70.312500
2570		66.406250
2571		70.312500
2572		62.500000
2573		74.218750
2574		62.500000
2575		70.312500
2576		62.500000
2577		70.312500
2578		62.500000
2579		66.406250
2580		62.500000
2581		66.406250
2582		62.500000
2583		66.406250
2584		62.500000
2585		62.500000
2586		58.593750
2587		62.500000
2588		54.687500
2589		66.406250
2590		54.687500
2591		66.406250
2592		54.687500
2593		66.406250
2594		58.593750
2595		58.593750
2596		54.687500
2597		58.593750
2598		54.687500
2599		58.593750
2600		54.687500
2601		58.593750
2602		54.687500
2603		58.593750
2604		46.875000
2605		58.593750
2606		46.875000
2607		58.593750
2608		46.875000
2609		58.593750
2610		46.875000
2611		54.687500
2612		46.875000
2613		50.781250
2614		46.875000
2615		50.781250
2616		46.875000
2617		50.781250
2618		46.875000
2619		50.781250
2620		42.968750
2621		46.875000
2622		39.062500
2623		50.781250
2624		39.062500
2625		50.781250
2626		39.062500
2627		46.875000
2628		39.062500
2629		42.968750
2630		39.062500
2631		42.968750
2632		39.062500
2633		42.968750
2634		39.062500
2635		39.062500
2636		35.156250
2637		39.062500
2638		31.250000
2639		42.968750
2640		31.250000
2641		42.968750
2642		31.250000
2643		39.062500
2644		31.250000
2645		39.062500
2646		31.250000
2647		35.156250
2648		31.250000
2649		35.156250
2650		27.343750
2651		35.156250
2652		27.343750
2653		31.250000
2654		27.343750
2655		31.250000
2656		23.437500
2657		35.156250
2658		23.437500
2659		31.250000
2660		23.437500
2661		31.250000
2662		23.437500
2663		27.343750
2664		23.437500
2665		27.343750
2666		23.437500
2667		27.343750
2668		19.531250
2669		23.437500
2670		19.531250
2671		23.437500
2672		15.625000
2673		27.343750
2674		15.625000
2675		23.437500
2676		15.625000
2677		23.437500
2678		15.625000
2679		19.531250
2680		15.625000
2681		19.531250
2682		15.625000
2683		19.531250
2684		15.625000
2685		19.531250
2686		15.625000
2687		15.625000
2688		11.718750
2689		15.625000
2690		11.718750
2691		15.625000
2692		11.718750
2693		19.531250
2694		11.718750
2695		15.625000
2696		11.718750
2697		15.625000
2698		11.718750
2699		15.625000
2700		11.718750
2701		15.625000
2702		11.718750
2703		11.718750
2704		7.812500
2705		11.718750
2706		7.812500
2707		11.718750
2708		7.812500
2709		15.625000
2710		7.812500
2711		15.625000
2712		7.812500
2713		11.718750
2714		7.812500
2715		11.718750
2716		7.812500
2717		11.718750
2718		7.812500
2719		11.718750
2720		7.812500
2721		11.718750
2722		7.812500
2723		11.718750
2724		7.812500
2725		11.718750
2726		7.812500
2727		11.718750
2728		7.812500
2729		11.718750
2730		7.812500
2731		11.718750
2732		7.812500
2733		11.718750
2734		7.812500
2735		11.718750
2736		7.812500
2737		11.718750
2738		7.812500
2739		11.718750
2740		7.812500
2741		11.718750
2742		7.812500
2743		11.718750
2744		7.812500
2745		11.718750
2746		11.718750
2747		11.718750
2748		11.718750
2749		15.625000
2750		11.718750
2751		15.625000
2752		11.718750
2753		15.625000
2754		11.718750
2755		15.625000
2756		11.718750
2757		15.625000
2758		11.718750
2759		15.625000
2760		11.718750
2761		15.625000
2762		15.625000
2763		15.625000
2764		15.625000
2765		15.625000
2766		15.625000
2767		19.531250
2768		15.625000
2769		19.531250
2770		15.625000
2771		19.531250
2772		15.625000
2773		19.531250
2774		19.531250
2775		19.531250
2776		19.531250
2777		23.437500
2778		19.531250
2779		23.437500
2780		19.531250
2781		23.437500
2782		19.531250
2783		23.437500
2784		23.437500
2785		27.343750
2786		23.437500
2787		27.343750
2788		23.437500
2789		27.343750
2790		23.437500
2791		27.343750
2792		27.343750
2793		31.250000
2794		27.343750
2795		31.250000
2796		27.343750
2797		31.250000
2798		27.343750
2799		31.250000
2800		31.250000
2801		31.250000
2802		31.250000
2803		35.156250
2804		31.250000
2805		35.156250
2806		31.250000
2807		35.156250
2808		31.250000
2809		39.062500
2810		35.156250
2811		39.062500
2812		35.156250
2813		39.062500
2814		35.156250
2815		39.062500
2816		39.062500
2817		39.062500
2818		39.062500
2819		42.968750
2820		39.062500
2821		42.968750
2822		42.968750
2823		42.968750
2824		39.062500
2825		46.875000
2826		42.968750
2827		46.875000
2828		42.968750
2829		46.875000
2830		42.968750
2831		50.781250
2832		46.875000
2833		50.781250
2834		46.875000
2835		50.781250
2836		46.875000
2837		50.781250
2838		46.875000
2839		54.687500
2840		50.781250
2841		54.687500
2842		50.781250
2843		54.687500
2844		50.781250
2845		54.687500
2846		54.687500
2847		58.593750
2848		54.687500
2849		58.593750
2850		54.687500
2851		58.593750
2852		54.687500
2853		58.593750
2854		58.593750
2855		62.500000
2856		58.593750
2857		62.500000
2858		58.593750
2859		62.500000
2860		58.593750
2861		62.500000
2862		58.593750
2863		62.500000
2864		62.500000
2865		66.406250
2866		62.500000
2867		66.406250
2868		62.500000
2869		66.406250
2870		62.500000
2871		66.406250
2872		62.500000
2873		66.406250
2874		62.500000
2875		70.312500
2876		66.406250
2877		70.312500
2878		66.406250
2879		70.312500
2880		66.406250
2881		70.312500
2882		66.406250
2883		70.312500
2884		66.406250
2885		70.312500
2886		70.312500
2887		70.312500
2888		70.312500
2889		74.218750
2890		70.312500
2891		74.218750
2892		70.312500
2893		74.218750
2894		70.312500
2895		74.218750
2896		70.312500
2897		74.218750
2898		70.312500
2899		74.218750
2900		70.312500
2901		74.218750
2902		74.218750
2903		74.218750
2904		70.312500
2905		78.125000
2906		74.218750
2907		74.218750
2908		74.218750
2909		78.125000
2910		74.218750
2911		78.125000
2912		74.218750
2913		78.125000
2914		74.218750
2915		78.125000
2916		74.218750
2917		78.125000
2918		74.218750
2919		78.125000
2920		74.218750
2921		78.125000
2922		74.218750
2923		78.125000
2924		74.218750
2925		78.125000
2926		74.218750
2927		78.125000
2928		74.218750
2929		78.125000
2930		74.218750
2931		78.125000
2932		74.218750
2933		78.125000
2934		74.218750
2935		78.125000
2936		74.218750
2937		78.125000
2938		74.218750
2939		78.125000
2940		70.312500
2941		78.125000
2942		74.218750
2943		78.125000
2944		74.218750
2945		78.125000
2946		74.218750
2947		78.125000
2948		74.218750
2949		78.125000
2950		70.312500
2951		78.125000
2952		70.312500
2953		74.218750
2954		70.312500
2955		74.218750
2956		70.312500
2957		74.218750
2958		70.312500
2959		74.218750
2960		70.312500
2961		74.218750
2962		70.312500
2963		74.218750
2964		70.312500
2965		74.218750
2966		70.312500
2967		74.218750
2968		70.312500
2969		70.312500
2970		66.406250
2971		70.312500
2972		66.406250
2973		70.312500
2974		66.406250
2975		70.312500
2976		66.406250
2977		70.312500
2978		66.406250
2979		70.312500
2980		66.406250
2981		70.312500
2982		62.500000
2983		66.406250
2984		62.500000
2985		66.406250
2986		62.500000
2987		66.406250
2988		62.500000
2989		66.406250
2990		62.500000
2991		62.500000
2992		58.593750
2993		62.500000
2994		58.593750
2995		62.500000
2996		58.593750
2997		62.500000
2998		58.593750
2999		62.500000
3000		58.593750
3001		58.593750
3002		54.687500
3003		58.593750
3004		54.687500
3005		58.593750
3006		54.687500
3007		58.593750
3008		54.687500
3009		54.687500
3010		50.781250
3011		54.687500
3012		50.781250
3013		54.687500
3014		50.781250
3015		54.687500
3016		46.875000
3017		50.781250
3018		46.875000
3019		50.781250
3020		46.875000
3021		50.781250
3022		46.875000
3023		50.781250
3024		42.968750
3025		46.875000
3026		42.968750
3027		46.875000
3028		42.968750
3029		46.875000
3030		42.968750
3031		42.968750
3032		39.062500
3033		42.968750
3034		39.062500
3035		42.968750
3036		39.062500
3037		42.968750
3038		39.062500
3039		39.062500
3040		35.156250
3041		39.062500
3042		35.156250
3043		39.062500
3044		35.156250
3045		39.062500
3046		35.156250
3047		35.156250
3048		31.250000
3049		35.156250
3050		31.250000
3051		35.156250
3052		31.250000
3053		31.250000
3054		31.250000
3055		31.250000
3056		27.343750
3057		31.250000
3058		27.343750
3059		31.250000
3060		27.343750
3061		31.250000
3062		23.437500
3063		27.343750
3064		23.437500
3065		27.343750
3066		23.437500
3067		27.343750
3068		23.437500
3069		27.343750
3070		23.437500
3071		23.437500
3072		19.531250
3073		23.437500
3074		19.531250
3075		23.437500
3076		19.531250
3077		23.437500
3078		19.531250
3079		19.531250
3080		15.625000
3081		19.531250
3082		15.625000
3083		19.531250
3084		15.625000
3085		19.531250
3086		15.625000
3087		19.531250
3088		15.625000
3089		15.625000
3090		15.625000
3091		15.625000
3092		11.718750
3093		15.625000
3094		11.718750
3095		15.625000
3096		11.718750
3097		15.625000
3098		11.718750
3099		15.625000
3100		11.718750
3101		15.625000
3102		11.718750
3103		11.718750
3104		7.812500
3105		15.625000
3106		11.718750
3107		11.718750
3108		7.812500
3109		11.718750
3110		7.812500
3111		11.718750
3112		7.812500
3113		11.718750
3114		7.812500
3115		11.718750
3116		7.812500
3117		11.718750
3118		7.812500
3119		11.718750
3120		7.812500
3121		11.718750
3122		7.812500
3123		11.718750
3124		7.812500
3125		11.718750
3126		7.812500
3127		11.718750
3128		7.812500
3129		11.718750
3130		7.812500
3131		11.718750
3132		7.812500
3133		11.718750
3134		7.812500
3135		11.718750
3136		7.812500
3137		11.718750
3138		7.812500
3139		11.718750
3140		7.812500
3141		11.718750
3142		7.812500
3143		11.718750
3144		7.812500
3145		15.625000
3146		7.812500
3147		11.718750
3148		7.812500
3149		11.718750
3150		11.718750
3151		11.718750
3152		11.718750
3153		11.718750
3154		11.718750
3155		15.625000
3156		11.718750
3157		15.625000
3158		11.718750
3159		15.625000
3160		7.812500
3161		15.625000
3162		11.718750
3163		15.625000
3164		11.718750
3165		15.625000
3166		15.625000
3167		15.625000
3168		15.625000
3169		19.531250
3170		15.625000
3171		19.531250
3172		15.625000
3173		19.531250
3174		15.625000
3175		19.531250
3176		15.625000
3177		23.437500
3178		15.625000
3179		23.437500
3180		19.531250
3181		23.437500
3182		19.531250
3183		23.437500
3184		19.531250
3185		23.437500
3186		23.437500
3187		23.437500
3188		23.437500
3189		27.343750
3190		23.437500
3191		27.343750
3192		23.437500
3193		27.343750
3194		23.437500
3195		31.250000
3196		23.437500
3197		31.250000
3198		27.343750
3199		31.250000
3200		27.343750
3201		31.250000
3202		31.250000
3203		31.250000
3204		31.250000
3205		35.156250
3206		31.250000
3207		35.156250
3208		31.250000
3209		35.156250
3210		31.250000
3211		39.062500
3212		35.156250
3213		39.062500
3214		35.156250
3215		39.062500
3216		35.156250
3217		39.062500
3218		39.062500
3219		39.062500
3220		39.062500
3221		42.968750
3222		39.062500
3223		42.968750
3224		39.062500
3225		42.968750
3226		39.062500
3227		46.875000
3228		42.968750
3229		46.875000
3230		42.968750
3231		46.875000
3232		46.875000
3233		46.875000
3234		46.875000
3235		50.781250
3236		46.875000
3237		50.781250
3238		46.875000
3239		50.781250
3240		50.781250
3241		50.781250
3242		50.781250
3243		54.687500
3244		50.781250
3245		54.687500
3246		50.781250
3247		54.687500
3248		50.781250
3249		54.687500
3250		54.687500
3251		58.593750
3252		54.687500
3253		58.593750
3254		54.687500
3255		58.593750
3256		58.593750
3257		58.593750
3258		58.593750
3259		62.500000
3260		54.687500
3261		62.500000
3262		58.593750
3263		66.406250
3264		58.593750
3265		62.500000
3266		62.500000
3267		66.406250
3268		62.500000
3269		66.406250
3270		62.500000
3271		66.406250
3272		62.500000
3273		66.406250
3274		62.500000
3275		66.406250
3276		66.406250
3277		70.312500
3278		62.500000
3279		70.312500
3280		66.406250
3281		70.312500
3282		66.406250
3283		70.312500
3284		66.406250
3285		70.312500
3286		66.406250
3287		70.312500
3288		66.406250
3289		74.218750
3290		70.312500
3291		70.312500
3292		70.312500
3293		74.218750
3294		70.312500
3295		74.218750
3296		70.312500
3297		74.218750
3298		70.312500
3299		74.218750
3300		70.312500
3301		74.218750
3302		70.312500
3303		74.218750
3304		70.312500
3305		74.218750
3306		74.218750
3307		74.218750
3308		74.218750
3309		74.218750
3310		74.218750
3311		78.125000
3312		74.218750
3313		78.125000
3314		74.218750
3315		78.125000
3316		74.218750
3317		78.125000
3318		74.218750
3319		78.125000
3320		74.218750
3321		78.125000
3322		74.218750
3323		78.125000
3324		74.218750
3325		78.125000
3326		74.218750
3327		78.125000
3328		74.218750
3329		78.125000
3330		74.218750
3331		78.125000
3332		74.218750
3333		78.125000
3334		74.218750
3335		78.125000
3336		74.218750
3337		78.125000
3338		74.218750
3339		78.125000
3340		74.218750
3341		78.125000
3342		74.218750
3343		78.125000
3344		74.218750
3345		78.125000
3346		74.218750
3347		78.125000
3348		74.218750
3349		78.125000
3350		74.218750
3351		74.218750
3352		74.218750
3353		74.218750
3354		74.218750
3355		74.218750
3356		70.312500
3357		74.218750
3358		70.312500
3359		74.218750
3360		70.312500
3361		74.218750
3362		70.312500
3363		74.218750
3364		70.312500
3365		74.218750
3366		70.312500
3367		74.218750
3368		70.312500
3369		70.312500
3370		70.312500
3371		70.312500
3372		66.406250
3373		70.312500
3374		66.406250
3375		70.312500
3376		66.406250
3377		70.312500
3378		66.406250
3379		70.312500
3380		66.406250
3381		70.312500
3382		66.406250
3383		66.406250
3384		62.500000
3385		66.406250
3386		62.500000
3387		66.406250
3388		62.500000
3389		66.406250
3390		62.500000
3391		66.406250
3392		62.500000
3393		62.500000
3394		58.593750
3395		62.500000
3396		58.593750
3397		62.500000
3398		58.593750
3399		62.500000
3400		58.593750
3401		62.500000
3402		58.593750
3403		58.593750
3404		54.687500
3405		58.593750
3406		54.687500
3407		58.593750
3408		54.687500
3409		58.593750
3410		54.687500
3411		58.593750
3412		50.781250
3413		58.593750
3414		50.781250
3415		54.687500
3416		50.781250
3417		54.687500
3418		50.781250
3419		54.687500
3420		46.875000
3421		50.781250
3422		46.875000
3423		50.781250
3424		46.875000
3425		50.781250
3426		46.875000
3427		46.875000
3428		42.968750
3429		46.875000
3430		42.968750
3431		46.875000
3432		42.968750
3433		46.875000
3434		42.968750
3435		46.875000
3436		39.062500
3437		42.968750
3438		39.062500
3439		42.968750
3440		39.062500
3441		42.968750
3442		39.062500
3443		39.062500
3444		35.156250
3445		39.062500
3446		35.156250
3447		39.062500
3448		35.156250
3449		39.062500
3450		35.156250
3451		35.156250
3452		31.250000
3453		35.156250
3454		31.250000
3455		35.156250
3456		31.250000
3457		35.156250
3458		27.343750
3459		31.250000
3460		27.343750
3461		31.250000
3462		27.343750
3463		31.250000
3464		27.343750
3465		31.250000
3466		27.343750
3467		27.343750
3468		23.437500
3469		27.343750
3470		23.437500
3471		27.343750
3472		23.437500
3473		27.343750
3474		23.437500
3475		23.437500
3476		19.531250
3477		23.437500
3478		19.531250
3479		23.437500
3480		19.531250
3481		23.437500
3482		19.531250
3483		23.437500
3484		19.531250
3485		19.531250
3486		15.625000
3487		19.531250
3488		15.625000
3489		19.531250
3490		15.625000
3491		19.531250
3492		15.625000
3493		19.531250
3494		15.625000
3495		15.625000
3496		11.718750
3497		15.625000
3498		11.718750
3499		15.625000
3500		11.718750
3501		15.625000
3502		11.718750
3503		15.625000
3504		11.718750
3505		15.625000
3506		11.718750
3507		15.625000
3508		11.718750
3509		15.625000
3510		11.718750
3511		15.625000
3512		11.718750
3513		11.718750
3514		7.812500
3515		11.718750
3516		7.812500
3517		11.718750
3518		7.812500
3519		11.718750
3520		7.812500
3521		11.718750
3522		7.812500
3523		11.718750
3524		7.812500
3525		11.718750
3526		7.812500
3527		11.718750
3528		7.812500
3529		11.718750
3530		7.812500
3531		11.718750
3532		7.812500
3533		11.718750
3534		7.812500
3535		11.718750
3536		7.812500
3537		11.718750
3538		7.812500
3539		11.718750
3540		7.812500
3541		11.718750
3542		7.812500
3543		11.718750
3544		7.812500
3545		11.718750
3546		7.812500
3547		11.718750
3548		7.812500
3549		11.718750
3550		7.812500
3551		11.718750
3552		11.718750
3553		15.625000
3554		11.718750
3555		11.718750
3556		11.718750
3557		15.625000
3558		11.718750
3559		15.625000
3560		11.718750
3561		15.625000
3562		11.718750
3563		15.625000
3564		11.718750
3565		15.625000
3566		11.718750
3567		15.625000
3568		15.625000
3569		15.625000
3570		15.625000
3571		19.531250
3572		15.625000
3573		19.531250
3574		15.625000
3575		19.531250
3576		15.625000
3577		19.531250
3578		15.625000
3579		19.531250
3580		19.531250
3581		19.531250
3582		19.531250
3583		23.437500
3584		19.531250
3585		23.437500
3586		19.531250
3587		23.437500
3588		19.531250
3589		23.437500
3590		23.437500
3591		23.437500
3592		23.437500
3593		27.343750
3594		23.437500
3595		27.343750
3596		23.437500
3597		27.343750
3598		27.343750
3599		27.343750
3600		27.343750
3601		31.250000
3602		27.343750
3603		31.250000
3604		27.343750
3605		31.250000
3606		31.250000
3607		31.250000
3608		31.250000
3609		35.156250
3610		31.250000
3611		35.156250
3612		31.250000
3613		35.156250
3614		31.250000
3615		35.156250
3616		35.156250
3617		39.062500
3618		35.156250
3619		39.062500
3620		35.156250
3621		39.062500
3622		39.062500
3623		39.062500
3624		39.062500
3625		42.968750
3626		39.062500
3627		42.968750
3628		39.062500
3629		42.968750
3630		42.968750
3631		46.875000
3632		42.968750
3633		46.875000
3634		42.968750
3635		46.875000
3636		42.968750
3637		46.875000
3638		46.875000
3639		50.781250
3640		46.875000
3641		50.781250
3642		46.875000
3643		50.781250
3644		50.781250
3645		50.781250
3646		50.781250
3647		54.687500
3648		50.781250
3649		54.687500
3650		50.781250
3651		54.687500
3652		50.781250
3653		54.687500
3654		54.687500
3655		58.593750
3656		54.687500
3657		58.593750
3658		54.687500
3659		58.593750
3660		54.687500
3661		58.593750
3662		58.593750
3663		62.500000
3664		58.593750
3665		62.500000
3666		58.593750
3667		62.500000
3668		58.593750
3669		62.500000
3670		62.500000
3671		62.500000
3672		62.500000
3673		66.406250
3674		62.500000
3675		66.406250
3676		62.500000
3677		66.406250
3678		62.500000
3679		66.406250
3680		66.406250
3681		66.406250
3682		66.406250
3683		70.312500
3684		66.406250
3685		70.312500
3686		66.406250
3687		70.312500
3688		66.406250
3689		70.312500
3690		66.406250
3691		70.312500
3692		70.312500
3693		70.312500
3694		70.312500
3695		70.312500
3696		70.312500
3697		74.218750
3698		70.312500
3699		74.218750
3700		70.312500
3701		74.218750
3702		70.312500
3703		74.218750
3704		70.312500
3705		74.218750
3706		70.312500
3707		74.218750
3708		74.218750
3709		74.218750
3710		74.218750
3711		74.218750
3712		74.218750
3713		74.218750
3714		74.218750
3715		78.125000
3716		74.218750
3717		78.125000
3718		74.218750
3719		78.125000
3720		74.218750
3721		78.125000
3722		74.218750
3723		78.125000
3724		74.218750
3725		78.125000
3726		74.218750
3727		78.125000
3728		74.218750
3729		78.125000
3730		74.218750
3731		78.125000
3732		74.218750
3733		78.125000
3734		74.218750
3735		78.125000
3736		74.218750
3737		78.125000
3738		74.218750
3739		78.125000
3740		74.218750
3741		78.125000
3742		74.218750
3743		78.125000
3744		74.218750
3745		78.125000
3746		74.218750
3747		78.125000
3748		74.218750
3749		78.125000
3750		74.218750
3751		78.125000
3752		74.218750
3753		78.125000
3754		74.218750
3755		78.125000
3756		74.218750
3757		74.218750
3758		74.218750
3759		74.218750
3760		74.218750
3761		74.218750
3762		74.218750
3763		74.218750
3764		70.312500
3765		74.218750
3766		70.312500
3767		74.218750
3768		70.312500
3769		74.218750
3770		70.312500
3771		74.218750
3772		70.312500
3773		74.218750
3774		70.312500
3775		70.312500
3776		66.406250
3777		70.312500
3778		66.406250
3779		70.312500
3780		66.406250
3781		70.312500
3782		66.406250
3783		70.312500
3784		66.406250
3785		70.312500
3786		66.406250
3787		70.312500
3788		66.406250
3789		70.312500
3790		62.500000
3791		66.406250
3792		62.500000
3793		66.406250
3794		62.500000
3795		66.406250
3796		62.500000
3797		66.406250
3798		62.500000
3799		66.406250
3800		58.593750
3801		62.500000
3802		58.593750
3803		62.500000
3804		58.593750
3805		62.500000
3806		58.593750
3807		62.500000
3808		58.593750
3809		58.593750
3810		54.687500
3811		58.593750
3812		54.687500
3813		58.593750
3814		54.687500
3815		58.593750
3816		54.687500
3817		54.687500
3818		50.781250
3819		54.687500
3820		50.781250
3821		54.687500
3822		50.781250
3823		54.687500
3824		50.781250
3825		54.687500
3826		46.875000
3827		50.781250
3828		46.875000
3829		50.781250
3830		46.875000
3831		50.781250
3832		42.968750
3833		46.875000
3834		42.968750
3835		46.875000
3836		42.968750
3837		46.875000
3838		42.968750
3839		46.875000
3840		39.062500
3841		42.968750
3842		39.062500
3843		42.968750
3844		39.062500
3845		42.968750
3846		39.062500
3847		39.062500
3848		35.156250
3849		39.062500
3850		35.156250
3851		39.062500
3852		35.156250
3853		39.062500
3854		35.156250
3855		39.062500
3856		31.250000
3857		35.156250
3858		31.250000
3859		35.156250
3860		31.250000
3861		35.156250
3862		31.250000
3863		31.250000
3864		27.343750
3865		31.250000
3866		27.343750
3867		31.250000
3868		27.343750
3869		31.250000
3870		23.437500
3871		27.343750
3872		23.437500
3873		27.343750
3874		23.437500
3875		27.343750
3876		23.437500
3877		27.343750
3878		19.531250
3879		23.437500
3880		19.531250
3881		23.437500
3882		19.531250
3883		23.437500
3884		19.531250
3885		23.437500
3886		19.531250
3887		23.437500
3888		15.625000
3889		19.531250
3890		15.625000
3891		19.531250
3892		15.625000
3893		19.531250
3894		15.625000
3895		19.531250
3896		15.625000
3897		19.531250
3898		15.625000
3899		15.625000
3900		11.718750
3901		15.625000
3902		11.718750
3903		15.625000
3904		11.718750
3905		15.625000
3906		11.718750
3907		15.625000
3908		11.718750
3909		15.625000
3910		11.718750
3911		15.625000
3912		11.718750
3913		11.718750
3914		11.718750
3915		11.718750
3916		11.718750
3917		11.718750
3918		7.812500
3919		11.718750
3920		7.812500
3921		11.718750
3922		7.812500
3923		11.718750
3924		7.812500
3925		11.718750
3926		7.812500
3927		11.718750
3928		7.812500
3929		11.718750
3930		7.812500
3931		11.718750
3932		7.812500
3933		11.718750
3934		7.812500
3935		11.718750
3936		7.812500
3937		11.718750
3938		7.812500
3939		11.718750
3940		7.812500
3941		11.718750
3942		7.812500
3943		11.718750
3944		7.812500
3945		11.718750
3946		7.812500
3947		11.718750
3948		7.812500
3949		11.718750
3950		7.812500
3951		11.718750
3952		7.812500
3953		11.718750
3954		7.812500
3955		11.718750
3956		7.812500
3957		11.718750
3958		11.718750
3959		11.718750
3960		11.718750
3961		15.625000
3962		11.718750
3963		15.625000
3964		11.718750
3965		15.625000
3966		11.718750
3967		15.625000
3968		11.718750
3969		15.625000
3970		11.718750
3971		15.625000
3972		11.718750
3973		15.625000
3974		15.625000
3975		15.625000
3976		15.625000
3977		19.531250
3978		15.625000
3979		19.531250
3980		15.625000
3981		19.531250
3982		15.625000
3983		19.531250
3984		19.531250
3985		19.531250
3986		19.531250
3987		23.437500
3988		19.531250
3989		23.437500
3990		19.531250
3991		23.437500
3992		19.531250
3993		23.437500
3994		23.437500
3995		23.437500
3996		23.437500
3997		27.343750
3998		23.437500
3999		27.343750
4000		23.437500
4001		27.343750
4002		27.343750
4003		31.250000
4004		27.343750
4005		31.250000
4006		27.343750
4007		31.250000
4008		27.343750
4009		31.250000
4010		31.250000
4011		35.156250
4012		31.250000
4013		35.156250
4014		31.250000
4015		35.156250
4016		31.250000
4017		35.156250
4018		35.156250
4019		39.062500
4020		35.156250
4021		39.062500
4022		35.156250
4023		39.062500
4024		35.156250
4025		39.062500
4026		39.062500
4027		42.968750
4028		39.062500
4029		42.968750
4030		39.062500
4031		42.968750
4032		42.968750
4033		42.968750
4034		42.968750
4035		46.875000
4036		42.968750
4037		46.875000
4038		42.968750
4039		46.875000
4040		46.875000
4041		50.781250
4042		46.875000
4043		50.781250
4044		46.875000
4045		50.781250
4046		46.875000
4047		50.781250
4048		50.781250
4049		54.687500
4050		50.781250
4051		54.687500
4052		50.781250
4053		54.687500
4054		50.781250
4055		54.687500
4056		54.687500
4057		58.593750
4058		54.687500
4059		58.593750
4060		54.687500
4061		58.593750
4062		58.593750
4063		58.593750
4064		58.593750
4065		62.500000
4066		58.593750
4067		62.500000
4068		58.593750
4069		62.500000
4070		58.593750
4071		62.500000
4072		62.500000
4073		62.500000
4074		62.500000
4075		66.406250
4076		58.593750
4077		66.406250
4078		62.500000
4079		66.406250
4080		62.500000
4081		66.406250
4082		66.406250
4083		66.406250
4084		66.406250
4085		66.406250
4086		66.406250
4087		70.312500
4088		66.406250
4089		70.312500
4090		66.406250
4091		70.312500
4092		66.406250
4093		70.312500
4094		66.406250
4095		70.312500
4096		70.312500
4097		70.312500
4098		70.312500
4099		74.218750
4100		70.312500
4101		74.218750
4102		70.312500
4103		74.218750
4104		70.312500
4105		74.218750
4106		70.312500
4107		74.218750
4108		70.312500
4109		74.218750
4110		70.312500
4111		74.218750
4112		74.218750
4113		74.218750
4114		74.218750
4115		78.125000
4116		74.218750
4117		78.125000
4118		74.218750
4119		78.125000
4120		74.218750
4121		78.125000
4122		74.218750
4123		78.125000
4124		74.218750
4125		78.125000
4126		74.218750
4127		78.125000
4128		74.218750
4129		78.125000
4130		74.218750
4131		78.125000
4132		74.218750
4133		78.125000
4134		74.218750
4135		78.125000
4136		74.218750
4137		78.125000
4138		74.218750
4139		78.125000
4140		74.218750
4141		78.125000
4142		74.218750
4143		78.125000
4144		74.218750
4145		78.125000
4146		74.218750
4147		78.125000
4148		74.218750
4149		78.125000
4150		74.218750
4151		78.125000
4152		74.218750
4153		78.125000
4154		74.218750
4155		78.125000
4156		74.218750
4157		78.125000
4158		74.218750
4159		78.125000
4160		70.312500
4161		78.125000
4162		74.218750
4163		74.218750
4164		74.218750
4165		74.218750
4166		70.312500
4167		74.218750
4168		70.312500
4169		74.218750
4170		70.312500
4171		74.218750
4172		70.312500
4173		74.218750
4174		70.312500
4175		74.218750
4176		66.406250
4177		74.218750
4178		70.312500
4179		70.312500
4180		66.406250
4181		74.218750
4182		66.406250
4183		70.312500
4184		66.406250
4185		70.312500
4186		66.406250
4187		70.312500
4188		62.500000
4189		70.312500
4190		62.500000
4191		70.312500
4192		62.500000
4193		66.406250
4194		62.500000
4195		70.312500
4196		58.593750
4197		66.406250
4198		62.500000
4199		66.406250
4200		62.500000
4201		66.406250
4202		58.593750
4203		62.500000
4204		58.593750
4205		62.500000
4206		58.593750
4207		62.500000
4208		58.593750
4209		62.500000
4210		54.687500
4211		62.500000
4212		54.687500
4213		58.593750
4214		54.687500
4215		62.500000
4216		54.687500
4217		58.593750
4218		50.781250
4219		58.593750
4220		50.781250
4221		58.593750
4222		50.781250
4223		54.687500
4224		50.781250
4225		54.687500
4226		46.875000
4227		54.687500
4228		46.875000
4229		50.781250
4230		46.875000
4231		54.687500
4232		46.875000
4233		50.781250
4234		42.968750
4235		50.781250
4236		42.968750
4237		46.875000
4238		42.968750
4239		50.781250
4240		42.968750
4241		46.875000
4242		42.968750
4243		42.968750
4244		39.062500
4245		46.875000
4246		39.062500
4247		42.968750
4248		35.156250
4249		42.968750
4250		39.062500
4251		39.062500
4252		35.156250
4253		39.062500
4254		31.250000
4255		42.968750
4256		31.250000
4257		39.062500
4258		31.250000
4259		35.156250
4260		31.250000
4261		39.062500
4262		31.250000
4263		39.062500
4264		27.343750
4265		35.156250
4266		27.343750
4267		31.250000
4268		27.343750
4269		31.250000
4270		27.343750
4271		31.250000
4272		23.437500
4273		31.250000
4274		23.437500
4275		27.343750
4276		23.437500
4277		27.343750
4278		19.531250
4279		31.250000
4280		19.531250
4281		27.343750
4282		23.437500
4283		27.343750
4284		19.531250
4285		23.437500
4286		19.531250
4287		23.437500
4288		15.625000
4289		27.343750
4290		15.625000
4291		23.437500
4292		19.531250
4293		23.437500
4294		15.625000
4295		23.437500
4296		11.718750
4297		23.437500
4298		11.718750
4299		19.531250
4300		15.625000
4301		19.531250
4302		11.718750
4303		19.531250
4304		11.718750
4305		19.531250
4306		11.718750
4307		19.531250
4308		11.718750
4309		15.625000
4310		11.718750
4311		15.625000
4312		7.812500
4313		19.531250
4314		7.812500
4315		15.625000
4316		11.718750
4317		15.625000
4318		11.718750
4319		15.625000
4320		7.812500
4321		15.625000
4322		7.812500
4323		15.625000
4324		7.812500
4325		15.625000
4326		7.812500
4327		11.718750
4328		7.812500
4329		15.625000
4330		7.812500
4331		11.718750
4332		3.906250
4333		11.718750
4334		7.812500
4335		11.718750
4336		7.812500
4337		11.718750
4338		7.812500
4339		15.625000
4340		7.812500
4341		11.718750
4342		7.812500
4343		11.718750
4344		7.812500
4345		15.625000
4346		3.906250
4347		15.625000
4348		7.812500
4349		15.625000
4350		7.812500
4351		11.718750
4352		7.812500
4353		11.718750
4354		7.812500
4355		15.625000
4356		7.812500
4357		15.625000
4358		11.718750
4359		15.625000
4360		11.718750
4361		15.625000
4362		7.812500
4363		15.625000
4364		7.812500
4365		15.625000
4366		11.718750
4367		15.625000
4368		11.718750
4369		15.625000
4370		11.718750
4371		15.625000
4372		11.718750
4373		19.531250
4374		11.718750
4375		19.531250
4376		15.625000
4377		19.531250
4378		11.718750
4379		23.437500
4380		11.718750
4381		23.437500
4382		15.625000
4383		19.531250
4384		15.625000
4385		19.531250
4386		19.531250
4387		23.437500
4388		15.625000
4389		23.437500
4390		15.625000
4391		23.437500
4392		19.531250
4393		23.437500
4394		19.531250
4395		23.437500
4396		19.531250
4397		27.343750
4398		19.531250
4399		27.343750
4400		23.437500
4401		27.343750
4402		23.437500
4403		27.343750
4404		23.437500
4405		31.250000
4406		27.343750
4407		31.250000
4408		23.437500
4409		31.250000
4410		27.343750
4411		31.250000
4412		27.343750
4413		35.156250
4414		27.343750
4415		35.156250
4416		27.343750
4417		35.156250
4418		31.250000
4419		35.156250
4420		31.250000
4421		39.062500
4422		31.250000
4423		39.062500
4424		35.156250
4425		39.062500
4426		35.156250
4427		39.062500
4428		35.156250
4429		42.968750
4430		39.062500
4431		42.968750
4432		39.062500
4433		46.875000
4434		39.062500
4435		42.968750
4436		42.968750
4437		42.968750
4438		42.968750
4439		46.875000
4440		42.968750
4441		46.875000
4442		42.968750
4443		46.875000
4444		42.968750
4445		50.781250
4446		46.875000
4447		50.781250
4448		46.875000
4449		50.781250
4450		46.875000
4451		54.687500
4452		50.781250
4453		54.687500
4454		50.781250
4455		54.687500
4456		50.781250
4457		54.687500
4458		50.781250
4459		58.593750
4460		54.687500
4461		58.593750
4462		54.687500
4463		58.593750
4464		54.687500
4465		58.593750
4466		58.593750
4467		58.593750
4468		58.593750
4469		62.500000
4470		58.593750
4471		62.500000
4472		58.593750
4473		62.500000
4474		58.593750
4475		62.500000
4476		62.500000
4477		62.500000
4478		62.500000
4479		66.406250
4480		62.500000
4481		66.406250
4482		62.500000
4483		66.406250
4484		62.500000
4485		66.406250
4486		66.406250
4487		66.406250
4488		66.406250
4489		70.312500
4490		66.406250
4491		70.312500
4492		66.406250
4493		70.312500
4494		66.406250
4495		70.312500
4496		66.406250
4497		70.312500
4498		70.312500
4499		70.312500
4500		70.312500
4501		70.312500
4502		70.312500
4503		74.218750
4504		70.312500
4505		74.218750
4506		70.312500
4507		74.218750
4508		70.312500
4509		74.218750
4510		70.312500
4511		74.218750
4512		70.312500
4513		74.218750
4514		70.312500
4515		78.125000
4516		70.312500
4517		78.125000
4518		74.218750
4519		74.218750
4520		74.218750
4521		74.218750
4522		70.312500
4523		78.125000
4524		74.218750
4525		78.125000
4526		74.218750
4527		78.125000
4528		74.218750
4529		78.125000
4530		74.218750
4531		78.125000
4532		74.218750
4533		78.125000
4534		74.218750
4535		78.125000
4536		74.218750
4537		78.125000
4538		74.218750
4539		78.125000
4540		74.218750
4541		78.125000
4542		74.218750
4543		78.125000
4544		74.218750
4545		78.125000
4546		74.218750
4547		78.125000
4548		74.218750
4549		78.125000
4550		74.218750
4551		78.125000
4552		74.218750
4553		78.125000
4554		74.218750
4555		78.125000
4556		74.218750
4557		78.125000
4558		74.218750
4559		78.125000
4560		70.312500
4561		78.125000
4562		74.218750
4563		78.125000
4564		70.312500
4565		78.125000
4566		70.312500
4567		78.125000
4568		74.218750
4569		78.125000
4570		70.312500
4571		74.218750
4572		70.312500
4573		74.218750
4574		70.312500
4575		74.218750
4576		70.312500
4577		74.218750
4578		70.312500
4579		74.218750
4580		70.312500
4581		74.218750
4582		70.312500
4583		74.218750
4584		70.312500
4585		70.312500
4586		66.406250
4587		70.312500
4588		66.406250
4589		70.312500
4590		66.406250
4591		70.312500
4592		66.406250
4593		70.312500
4594		62.500000
4595		70.312500
4596		62.500000
4597		70.312500
4598		62.500000
4599		66.406250
4600		62.500000
4601		66.406250
4602		62.500000
4603		66.406250
4604		62.500000
4605		66.406250
4606		58.593750
4607		66.406250
4608		58.593750
4609		62.500000
4610		58.593750
4611		62.500000
4612		58.593750
4613		62.500000
4614		58.593750
4615		62.500000
4616		54.687500
4617		62.500000
4618		54.687500
4619		58.593750
4620		54.687500
4621		58.593750
4622		54.687500
4623		58.593750
4624		54.687500
4625		54.687500
4626		50.781250
4627		54.687500
4628		50.781250
4629		54.687500
4630		50.781250
4631		54.687500
4632		46.875000
4633		54.687500
4634		46.875000
4635		50.781250
4636		46.875000
4637		50.781250
4638		46.875000
4639		50.781250
4640		42.968750
4641		46.875000
4642		42.968750
4643		46.875000
4644		39.062500
4645		46.875000
4646		42.968750
4647		46.875000
4648		39.062500
4649		42.968750
4650		39.062500
4651		42.968750
4652		39.062500
4653		42.968750
4654		39.062500
4655		42.968750
4656		35.156250
4657		39.062500
4658		35.156250
4659		39.062500
4660		35.156250
4661		39.062500
4662		31.250000
4663		39.062500
4664		31.250000
4665		35.156250
4666		31.250000
4667		35.156250
4668		31.250000
4669		35.156250
4670		31.250000
4671		31.250000
4672		27.343750
4673		31.250000
4674		27.343750
4675		31.250000
4676		27.343750
4677		31.250000
4678		23.437500
4679		31.250000
4680		23.437500
4681		27.343750
4682		23.437500
4683		27.343750
4684		23.437500
4685		27.343750
4686		23.437500
4687		23.437500
4688		19.531250
4689		23.437500
4690		19.531250
4691		23.437500
4692		19.531250
4693		23.437500
4694		19.531250
4695		23.437500
4696		15.625000
4697		23.437500
4698		15.625000
4699		19.531250
4700		15.625000
4701		19.531250
4702		15.625000
4703		19.531250
4704		15.625000
4705		19.531250
4706		15.625000
4707		15.625000
4708		11.718750
4709		15.625000
4710		11.718750
4711		15.625000
4712		11.718750
4713		15.625000
4714		11.718750
4715		15.625000
4716		11.718750
4717		15.625000
4718		11.718750
4719		15.625000
4720		11.718750
4721		11.718750
4722		11.718750
4723		11.718750
4724		7.812500
4725		15.625000
4726		7.812500
4727		11.718750
4728		7.812500
4729		11.718750
4730		7.812500
4731		11.718750
4732		7.812500
4733		11.718750
4734		7.812500
4735		11.718750
4736		7.812500
4737		11.718750
4738		7.812500
4739		11.718750
4740		7.812500
4741		11.718750
4742		7.812500
4743		11.718750
4744		7.812500
4745		11.718750
4746		7.812500
4747		11.718750
4748		7.812500
4749		11.718750
4750		7.812500
4751		11.718750
4752		7.812500
4753		11.718750
4754		7.812500
4755		11.718750
4756		7.812500
4757		11.718750
4758		7.812500
4759		11.718750
4760		7.812500
4761		11.718750
4762		7.812500
4763		11.718750
4764		11.718750
4765		11.718750
4766		11.718750
4767		11.718750
4768		11.718750
4769		15.625000
4770		11.718750
4771		15.625000
4772		11.718750
4773		15.625000
4774		11.718750
4775		15.625000
4776		11.718750
4777		15.625000
4778		11.718750
4779		15.625000
4780		15.625000
4781		15.625000
4782		15.625000
4783		19.531250
4784		15.625000
4785		19.531250
4786		15.625000
4787		19.531250
4788		15.625000
4789		19.531250
4790		15.625000
4791		19.531250
4792		19.531250
4793		23.437500
4794		19.531250
4795		23.437500
4796		19.531250
4797		23.437500
4798		19.531250
4799		23.437500
4800		19.531250
4801		23.437500
4802		23.437500
4803		27.343750
4804		23.437500
4805		27.343750
4806		23.437500
4807		27.343750
4808		23.437500
4809		27.343750
4810		27.343750
4811		31.250000
4812		27.343750
4813		31.250000
4814		27.343750
4815		31.250000
4816		27.343750
4817		31.250000
4818		31.250000
4819		35.156250
4820		31.250000
4821		35.156250
4822		31.250000
4823		35.156250
4824		31.250000
4825		35.156250
4826		35.156250
4827		39.062500
4828		35.156250
4829		39.062500
4830		35.156250
4831		39.062500
4832		39.062500
4833		42.968750
4834		39.062500
4835		42.968750
4836		39.062500
4837		42.968750
4838		39.062500
4839		42.968750
4840		42.968750
4841		46.875000
4842		42.968750
4843		46.875000
4844		42.968750
4845		46.875000
4846		42.968750
4847		50.781250
4848		46.875000
4849		50.781250
4850		46.875000
4851		50.781250
4852		46.875000
4853		50.781250
4854		46.875000
4855		50.781250
4856		50.781250
4857		54.687500
4858		50.781250
4859		54.687500
4860		50.781250
4861		54.687500
4862		50.781250
4863		54.687500
4864		54.687500
4865		58.593750
4866		54.687500
4867		58.593750
4868		54.687500
4869		58.593750
4870		54.687500
4871		58.593750
4872		58.593750
4873		62.500000
4874		58.593750
4875		62.500000
4876		58.593750
4877		62.500000
4878		58.593750
4879		62.500000
4880		62.500000
4881		66.406250
4882		62.500000
4883		66.406250
4884		62.500000
4885		66.406250
4886		62.500000
4887		66.406250
4888		66.406250
4889		66.406250
4890		66.406250
4891		70.312500
4892		66.406250
4893		70.312500
4894		66.406250
4895		70.312500
4896		66.406250
4897		70.312500
4898		66.406250
4899		70.312500
4900		70.312500
4901		70.312500
4902		70.312500
4903		74.218750
4904		70.312500
4905		74.218750
4906		70.312500
4907		74.218750
4908		70.312500
4909		74.218750
4910		70.312500
4911		74.218750
4912		70.312500
4913		74.218750
4914		70.312500
4915		74.218750
4916		74.218750
4917		74.218750
4918		74.218750
4919		78.125000
4920		74.218750
4921		78.125000
4922		74.218750
4923		78.125000
4924		74.218750
4925		78.125000
4926		74.218750
4927		78.125000
4928		74.218750
4929		78.125000
4930		74.218750
4931		78.125000
4932		74.218750
4933		78.125000
4934		74.218750
4935		78.125000
4936		74.218750
4937		78.125000
4938		74.218750
4939		78.125000
4940		74.218750
4941		78.125000
4942		74.218750
4943		78.125000
4944		74.218750
4945		78.125000
4946		74.218750
4947		78.125000
4948		74.218750
4949		78.125000
4950		74.218750
4951		78.125000
4952		74.218750
4953		78.125000
4954		74.218750
4955		78.125000
4956		74.218750
4957		78.125000
4958		74.218750
4959		78.125000
4960		74.218750
4961		78.125000
4962		74.218750
4963		78.125000
4964		74.218750
4965		78.125000
4966		74.218750
4967		78.125000
4968		74.218750
4969		78.125000
4970		70.312500
4971		74.218750
4972		74.218750
4973		78.125000
4974		70.312500
4975		74.218750
4976		70.312500
4977		74.218750
4978		70.312500
4979		74.218750
4980		70.312500
4981		74.218750
4982		70.312500
4983		74.218750
4984		70.312500
4985		74.218750
4986		70.312500
4987		74.218750
4988		66.406250
4989		70.312500
4990		66.406250
4991		70.312500
4992		66.406250
4993		70.312500
4994		66.406250
4995		70.312500
4996		66.406250
4997		70.312500
4998		66.406250
4999		70.312500
5000		62.500000
5001		66.406250
5002		62.500000
5003		66.406250
5004		62.500000
5005		66.406250
5006		62.500000
5007		66.406250
5008		58.593750
5009		66.406250
5010		58.593750
5011		66.406250
5012		58.593750
5013		62.500000
5014		58.593750
5015		62.500000
5016		58.593750
5017		62.500000
5018		54.687500
5019		62.500000
5020		54.687500
5021		58.593750
5022		54.687500
5023		58.593750
5024		54.687500
5025		58.593750
5026		50.781250
5027		58.593750
5028		50.781250
5029		54.687500
5030		50.781250
5031		54.687500
5032		50.781250
5033		54.687500
5034		50.781250
5035		54.687500
5036		46.875000
5037		50.781250
5038		46.875000
5039		50.781250
5040		46.875000
5041		50.781250
5042		46.875000
5043		46.875000
5044		42.968750
5045		46.875000
5046		42.968750
5047		46.875000
5048		42.968750
5049		46.875000
5050		42.968750
5051		46.875000
5052		39.062500
5053		42.968750
5054		39.062500
5055		42.968750
5056		39.062500
5057		42.968750
5058		35.156250
5059		39.062500
5060		35.156250
5061		39.062500
5062		35.156250
5063		39.062500
5064		35.156250
5065		39.062500
5066		31.250000
5067		35.156250
5068		31.250000
5069		35.156250
5070		31.250000
5071		35.156250
5072		31.250000
5073		35.156250
5074		27.343750
5075		31.250000
5076		27.343750
5077		31.250000
5078		27.343750
5079		31.250000
5080		27.343750
5081		31.250000
5082		23.437500
5083		27.343750
5084		23.437500
5085		27.343750
5086		23.437500
5087		27.343750
5088		23.437500
5089		27.343750
5090		19.531250
5091		23.437500
5092		19.531250
5093		23.437500
5094		19.531250
5095		23.437500
5096		19.531250
5097		23.437500
5098		19.531250
5099		23.437500
5100		15.625000
5101		19.531250
5102		15.625000
5103		19.531250
5104		15.625000
5105		19.531250
5106		15.625000
5107		19.531250
5108		15.625000
5109		19.531250
5110		15.625000
5111		19.531250
5112		11.718750
5113		15.625000
5114		11.718750
5115		15.625000
5116		11.718750
5117		15.625000
5118		11.718750
5119		15.625000
5120		11.718750
5121		15.625000
5122		11.718750
5123		15.625000
5124		11.718750
5125		15.625000
5126		11.718750
5127		15.625000
5128		7.812500
5129		11.718750
5130		7.812500
5131		11.718750
5132		7.812500
5133		11.718750
5134		7.812500
5135		11.718750
5136		7.812500
5137		11.718750
5138		7.812500
5139		11.718750
5140		7.812500
5141		11.718750
5142		7.812500
5143		11.718750
5144		7.812500
5145		11.718750
5146		7.812500
5147		11.718750
5148		7.812500
5149		11.718750
5150		7.812500
5151		11.718750
5152		7.812500
5153		11.718750
5154		7.812500
5155		11.718750
5156		7.812500
5157		11.718750
5158		7.812500
5159		11.718750
5160		7.812500
5161		15.625000
5162		7.812500
5163		11.718750
5164		11.718750
5165		15.625000
5166		11.718750
5167		15.625000
5168		11.718750
5169		15.625000
5170		11.718750
5171		15.625000
5172		11.718750
5173		15.625000
5174		11.718750
5175		15.625000
5176		11.718750
5177		15.625000
5178		11.718750
5179		15.625000
5180		11.718750
5181		15.625000
5182		15.625000
5183		15.625000
5184		15.625000
5185		19.531250
5186		15.625000
5187		19.531250
5188		15.625000
5189		19.531250
5190		15.625000
5191		19.531250
5192		19.531250
5193		19.531250
5194		19.531250
5195		23.437500
5196		19.531250
5197		23.437500
5198		19.531250
5199		23.437500
5200		19.531250
5201		23.437500
5202		19.531250
5203		27.343750
5204		23.437500
5205		27.343750
5206		23.437500
5207		27.343750
5208		23.437500
5209		27.343750
5210		23.437500
5211		27.343750
5212		27.343750
5213		31.250000
5214		27.343750
5215		31.250000
5216		27.343750
5217		31.250000
5218		27.343750
5219		31.250000
5220		31.250000
5221		31.250000
5222		31.250000
5223		35.156250
5224		31.250000
5225		35.156250
5226		31.250000
5227		35.156250
5228		31.250000
5229		39.062500
5230		35.156250
5231		39.062500
5232		35.156250
5233		39.062500
5234		35.156250
5235		39.062500
5236		39.062500
5237		42.968750
5238		39.062500
5239		42.968750
5240		39.062500
5241		42.968750
5242		42.968750
5243		42.968750
5244		42.968750
5245		46.875000
5246		42.968750
5247		46.875000
5248		42.968750
5249		46.875000
5250		46.875000
5251		46.875000
5252		46.875000
5253		50.781250
5254		46.875000
5255		50.781250
5256		46.875000
5257		50.781250
5258		50.781250
5259		54.687500
5260		50.781250
5261		54.687500
5262		50.781250
5263		54.687500
5264		50.781250
5265		54.687500
5266		54.687500
5267		58.593750
5268		54.687500
5269		58.593750
5270		54.687500
5271		58.593750
5272		54.687500
5273		58.593750
5274		58.593750
5275		58.593750
5276		58.593750
5277		62.500000
5278		58.593750
5279		62.500000
5280		58.593750
5281		62.500000
5282		58.593750
5283		62.500000
5284		62.500000
5285		66.406250
5286		62.500000
5287		66.406250
5288		62.500000
5289		66.406250
5290		62.500000
5291		66.406250
5292		62.500000
5293		66.406250
5294		62.500000
5295		70.312500
5296		66.406250
5297		70.312500
5298		66.406250
5299		70.312500
5300		66.406250
5301		70.312500
5302		66.406250
5303		70.312500
5304		66.406250
5305		70.312500
5306		66.406250
5307		74.218750
5308		70.312500
5309		74.218750
5310		70.312500
5311		74.218750
5312		70.312500
5313		74.218750
5314		70.312500
5315		74.218750
5316		70.312500
5317		74.218750
5318		70.312500
5319		74.218750
5320		70.312500
5321		74.218750
5322		74.218750
5323		74.218750
5324		74.218750
5325		78.125000
5326		74.218750
5327		78.125000
5328		74.218750
5329		78.125000
5330		74.218750
5331		78.125000
5332		74.218750
5333		78.125000
5334		74.218750
5335		78.125000
5336		74.218750
5337		78.125000
5338		74.218750
5339		78.125000
5340		74.218750
5341		78.125000
5342		74.218750
5343		78.125000
5344		74.218750
5345		78.125000
5346		74.218750
5347		78.125000
5348		74.218750
5349		78.125000
5350		74.218750
5351		78.125000
5352		74.218750
5353		78.125000
5354		74.218750
5355		78.125000
5356		74.218750
5357		78.125000
5358		74.218750
5359		78.125000
5360		74.218750
5361		78.125000
5362		74.218750
5363		78.125000
5364		74.218750
5365		78.125000
5366		74.218750
5367		78.125000
5368		74.218750
5369		78.125000
5370		74.218750
5371		78.125000
5372		74.218750
5373		78.125000
5374		70.312500
5375		74.218750
5376		74.218750
5377		74.218750
5378		70.312500
5379		74.218750
5380		70.312500
5381		74.218750
5382		70.312500
5383		74.218750
5384		70.312500
5385		74.218750
5386		70.312500
5387		74.218750
5388		70.312500
5389		74.218750
5390		66.406250
5391		74.218750
5392		70.312500
5393		70.312500
5394		66.406250
5395		70.312500
5396		66.406250
5397		70.312500
5398		66.406250
5399		70.312500
5400		66.406250
5401		70.312500
5402		66.406250
5403		70.312500
5404		66.406250
5405		66.406250
5406		62.500000
5407		66.406250
5408		62.500000
5409		66.406250
5410		62.500000
5411		66.406250
5412		58.593750
5413		66.406250
5414		58.593750
5415		62.500000
5416		58.593750
5417		62.500000
5418		58.593750
5419		62.500000
5420		58.593750
5421		62.500000
5422		58.593750
5423		62.500000
5424		54.687500
5425		58.593750
5426		54.687500
5427		58.593750
5428		54.687500
5429		58.593750
5430		54.687500
5431		58.593750
5432		50.781250
5433		58.593750
5434		50.781250
5435		54.687500
5436		50.781250
5437		54.687500
5438		50.781250
5439		54.687500
5440		46.875000
5441		50.781250
5442		46.875000
5443		50.781250
5444		46.875000
5445		50.781250
5446		46.875000
5447		50.781250
5448		42.968750
5449		46.875000
5450		42.968750
5451		46.875000
5452		42.968750
5453		46.875000
5454		42.968750
5455		46.875000
5456		39.062500
5457		42.968750
5458		39.062500
5459		42.968750
5460		39.062500
5461		42.968750
5462		39.062500
5463		42.968750
5464		35.156250
5465		39.062500
5466		35.156250
5467		39.062500
5468		35.156250
5469		39.062500
5470		35.156250
5471		35.156250
5472		31.250000
5473		35.156250
5474		31.250000
5475		35.156250
5476		31.250000
5477		35.156250
5478		31.250000
5479		35.156250
5480		27.343750
5481		31.250000
5482		27.343750
5483		31.250000
5484		27.343750
5485		31.250000
5486		27.343750
5487		31.250000
5488		23.437500
5489		27.343750
5490		23.437500
5491		27.343750
5492		23.437500
5493		27.343750
5494		23.437500
5495		27.343750
5496		19.531250
5497		23.437500
5498		19.531250
5499		23.437500
5500		19.531250
5501		23.437500
5502		19.531250
5503		23.437500
5504		15.625000
5505		19.531250
5506		15.625000
5507		19.531250
5508		15.625000
5509		19.531250
5510		15.625000
5511		19.531250
5512		15.625000
5513		19.531250
5514		15.625000
5515		19.531250
5516		15.625000
5517		15.625000
5518		11.718750
5519		15.625000
5520		11.718750
5521		15.625000
5522		11.718750
5523		15.625000
5524		11.718750
5525		15.625000
5526		11.718750
5527		15.625000
5528		11.718750
5529		15.625000
5530		11.718750
5531		15.625000
5532		7.812500
5533		15.625000
5534		11.718750
5535		11.718750
5536		7.812500
5537		11.718750
5538		7.812500
5539		11.718750
5540		7.812500
5541		11.718750
5542		7.812500
5543		11.718750
5544		7.812500
5545		11.718750
5546		7.812500
5547		11.718750
5548		7.812500
5549		11.718750
5550		7.812500
5551		11.718750
5552		7.812500
5553		11.718750
5554		7.812500
5555		11.718750
5556		7.812500
5557		11.718750
5558		7.812500
5559		11.718750
5560		7.812500
5561		11.718750
5562		7.812500
5563		11.718750
5564		7.812500
5565		11.718750
5566		7.812500
5567		11.718750
5568		7.812500
5569		11.718750
5570		11.718750
5571		11.718750
5572		11.718750
5573		15.625000
5574		11.718750
5575		15.625000
5576		11.718750
5577		15.625000
5578		11.718750
5579		15.625000
5580		11.718750
5581		15.625000
5582		11.718750
5583		15.625000
5584		11.718750
5585		15.625000
5586		11.718750
5587		19.531250
5588		15.625000
5589		19.531250
5590		15.625000
5591		19.531250
5592		15.625000
5593		19.531250
5594		15.625000
5595		19.531250
5596		15.625000
5597		19.531250
5598		19.531250
5599		19.531250
5600		19.531250
5601		23.437500
5602		19.531250
5603		23.437500
5604		19.531250
5605		23.437500
5606		19.531250
5607		23.437500
5608		23.437500
5609		27.343750
5610		23.437500
5611		27.343750
5612		23.437500
5613		27.343750
5614		23.437500
5615		31.250000
5616		27.343750
5617		31.250000
5618		27.343750
5619		31.250000
5620		27.343750
5621		31.250000
5622		27.343750
5623		31.250000
5624		31.250000
5625		35.156250
5626		31.250000
5627		35.156250
5628		31.250000
5629		35.156250
5630		31.250000
5631		35.156250
5632		35.156250
5633		39.062500
5634		35.156250
5635		39.062500
5636		35.156250
5637		39.062500
5638		35.156250
5639		42.968750
5640		39.062500
5641		42.968750
5642		39.062500
5643		42.968750
5644		39.062500
5645		42.968750
5646		39.062500
5647		42.968750
5648		42.968750
5649		46.875000
5650		42.968750
5651		46.875000
5652		42.968750
5653		46.875000
5654		46.875000
5655		46.875000
5656		46.875000
5657		50.781250
5658		46.875000
5659		50.781250
5660		46.875000
5661		50.781250
5662		50.781250
5663		54.687500
5664		50.781250
5665		54.687500
5666		50.781250
5667		54.687500
5668		50.781250
5669		54.687500
5670		54.687500
5671		58.593750
5672		54.687500
5673		58.593750
5674		54.687500
5675		58.593750
5676		54.687500
5677		58.593750
5678		58.593750
5679		58.593750
5680		58.593750
5681		62.500000
5682		58.593750
5683		62.500000
5684		58.593750
5685		62.500000
5686		58.593750
5687		62.500000
5688		62.500000
5689		66.406250
5690		62.500000
5691		66.406250
5692		62.500000
5693		66.406250
5694		62.500000
5695		66.406250
5696		66.406250
5697		66.406250
5698		66.406250
5699		70.312500
5700		66.406250
5701		70.312500
5702		66.406250
5703		70.312500
5704		66.406250
5705		70.312500
5706		66.406250
5707		70.312500
5708		66.406250
5709		74.218750
5710		70.312500
5711		74.218750
5712		70.312500
5713		74.218750
5714		70.312500
5715		74.218750
5716		70.312500
5717		74.218750
5718		70.312500
5719		74.218750
5720		70.312500
5721		74.218750
5722		70.312500
5723		74.218750
5724		74.218750
5725		74.218750
5726		74.218750
5727		78.125000
5728		74.218750
5729		78.125000
5730		74.218750
5731		78.125000
5732		74.218750
5733		78.125000
5734		74.218750
5735		78.125000
5736		74.218750
5737		78.125000
5738		74.218750
5739		78.125000
5740		74.218750
5741		78.125000
5742		74.218750
5743		78.125000
5744		74.218750
5745		78.125000
5746		74.218750
5747		78.125000
5748		74.218750
5749		78.125000
5750		74.218750
5751		78.125000
5752		74.218750
5753		78.125000
5754		74.218750
5755		78.125000
5756		74.218750
5757		78.125000
5758		74.218750
5759		78.125000
5760		74.218750
5761		78.125000
5762		74.218750
5763		78.125000
5764		74.218750
5765		78.125000
5766		74.218750
5767		78.125000
5768		74.218750
5769		78.125000
5770		74.218750
5771		78.125000
5772		74.218750
5773		78.125000
5774		74.218750
5775		78.125000
5776		74.218750
5777		78.125000
5778		74.218750
5779		78.125000
5780		74.218750
5781		74.218750
5782		70.312500
5783		74.218750
5784		70.312500
5785		74.218750
5786		70.312500
5787		74.218750
5788		70.312500
5789		74.218750
5790		70.312500
5791		74.218750
5792		70.312500
5793		74.218750
5794		70.312500
5795		74.218750
5796		66.406250
5797		70.312500
5798		66.406250
5799		70.312500
5800		66.406250
5801		70.312500
5802		66.406250
5803		70.312500
5804		66.406250
5805		70.312500
5806		66.406250
5807		70.312500
5808		66.406250
5809		66.406250
5810		62.500000
5811		66.406250
5812		62.500000
5813		66.406250
5814		62.500000
5815		66.406250
5816		58.593750
5817		66.406250
5818		58.593750
5819		66.406250
5820		58.593750
5821		62.500000
5822		58.593750
5823		62.500000
5824		58.593750
5825		62.500000
5826		58.593750
5827		62.500000
5828		54.687500
5829		58.593750
5830		54.687500
5831		58.593750
5832		54.687500
5833		58.593750
5834		54.687500
5835		58.593750
5836		50.781250
5837		54.687500
5838		50.781250
5839		54.687500
5840		50.781250
5841		54.687500
5842		50.781250
5843		54.687500
5844		46.875000
5845		50.781250
5846		46.875000
5847		50.781250
5848		46.875000
5849		50.781250
5850		46.875000
5851		50.781250
5852		42.968750
5853		46.875000
5854		42.968750
5855		46.875000
5856		42.968750
5857		46.875000
5858		42.968750
5859		46.875000
5860		39.062500
5861		42.968750
5862		39.062500
5863		42.968750
5864		39.062500
5865		42.968750
5866		39.062500
5867		39.062500
5868		35.156250
5869		39.062500
5870		35.156250
5871		39.062500
5872		35.156250
5873		39.062500
5874		31.250000
5875		35.156250
5876		31.250000
5877		35.156250
5878		31.250000
5879		35.156250
5880		31.250000
5881		35.156250
5882		27.343750
5883		31.250000
5884		27.343750
5885		31.250000
5886		27.343750
5887		31.250000
5888		27.343750
5889		31.250000
5890		27.343750
5891		27.343750
5892		23.437500
5893		27.343750
5894		23.437500
5895		27.343750
5896		23.437500
5897		27.343750
5898		23.437500
5899		27.343750
5900		19.531250
5901		23.437500
5902		19.531250
5903		23.437500
5904		19.531250
5905		23.437500
5906		19.531250
5907		23.437500
5908		15.625000
5909		23.437500
5910		15.625000
5911		19.531250
5912		15.625000
5913		19.531250
5914		15.625000
5915		19.531250
5916		15.625000
5917		19.531250
5918		11.718750
5919		19.531250
5920		11.718750
5921		15.625000
5922		11.718750
5923		15.625000
5924		11.718750
5925		15.625000
5926		11.718750
5927		15.625000
5928		11.718750
5929		15.625000
5930		11.718750
5931		15.625000
5932		11.718750
5933		15.625000
5934		11.718750
5935		15.625000
5936		11.718750
5937		11.718750
5938		7.812500
5939		11.718750
5940		7.812500
5941		11.718750
5942		7.812500
5943		11.718750
5944		7.812500
5945		11.718750
5946		7.812500
5947		11.718750
5948		7.812500
5949		11.718750
5950		7.812500
5951		11.718750
5952		7.812500
5953		11.718750
5954		7.812500
5955		11.718750
5956		7.812500
5957		11.718750
5958		7.812500
5959		11.718750
5960		7.812500
5961		11.718750
5962		7.812500
5963		11.718750
5964		7.812500
5965		11.718750
5966		7.812500
5967		11.718750
5968		7.812500
5969		11.718750
5970		11.718750
5971		11.718750
5972		11.718750
5973		15.625000
5974		11.718750
5975		15.625000
5976		11.718750
5977		15.625000
5978		11.718750
5979		15.625000
5980		11.718750
5981		15.625000
5982		11.718750
5983		15.625000
5984		11.718750
5985		15.625000
5986		11.718750
5987		19.531250
5988		15.625000
5989		15.625000
5990		15.625000
5991		19.531250
5992		15.625000
5993		19.531250
5994		15.625000
5995		19.531250
5996		15.625000
5997		19.531250
5998		15.625000
5999		19.531250
6000		19.531250
6001		23.437500
6002		19.531250
6003		23.437500
6004		19.531250
6005		23.437500
6006		19.531250
6007		23.437500
6008		19.531250
6009		23.437500
6010		23.437500
6011		27.343750
6012		23.437500
6013		27.343750
6014		23.437500
6015		27.343750
6016		23.437500
6017		27.343750
6018		23.437500
6019		31.250000
6020		27.343750
6021		31.250000
6022		27.343750
6023		31.250000
6024		27.343750
6025		31.250000
6026		31.250000
6027		35.156250
6028		31.250000
6029		35.156250
6030		31.250000
6031		35.156250
6032		31.250000
6033		35.156250
6034		35.156250
6035		39.062500
6036		35.156250
6037		39.062500
6038		35.156250
6039		39.062500
6040		35.156250
6041		39.062500
6042		39.062500
6043		42.968750
6044		39.062500
6045		42.968750
6046		39.062500
6047		42.968750
6048		39.062500
6049		46.875000
6050		42.968750
6051		46.875000
6052		42.968750
6053		46.875000
6054		42.968750
6055		46.875000
6056		46.875000
6057		46.875000
6058		46.875000
6059		50.781250
6060		46.875000
6061		50.781250
6062		46.875000
6063		50.781250
6064		50.781250
6065		54.687500
6066		50.781250
6067		54.687500
6068		50.781250
6069		54.687500
6070		50.781250
6071		54.687500
6072		54.687500
6073		58.593750
6074		54.687500
6075		58.593750
6076		54.687500
6077		58.593750
6078		54.687500
6079		58.593750
6080		54.687500
6081		62.500000
6082		58.593750
6083		62.500000
6084		58.593750
6085		62.500000
6086		58.593750
6087		62.500000
6088		58.593750
6089		62.500000
6090		62.500000
6091		66.406250
6092		62.500000
6093		66.406250
6094		62.500000
6095		66.406250
6096		62.500000
6097		66.406250
6098		66.406250
6099		66.406250
6100		66.406250
6101		70.312500
6102		66.406250
6103		70.312500
6104		66.406250
6105		70.312500
6106		66.406250
6107		70.312500
6108		66.406250
6109		70.312500
6110		66.406250
6111		70.312500
6112		66.406250
6113		74.218750
6114		70.312500
6115		74.218750
6116		70.312500
6117		74.218750
6118		70.312500
6119		74.218750
6120		70.312500
6121		74.218750
6122		70.312500
6123		74.218750
6124		70.312500
6125		74.218750
6126		74.218750
6127		74.218750
6128		74.218750
6129		78.125000
6130		74.218750
6131		78.125000
6132		74.218750
6133		78.125000
6134		74.218750
6135		78.125000
6136		74.218750
6137		78.125000
6138		74.218750
6139		78.125000
6140		74.218750
6141		78.125000
6142		74.218750
6143		78.125000
6144		74.218750
6145		78.125000
6146		74.218750
6147		78.125000
6148		74.218750
6149		78.125000
6150		74.218750
6151		78.125000
6152		74.218750
6153		78.125000
6154		74.218750
6155		78.125000
6156		74.218750
6157		78.125000
6158		74.218750
6159		78.125000
6160		74.218750
6161		78.125000
6162		74.218750
6163		78.125000
6164		74.218750
6165		78.125000
6166		74.218750
6167		78.125000
6168		74.218750
6169		78.125000
6170		74.218750
6171		78.125000
6172		74.218750
6173		78.125000
6174		74.218750
6175		78.125000
6176		74.218750
6177		78.125000
6178		74.218750
6179		78.125000
6180		74.218750
6181		78.125000
6182		74.218750
6183		74.218750
6184		70.312500
6185		74.218750
6186		70.312500
6187		74.218750
6188		70.312500
6189		74.218750
6190		70.312500
6191		74.218750
6192		70.312500
6193		74.218750
6194		70.312500
6195		74.218750
6196		70.312500
6197		74.218750
6198		70.312500
6199		74.218750
6200		66.406250
6201		70.312500
6202		66.406250
6203		70.312500
6204		66.406250
6205		70.312500
6206		66.406250
6207		70.312500
6208		66.406250
6209		70.312500
6210		66.406250
6211		70.312500
6212		66.406250
6213		70.312500
6214		62.500000
6215		66.406250
6216		62.500000
6217		66.406250
6218		62.500000
6219		66.406250
6220		62.500000
6221		66.406250
6222		62.500000
6223		66.406250
6224		58.593750
6225		62.500000
6226		58.593750
6227		62.500000
6228		58.593750
6229		62.500000
6230		58.593750
6231		62.500000
6232		54.687500
6233		62.500000
6234		54.687500
6235		58.593750
6236		54.687500
6237		58.593750
6238		50.781250
6239		58.593750
6240		50.781250
6241		58.593750
6242		50.781250
6243		54.687500
6244		50.781250
6245		54.687500
6246		50.781250
6247		54.687500
6248		46.875000
6249		50.781250
6250		46.875000
6251		50.781250
6252		46.875000
6253		50.781250
6254		46.875000
6255		50.781250
6256		42.968750
6257		46.875000
6258		42.968750
6259		46.875000
6260		42.968750
6261		46.875000
6262		42.968750
6263		46.875000
6264		39.062500
6265		42.968750
6266		39.062500
6267		42.968750
6268		39.062500
6269		42.968750
6270		35.156250
6271		42.968750
6272		35.156250
6273		39.062500
6274		35.156250
6275		39.062500
6276		35.156250
6277		39.062500
6278		31.250000
6279		39.062500
6280		31.250000
6281		35.156250
6282		31.250000
6283		35.156250
6284		31.250000
6285		35.156250
6286		31.250000
6287		31.250000
6288		27.343750
6289		31.250000
6290		27.343750
6291		31.250000
6292		27.343750
6293		31.250000
6294		27.343750
6295		31.250000
6296		23.437500
6297		27.343750
6298		23.437500
6299		27.343750
6300		23.437500
6301		27.343750
6302		23.437500
6303		23.437500
6304		19.531250
6305		23.437500
6306		19.531250
6307		23.437500
6308		19.531250
6309		23.437500
6310		19.531250
6311		23.437500
6312		19.531250
6313		23.437500
6314		15.625000
6315		19.531250
6316		15.625000
6317		19.531250
6318		15.625000
6319		19.531250
6320		15.625000
6321		19.531250
6322		15.625000
6323		19.531250
6324		15.625000
6325		15.625000
6326		11.718750
6327		15.625000
6328		11.718750
6329		15.625000
6330		11.718750
6331		15.625000
6332		11.718750
6333		15.625000
6334		11.718750
6335		15.625000
6336		11.718750
6337		15.625000
6338		11.718750
6339		15.625000
6340		11.718750
6341		15.625000
6342		11.718750
6343		11.718750
6344		11.718750
6345		11.718750
6346		11.718750
6347		15.625000
6348		7.812500
6349		11.718750
6350		7.812500
6351		11.718750
6352		7.812500
6353		11.718750
6354		7.812500
6355		11.718750
6356		7.812500
6357		11.718750
6358		7.812500
6359		11.718750
6360		7.812500
6361		11.718750
6362		7.812500
6363		11.718750
6364		7.812500
6365		11.718750
6366		7.812500
6367		11.718750
6368		7.812500
6369		11.718750
6370		7.812500
6371		11.718750
6372		11.718750
6373		11.718750
6374		7.812500
6375		15.625000
6376		11.718750
6377		15.625000
6378		11.718750
6379		15.625000
6380		11.718750
6381		15.625000
6382		11.718750
6383		15.625000
6384		11.718750
6385		15.625000
6386		11.718750
6387		15.625000
6388		11.718750
6389		15.625000
6390		11.718750
6391		15.625000
6392		15.625000
6393		19.531250
6394		15.625000
6395		19.531250
6396		15.625000
6397		19.531250
6398		15.625000
6399		19.531250
6400		15.625000
6401		19.531250
6402		15.625000
6403		19.531250
6404		15.625000
6405		23.437500
6406		19.531250
6407		23.437500
6408		19.531250
6409		23.437500
6410		19.531250
6411		23.437500
6412		19.531250
6413		23.437500
6414		23.437500
6415		27.343750
6416		23.437500
6417		27.343750
6418		23.437500
6419		27.343750
6420		23.437500
6421		27.343750
6422		27.343750
6423		27.343750
6424		27.343750
6425		31.250000
6426		27.343750
6427		31.250000
6428		27.343750
6429		31.250000
6430		31.250000
6431		35.156250
6432		31.250000
6433		35.156250
6434		31.250000
6435		35.156250
6436		31.250000
6437		35.156250
6438		35.156250
6439		39.062500
6440		35.156250
6441		39.062500
6442		35.156250
6443		39.062500
6444		35.156250
6445		39.062500
6446		35.156250
6447		42.968750
6448		39.062500
6449		42.968750
6450		39.062500
6451		42.968750
6452		39.062500
6453		42.968750
6454		42.968750
6455		46.875000
6456		42.968750
6457		46.875000
6458		42.968750
6459		46.875000
6460		46.875000
6461		46.875000
6462		46.875000
6463		50.781250
6464		46.875000
6465		50.781250
6466		46.875000
6467		50.781250
6468		50.781250
6469		50.781250
6470		50.781250
6471		54.687500
6472		50.781250
6473		54.687500
6474		50.781250
6475		54.687500
6476		54.687500
6477		54.687500
6478		54.687500
6479		58.593750
6480		54.687500
6481		58.593750
6482		54.687500
6483		58.593750
6484		54.687500
6485		58.593750
6486		58.593750
6487		62.500000
6488		58.593750
6489		62.500000
6490		58.593750
6491		62.500000
6492		58.593750
6493		62.500000
6494		62.500000
6495		66.406250
6496		62.500000
6497		66.406250
6498		62.500000
6499		66.406250
6500		62.500000
6501		66.406250
6502		66.406250
6503		66.406250
6504		66.406250
6505		70.312500
6506		66.406250
6507		70.312500
6508		66.406250
6509		70.312500
6510		66.406250
6511		70.312500
6512		66.406250
6513		70.312500
6514		66.406250
6515		70.312500
6516		66.406250
6517		74.218750
6518		70.312500
6519		74.218750
6520		70.312500
6521		74.218750
6522		70.312500
6523		74.218750
6524		70.312500
6525		74.218750
6526		70.312500
6527		74.218750
6528		70.312500
6529		74.218750
6530		74.218750
6531		74.218750
6532		74.218750
6533		78.125000
6534		74.218750
6535		78.125000
6536		74.218750
6537		78.125000
6538		74.218750
6539		78.125000
6540		74.218750
6541		78.125000
6542		74.218750
6543		78.125000
6544		74.218750
6545		78.125000
6546		74.218750
6547		78.125000
6548		74.218750
6549		78.125000
6550		74.218750
6551		78.125000
6552		74.218750
6553		78.125000
6554		74.218750
6555		78.125000
6556		74.218750
6557		78.125000
6558		74.218750
6559		78.125000
6560		74.218750
6561		78.125000
6562		74.218750
6563		78.125000
6564		74.218750
6565		78.125000
6566		74.218750
6567		78.125000
6568		74.218750
6569		78.125000
6570		74.218750
6571		78.125000
6572		74.218750
6573		78.125000
6574		74.218750
6575		78.125000
6576		74.218750
6577		78.125000
6578		74.218750
6579		78.125000
6580		74.218750
6581		78.125000
6582		74.218750
6583		78.125000
6584		74.218750
6585		78.125000
6586		74.218750
6587		78.125000
6588		74.218750
6589		78.125000
6590		70.312500
6591		78.125000
6592		70.312500
6593		74.218750
6594		70.312500
6595		74.218750
6596		70.312500
6597		74.218750
6598		70.312500
6599		74.218750
6600		70.312500
6601		74.218750
6602		70.312500
6603		74.218750
6604		70.312500
6605		70.312500
6606		66.406250
6607		70.312500
6608		66.406250
6609		70.312500
6610		66.406250
6611		70.312500
6612		66.406250
6613		70.312500
6614		66.406250
6615		70.312500
6616		62.500000
6617		66.406250
6618		62.500000
6619		66.406250
6620		62.500000
6621		66.406250
6622		62.500000
6623		66.406250
6624		62.500000
6625		66.406250
6626		58.593750
6627		62.500000
6628		58.593750
6629		62.500000
6630		58.593750
6631		62.500000
6632		58.593750
6633		62.500000
6634		58.593750
6635		62.500000
6636		54.687500
6637		58.593750
6638		54.687500
6639		58.593750
6640		54.687500
6641		58.593750
6642		54.687500
6643		58.593750
6644		50.781250
6645		54.687500
6646		50.781250
6647		54.687500
6648		50.781250
6649		54.687500
6650		50.781250
6651		54.687500
6652		46.875000
6653		50.781250
6654		46.875000
6655		50.781250
6656		46.875000
6657		50.781250
6658		46.875000
6659		46.875000
6660		42.968750
6661		46.875000
6662		42.968750
6663		46.875000
6664		42.968750
6665		46.875000
6666		39.062500
6667		46.875000
6668		39.062500
6669		42.968750
6670		39.062500
6671		42.968750
6672		39.062500
6673		42.968750
6674		35.156250
6675		42.968750
6676		35.156250
6677		39.062500
6678		35.156250
6679		39.062500
6680		31.250000
6681		35.156250
6682		31.250000
6683		35.156250
6684		31.250000
6685		35.156250
6686		31.250000
6687		35.156250
6688		27.343750
6689		31.250000
6690		27.343750
6691		31.250000
6692		27.343750
6693		31.250000
6694		27.343750
6695		31.250000
6696		27.343750
6697		31.250000
6698		23.437500
6699		27.343750
6700		23.437500
6701		27.343750
6702		23.437500
6703		27.343750
6704		23.437500
6705		27.343750
6706		19.531250
6707		23.437500
6708		19.531250
6709		23.437500
6710		19.531250
6711		23.437500
6712		19.531250
6713		23.437500
6714		19.531250
6715		23.437500
6716		15.625000
6717		19.531250
6718		15.625000
6719		19.531250
6720		15.625000
6721		19.531250
6722		15.625000
6723		19.531250
6724		15.625000
6725		19.531250
6726		15.625000
6727		19.531250
6728		11.718750
6729		15.625000
6730		11.718750
6731		15.625000
6732		11.718750
6733		15.625000
6734		11.718750
6735		15.625000
6736		11.718750
6737		15.625000
6738		11.718750
6739		15.625000
6740		11.718750
6741		15.625000
6742		11.718750
6743		11.718750
6744		11.718750
6745		11.718750
6746		11.718750
6747		11.718750
6748		7.812500
6749		11.718750
6750		7.812500
6751		11.718750
6752		7.812500
6753		11.718750
6754		7.812500
6755		11.718750
6756		7.812500
6757		11.718750
6758		7.812500
6759		11.718750
6760		7.812500
6761		11.718750
6762		7.812500
6763		11.718750
6764		7.812500
6765		11.718750
6766		7.812500
6767		11.718750
6768		7.812500
6769		11.718750
6770		7.812500
6771		11.718750
6772		7.812500
6773		11.718750
6774		11.718750
6775		11.718750
6776		11.718750
6777		11.718750
6778		11.718750
6779		11.718750
6780		11.718750
6781		15.625000
6782		11.718750
6783		15.625000
6784		11.718750
6785		15.625000
6786		11.718750
6787		15.625000
6788		11.718750
6789		15.625000
6790		11.718750
6791		15.625000
6792		11.718750
6793		15.625000
6794		11.718750
6795		15.625000
6796		15.625000
6797		19.531250
6798		15.625000
6799		19.531250
6800		15.625000
6801		19.531250
6802		15.625000
6803		19.531250
6804		15.625000
6805		19.531250
6806		15.625000
6807		19.531250
6808		15.625000
6809		23.437500
6810		19.531250
6811		23.437500
6812		19.531250
6813		23.437500
6814		19.531250
6815		23.437500
6816		19.531250
6817		23.437500
6818		23.437500
6819		27.343750
6820		23.437500
6821		27.343750
6822		23.437500
6823		27.343750
6824		23.437500
6825		27.343750
6826		23.437500
6827		31.250000
6828		27.343750
6829		31.250000
6830		27.343750
6831		31.250000
6832		27.343750
6833		31.250000
6834		27.343750
6835		31.250000
6836		31.250000
6837		35.156250
6838		31.250000
6839		35.156250
6840		31.250000
6841		35.156250
6842		35.156250
6843		39.062500
6844		35.156250
6845		39.062500
6846		35.156250
6847		39.062500
6848		35.156250
6849		42.968750
6850		39.062500
6851		42.968750
6852		39.062500
6853		42.968750
6854		39.062500
6855		42.968750
6856		42.968750
6857		42.968750
6858		42.968750
6859		46.875000
6860		42.968750
6861		46.875000
6862		42.968750
6863		46.875000
6864		46.875000
6865		50.781250
6866		46.875000
6867		50.781250
6868		46.875000
6869		50.781250
6870		46.875000
6871		50.781250
6872		50.781250
6873		54.687500
6874		50.781250
6875		54.687500
6876		50.781250
6877		54.687500
6878		50.781250
6879		54.687500
6880		50.781250
6881		58.593750
6882		54.687500
6883		58.593750
6884		54.687500
6885		58.593750
6886		54.687500
6887		58.593750
6888		58.593750
6889		58.593750
6890		58.593750
6891		62.500000
6892		58.593750
6893		62.500000
6894		58.593750
6895		62.500000
6896		58.593750
6897		66.406250
6898		62.500000
6899		66.406250
6900		62.500000
6901		66.406250
6902		62.500000
6903		66.406250
6904		62.500000
6905		66.406250
6906		66.406250
6907		66.406250
6908		66.406250
6909		70.312500
6910		66.406250
6911		70.312500
6912		66.406250
6913		70.312500
6914		66.406250
6915		70.312500
6916		66.406250
6917		70.312500
6918		70.312500
6919		70.312500
6920		70.312500
6921		74.218750
6922		70.312500
6923		74.218750
6924		70.312500
6925		74.218750
6926		70.312500
6927		74.218750
6928		70.312500
6929		74.218750
6930		70.312500
6931		74.218750
6932		70.312500
6933		74.218750
6934		74.218750
6935		74.218750
6936		74.218750
6937		78.125000
6938		74.218750
6939		78.125000
6940		74.218750
6941		78.125000
6942		74.218750
6943		78.125000
6944		74.218750
6945		78.125000
6946		74.218750
6947		78.125000
6948		74.218750
6949		78.125000
6950		74.218750
6951		78.125000
6952		74.218750
6953		78.125000
6954		74.218750
6955		78.125000
6956		74.218750
6957		78.125000
6958		74.218750
6959		78.125000
6960		74.218750
6961		78.125000
6962		74.218750
6963		78.125000
6964		74.218750
6965		78.125000
6966		74.218750
6967		78.125000
6968		74.218750
6969		78.125000
6970		74.218750
6971		78.125000
6972		74.218750
6973		78.125000
6974		74.218750
6975		78.125000
6976		74.218750
6977		78.125000
6978		74.218750
6979		78.125000
6980		74.218750
6981		78.125000
6982		74.218750
6983		78.125000
6984		74.218750
6985		78.125000
6986		74.218750
6987		78.125000
6988		74.218750
6989		78.125000
6990		74.218750
6991		78.125000
6992		70.312500
6993		74.218750
6994		70.312500
6995		74.218750
6996		70.312500
6997		74.218750
6998		70.312500
6999		74.218750
7000		70.312500
7001		74.218750
7002		70.312500
7003		74.218750
7004		70.312500
7005		74.218750
7006		70.312500
7007		70.312500
7008		66.406250
7009		70.312500
7010		66.406250
7011		70.312500
7012		66.406250
7013		70.312500
7014		66.406250
7015		70.312500
7016		66.406250
7017		70.312500
7018		66.406250
7019		66.406250
7020		62.500000
7021		66.406250
7022		62.500000
7023		66.406250
7024		62.500000
7025		66.406250
7026		62.500000
7027		66.406250
7028		62.500000
7029		62.500000
7030		58.593750
7031		62.500000
7032		58.593750
7033		62.500000
7034		58.593750
7035		62.500000
7036		58.593750
7037		62.500000
7038		54.687500
7039		58.593750
7040		54.687500
7041		58.593750
7042		54.687500
7043		58.593750
7044		54.687500
7045		58.593750
7046		54.687500
7047		54.687500
7048		50.781250
7049		54.687500
7050		50.781250
7051		54.687500
7052		50.781250
7053		54.687500
7054		46.875000
7055		54.687500
7056		46.875000
7057		50.781250
7058		46.875000
7059		50.781250
7060		46.875000
7061		50.781250
7062		42.968750
7063		46.875000
7064		42.968750
7065		46.875000
7066		42.968750
7067		46.875000
7068		42.968750
7069		46.875000
7070		42.968750
7071		42.968750
7072		39.062500
7073		42.968750
7074		39.062500
7075		42.968750
7076		35.156250
7077		42.968750
7078		35.156250
7079		42.968750
7080		35.156250
7081		39.062500
7082		35.156250
7083		39.062500
7084		31.250000
7085		39.062500
7086		31.250000
7087		35.156250
7088		31.250000
7089		35.156250
7090		31.250000
7091		35.156250
7092		31.250000
7093		31.250000
7094		27.343750
7095		31.250000
7096		27.343750
7097		31.250000
7098		27.343750
7099		31.250000
7100		27.343750
7101		31.250000
7102		23.437500
7103		27.343750
7104		23.437500
7105		27.343750
7106		23.437500
7107		27.343750
7108		23.437500
7109		27.343750
7110		19.531250
7111		23.437500
7112		19.531250
7113		23.437500
7114		19.531250
7115		23.437500
7116		19.531250
7117		23.437500
7118		19.531250
7119		23.437500
7120		19.531250
7121		19.531250
7122		15.625000
7123		19.531250
7124		15.625000
7125		19.531250
7126		15.625000
7127		19.531250
7128		15.625000
7129		19.531250
7130		15.625000
7131		19.531250
7132		11.718750
7133		15.625000
7134		11.718750
7135		15.625000
7136		11.718750
7137		15.625000
7138		11.718750
7139		15.625000
7140		11.718750
7141		15.625000
7142		11.718750
7143		15.625000
7144		11.718750
7145		15.625000
7146		11.718750
7147		15.625000
7148		11.718750
7149		15.625000
7150		11.718750
7151		11.718750
7152		11.718750
7153		15.625000
7154		7.812500
7155		11.718750
7156		7.812500
7157		11.718750
7158		7.812500
7159		11.718750
7160		7.812500
7161		11.718750
7162		7.812500
7163		11.718750
7164		7.812500
7165		11.718750
7166		7.812500
7167		15.625000
7168		7.812500
7169		11.718750
7170		7.812500
7171		11.718750
7172		7.812500
7173		11.718750
7174		11.718750
7175		11.718750
7176		11.718750
7177		11.718750
7178		7.812500
7179		15.625000
7180		11.718750
7181		11.718750
7182		11.718750
7183		15.625000
7184		11.718750
7185		15.625000
7186		11.718750
7187		15.625000
7188		11.718750
7189		15.625000
7190		11.718750
7191		15.625000
7192		11.718750
7193		15.625000
7194		11.718750
7195		19.531250
7196		11.718750
7197		19.531250
7198		11.718750
7199		19.531250
7200		11.718750
7201		19.531250
7202		11.718750
7203		19.531250
7204		15.625000
7205		19.531250
7206		15.625000
7207		19.531250
7208		15.625000
7209		19.531250
7210		19.531250
7211		19.531250
7212		15.625000
7213		23.437500
7214		15.625000
7215		23.437500
7216		19.531250
7217		23.437500
7218		19.531250
7219		27.343750
7220		19.531250
7221		27.343750
7222		19.531250
7223		27.343750
7224		23.437500
7225		27.343750
7226		23.437500
7227		27.343750
7228		23.437500
7229		31.250000
7230		23.437500
7231		31.250000
7232		23.437500
7233		31.250000
7234		27.343750
7235		35.156250
7236		27.343750
7237		35.156250
7238		27.343750
7239		35.156250
7240		27.343750
7241		35.156250
7242		31.250000
7243		35.156250
7244		31.250000
7245		39.062500
7246		31.250000
7247		39.062500
7248		31.250000
7249		39.062500
7250		35.156250
7251		42.968750
7252		35.156250
7253		42.968750
7254		35.156250
7255		42.968750
7256		39.062500
7257		42.968750
7258		39.062500
7259		42.968750
7260		42.968750
7261		42.968750
7262		39.062500
7263		46.875000
7264		42.968750
7265		46.875000
7266		42.968750
7267		50.781250
7268		42.968750
7269		50.781250
7270		42.968750
7271		50.781250
7272		46.875000
7273		54.687500
7274		46.875000
7275		54.687500
7276		50.781250
7277		50.781250
7278		50.781250
7279		54.687500
7280		50.781250
7281		58.593750
7282		50.781250
7283		58.593750
7284		50.781250
7285		58.593750
7286		50.781250
7287		58.593750
7288		54.687500
7289		62.500000
7290		54.687500
7291		62.500000
7292		58.593750
7293		58.593750
7294		58.593750
7295		62.500000
7296		54.687500
7297		66.406250
7298		58.593750
7299		66.406250
7300		58.593750
7301		66.406250
7302		58.593750
7303		66.406250
7304		62.500000
7305		66.406250
7306		62.500000
7307		70.312500
7308		62.500000
7309		66.406250
7310		66.406250
7311		66.406250
7312		62.500000
7313		70.312500
7314		62.500000
7315		70.312500
7316		66.406250
7317		70.312500
7318		66.406250
7319		74.218750
7320		66.406250
7321		74.218750
7322		66.406250
7323		74.218750
7324		66.406250
7325		74.218750
7326		70.312500
7327		74.218750
7328		66.406250
7329		74.218750
7330		70.312500
7331		78.125000
7332		70.312500
7333		78.125000
7334		70.312500
7335		78.125000
7336		70.312500
7337		78.125000
7338		70.312500
7339		78.125000
7340		70.312500
7341		78.125000
7342		74.218750
7343		78.125000
7344		74.218750
7345		78.125000
7346		70.312500
7347		78.125000
7348		74.218750
7349		78.125000
7350		74.218750
7351		78.125000
7352		74.218750
7353		82.031250
7354		74.218750
7355		82.031250
7356		74.218750
7357		82.031250
7358		74.218750
7359		82.031250
7360		74.218750
7361		78.125000
7362		74.218750
7363		78.125000
7364		74.218750
7365		82.031250
7366		74.218750
7367		82.031250
7368		74.218750
7369		82.031250
7370		74.218750
7371		82.031250
7372		74.218750
7373		82.031250
7374		74.218750
7375		82.031250
7376		74.218750
7377		78.125000
7378		74.218750
7379		78.125000
7380		74.218750
7381		78.125000
7382		74.218750
7383		78.125000
7384		74.218750
7385		78.125000
7386		74.218750
7387		78.125000
7388		70.312500
7389		78.125000
7390		70.312500
7391		78.125000
7392		70.312500
7393		78.125000
7394		74.218750
7395		74.218750
7396		70.312500
7397		78.125000
7398		70.312500
7399		78.125000
7400		70.312500
7401		78.125000
7402		70.312500
7403		78.125000
7404		70.312500
7405		74.218750
7406		66.406250
7407		74.218750
7408		66.406250
7409		74.218750
7410		70.312500
7411		70.312500
7412		66.406250
7413		70.312500
7414		66.406250
7415		74.218750
7416		66.406250
7417		74.218750
7418		66.406250
7419		70.312500
7420		62.500000
7421		70.312500
7422		62.500000
7423		70.312500
7424		62.500000
7425		70.312500
7426		62.500000
7427		66.406250
7428		62.500000
7429		66.406250
7430		58.593750
7431		66.406250
7432		58.593750
7433		66.406250
7434		58.593750
7435		66.406250
7436		58.593750
7437		66.406250
7438		58.593750
7439		62.500000
7440		54.687500
7441		62.500000
7442		54.687500
7443		62.500000
7444		54.687500
7445		58.593750
7446		54.687500
7447		58.593750
7448		50.781250
7449		58.593750
7450		50.781250
7451		58.593750
7452		50.781250
7453		58.593750
7454		50.781250
7455		54.687500
7456		46.875000
7457		54.687500
7458		46.875000
7459		54.687500
7460		46.875000
7461		50.781250
7462		46.875000
7463		50.781250
7464		42.968750
7465		50.781250
7466		42.968750
7467		50.781250
7468		42.968750
7469		50.781250
7470		42.968750
7471		46.875000
7472		39.062500
7473		46.875000
7474		39.062500
7475		46.875000
7476		39.062500
7477		42.968750
7478		39.062500
7479		42.968750
7480		35.156250
7481		42.968750
7482		35.156250
7483		42.968750
7484		35.156250
7485		39.062500
7486		31.250000
7487		39.062500
7488		31.250000
7489		39.062500
7490		31.250000
7491		39.062500
7492		31.250000
7493		39.062500
7494		31.250000
7495		35.156250
7496		27.343750
7497		35.156250
7498		27.343750
7499		35.156250
7500		27.343750
7501		31.250000
7502		23.437500
7503		31.250000
7504		23.437500
7505		31.250000
7506		23.437500
7507		31.250000
7508		23.437500
7509		27.343750
7510		23.437500
7511		27.343750
7512		23.437500
7513		23.437500
7514		19.531250
7515		27.343750
7516		19.531250
7517		27.343750
7518		19.531250
7519		23.437500
7520		15.625000
7521		23.437500
7522		15.625000
7523		23.437500
7524		15.625000
7525		23.437500
7526		15.625000
7527		23.437500
7528		15.625000
7529		19.531250
7530		11.718750
7531		19.531250
7532		11.718750
7533		19.531250
7534		11.718750
7535		19.531250
7536		11.718750
7537		19.531250
7538		11.718750
7539		19.531250
7540		11.718750
7541		15.625000
7542		11.718750
7543		15.625000
7544		11.718750
7545		15.625000
7546		11.718750
7547		15.625000
7548		7.812500
7549		15.625000
7550		7.812500
7551		15.625000
7552		7.812500
7553		15.625000
7554		7.812500
7555		15.625000
7556		7.812500
7557		15.625000
7558		7.812500
7559		15.625000
7560		7.812500
7561		11.718750
7562		7.812500
7563		11.718750
7564		7.812500
7565		11.718750
7566		7.812500
7567		15.625000
7568		7.812500
7569		15.625000
7570		7.812500
7571		15.625000
7572		7.812500
7573		11.718750
7574		7.812500
7575		15.625000
7576		7.812500
7577		15.625000
7578		7.812500
7579		11.718750
7580		7.812500
7581		11.718750
7582		7.812500
7583		15.625000
7584		7.812500
7585		15.625000
7586		7.812500
7587		15.625000
7588		7.812500
7589		15.625000
7590		7.812500
7591		15.625000
7592		7.812500
7593		15.625000
7594		11.718750
7595		15.625000
7596		11.718750
7597		15.625000
7598		11.718750
7599		19.531250
7600		11.718750
7601		19.531250
7602		11.718750
7603		19.531250
7604		11.718750
7605		19.531250
7606		11.718750
7607		19.531250
7608		11.718750
7609		19.531250
7610		15.625000
7611		19.531250
7612		15.625000
7613		19.531250
7614		15.625000
7615		23.437500
7616		15.625000
7617		23.437500
7618		15.625000
7619		23.437500
7620		15.625000
7621		27.343750
7622		19.531250
7623		27.343750
7624		19.531250
7625		27.343750
7626		19.531250
7627		27.343750
7628		23.437500
7629		27.343750
7630		23.437500
7631		31.250000
7632		23.437500
7633		31.250000
7634		23.437500
7635		31.250000
7636		23.437500
7637		31.250000
7638		27.343750
7639		31.250000
7640		27.343750
7641		35.156250
7642		27.343750
7643		35.156250
7644		31.250000
7645		35.156250
7646		31.250000
7647		35.156250
7648		31.250000
7649		39.062500
7650		31.250000
7651		39.062500
7652		35.156250
7653		42.968750
7654		35.156250
7655		42.968750
7656		35.156250
7657		42.968750
7658		35.156250
7659		42.968750
7660		39.062500
7661		42.968750
7662		39.062500
7663		42.968750
7664		42.968750
7665		46.875000
7666		42.968750
7667		46.875000
7668		42.968750
7669		50.781250
7670		42.968750
7671		50.781250
7672		42.968750
7673		50.781250
7674		46.875000
7675		50.781250
7676		46.875000
7677		54.687500
7678		46.875000
7679		54.687500
7680		50.781250
7681		54.687500
7682		50.781250
7683		54.687500
7684		50.781250
7685		58.593750
7686		50.781250
7687		58.593750
7688		50.781250
7689		58.593750
7690		54.687500
7691		58.593750
7692		54.687500
7693		62.500000
7694		54.687500
7695		62.500000
7696		58.593750
7697		62.500000
7698		58.593750
7699		62.500000
7700		58.593750
7701		66.406250
7702		58.593750
7703		66.406250
7704		58.593750
7705		66.406250
7706		58.593750
7707		66.406250
7708		62.500000
7709		66.406250
7710		62.500000
7711		70.312500
7712		62.500000
7713		66.406250
7714		66.406250
7715		66.406250
7716		62.500000
7717		70.312500
7718		62.500000
7719		70.312500
7720		66.406250
7721		74.218750
7722		66.406250
7723		74.218750
7724		66.406250
7725		74.218750
7726		66.406250
7727		74.218750
7728		70.312500
7729		74.218750
7730		70.312500
7731		74.218750
7732		70.312500
7733		74.218750
7734		70.312500
7735		78.125000
7736		70.312500
7737		78.125000
7738		70.312500
7739		78.125000
7740		70.312500
7741		78.125000
7742		70.312500
7743		78.125000
7744		70.312500
7745		78.125000
7746		74.218750
7747		78.125000
7748		74.218750
7749		78.125000
7750		70.312500
7751		78.125000
7752		70.312500
7753		78.125000
7754		74.218750
7755		78.125000
7756		74.218750
7757		78.125000
7758		74.218750
7759		82.031250
7760		74.218750
7761		82.031250
7762		74.218750
7763		78.125000
7764		74.218750
7765		78.125000
7766		74.218750
7767		82.031250
7768		74.218750
7769		82.031250
7770		74.218750
7771		82.031250
7772		74.218750
7773		82.031250
7774		74.218750
7775		78.125000
7776		74.218750
7777		82.031250
7778		74.218750
7779		82.031250
7780		74.218750
7781		78.125000
7782		74.218750
7783		78.125000
7784		74.218750
7785		82.031250
7786		74.218750
7787		78.125000
7788		70.312500
7789		78.125000
7790		70.312500
7791		78.125000
7792		70.312500
7793		78.125000
7794		70.312500
7795		78.125000
7796		74.218750
7797		78.125000
7798		74.218750
7799		74.218750
7800		70.312500
7801		78.125000
7802		70.312500
7803		78.125000
7804		70.312500
7805		78.125000
7806		70.312500
7807		74.218750
7808		70.312500
7809		74.218750
7810		66.406250
7811		74.218750
7812		66.406250
7813		74.218750
7814		70.312500
7815		70.312500
7816		66.406250
7817		70.312500
7818		66.406250
7819		70.312500
7820		66.406250
7821		70.312500
7822		66.406250
7823		70.312500
7824		66.406250
7825		70.312500
7826		62.500000
7827		70.312500
7828		62.500000
7829		66.406250
7830		62.500000
7831		66.406250
7832		62.500000
7833		66.406250
7834		62.500000
7835		66.406250
7836		58.593750
7837		66.406250
7838		58.593750
7839		62.500000
7840		58.593750
7841		62.500000
7842		58.593750
7843		62.500000
7844		58.593750
7845		62.500000
7846		54.687500
7847		58.593750
7848		54.687500
7849		58.593750
7850		54.687500
7851		58.593750
7852		50.781250
7853		58.593750
7854		50.781250
7855		58.593750
7856		50.781250
7857		54.687500
7858		50.781250
7859		54.687500
7860		46.875000
7861		54.687500
7862		46.875000
7863		54.687500
7864		46.875000
7865		50.781250
7866		46.875000
7867		50.781250
7868		42.968750
7869		50.781250
7870		42.968750
7871		50.781250
7872		42.968750
7873		46.875000
7874		42.968750
7875		46.875000
7876		39.062500
7877		46.875000
7878		39.062500
7879		42.968750
7880		39.062500
7881		42.968750
7882		39.062500
7883		42.968750
7884		35.156250
7885		42.968750
7886		35.156250
7887		39.062500
7888		35.156250
7889		39.062500
7890		31.250000
7891		39.062500
7892		31.250000
7893		39.062500
7894		31.250000
7895		35.156250
7896		31.250000
7897		35.156250
7898		31.250000
7899		35.156250
7900		27.343750
7901		31.250000
7902		27.343750
7903		31.250000
7904		27.343750
7905		31.250000
7906		23.437500
7907		31.250000
7908		27.343750
7909		31.250000
7910		23.437500
7911		27.343750
7912		23.437500
7913		27.343750
7914		23.437500
7915		27.343750
7916		23.437500
7917		27.343750
7918		19.531250
7919		23.437500
7920		19.531250
7921		23.437500
7922		19.531250
7923		23.437500
7924		19.531250
7925		23.437500
7926		19.531250
7927		23.437500
7928		15.625000
7929		19.531250
7930		15.625000
7931		19.531250
7932		15.625000
7933		19.531250
7934		15.625000
7935		19.531250
7936		15.625000
7937		19.531250
7938		15.625000
7939		19.531250
7940		11.718750
7941		15.625000
7942		11.718750
7943		15.625000
7944		11.718750
7945		15.625000
7946		11.718750
7947		15.625000
7948		11.718750
7949		15.625000
7950		11.718750
7951		15.625000
7952		11.718750
7953		15.625000
7954		11.718750
7955		15.625000
7956		11.718750
7957		11.718750
7958		11.718750
7959		15.625000
7960		7.812500
7961		15.625000
7962		7.812500
7963		11.718750
7964		7.812500
7965		11.718750
7966		7.812500
7967		11.718750
7968		7.812500
7969		15.625000
7970		7.812500
7971		11.718750
7972		7.812500
7973		11.718750
7974		7.812500
7975		11.718750
7976		7.812500
7977		11.718750
7978		7.812500
7979		11.718750
7980		7.812500
7981		11.718750
7982		7.812500
7983		15.625000
7984		7.812500
7985		15.625000
7986		11.718750
7987		11.718750
7988		11.718750
7989		15.625000
7990		11.718750
7991		15.625000
7992		11.718750
7993		15.625000
7994		11.718750
7995		15.625000
7996		11.718750
7997		15.625000
7998		11.718750
7999		15.625000
8000		11.718750
8001		15.625000
8002		11.718750
8003		19.531250
8004		15.625000
8005		15.625000
8006		15.625000
8007		15.625000
8008		15.625000
8009		19.531250
8010		15.625000
8011		19.531250
8012		15.625000
8013		19.531250
8014		15.625000
8015		19.531250
8016		19.531250
8017		19.531250
8018		15.625000
8019		23.437500
8020		19.531250
8021		23.437500
8022		19.531250
8023		23.437500
8024		19.531250
8025		23.437500
8026		19.531250
8027		23.437500
8028		23.437500
8029		27.343750
8030		23.437500
8031		27.343750
8032		23.437500
8033		27.343750
8034		23.437500
8035		31.250000
8036		23.437500
8037		31.250000
8038		27.343750
8039		31.250000
8040		27.343750
8041		31.250000
8042		27.343750
8043		31.250000
8044		27.343750
8045		35.156250
8046		31.250000
8047		35.156250
8048		31.250000
8049		35.156250
8050		31.250000
8051		35.156250
8052		31.250000
8053		39.062500
8054		35.156250
8055		39.062500
8056		35.156250
8057		39.062500
8058		35.156250
8059		39.062500
8060		39.062500
8061		42.968750
8062		39.062500
8063		42.968750
8064		39.062500
8065		42.968750
8066		39.062500
8067		42.968750
8068		39.062500
8069		46.875000
8070		42.968750
8071		46.875000
8072		42.968750
8073		46.875000
8074		42.968750
8075		46.875000
8076		46.875000
8077		50.781250
8078		46.875000
8079		50.781250
8080		46.875000
8081		50.781250
8082		50.781250
8083		54.687500
8084		50.781250
8085		54.687500
8086		50.781250
8087		54.687500
8088		50.781250
8089		54.687500
8090		54.687500
8091		58.593750
8092		54.687500
8093		58.593750
8094		54.687500
8095		58.593750
8096		54.687500
8097		58.593750
8098		54.687500
8099		58.593750
8100		58.593750
8101		62.500000
8102		58.593750
8103		62.500000
8104		58.593750
8105		62.500000
8106		58.593750
8107		62.500000
8108		62.500000
8109		66.406250
8110		62.500000
8111		66.406250
8112		62.500000
8113		66.406250
8114		62.500000
8115		66.406250
8116		62.500000
8117		66.406250
8118		62.500000
8119		70.312500
8120		66.406250
8121		70.312500
8122		66.406250
8123		70.312500
8124		66.406250
8125		70.312500
8126		66.406250
8127		70.312500
8128		66.406250
8129		70.312500
8130		66.406250
8131		74.218750
8132		70.312500
8133		74.218750
8134		70.312500
8135		74.218750
8136		70.312500
8137		74.218750
8138		70.312500
8139		74.218750
8140		70.312500
8141		74.218750
8142		70.312500
8143		74.218750
8144		70.312500
8145		78.125000
8146		74.218750
8147		78.125000
8148		74.218750
8149		78.125000
8150		74.218750
8151		78.125000
8152		74.218750
8153		78.125000
8154		74.218750
8155		78.125000
8156		74.218750
8157		78.125000
8158		74.218750
8159		78.125000
8160		74.218750
8161		78.125000
8162		74.218750
8163		78.125000
8164		74.218750
8165		78.125000
8166		74.218750
8167		78.125000
8168		74.218750
8169		78.125000
8170		74.218750
8171		78.125000
8172		74.218750
8173		78.125000
8174		74.218750
8175		78.125000
8176		74.218750
8177		78.125000
8178		74.218750
8179		78.125000
8180		74.218750
8181		78.125000
8182		74.218750
8183		78.125000
8184		74.218750
8185		78.125000
8186		74.218750
8187		78.125000
8188		74.218750
8189		78.125000
8190		74.218750
8191		78.125000
8192		74.218750
8193		78.125000
8194		74.218750
8195		78.125000
8196		74.218750
8197		78.125000
8198		74.218750
8199		78.125000
8200		74.218750
8201		78.125000
8202		74.218750
8203		74.218750
8204		74.218750
8205		78.125000
8206		70.312500
8207		74.218750
8208		70.312500
8209		74.218750
8210		70.312500
8211		74.218750
8212		70.312500
8213		74.218750
8214		70.312500
8215		74.218750
8216		70.312500
8217		74.218750
8218		70.312500
8219		70.312500
8220		66.406250
8221		74.218750
8222		66.406250
8223		70.312500
8224		66.406250
8225		70.312500
8226		66.406250
8227		70.312500
8228		66.406250
8229		70.312500
8230		66.406250
8231		70.312500
8232		62.500000
8233		66.406250
8234		62.500000
8235		66.406250
8236		62.500000
8237		66.406250
8238		62.500000
8239		66.406250
8240		62.500000
8241		66.406250
8242		58.593750
8243		62.500000
8244		58.593750
8245		62.500000
8246		58.593750
8247		62.500000
8248		58.593750
8249		62.500000
8250		58.593750
8251		58.593750
8252		54.687500
8253		58.593750
8254		54.687500
8255		58.593750
8256		54.687500
8257		58.593750
8258		50.781250
8259		58.593750
8260		50.781250
8261		54.687500
8262		50.781250
8263		54.687500
8264		50.781250
8265		54.687500
8266		46.875000
8267		50.781250
8268		46.875000
8269		50.781250
8270		46.875000
8271		50.781250
8272		46.875000
8273		50.781250
8274		42.968750
8275		46.875000
8276		42.968750
8277		46.875000
8278		42.968750
8279		46.875000
8280		42.968750
8281		46.875000
8282		39.062500
8283		42.968750
8284		39.062500
8285		42.968750
8286		39.062500
8287		42.968750
8288		39.062500
8289		42.968750
8290		35.156250
8291		39.062500
8292		35.156250
8293		39.062500
8294		35.156250
8295		39.062500
8296		35.156250
8297		39.062500
8298		31.250000
8299		35.156250
8300		31.250000
8301		35.156250
8302		31.250000
8303		35.156250
8304		31.250000
8305		31.250000
8306		27.343750
8307		31.250000
8308		27.343750
8309		31.250000
8310		27.343750
8311		31.250000
8312		27.343750
8313		27.343750
8314		23.437500
8315		27.343750
8316		23.437500
8317		27.343750
8318		23.437500
8319		27.343750
8320		19.531250
8321		23.437500
8322		19.531250
8323		23.437500
8324		19.531250
8325		23.437500
8326		19.531250
8327		23.437500
8328		19.531250
8329		23.437500
8330		19.531250
8331		19.531250
8332		15.625000
8333		19.531250
8334		15.625000
8335		19.531250
8336		15.625000
8337		19.531250
8338		15.625000
8339		19.531250
8340		15.625000
8341		19.531250
8342		15.625000
8343		15.625000
8344		11.718750
8345		15.625000
8346		11.718750
8347		15.625000
8348		11.718750
8349		15.625000
8350		11.718750
8351		15.625000
8352		11.718750
8353		15.625000
8354		11.718750
8355		15.625000
8356		11.718750
8357		15.625000
8358		11.718750
8359		15.625000
8360		11.718750
8361		11.718750
8362		7.812500
8363		11.718750
8364		7.812500
8365		11.718750
8366		7.812500
8367		15.625000
8368		7.812500
8369		11.718750
8370		7.812500
8371		11.718750
8372		7.812500
8373		11.718750
8374		7.812500
8375		11.718750
8376		7.812500
8377		11.718750
8378		7.812500
8379		11.718750
8380		7.812500
8381		11.718750
8382		7.812500
8383		11.718750
8384		7.812500
8385		11.718750
8386		7.812500
8387		11.718750
8388		7.812500
8389		11.718750
8390		11.718750
8391		15.625000
8392		11.718750
8393		11.718750
8394		11.718750
8395		15.625000
8396		11.718750
8397		15.625000
8398		11.718750
8399		15.625000
8400		11.718750
8401		15.625000
8402		11.718750
8403		15.625000
8404		11.718750
8405		15.625000
8406		11.718750
8407		15.625000
8408		11.718750
8409		15.625000
8410		15.625000
8411		19.531250
8412		15.625000
8413		19.531250
8414		15.625000
8415		19.531250
8416		15.625000
8417		19.531250
8418		15.625000
8419		19.531250
8420		15.625000
8421		19.531250
8422		19.531250
8423		23.437500
8424		19.531250
8425		23.437500
8426		19.531250
8427		23.437500
8428		19.531250
8429		23.437500
8430		19.531250
8431		23.437500
8432		23.437500
8433		27.343750
8434		23.437500
8435		27.343750
8436		23.437500
8437		27.343750
8438		23.437500
8439		27.343750
8440		27.343750
8441		27.343750
8442		27.343750
8443		31.250000
8444		27.343750
8445		31.250000
8446		27.343750
8447		35.156250
8448		27.343750
8449		31.250000
8450		31.250000
8451		35.156250
8452		31.250000
8453		35.156250
8454		31.250000
8455		35.156250
8456		31.250000
8457		39.062500
8458		35.156250
8459		39.062500
8460		35.156250
8461		39.062500
8462		35.156250
8463		39.062500
8464		35.156250
8465		42.968750
8466		39.062500
8467		42.968750
8468		39.062500
8469		42.968750
8470		39.062500
8471		42.968750
8472		42.968750
8473		46.875000
8474		42.968750
8475		46.875000
8476		42.968750
8477		46.875000
8478		46.875000
8479		46.875000
8480		46.875000
8481		50.781250
8482		46.875000
8483		50.781250
8484		46.875000
8485		50.781250
8486		50.781250
8487		50.781250
8488		50.781250
8489		54.687500
8490		50.781250
8491		54.687500
8492		50.781250
8493		54.687500
8494		54.687500
8495		58.593750
8496		54.687500
8497		58.593750
8498		54.687500
8499		58.593750
8500		54.687500
8501		58.593750
8502		58.593750
8503		58.593750
8504		58.593750
8505		62.500000
8506		58.593750
8507		62.500000
8508		58.593750
8509		62.500000
8510		58.593750
8511		62.500000
8512		62.500000
8513		66.406250
8514		62.500000
8515		66.406250
8516		62.500000
8517		66.406250
8518		62.500000
8519		66.406250
8520		66.406250
8521		66.406250
8522		66.406250
8523		70.312500
8524		66.406250
8525		70.312500
8526		66.406250
8527		70.312500
8528		66.406250
8529		70.312500
8530		66.406250
8531		70.312500
8532		66.406250
8533		74.218750
8534		70.312500
8535		74.218750
8536		70.312500
8537		74.218750
8538		70.312500
8539		74.218750
8540		70.312500
8541		74.218750
8542		70.312500
8543		74.218750
8544		70.312500
8545		74.218750
8546		70.312500
8547		74.218750
8548		74.218750
8549		74.218750
8550		74.218750
8551		78.125000
8552		74.218750
8553		78.125000
8554		74.218750
8555		78.125000
8556		74.218750
8557		78.125000
8558		74.218750
8559		78.125000
8560		74.218750
8561		78.125000
8562		74.218750
8563		78.125000
8564		74.218750
8565		78.125000
8566		74.218750
8567		78.125000
8568		74.218750
8569		78.125000
8570		74.218750
8571		78.125000
8572		74.218750
8573		78.125000
8574		74.218750
8575		78.125000
8576		74.218750
8577		78.125000
8578		74.218750
8579		78.125000
8580		74.218750
8581		78.125000
8582		74.218750
8583		78.125000
8584		74.218750
8585		78.125000
8586		74.218750
8587		78.125000
8588		74.218750
8589		78.125000
8590		74.218750
8591		78.125000
8592		74.218750
8593		78.125000
8594		74.218750
8595		78.125000
8596		74.218750
8597		78.125000
8598		74.218750
8599		78.125000
8600		74.218750
8601		78.125000
8602		74.218750
8603		78.125000
8604		74.218750
8605		74.218750
8606		70.312500
8607		74.218750
8608		70.312500
8609		74.218750
8610		70.312500
8611		74.218750
8612		70.312500
8613		74.218750
8614		70.312500
8615		74.218750
8616		70.312500
8617		74.218750
8618		66.406250
8619		74.218750
8620		70.312500
8621		70.312500
8622		70.312500
8623		74.218750
8624		66.406250
8625		70.312500
8626		66.406250
8627		70.312500
8628		66.406250
8629		70.312500
8630		66.406250
8631		70.312500
8632		66.406250
8633		70.312500
8634		66.406250
8635		66.406250
8636		62.500000
8637		66.406250
8638		62.500000
8639		66.406250
8640		62.500000
8641		66.406250
8642		62.500000
8643		66.406250
8644		58.593750
8645		62.500000
8646		58.593750
8647		62.500000
8648		58.593750
8649		62.500000
8650		58.593750
8651		62.500000
8652		58.593750
8653		62.500000
8654		54.687500
8655		58.593750
8656		54.687500
8657		58.593750
8658		54.687500
8659		58.593750
8660		54.687500
8661		58.593750
8662		50.781250
8663		54.687500
8664		50.781250
8665		54.687500
8666		50.781250
8667		54.687500
8668		50.781250
8669		54.687500
8670		46.875000
8671		50.781250
8672		46.875000
8673		50.781250
8674		46.875000
8675		50.781250
8676		46.875000
8677		50.781250
8678		42.968750
8679		46.875000
8680		42.968750
8681		46.875000
8682		42.968750
8683		46.875000
8684		42.968750
8685		42.968750
8686		39.062500
8687		42.968750
8688		39.062500
8689		42.968750
8690		39.062500
8691		42.968750
8692		35.156250
8693		42.968750
8694		35.156250
8695		39.062500
8696		35.156250
8697		39.062500
8698		35.156250
8699		39.062500
8700		31.250000
8701		35.156250
8702		31.250000
8703		35.156250
8704		31.250000
8705		35.156250
8706		31.250000
8707		35.156250
8708		27.343750
8709		35.156250
8710		27.343750
8711		31.250000
8712		27.343750
8713		31.250000
8714		27.343750
8715		27.343750
8716		23.437500
8717		27.343750
8718		23.437500
8719		27.343750
8720		23.437500
8721		27.343750
8722		23.437500
8723		27.343750
8724		19.531250
8725		27.343750
8726		19.531250
8727		23.437500
8728		19.531250
8729		23.437500
8730		19.531250
8731		23.437500
8732		19.531250
8733		23.437500
8734		15.625000
8735		19.531250
8736		15.625000
8737		19.531250
8738		15.625000
8739		19.531250
8740		15.625000
8741		19.531250
8742		15.625000
8743		19.531250
8744		15.625000
8745		15.625000
8746		11.718750
8747		15.625000
8748		11.718750
8749		15.625000
8750		11.718750
8751		15.625000
8752		11.718750
8753		15.625000
8754		11.718750
8755		15.625000
8756		11.718750
8757		15.625000
8758		11.718750
8759		15.625000
8760		11.718750
8761		15.625000
8762		11.718750
8763		15.625000
8764		7.812500
8765		11.718750
8766		7.812500
8767		11.718750
8768		7.812500
8769		11.718750
8770		7.812500
8771		11.718750
8772		7.812500
8773		11.718750
8774		7.812500
8775		11.718750
8776		7.812500
8777		11.718750
8778		7.812500
8779		11.718750
8780		7.812500
8781		11.718750
8782		7.812500
8783		11.718750
8784		7.812500
8785		11.718750
8786		7.812500
8787		11.718750
8788		7.812500
8789		11.718750
8790		11.718750
8791		11.718750
8792		7.812500
8793		15.625000
8794		11.718750
8795		15.625000
8796		11.718750
8797		15.625000
8798		11.718750
8799		15.625000
8800		11.718750
8801		15.625000
8802		11.718750
8803		15.625000
8804		11.718750
8805		15.625000
8806		11.718750
8807		15.625000
8808		11.718750
8809		15.625000
8810		11.718750
8811		15.625000
8812		15.625000
8813		15.625000
8814		15.625000
8815		15.625000
8816		15.625000
8817		19.531250
8818		15.625000
8819		19.531250
8820		15.625000
8821		19.531250
8822		15.625000
8823		19.531250
8824		15.625000
8825		23.437500
8826		19.531250
8827		23.437500
8828		19.531250
8829		23.437500
8830		19.531250
8831		23.437500
8832		19.531250
8833		23.437500
8834		19.531250
8835		23.437500
8836		23.437500
8837		27.343750
8838		23.437500
8839		27.343750
8840		23.437500
8841		27.343750
8842		23.437500
8843		27.343750
8844		27.343750
8845		31.250000
8846		27.343750
8847		31.250000
8848		27.343750
8849		31.250000
8850		27.343750
8851		31.250000
8852		31.250000
8853		31.250000
8854		27.343750
8855		35.156250
8856		31.250000
8857		35.156250
8858		31.250000
8859		35.156250
8860		35.156250
8861		39.062500
8862		35.156250
8863		39.062500
8864		35.156250
8865		39.062500
8866		35.156250
8867		39.062500
8868		39.062500
8869		42.968750
8870		39.062500
8871		42.968750
8872		39.062500
8873		42.968750
8874		39.062500
8875		42.968750
8876		42.968750
8877		46.875000
8878		42.968750
8879		46.875000
8880		42.968750
8881		46.875000
8882		42.968750
8883		50.781250
8884		46.875000
8885		50.781250
8886		46.875000
8887		50.781250
8888		46.875000
8889		50.781250
8890		50.781250
8891		50.781250
8892		50.781250
8893		54.687500
8894		50.781250
8895		54.687500
8896		50.781250
8897		54.687500
8898		54.687500
8899		54.687500
8900		54.687500
8901		58.593750
8902		54.687500
8903		58.593750
8904		54.687500
8905		58.593750
8906		58.593750
8907		58.593750
8908		58.593750
8909		62.500000
8910		58.593750
8911		62.500000
8912		58.593750
8913		62.500000
8914		58.593750
8915		62.500000
8916		62.500000
8917		66.406250
8918		62.500000
8919		66.406250
8920		62.500000
8921		66.406250
8922		62.500000
8923		66.406250
8924		62.500000
8925		66.406250
8926		62.500000
8927		66.406250
8928		66.406250
8929		70.312500
8930		66.406250
8931		70.312500
8932		66.406250
8933		70.312500
8934		66.406250
8935		70.312500
8936		66.406250
8937		70.312500
8938		70.312500
8939		74.218750
8940		70.312500
8941		74.218750
8942		70.312500
8943		74.218750
8944		70.312500
8945		74.218750
8946		70.312500
8947		74.218750
8948		70.312500
8949		74.218750
8950		70.312500
8951		74.218750
8952		74.218750
8953		74.218750
8954		70.312500
8955		78.125000
8956		74.218750
8957		74.218750
8958		74.218750
8959		78.125000
8960		74.218750
8961		78.125000
8962		74.218750
8963		78.125000
8964		74.218750
8965		78.125000
8966		74.218750
8967		78.125000
8968		74.218750
8969		78.125000
8970		74.218750
8971		78.125000
8972		74.218750
8973		78.125000
8974		74.218750
8975		78.125000
8976		74.218750
8977		78.125000
8978		74.218750
8979		78.125000
8980		74.218750
8981		78.125000
8982		74.218750
8983		78.125000
8984		74.218750
8985		78.125000
8986		74.218750
8987		78.125000
8988		74.218750
8989		78.125000
8990		74.218750
8991		78.125000
8992		74.218750
8993		78.125000
8994		74.218750
8995		78.125000
8996		74.218750
8997		78.125000
8998		74.218750
8999		78.125000
9000		74.218750
9001		78.125000
9002		74.218750
9003		78.125000
9004		74.218750
9005		78.125000
9006		74.218750
9007		78.125000
9008		74.218750
9009		74.218750
9010		70.312500
9011		74.218750
9012		70.312500
9013		74.218750
9014		70.312500
9015		74.218750
9016		70.312500
9017		74.218750
9018		70.312500
9019		74.218750
9020		70.312500
9021		74.218750
9022		70.312500
9023		74.218750
9024		70.312500
9025		74.218750
9026		66.406250
9027		70.312500
9028		66.406250
9029		70.312500
9030		66.406250
9031		70.312500
9032		66.406250
9033		70.312500
9034		66.406250
9035		70.312500
9036		66.406250
9037		70.312500
9038		62.500000
9039		66.406250
9040		62.500000
9041		66.406250
9042		62.500000
9043		66.406250
9044		62.500000
9045		66.406250
9046		62.500000
9047		66.406250
9048		58.593750
9049		62.500000
9050		58.593750
9051		62.500000
9052		58.593750
9053		62.500000
9054		58.593750
9055		62.500000
9056		54.687500
9057		62.500000
9058		54.687500
9059		58.593750
9060		54.687500
9061		58.593750
9062		54.687500
9063		58.593750
9064		54.687500
9065		54.687500
9066		50.781250
9067		54.687500
9068		50.781250
9069		54.687500
9070		50.781250
9071		54.687500
9072		46.875000
9073		54.687500
9074		46.875000
9075		50.781250
9076		46.875000
9077		50.781250
9078		46.875000
9079		50.781250
9080		46.875000
9081		50.781250
9082		42.968750
9083		46.875000
9084		42.968750
9085		46.875000
9086		42.968750
9087		46.875000
9088		39.062500
9089		42.968750
9090		39.062500
9091		42.968750
9092		39.062500
9093		42.968750
9094		39.062500
9095		42.968750
9096		35.156250
9097		39.062500
9098		35.156250
9099		39.062500
9100		35.156250
9101		39.062500
9102		31.250000
9103		39.062500
9104		31.250000
9105		35.156250
9106		31.250000
9107		35.156250
9108		31.250000
9109		35.156250
9110		27.343750
9111		35.156250
9112		27.343750
9113		31.250000
9114		27.343750
9115		31.250000
9116		27.343750
9117		31.250000
9118		27.343750
9119		27.343750
9120		23.437500
9121		27.343750
9122		23.437500
9123		27.343750
9124		23.437500
9125		27.343750
9126		23.437500
9127		23.437500
9128		19.531250
9129		23.437500
9130		19.531250
9131		23.437500
9132		19.531250
9133		23.437500
9134		19.531250
9135		23.437500
9136		19.531250
9137		23.437500
9138		15.625000
9139		19.531250
9140		15.625000
9141		19.531250
9142		15.625000
9143		19.531250
9144		15.625000
9145		19.531250
9146		15.625000
9147		15.625000
9148		15.625000
9149		15.625000
9150		11.718750
9151		15.625000
9152		11.718750
9153		15.625000
9154		11.718750
9155		15.625000
9156		11.718750
9157		15.625000
9158		11.718750
9159		15.625000
9160		11.718750
9161		11.718750
9162		11.718750
9163		15.625000
9164		7.812500
9165		15.625000
9166		11.718750
9167		11.718750
9168		7.812500
9169		11.718750
9170		7.812500
9171		11.718750
9172		7.812500
9173		11.718750
9174		7.812500
9175		11.718750
9176		7.812500
9177		11.718750
9178		7.812500
9179		11.718750
9180		7.812500
9181		11.718750
9182		7.812500
9183		11.718750
9184		7.812500
9185		11.718750
9186		7.812500
9187		11.718750
9188		7.812500
9189		11.718750
9190		7.812500
9191		11.718750
9192		7.812500
9193		11.718750
9194		7.812500
9195		11.718750
9196		7.812500
9197		11.718750
9198		7.812500
9199		11.718750
9200		7.812500
9201		11.718750
9202		7.812500
9203		11.718750
9204		11.718750
9205		15.625000
9206		11.718750
9207		15.625000
9208		11.718750
9209		15.625000
9210		11.718750
9211		15.625000
9212		11.718750
9213		15.625000
9214		11.718750
9215		15.625000
9216		11.718750
9217		15.625000
9218		15.625000
9219		15.625000
9220		15.625000
9221		19.531250
9222		15.625000
9223		19.531250
9224		15.625000
9225		19.531250
9226		15.625000
9227		19.531250
9228		15.625000
9229		19.531250
9230		19.531250
9231		19.531250
9232		19.531250
9233		23.437500
9234		19.531250
9235		23.437500
9236		19.531250
9237		23.437500
9238		19.531250
9239		23.437500
9240		19.531250
9241		23.437500
9242		23.437500
9243		27.343750
9244		23.437500
9245		27.343750
9246		23.437500
9247		27.343750
9248		23.437500
9249		31.250000
9250		27.343750
9251		31.250000
9252		27.343750
9253		31.250000
9254		27.343750
9255		31.250000
9256		27.343750
9257		35.156250
9258		31.250000
9259		35.156250
9260		31.250000
9261		35.156250
9262		31.250000
9263		35.156250
9264		31.250000
9265		35.156250
9266		35.156250
9267		39.062500
9268		35.156250
9269		39.062500
9270		35.156250
9271		39.062500
9272		35.156250
9273		42.968750
9274		39.062500
9275		42.968750
9276		39.062500
9277		42.968750
9278		39.062500
9279		42.968750
9280		42.968750
9281		46.875000
9282		42.968750
9283		46.875000
9284		42.968750
9285		46.875000
9286		42.968750
9287		46.875000
9288		46.875000
9289		50.781250
9290		46.875000
9291		50.781250
9292		46.875000
9293		50.781250
9294		50.781250
9295		50.781250
9296		50.781250
9297		54.687500
9298		50.781250
9299		54.687500
9300		50.781250
9301		54.687500
9302		54.687500
9303		54.687500
9304		54.687500
9305		58.593750
9306		54.687500
9307		58.593750
9308		54.687500
9309		58.593750
9310		54.687500
9311		58.593750
9312		58.593750
9313		62.500000
9314		58.593750
9315		62.500000
9316		58.593750
9317		62.500000
9318		58.593750
9319		62.500000
9320		58.593750
9321		66.406250
9322		62.500000
9323		66.406250
9324		62.500000
9325		66.406250
9326		62.500000
9327		66.406250
9328		62.500000
9329		66.406250
9330		66.406250
9331		70.312500
9332		66.406250
9333		70.312500
9334		66.406250
9335		70.312500
9336		66.406250
9337		70.312500
9338		66.406250
9339		70.312500
9340		66.406250
9341		70.312500
9342		66.406250
9343		70.312500
9344		70.312500
9345		74.218750
9346		70.312500
9347		74.218750
9348		70.312500
9349		74.218750
9350		70.312500
9351		74.218750
9352		70.312500
9353		74.218750
9354		70.312500
9355		74.218750
9356		70.312500
9357		74.218750
9358		74.218750
9359		78.125000
9360		74.218750
9361		78.125000
9362		74.218750
9363		78.125000
9364		74.218750
9365		78.125000
9366		74.218750
9367		78.125000
9368		74.218750
9369		78.125000
9370		74.218750
9371		78.125000
9372		74.218750
9373		78.125000
9374		74.218750
9375		78.125000
9376		74.218750
9377		78.125000
9378		74.218750
9379		78.125000
9380		74.218750
9381		78.125000
9382		74.218750
9383		78.125000
9384		74.218750
9385		78.125000
9386		74.218750
9387		78.125000
9388		74.218750
9389		78.125000
9390		74.218750
9391		78.125000
9392		74.218750
9393		78.125000
9394		74.218750
9395		78.125000
9396		74.218750
9397		78.125000
9398		74.218750
9399		78.125000
9400		74.218750
9401		78.125000
9402		74.218750
9403		78.125000
9404		74.218750
9405		78.125000
9406		74.218750
9407		78.125000
9408		74.218750
9409		78.125000
9410		74.218750
9411		74.218750
9412		74.218750
9413		74.218750
9414		70.312500
9415		74.218750
9416		70.312500
9417		74.218750
9418		70.312500
9419		74.218750
9420		70.312500
9421		74.218750
9422		70.312500
9423		74.218750
9424		70.312500
9425		74.218750
9426		70.312500
9427		74.218750
9428		70.312500
9429		70.312500
9430		66.406250
9431		70.312500
9432		66.406250
9433		70.312500
9434		66.406250
9435		70.312500
9436		66.406250
9437		70.312500
9438		66.406250
9439		70.312500
9440		62.500000
9441		66.406250
9442		62.500000
9443		66.406250
9444		62.500000
9445		66.406250
9446		62.500000
9447		66.406250
9448		62.500000
9449		66.406250
9450		58.593750
9451		62.500000
9452		58.593750
9453		62.500000
9454		58.593750
9455		62.500000
9456		58.593750
9457		62.500000
9458		54.687500
9459		62.500000
9460		54.687500
9461		58.593750
9462		54.687500
9463		58.593750
9464		54.687500
9465		58.593750
9466		50.781250
9467		54.687500
9468		50.781250
9469		54.687500
9470		50.781250
9471		54.687500
9472		50.781250
9473		54.687500
9474		50.781250
9475		50.781250
9476		46.875000
9477		50.781250
9478		46.875000
9479		50.781250
9480		46.875000
9481		50.781250
9482		42.968750
9483		50.781250
9484		42.968750
9485		46.875000
9486		42.968750
9487		46.875000
9488		42.968750
9489		46.875000
9490		39.062500
9491		46.875000
9492		39.062500
9493		42.968750
9494		39.062500
9495		42.968750
9496		39.062500
9497		42.968750
9498		35.156250
9499		39.062500
9500		35.156250
9501		39.062500
9502		35.156250
9503		39.062500
9504		35.156250
9505		39.062500
9506		31.250000
9507		35.156250
9508		31.250000
9509		35.156250
9510		31.250000
9511		35.156250
9512		31.250000
9513		35.156250
9514		27.343750
9515		31.250000
9516		27.343750
9517		31.250000
9518		27.343750
9519		31.250000
9520		27.343750
9521		27.343750
9522		23.437500
9523		27.343750
9524		23.437500
9525		27.343750
9526		23.437500
9527		27.343750
9528		23.437500
9529		27.343750
9530		19.531250
9531		27.343750
9532		19.531250
9533		23.437500
9534		19.531250
9535		23.437500
9536		19.531250
9537		23.437500
9538		19.531250
9539		23.437500
9540		15.625000
9541		19.531250
9542		15.625000
9543		19.531250
9544		15.625000
9545		19.531250
9546		15.625000
9547		19.531250
9548		15.625000
9549		19.531250
9550		15.625000
9551		15.625000
9552		11.718750
9553		15.625000
9554		11.718750
9555		15.625000
9556		11.718750
9557		15.625000
9558		11.718750
9559		15.625000
9560		11.718750
9561		15.625000
9562		11.718750
9563		15.625000
9564		11.718750
9565		15.625000
9566		11.718750
9567		15.625000
9568		7.812500
9569		15.625000
9570		7.812500
9571		11.718750
9572		7.812500
9573		11.718750
9574		7.812500
9575		11.718750
9576		7.812500
9577		11.718750
9578		7.812500
9579		11.718750
9580		7.812500
9581		11.718750
9582		7.812500
9583		11.718750
9584		7.812500
9585		11.718750
9586		7.812500
9587		11.718750
9588		7.812500
9589		11.718750
9590		7.812500
9591		11.718750
9592		7.812500
9593		11.718750
9594		7.812500
9595		11.718750
9596		7.812500
9597		11.718750
9598		7.812500
9599		11.718750
9600		7.812500
9601		11.718750
9602		11.718750
9603		11.718750
9604		11.718750
9605		11.718750
9606		11.718750
9607		15.625000
9608		11.718750
9609		15.625000
9610		11.718750
9611		15.625000
9612		11.718750
9613		15.625000
9614		11.718750
9615		15.625000
9616		11.718750
9617		15.625000
9618		11.718750
9619		15.625000
9620		11.718750
9621		15.625000
9622		11.718750
9623		15.625000
9624		15.625000
9625		19.531250
9626		15.625000
9627		19.531250
9628		15.625000
9629		19.531250
9630		15.625000
9631		19.531250
9632		15.625000
9633		19.531250
9634		19.531250
9635		23.437500
9636		19.531250
9637		23.437500
9638		19.531250
9639		23.437500
9640		19.531250
9641		23.437500
9642		19.531250
9643		23.437500
9644		23.437500
9645		27.343750
9646		23.437500
9647		27.343750
9648		23.437500
9649		27.343750
9650		23.437500
9651		27.343750
9652		27.343750
9653		27.343750
9654		27.343750
9655		31.250000
9656		27.343750
9657		31.250000
9658		27.343750
9659		31.250000
9660		27.343750
9661		35.156250
9662		31.250000
9663		35.156250
9664		31.250000
9665		35.156250
9666		31.250000
9667		35.156250
9668		35.156250
9669		35.156250
9670		35.156250
9671		39.062500
9672		35.156250
9673		39.062500
9674		35.156250
9675		39.062500
9676		39.062500
9677		42.968750
9678		39.062500
9679		42.968750
9680		39.062500
9681		42.968750
9682		39.062500
9683		42.968750
9684		42.968750
9685		46.875000
9686		42.968750
9687		46.875000
9688		42.968750
9689		46.875000
9690		42.968750
9691		46.875000
9692		46.875000
9693		50.781250
9694		46.875000
9695		50.781250
9696		46.875000
9697		50.781250
9698		50.781250
9699		50.781250
9700		50.781250
9701		54.687500
9702		50.781250
9703		54.687500
9704		50.781250
9705		54.687500
9706		54.687500
9707		58.593750
9708		54.687500
9709		58.593750
9710		54.687500
9711		58.593750
9712		54.687500
9713		58.593750
9714		54.687500
9715		62.500000
9716		58.593750
9717		62.500000
9718		58.593750
9719		62.500000
9720		58.593750
9721		62.500000
9722		58.593750
9723		62.500000
9724		62.500000
9725		66.406250
9726		62.500000
9727		66.406250
9728		62.500000
9729		66.406250
9730		62.500000
9731		66.406250
9732		62.500000
9733		66.406250
9734		62.500000
9735		70.312500
9736		66.406250
9737		70.312500
9738		66.406250
9739		70.312500
9740		66.406250
9741		70.312500
9742		66.406250
9743		70.312500
9744		66.406250
9745		70.312500
9746		70.312500
9747		70.312500
9748		70.312500
9749		70.312500
9750		70.312500
9751		74.218750
9752		70.312500
9753		74.218750
9754		70.312500
9755		74.218750
9756		70.312500
9757		74.218750
9758		70.312500
9759		74.218750
9760		70.312500
9761		74.218750
9762		70.312500
9763		74.218750
9764		74.218750
9765		74.218750
9766		74.218750
9767		78.125000
9768		74.218750
9769		78.125000
9770		74.218750
9771		78.125000
9772		74.218750
9773		78.125000
9774		74.218750
9775		78.125000
9776		74.218750
9777		78.125000
9778		74.218750
9779		78.125000
9780		74.218750
9781		78.125000
9782		74.218750
9783		78.125000
9784		74.218750
9785		78.125000
9786		74.218750
9787		78.125000
9788		74.218750
9789		78.125000
9790		74.218750
9791		78.125000
9792		74.218750
9793		78.125000
9794		74.218750
9795		78.125000
9796		74.218750
9797		78.125000
9798		74.218750
9799		78.125000
9800		74.218750
9801		78.125000
9802		74.218750
9803		78.125000
9804		74.218750
9805		78.125000
9806		74.218750
9807		78.125000
9808		74.218750
9809		78.125000
9810		74.218750
9811		78.125000
9812		70.312500
9813		78.125000
9814		74.218750
9815		74.218750
9816		70.312500
9817		78.125000
9818		70.312500
9819		74.218750
9820		70.312500
9821		74.218750
9822		70.312500
9823		74.218750
9824		70.312500
9825		74.218750
9826		70.312500
9827		74.218750
9828		66.406250
9829		74.218750
9830		70.312500
9831		70.312500
9832		66.406250
9833		70.312500
9834		66.406250
9835		70.312500
9836		66.406250
9837		70.312500
9838		66.406250
9839		70.312500
9840		66.406250
9841		70.312500
9842		66.406250
9843		70.312500
9844		62.500000
9845		66.406250
9846		62.500000
9847		66.406250
9848		62.500000
9849		66.406250
9850		62.500000
9851		66.406250
9852		62.500000
9853		66.406250
9854		58.593750
9855		66.406250
9856		58.593750
9857		62.500000
9858		58.593750
9859		62.500000
9860		58.593750
9861		62.500000
9862		54.687500
9863		58.593750
9864		54.687500
9865		58.593750
9866		54.687500
9867		58.593750
9868		54.687500
9869		58.593750
9870		50.781250
9871		58.593750
9872		50.781250
9873		54.687500
9874		50.781250
9875		54.687500
9876		50.781250
9877		54.687500
9878		46.875000
9879		50.781250
9880		46.875000
9881		54.687500
9882		46.875000
9883		50.781250
9884		46.875000
9885		50.781250
9886		42.968750
9887		50.781250
9888		42.968750
9889		46.875000
9890		42.968750
9891		46.875000
9892		42.968750
9893		46.875000
9894		39.062500
9895		42.968750
9896		39.062500
9897		42.968750
9898		39.062500
9899		42.968750
9900		35.156250
9901		42.968750
9902		35.156250
9903		39.062500
9904		35.156250
9905		39.062500
9906		35.156250
9907		39.062500
9908		35.156250
9909		39.062500
9910		31.250000
9911		35.156250
9912		31.250000
9913		35.156250
9914		31.250000
9915		35.156250
9916		31.250000
9917		35.156250
9918		27.343750
9919		31.250000
9920		27.343750
9921		31.250000
9922		27.343750
9923		31.250000
9924		27.343750
9925		31.250000
9926		23.437500
9927		27.343750
9928		23.437500
9929		27.343750
9930		23.437500
9931		27.343750
9932		23.437500
9933		27.343750
9934		19.531250
9935		23.437500
9936		19.531250
9937		23.437500
9938		19.531250
9939		23.437500
9940		19.531250
9941		23.437500
9942		19.531250
9943		23.437500
9944		15.625000
9945		19.531250
9946		15.625000
9947		19.531250
9948		15.625000
9949		19.531250
9950		15.625000
9951		19.531250
9952		15.625000
9953		19.531250
9954		15.625000
9955		15.625000
9956		11.718750
9957		15.625000
9958		11.718750
9959		15.625000
9960		11.718750
9961		15.625000
9962		11.718750
9963		15.625000
9964		11.718750
9965		15.625000
9966		11.718750
9967		15.625000
9968		11.718750
9969		15.625000
9970		11.718750
9971		15.625000
9972		7.812500
9973		11.718750
9974		7.812500
9975		11.718750
9976		7.812500
9977		11.718750
9978		7.812500
9979		11.718750
9980		7.812500
9981		11.718750
9982		7.812500
9983		11.718750
9984		7.812500
9985		11.718750
9986		7.812500
9987		11.718750
9988		7.812500
9989		11.718750
9990		7.812500
9991		11.718750
9992		7.812500
9993		11.718750
9994		7.812500
9995		11.718750
9996		7.812500
9997		11.718750
9998		7.812500
9999		11.718750
10000		7.812500
