Channel              :		CH1
Frequency            :		1.240kHz
Period               :		0.807ms
PK-PK                :		378.9mV
Probe attenuation    :		1X
Voltage per ADC value:		0.244141mV
Time interval        :		2.00000us

index		CH1_Voltage(mV)
1		-35.156250
2		-35.156250
3		-50.781250
4		-42.968750
5		-54.687500
6		-46.875000
7		-62.500000
8		-54.687500
9		-66.406250
10		-58.593750
11		-70.312500
12		-62.500000
13		-78.125000
14		-70.312500
15		-82.031250
16		-74.218750
17		-85.937500
18		-82.031250
19		-93.750000
20		-85.937500
21		-97.656250
22		-89.843750
23		-101.562500
24		-93.750000
25		-105.468750
26		-97.656250
27		-109.375000
28		-105.468750
29		-113.281250
30		-109.375000
31		-117.187500
32		-113.281250
33		-121.093750
34		-117.187500
35		-125.000000
36		-121.093750
37		-128.906250
38		-125.000000
39		-132.812500
40		-128.906250
41		-136.718750
42		-132.812500
43		-140.625000
44		-132.812500
45		-140.625000
46		-136.718750
47		-144.531250
48		-140.625000
49		-148.437500
50		-144.531250
51		-148.437500
52		-144.531250
53		-152.343750
54		-148.437500
55		-152.343750
56		-148.437500
57		-156.250000
58		-152.343750
59		-156.250000
60		-152.343750
61		-160.156250
62		-156.250000
63		-160.156250
64		-156.250000
65		-160.156250
66		-156.250000
67		-160.156250
68		-160.156250
69		-160.156250
70		-160.156250
71		-164.062500
72		-160.156250
73		-164.062500
74		-160.156250
75		-164.062500
76		-160.156250
77		-164.062500
78		-160.156250
79		-164.062500
80		-156.250000
81		-164.062500
82		-156.250000
83		-160.156250
84		-156.250000
85		-160.156250
86		-156.250000
87		-160.156250
88		-156.250000
89		-156.250000
90		-152.343750
91		-156.250000
92		-152.343750
93		-152.343750
94		-148.437500
95		-152.343750
96		-144.531250
97		-148.437500
98		-144.531250
99		-148.437500
100		-140.625000
101		-144.531250
102		-140.625000
103		-140.625000
104		-136.718750
105		-136.718750
106		-132.812500
107		-132.812500
108		-128.906250
109		-132.812500
110		-125.000000
111		-128.906250
112		-121.093750
113		-125.000000
114		-117.187500
115		-121.093750
116		-113.281250
117		-117.187500
118		-109.375000
119		-109.375000
120		-105.468750
121		-105.468750
122		-101.562500
123		-101.562500
124		-93.750000
125		-97.656250
126		-89.843750
127		-93.750000
128		-85.937500
129		-85.937500
130		-82.031250
131		-82.031250
132		-74.218750
133		-78.125000
134		-70.312500
135		-74.218750
136		-66.406250
137		-66.406250
138		-58.593750
139		-62.500000
140		-50.781250
141		-54.687500
142		-46.875000
143		-50.781250
144		-42.968750
145		-42.968750
146		-35.156250
147		-39.062500
148		-27.343750
149		-31.250000
150		-23.437500
151		-27.343750
152		-19.531250
153		-19.531250
154		-11.718750
155		-15.625000
156		-7.812500
157		-7.812500
158		0.000000
159		0.000000
160		3.906250
161		3.906250
162		11.718750
163		11.718750
164		19.531250
165		15.625000
166		23.437500
167		23.437500
168		31.250000
169		27.343750
170		35.156250
171		35.156250
172		42.968750
173		39.062500
174		46.875000
175		46.875000
176		54.687500
177		50.781250
178		58.593750
179		58.593750
180		66.406250
181		62.500000
182		70.312500
183		66.406250
184		74.218750
185		74.218750
186		82.031250
187		78.125000
188		85.937500
189		85.937500
190		93.750000
191		89.843750
192		97.656250
193		97.656250
194		101.562500
195		101.562500
196		109.375000
197		105.468750
198		113.281250
199		109.375000
200		117.187500
201		117.187500
202		121.093750
203		121.093750
204		128.906250
205		125.000000
206		132.812500
207		128.906250
208		136.718750
209		132.812500
210		140.625000
211		136.718750
212		144.531250
213		140.625000
214		148.437500
215		144.531250
216		152.343750
217		148.437500
218		156.250000
219		152.343750
220		160.156250
221		156.250000
222		164.062500
223		160.156250
224		164.062500
225		164.062500
226		167.968750
227		167.968750
228		171.875000
229		167.968750
230		175.781250
231		171.875000
232		179.687500
233		175.781250
234		179.687500
235		179.687500
236		183.593750
237		179.687500
238		187.500000
239		183.593750
240		187.500000
241		187.500000
242		191.406250
243		187.500000
244		191.406250
245		191.406250
246		195.312500
247		191.406250
248		195.312500
249		195.312500
250		199.218750
251		195.312500
252		199.218750
253		199.218750
254		199.218750
255		199.218750
256		203.125000
257		199.218750
258		203.125000
259		199.218750
260		207.031250
261		203.125000
262		207.031250
263		203.125000
264		207.031250
265		203.125000
266		207.031250
267		203.125000
268		207.031250
269		203.125000
270		207.031250
271		203.125000
272		210.937500
273		203.125000
274		207.031250
275		207.031250
276		207.031250
277		207.031250
278		207.031250
279		203.125000
280		207.031250
281		203.125000
282		207.031250
283		203.125000
284		207.031250
285		203.125000
286		207.031250
287		203.125000
288		207.031250
289		203.125000
290		207.031250
291		199.218750
292		203.125000
293		199.218750
294		203.125000
295		199.218750
296		203.125000
297		199.218750
298		203.125000
299		195.312500
300		199.218750
301		195.312500
302		199.218750
303		191.406250
304		199.218750
305		191.406250
306		195.312500
307		187.500000
308		195.312500
309		187.500000
310		191.406250
311		183.593750
312		187.500000
313		183.593750
314		187.500000
315		179.687500
316		183.593750
317		175.781250
318		183.593750
319		175.781250
320		179.687500
321		171.875000
322		175.781250
323		167.968750
324		171.875000
325		164.062500
326		175.781250
327		160.156250
328		167.968750
329		156.250000
330		164.062500
331		152.343750
332		160.156250
333		148.437500
334		156.250000
335		144.531250
336		152.343750
337		140.625000
338		148.437500
339		136.718750
340		144.531250
341		132.812500
342		140.625000
343		128.906250
344		136.718750
345		125.000000
346		132.812500
347		121.093750
348		125.000000
349		113.281250
350		121.093750
351		109.375000
352		117.187500
353		105.468750
354		113.281250
355		97.656250
356		105.468750
357		93.750000
358		101.562500
359		89.843750
360		97.656250
361		82.031250
362		89.843750
363		78.125000
364		85.937500
365		70.312500
366		78.125000
367		66.406250
368		74.218750
369		62.500000
370		66.406250
371		54.687500
372		62.500000
373		50.781250
374		58.593750
375		42.968750
376		50.781250
377		39.062500
378		42.968750
379		31.250000
380		39.062500
381		27.343750
382		35.156250
383		19.531250
384		27.343750
385		11.718750
386		19.531250
387		7.812500
388		15.625000
389		0.000000
390		7.812500
391		-3.906250
392		3.906250
393		-11.718750
394		-3.906250
395		-15.625000
396		-7.812500
397		-23.437500
398		-15.625000
399		-27.343750
400		-19.531250
401		-35.156250
402		-27.343750
403		-39.062500
404		-31.250000
405		-46.875000
406		-39.062500
407		-50.781250
408		-42.968750
409		-58.593750
410		-50.781250
411		-62.500000
412		-54.687500
413		-66.406250
414		-62.500000
415		-74.218750
416		-66.406250
417		-78.125000
418		-70.312500
419		-82.031250
420		-78.125000
421		-89.843750
422		-82.031250
423		-93.750000
424		-85.937500
425		-97.656250
426		-89.843750
427		-101.562500
428		-97.656250
429		-109.375000
430		-101.562500
431		-113.281250
432		-105.468750
433		-117.187500
434		-109.375000
435		-121.093750
436		-113.281250
437		-125.000000
438		-117.187500
439		-128.906250
440		-121.093750
441		-132.812500
442		-125.000000
443		-132.812500
444		-128.906250
445		-136.718750
446		-132.812500
447		-140.625000
448		-136.718750
449		-144.531250
450		-140.625000
451		-148.437500
452		-140.625000
453		-148.437500
454		-144.531250
455		-152.343750
456		-148.437500
457		-152.343750
458		-148.437500
459		-156.250000
460		-152.343750
461		-156.250000
462		-152.343750
463		-160.156250
464		-156.250000
465		-160.156250
466		-156.250000
467		-164.062500
468		-156.250000
469		-164.062500
470		-160.156250
471		-164.062500
472		-160.156250
473		-164.062500
474		-160.156250
475		-164.062500
476		-160.156250
477		-164.062500
478		-160.156250
479		-164.062500
480		-160.156250
481		-164.062500
482		-160.156250
483		-164.062500
484		-160.156250
485		-164.062500
486		-160.156250
487		-160.156250
488		-156.250000
489		-160.156250
490		-156.250000
491		-160.156250
492		-156.250000
493		-160.156250
494		-152.343750
495		-156.250000
496		-152.343750
497		-156.250000
498		-148.437500
499		-152.343750
500		-148.437500
501		-148.437500
502		-144.531250
503		-148.437500
504		-140.625000
505		-144.531250
506		-140.625000
507		-144.531250
508		-136.718750
509		-136.718750
510		-132.812500
511		-136.718750
512		-128.906250
513		-132.812500
514		-125.000000
515		-128.906250
516		-121.093750
517		-125.000000
518		-117.187500
519		-121.093750
520		-113.281250
521		-117.187500
522		-109.375000
523		-109.375000
524		-105.468750
525		-105.468750
526		-101.562500
527		-101.562500
528		-97.656250
529		-97.656250
530		-89.843750
531		-93.750000
532		-85.937500
533		-89.843750
534		-78.125000
535		-82.031250
536		-74.218750
537		-78.125000
538		-70.312500
539		-70.312500
540		-62.500000
541		-66.406250
542		-58.593750
543		-58.593750
544		-54.687500
545		-54.687500
546		-46.875000
547		-50.781250
548		-42.968750
549		-42.968750
550		-35.156250
551		-39.062500
552		-27.343750
553		-31.250000
554		-23.437500
555		-27.343750
556		-19.531250
557		-19.531250
558		-11.718750
559		-15.625000
560		-7.812500
561		-7.812500
562		0.000000
563		0.000000
564		7.812500
565		3.906250
566		11.718750
567		11.718750
568		19.531250
569		15.625000
570		23.437500
571		23.437500
572		31.250000
573		27.343750
574		35.156250
575		31.250000
576		42.968750
577		39.062500
578		46.875000
579		46.875000
580		54.687500
581		50.781250
582		58.593750
583		58.593750
584		66.406250
585		62.500000
586		70.312500
587		70.312500
588		74.218750
589		74.218750
590		82.031250
591		78.125000
592		85.937500
593		85.937500
594		93.750000
595		89.843750
596		97.656250
597		93.750000
598		101.562500
599		101.562500
600		109.375000
601		105.468750
602		113.281250
603		109.375000
604		117.187500
605		113.281250
606		121.093750
607		121.093750
608		128.906250
609		125.000000
610		132.812500
611		128.906250
612		136.718750
613		132.812500
614		140.625000
615		136.718750
616		144.531250
617		140.625000
618		148.437500
619		144.531250
620		152.343750
621		148.437500
622		156.250000
623		152.343750
624		160.156250
625		156.250000
626		164.062500
627		160.156250
628		167.968750
629		164.062500
630		167.968750
631		167.968750
632		171.875000
633		167.968750
634		175.781250
635		171.875000
636		179.687500
637		175.781250
638		179.687500
639		179.687500
640		183.593750
641		179.687500
642		187.500000
643		183.593750
644		187.500000
645		187.500000
646		191.406250
647		187.500000
648		195.312500
649		191.406250
650		195.312500
651		191.406250
652		195.312500
653		191.406250
654		199.218750
655		195.312500
656		199.218750
657		195.312500
658		203.125000
659		199.218750
660		203.125000
661		199.218750
662		203.125000
663		199.218750
664		207.031250
665		199.218750
666		207.031250
667		203.125000
668		207.031250
669		203.125000
670		207.031250
671		203.125000
672		207.031250
673		203.125000
674		207.031250
675		203.125000
676		207.031250
677		203.125000
678		210.937500
679		207.031250
680		207.031250
681		207.031250
682		210.937500
683		203.125000
684		207.031250
685		203.125000
686		207.031250
687		203.125000
688		207.031250
689		203.125000
690		207.031250
691		203.125000
692		207.031250
693		203.125000
694		207.031250
695		199.218750
696		203.125000
697		199.218750
698		203.125000
699		199.218750
700		203.125000
701		195.312500
702		203.125000
703		195.312500
704		199.218750
705		195.312500
706		199.218750
707		191.406250
708		195.312500
709		191.406250
710		195.312500
711		187.500000
712		191.406250
713		187.500000
714		191.406250
715		183.593750
716		187.500000
717		179.687500
718		187.500000
719		179.687500
720		183.593750
721		175.781250
722		179.687500
723		171.875000
724		179.687500
725		171.875000
726		175.781250
727		167.968750
728		171.875000
729		164.062500
730		167.968750
731		160.156250
732		167.968750
733		156.250000
734		164.062500
735		152.343750
736		160.156250
737		148.437500
738		156.250000
739		144.531250
740		152.343750
741		140.625000
742		148.437500
743		136.718750
744		144.531250
745		132.812500
746		136.718750
747		128.906250
748		132.812500
749		121.093750
750		128.906250
751		117.187500
752		125.000000
753		113.281250
754		121.093750
755		109.375000
756		117.187500
757		105.468750
758		109.375000
759		97.656250
760		105.468750
761		93.750000
762		101.562500
763		89.843750
764		93.750000
765		78.125000
766		89.843750
767		78.125000
768		85.937500
769		70.312500
770		78.125000
771		66.406250
772		74.218750
773		58.593750
774		66.406250
775		54.687500
776		62.500000
777		46.875000
778		58.593750
779		42.968750
780		50.781250
781		35.156250
782		42.968750
783		27.343750
784		39.062500
785		23.437500
786		31.250000
787		19.531250
788		27.343750
789		11.718750
790		19.531250
791		7.812500
792		15.625000
793		-3.906250
794		7.812500
795		-7.812500
796		3.906250
797		-11.718750
798		-3.906250
799		-19.531250
800		-7.812500
801		-23.437500
802		-15.625000
803		-31.250000
804		-19.531250
805		-35.156250
806		-27.343750
807		-42.968750
808		-35.156250
809		-46.875000
810		-39.062500
811		-54.687500
812		-42.968750
813		-58.593750
814		-50.781250
815		-66.406250
816		-54.687500
817		-70.312500
818		-62.500000
819		-74.218750
820		-66.406250
821		-78.125000
822		-70.312500
823		-85.937500
824		-78.125000
825		-89.843750
826		-82.031250
827		-93.750000
828		-85.937500
829		-101.562500
830		-89.843750
831		-105.468750
832		-93.750000
833		-109.375000
834		-101.562500
835		-113.281250
836		-105.468750
837		-117.187500
838		-109.375000
839		-121.093750
840		-113.281250
841		-125.000000
842		-117.187500
843		-128.906250
844		-121.093750
845		-132.812500
846		-125.000000
847		-136.718750
848		-128.906250
849		-140.625000
850		-132.812500
851		-144.531250
852		-136.718750
853		-148.437500
854		-140.625000
855		-148.437500
856		-140.625000
857		-148.437500
858		-144.531250
859		-152.343750
860		-148.437500
861		-156.250000
862		-148.437500
863		-156.250000
864		-152.343750
865		-160.156250
866		-152.343750
867		-160.156250
868		-152.343750
869		-164.062500
870		-156.250000
871		-164.062500
872		-156.250000
873		-164.062500
874		-160.156250
875		-164.062500
876		-160.156250
877		-167.968750
878		-156.250000
879		-164.062500
880		-160.156250
881		-167.968750
882		-160.156250
883		-164.062500
884		-160.156250
885		-164.062500
886		-156.250000
887		-164.062500
888		-156.250000
889		-164.062500
890		-156.250000
891		-160.156250
892		-156.250000
893		-160.156250
894		-156.250000
895		-160.156250
896		-152.343750
897		-156.250000
898		-152.343750
899		-156.250000
900		-148.437500
901		-156.250000
902		-148.437500
903		-152.343750
904		-144.531250
905		-148.437500
906		-144.531250
907		-144.531250
908		-140.625000
909		-144.531250
910		-136.718750
911		-144.531250
912		-136.718750
913		-140.625000
914		-132.812500
915		-136.718750
916		-125.000000
917		-132.812500
918		-125.000000
919		-128.906250
920		-117.187500
921		-125.000000
922		-117.187500
923		-117.187500
924		-113.281250
925		-113.281250
926		-109.375000
927		-109.375000
928		-101.562500
929		-109.375000
930		-97.656250
931		-101.562500
932		-93.750000
933		-97.656250
934		-89.843750
935		-93.750000
936		-82.031250
937		-89.843750
938		-78.125000
939		-82.031250
940		-74.218750
941		-78.125000
942		-70.312500
943		-70.312500
944		-62.500000
945		-66.406250
946		-54.687500
947		-62.500000
948		-50.781250
949		-54.687500
950		-46.875000
951		-50.781250
952		-39.062500
953		-46.875000
954		-31.250000
955		-39.062500
956		-27.343750
957		-31.250000
958		-23.437500
959		-23.437500
960		-15.625000
961		-19.531250
962		-7.812500
963		-11.718750
964		-3.906250
965		-7.812500
966		3.906250
967		-3.906250
968		7.812500
969		3.906250
970		11.718750
971		7.812500
972		19.531250
973		15.625000
974		23.437500
975		23.437500
976		31.250000
977		27.343750
978		39.062500
979		31.250000
980		42.968750
981		39.062500
982		50.781250
983		46.875000
984		54.687500
985		50.781250
986		62.500000
987		54.687500
988		66.406250
989		62.500000
990		70.312500
991		70.312500
992		78.125000
993		74.218750
994		82.031250
995		78.125000
996		89.843750
997		85.937500
998		93.750000
999		89.843750
1000		101.562500
1001		93.750000
1002		105.468750
1003		101.562500
1004		109.375000
1005		105.468750
1006		113.281250
1007		113.281250
1008		117.187500
1009		113.281250
1010		125.000000
1011		121.093750
1012		128.906250
1013		125.000000
1014		132.812500
1015		128.906250
1016		136.718750
1017		132.812500
1018		144.531250
1019		136.718750
1020		148.437500
1021		140.625000
1022		152.343750
1023		144.531250
1024		152.343750
1025		152.343750
1026		156.250000
1027		156.250000
1028		160.156250
1029		156.250000
1030		164.062500
1031		160.156250
1032		167.968750
1033		164.062500
1034		171.875000
1035		167.968750
1036		175.781250
1037		167.968750
1038		179.687500
1039		171.875000
1040		179.687500
1041		175.781250
1042		183.593750
1043		179.687500
1044		183.593750
1045		179.687500
1046		187.500000
1047		183.593750
1048		191.406250
1049		183.593750
1050		191.406250
1051		187.500000
1052		195.312500
1053		191.406250
1054		195.312500
1055		191.406250
1056		199.218750
1057		195.312500
1058		199.218750
1059		195.312500
1060		199.218750
1061		195.312500
1062		203.125000
1063		195.312500
1064		203.125000
1065		199.218750
1066		207.031250
1067		199.218750
1068		207.031250
1069		199.218750
1070		207.031250
1071		203.125000
1072		207.031250
1073		203.125000
1074		210.937500
1075		203.125000
1076		207.031250
1077		203.125000
1078		210.937500
1079		203.125000
1080		210.937500
1081		203.125000
1082		210.937500
1083		203.125000
1084		210.937500
1085		203.125000
1086		210.937500
1087		203.125000
1088		210.937500
1089		203.125000
1090		210.937500
1091		203.125000
1092		207.031250
1093		203.125000
1094		207.031250
1095		203.125000
1096		210.937500
1097		199.218750
1098		207.031250
1099		199.218750
1100		207.031250
1101		199.218750
1102		207.031250
1103		199.218750
1104		207.031250
1105		195.312500
1106		203.125000
1107		195.312500
1108		203.125000
1109		195.312500
1110		199.218750
1111		191.406250
1112		199.218750
1113		187.500000
1114		195.312500
1115		187.500000
1116		195.312500
1117		183.593750
1118		191.406250
1119		183.593750
1120		191.406250
1121		179.687500
1122		187.500000
1123		179.687500
1124		187.500000
1125		175.781250
1126		183.593750
1127		175.781250
1128		179.687500
1129		167.968750
1130		175.781250
1131		164.062500
1132		175.781250
1133		164.062500
1134		171.875000
1135		160.156250
1136		167.968750
1137		156.250000
1138		164.062500
1139		152.343750
1140		160.156250
1141		148.437500
1142		156.250000
1143		144.531250
1144		152.343750
1145		140.625000
1146		148.437500
1147		136.718750
1148		144.531250
1149		128.906250
1150		140.625000
1151		125.000000
1152		136.718750
1153		121.093750
1154		132.812500
1155		117.187500
1156		125.000000
1157		113.281250
1158		121.093750
1159		109.375000
1160		117.187500
1161		101.562500
1162		109.375000
1163		97.656250
1164		105.468750
1165		89.843750
1166		101.562500
1167		85.937500
1168		97.656250
1169		82.031250
1170		89.843750
1171		74.218750
1172		85.937500
1173		70.312500
1174		82.031250
1175		66.406250
1176		74.218750
1177		58.593750
1178		66.406250
1179		54.687500
1180		62.500000
1181		46.875000
1182		58.593750
1183		39.062500
1184		50.781250
1185		35.156250
1186		46.875000
1187		27.343750
1188		39.062500
1189		23.437500
1190		35.156250
1191		19.531250
1192		27.343750
1193		11.718750
1194		19.531250
1195		3.906250
1196		15.625000
1197		0.000000
1198		11.718750
1199		-7.812500
1200		3.906250
1201		-11.718750
1202		-3.906250
1203		-19.531250
1204		-7.812500
1205		-23.437500
1206		-15.625000
1207		-27.343750
1208		-19.531250
1209		-35.156250
1210		-27.343750
1211		-39.062500
1212		-31.250000
1213		-46.875000
1214		-39.062500
1215		-54.687500
1216		-42.968750
1217		-58.593750
1218		-46.875000
1219		-66.406250
1220		-54.687500
1221		-66.406250
1222		-62.500000
1223		-74.218750
1224		-66.406250
1225		-78.125000
1226		-70.312500
1227		-85.937500
1228		-78.125000
1229		-89.843750
1230		-82.031250
1231		-93.750000
1232		-85.937500
1233		-101.562500
1234		-89.843750
1235		-105.468750
1236		-93.750000
1237		-109.375000
1238		-97.656250
1239		-113.281250
1240		-105.468750
1241		-117.187500
1242		-109.375000
1243		-121.093750
1244		-113.281250
1245		-125.000000
1246		-117.187500
1247		-128.906250
1248		-121.093750
1249		-132.812500
1250		-125.000000
1251		-136.718750
1252		-128.906250
1253		-140.625000
1254		-132.812500
1255		-144.531250
1256		-132.812500
1257		-144.531250
1258		-136.718750
1259		-144.531250
1260		-140.625000
1261		-148.437500
1262		-144.531250
1263		-152.343750
1264		-144.531250
1265		-156.250000
1266		-148.437500
1267		-156.250000
1268		-148.437500
1269		-160.156250
1270		-152.343750
1271		-160.156250
1272		-152.343750
1273		-160.156250
1274		-152.343750
1275		-160.156250
1276		-156.250000
1277		-160.156250
1278		-156.250000
1279		-164.062500
1280		-156.250000
1281		-164.062500
1282		-156.250000
1283		-164.062500
1284		-156.250000
1285		-164.062500
1286		-156.250000
1287		-164.062500
1288		-156.250000
1289		-164.062500
1290		-156.250000
1291		-164.062500
1292		-156.250000
1293		-160.156250
1294		-156.250000
1295		-160.156250
1296		-156.250000
1297		-160.156250
1298		-152.343750
1299		-160.156250
1300		-152.343750
1301		-156.250000
1302		-148.437500
1303		-156.250000
1304		-148.437500
1305		-156.250000
1306		-144.531250
1307		-152.343750
1308		-144.531250
1309		-148.437500
1310		-144.531250
1311		-144.531250
1312		-140.625000
1313		-140.625000
1314		-136.718750
1315		-140.625000
1316		-132.812500
1317		-136.718750
1318		-128.906250
1319		-136.718750
1320		-125.000000
1321		-132.812500
1322		-121.093750
1323		-128.906250
1324		-117.187500
1325		-125.000000
1326		-117.187500
1327		-117.187500
1328		-113.281250
1329		-113.281250
1330		-109.375000
1331		-109.375000
1332		-101.562500
1333		-105.468750
1334		-97.656250
1335		-101.562500
1336		-89.843750
1337		-97.656250
1338		-85.937500
1339		-89.843750
1340		-82.031250
1341		-89.843750
1342		-78.125000
1343		-82.031250
1344		-74.218750
1345		-74.218750
1346		-66.406250
1347		-70.312500
1348		-58.593750
1349		-66.406250
1350		-54.687500
1351		-58.593750
1352		-50.781250
1353		-54.687500
1354		-42.968750
1355		-46.875000
1356		-39.062500
1357		-42.968750
1358		-31.250000
1359		-39.062500
1360		-27.343750
1361		-27.343750
1362		-23.437500
1363		-23.437500
1364		-15.625000
1365		-19.531250
1366		-7.812500
1367		-11.718750
1368		0.000000
1369		-7.812500
1370		3.906250
1371		0.000000
1372		7.812500
1373		3.906250
1374		15.625000
1375		11.718750
1376		19.531250
1377		19.531250
1378		27.343750
1379		23.437500
1380		31.250000
1381		31.250000
1382		39.062500
1383		35.156250
1384		46.875000
1385		39.062500
1386		50.781250
1387		46.875000
1388		58.593750
1389		54.687500
1390		62.500000
1391		58.593750
1392		66.406250
1393		62.500000
1394		74.218750
1395		70.312500
1396		78.125000
1397		78.125000
1398		85.937500
1399		82.031250
1400		89.843750
1401		85.937500
1402		97.656250
1403		89.843750
1404		101.562500
1405		97.656250
1406		105.468750
1407		101.562500
1408		109.375000
1409		105.468750
1410		113.281250
1411		113.281250
1412		121.093750
1413		117.187500
1414		125.000000
1415		121.093750
1416		128.906250
1417		125.000000
1418		132.812500
1419		128.906250
1420		140.625000
1421		132.812500
1422		144.531250
1423		136.718750
1424		148.437500
1425		140.625000
1426		152.343750
1427		148.437500
1428		152.343750
1429		152.343750
1430		156.250000
1431		156.250000
1432		164.062500
1433		156.250000
1434		164.062500
1435		160.156250
1436		167.968750
1437		164.062500
1438		171.875000
1439		167.968750
1440		175.781250
1441		171.875000
1442		179.687500
1443		171.875000
1444		179.687500
1445		175.781250
1446		183.593750
1447		179.687500
1448		187.500000
1449		179.687500
1450		187.500000
1451		183.593750
1452		191.406250
1453		187.500000
1454		195.312500
1455		187.500000
1456		195.312500
1457		191.406250
1458		199.218750
1459		191.406250
1460		199.218750
1461		195.312500
1462		199.218750
1463		195.312500
1464		199.218750
1465		195.312500
1466		203.125000
1467		199.218750
1468		207.031250
1469		199.218750
1470		207.031250
1471		199.218750
1472		207.031250
1473		203.125000
1474		207.031250
1475		203.125000
1476		210.937500
1477		203.125000
1478		210.937500
1479		203.125000
1480		207.031250
1481		203.125000
1482		210.937500
1483		203.125000
1484		210.937500
1485		203.125000
1486		210.937500
1487		203.125000
1488		210.937500
1489		203.125000
1490		210.937500
1491		203.125000
1492		210.937500
1493		203.125000
1494		210.937500
1495		207.031250
1496		207.031250
1497		203.125000
1498		207.031250
1499		203.125000
1500		210.937500
1501		199.218750
1502		207.031250
1503		199.218750
1504		207.031250
1505		199.218750
1506		207.031250
1507		195.312500
1508		207.031250
1509		195.312500
1510		203.125000
1511		195.312500
1512		203.125000
1513		195.312500
1514		199.218750
1515		191.406250
1516		199.218750
1517		191.406250
1518		195.312500
1519		187.500000
1520		195.312500
1521		187.500000
1522		195.312500
1523		183.593750
1524		191.406250
1525		179.687500
1526		187.500000
1527		179.687500
1528		187.500000
1529		175.781250
1530		183.593750
1531		175.781250
1532		179.687500
1533		167.968750
1534		179.687500
1535		167.968750
1536		175.781250
1537		164.062500
1538		171.875000
1539		160.156250
1540		167.968750
1541		156.250000
1542		164.062500
1543		152.343750
1544		160.156250
1545		148.437500
1546		156.250000
1547		144.531250
1548		152.343750
1549		140.625000
1550		148.437500
1551		136.718750
1552		144.531250
1553		132.812500
1554		140.625000
1555		125.000000
1556		136.718750
1557		121.093750
1558		132.812500
1559		117.187500
1560		128.906250
1561		113.281250
1562		121.093750
1563		109.375000
1564		117.187500
1565		101.562500
1566		109.375000
1567		97.656250
1568		109.375000
1569		93.750000
1570		101.562500
1571		89.843750
1572		97.656250
1573		82.031250
1574		93.750000
1575		74.218750
1576		85.937500
1577		70.312500
1578		82.031250
1579		66.406250
1580		74.218750
1581		58.593750
1582		66.406250
1583		54.687500
1584		62.500000
1585		46.875000
1586		58.593750
1587		42.968750
1588		50.781250
1589		35.156250
1590		46.875000
1591		31.250000
1592		39.062500
1593		23.437500
1594		35.156250
1595		19.531250
1596		27.343750
1597		11.718750
1598		19.531250
1599		3.906250
1600		15.625000
1601		0.000000
1602		11.718750
1603		-3.906250
1604		3.906250
1605		-11.718750
1606		0.000000
1607		-19.531250
1608		-7.812500
1609		-23.437500
1610		-11.718750
1611		-27.343750
1612		-19.531250
1613		-35.156250
1614		-27.343750
1615		-42.968750
1616		-31.250000
1617		-46.875000
1618		-39.062500
1619		-54.687500
1620		-42.968750
1621		-58.593750
1622		-46.875000
1623		-62.500000
1624		-54.687500
1625		-70.312500
1626		-58.593750
1627		-74.218750
1628		-66.406250
1629		-78.125000
1630		-70.312500
1631		-82.031250
1632		-78.125000
1633		-89.843750
1634		-82.031250
1635		-93.750000
1636		-85.937500
1637		-97.656250
1638		-89.843750
1639		-105.468750
1640		-93.750000
1641		-109.375000
1642		-101.562500
1643		-113.281250
1644		-101.562500
1645		-117.187500
1646		-109.375000
1647		-121.093750
1648		-113.281250
1649		-125.000000
1650		-117.187500
1651		-128.906250
1652		-117.187500
1653		-132.812500
1654		-125.000000
1655		-136.718750
1656		-125.000000
1657		-136.718750
1658		-128.906250
1659		-140.625000
1660		-132.812500
1661		-144.531250
1662		-136.718750
1663		-144.531250
1664		-140.625000
1665		-148.437500
1666		-144.531250
1667		-152.343750
1668		-144.531250
1669		-152.343750
1670		-148.437500
1671		-156.250000
1672		-148.437500
1673		-156.250000
1674		-152.343750
1675		-160.156250
1676		-152.343750
1677		-160.156250
1678		-152.343750
1679		-160.156250
1680		-156.250000
1681		-160.156250
1682		-156.250000
1683		-164.062500
1684		-156.250000
1685		-164.062500
1686		-156.250000
1687		-164.062500
1688		-156.250000
1689		-164.062500
1690		-156.250000
1691		-164.062500
1692		-156.250000
1693		-164.062500
1694		-156.250000
1695		-164.062500
1696		-156.250000
1697		-160.156250
1698		-156.250000
1699		-160.156250
1700		-156.250000
1701		-160.156250
1702		-152.343750
1703		-160.156250
1704		-152.343750
1705		-156.250000
1706		-148.437500
1707		-156.250000
1708		-148.437500
1709		-152.343750
1710		-144.531250
1711		-152.343750
1712		-144.531250
1713		-148.437500
1714		-140.625000
1715		-144.531250
1716		-140.625000
1717		-140.625000
1718		-132.812500
1719		-140.625000
1720		-132.812500
1721		-136.718750
1722		-128.906250
1723		-132.812500
1724		-125.000000
1725		-128.906250
1726		-121.093750
1727		-125.000000
1728		-117.187500
1729		-121.093750
1730		-113.281250
1731		-117.187500
1732		-109.375000
1733		-113.281250
1734		-105.468750
1735		-109.375000
1736		-101.562500
1737		-105.468750
1738		-97.656250
1739		-101.562500
1740		-93.750000
1741		-93.750000
1742		-85.937500
1743		-89.843750
1744		-82.031250
1745		-85.937500
1746		-78.125000
1747		-78.125000
1748		-70.312500
1749		-74.218750
1750		-66.406250
1751		-70.312500
1752		-58.593750
1753		-66.406250
1754		-54.687500
1755		-58.593750
1756		-46.875000
1757		-54.687500
1758		-42.968750
1759		-46.875000
1760		-39.062500
1761		-42.968750
1762		-31.250000
1763		-35.156250
1764		-27.343750
1765		-27.343750
1766		-19.531250
1767		-23.437500
1768		-15.625000
1769		-19.531250
1770		-7.812500
1771		-11.718750
1772		0.000000
1773		-7.812500
1774		3.906250
1775		0.000000
1776		11.718750
1777		7.812500
1778		15.625000
1779		11.718750
1780		19.531250
1781		19.531250
1782		27.343750
1783		27.343750
1784		35.156250
1785		31.250000
1786		39.062500
1787		35.156250
1788		46.875000
1789		42.968750
1790		50.781250
1791		46.875000
1792		58.593750
1793		54.687500
1794		62.500000
1795		58.593750
1796		70.312500
1797		66.406250
1798		74.218750
1799		70.312500
1800		78.125000
1801		78.125000
1802		85.937500
1803		82.031250
1804		89.843750
1805		85.937500
1806		97.656250
1807		89.843750
1808		101.562500
1809		97.656250
1810		105.468750
1811		101.562500
1812		113.281250
1813		105.468750
1814		113.281250
1815		113.281250
1816		121.093750
1817		117.187500
1818		125.000000
1819		121.093750
1820		128.906250
1821		125.000000
1822		136.718750
1823		128.906250
1824		140.625000
1825		136.718750
1826		144.531250
1827		136.718750
1828		148.437500
1829		144.531250
1830		152.343750
1831		148.437500
1832		152.343750
1833		152.343750
1834		156.250000
1835		156.250000
1836		164.062500
1837		160.156250
1838		167.968750
1839		160.156250
1840		171.875000
1841		164.062500
1842		171.875000
1843		167.968750
1844		175.781250
1845		171.875000
1846		179.687500
1847		171.875000
1848		179.687500
1849		179.687500
1850		183.593750
1851		179.687500
1852		187.500000
1853		179.687500
1854		187.500000
1855		183.593750
1856		191.406250
1857		187.500000
1858		195.312500
1859		187.500000
1860		195.312500
1861		191.406250
1862		199.218750
1863		191.406250
1864		199.218750
1865		195.312500
1866		199.218750
1867		195.312500
1868		199.218750
1869		195.312500
1870		203.125000
1871		199.218750
1872		203.125000
1873		199.218750
1874		207.031250
1875		199.218750
1876		207.031250
1877		199.218750
1878		207.031250
1879		199.218750
1880		207.031250
1881		203.125000
1882		207.031250
1883		203.125000
1884		207.031250
1885		203.125000
1886		210.937500
1887		203.125000
1888		210.937500
1889		203.125000
1890		210.937500
1891		203.125000
1892		210.937500
1893		203.125000
1894		210.937500
1895		203.125000
1896		210.937500
1897		203.125000
1898		210.937500
1899		203.125000
1900		207.031250
1901		203.125000
1902		207.031250
1903		203.125000
1904		207.031250
1905		199.218750
1906		207.031250
1907		199.218750
1908		207.031250
1909		199.218750
1910		207.031250
1911		199.218750
1912		207.031250
1913		195.312500
1914		203.125000
1915		195.312500
1916		199.218750
1917		195.312500
1918		199.218750
1919		191.406250
1920		199.218750
1921		191.406250
1922		195.312500
1923		187.500000
1924		195.312500
1925		187.500000
1926		191.406250
1927		183.593750
1928		191.406250
1929		179.687500
1930		187.500000
1931		179.687500
1932		183.593750
1933		175.781250
1934		179.687500
1935		171.875000
1936		179.687500
1937		167.968750
1938		175.781250
1939		164.062500
1940		175.781250
1941		164.062500
1942		171.875000
1943		160.156250
1944		167.968750
1945		156.250000
1946		164.062500
1947		152.343750
1948		160.156250
1949		148.437500
1950		156.250000
1951		144.531250
1952		152.343750
1953		140.625000
1954		148.437500
1955		136.718750
1956		144.531250
1957		132.812500
1958		140.625000
1959		125.000000
1960		136.718750
1961		121.093750
1962		132.812500
1963		117.187500
1964		125.000000
1965		113.281250
1966		121.093750
1967		109.375000
1968		117.187500
1969		101.562500
1970		109.375000
1971		97.656250
1972		109.375000
1973		89.843750
1974		101.562500
1975		85.937500
1976		97.656250
1977		82.031250
1978		89.843750
1979		74.218750
1980		85.937500
1981		70.312500
1982		78.125000
1983		66.406250
1984		74.218750
1985		58.593750
1986		66.406250
1987		54.687500
1988		62.500000
1989		46.875000
1990		54.687500
1991		39.062500
1992		50.781250
1993		35.156250
1994		46.875000
1995		27.343750
1996		39.062500
1997		23.437500
1998		35.156250
1999		15.625000
2000		27.343750
2001		11.718750
2002		19.531250
2003		3.906250
2004		15.625000
2005		0.000000
2006		7.812500
2007		-7.812500
2008		3.906250
2009		-11.718750
2010		-3.906250
2011		-19.531250
2012		-7.812500
2013		-27.343750
2014		-15.625000
2015		-31.250000
2016		-19.531250
2017		-35.156250
2018		-27.343750
2019		-42.968750
2020		-35.156250
2021		-46.875000
2022		-39.062500
2023		-54.687500
2024		-42.968750
2025		-58.593750
2026		-46.875000
2027		-66.406250
2028		-54.687500
2029		-70.312500
2030		-58.593750
2031		-74.218750
2032		-66.406250
2033		-78.125000
2034		-74.218750
2035		-85.937500
2036		-78.125000
2037		-89.843750
2038		-82.031250
2039		-93.750000
2040		-85.937500
2041		-101.562500
2042		-89.843750
2043		-105.468750
2044		-93.750000
2045		-109.375000
2046		-101.562500
2047		-113.281250
2048		-105.468750
2049		-117.187500
2050		-109.375000
2051		-121.093750
2052		-113.281250
2053		-125.000000
2054		-117.187500
2055		-128.906250
2056		-121.093750
2057		-132.812500
2058		-125.000000
2059		-136.718750
2060		-128.906250
2061		-140.625000
2062		-128.906250
2063		-140.625000
2064		-132.812500
2065		-144.531250
2066		-136.718750
2067		-144.531250
2068		-140.625000
2069		-148.437500
2070		-144.531250
2071		-152.343750
2072		-144.531250
2073		-156.250000
2074		-144.531250
2075		-156.250000
2076		-148.437500
2077		-156.250000
2078		-148.437500
2079		-160.156250
2080		-152.343750
2081		-160.156250
2082		-152.343750
2083		-160.156250
2084		-156.250000
2085		-160.156250
2086		-156.250000
2087		-164.062500
2088		-156.250000
2089		-164.062500
2090		-156.250000
2091		-164.062500
2092		-156.250000
2093		-164.062500
2094		-156.250000
2095		-164.062500
2096		-156.250000
2097		-164.062500
2098		-156.250000
2099		-164.062500
2100		-156.250000
2101		-160.156250
2102		-156.250000
2103		-160.156250
2104		-152.343750
2105		-160.156250
2106		-152.343750
2107		-160.156250
2108		-152.343750
2109		-156.250000
2110		-148.437500
2111		-156.250000
2112		-148.437500
2113		-152.343750
2114		-144.531250
2115		-148.437500
2116		-144.531250
2117		-148.437500
2118		-140.625000
2119		-144.531250
2120		-140.625000
2121		-140.625000
2122		-132.812500
2123		-136.718750
2124		-132.812500
2125		-136.718750
2126		-128.906250
2127		-132.812500
2128		-125.000000
2129		-128.906250
2130		-121.093750
2131		-125.000000
2132		-117.187500
2133		-121.093750
2134		-113.281250
2135		-117.187500
2136		-109.375000
2137		-113.281250
2138		-101.562500
2139		-109.375000
2140		-97.656250
2141		-105.468750
2142		-93.750000
2143		-97.656250
2144		-89.843750
2145		-93.750000
2146		-85.937500
2147		-89.843750
2148		-82.031250
2149		-85.937500
2150		-74.218750
2151		-78.125000
2152		-70.312500
2153		-74.218750
2154		-66.406250
2155		-66.406250
2156		-58.593750
2157		-62.500000
2158		-54.687500
2159		-58.593750
2160		-46.875000
2161		-50.781250
2162		-42.968750
2163		-46.875000
2164		-35.156250
2165		-39.062500
2166		-31.250000
2167		-31.250000
2168		-23.437500
2169		-27.343750
2170		-19.531250
2171		-19.531250
2172		-11.718750
2173		-15.625000
2174		-3.906250
2175		-11.718750
2176		0.000000
2177		-3.906250
2178		3.906250
2179		0.000000
2180		11.718750
2181		7.812500
2182		19.531250
2183		11.718750
2184		23.437500
2185		19.531250
2186		27.343750
2187		27.343750
2188		35.156250
2189		31.250000
2190		42.968750
2191		39.062500
2192		46.875000
2193		42.968750
2194		54.687500
2195		46.875000
2196		58.593750
2197		54.687500
2198		66.406250
2199		62.500000
2200		70.312500
2201		66.406250
2202		74.218750
2203		74.218750
2204		82.031250
2205		78.125000
2206		85.937500
2207		82.031250
2208		93.750000
2209		85.937500
2210		97.656250
2211		93.750000
2212		101.562500
2213		97.656250
2214		109.375000
2215		101.562500
2216		113.281250
2217		109.375000
2218		117.187500
2219		113.281250
2220		121.093750
2221		121.093750
2222		128.906250
2223		121.093750
2224		132.812500
2225		128.906250
2226		136.718750
2227		128.906250
2228		140.625000
2229		136.718750
2230		144.531250
2231		140.625000
2232		148.437500
2233		144.531250
2234		152.343750
2235		148.437500
2236		156.250000
2237		152.343750
2238		160.156250
2239		156.250000
2240		164.062500
2241		160.156250
2242		167.968750
2243		164.062500
2244		171.875000
2245		164.062500
2246		175.781250
2247		167.968750
2248		175.781250
2249		171.875000
2250		179.687500
2251		175.781250
2252		179.687500
2253		179.687500
2254		183.593750
2255		179.687500
2256		187.500000
2257		183.593750
2258		191.406250
2259		183.593750
2260		191.406250
2261		187.500000
2262		195.312500
2263		187.500000
2264		195.312500
2265		191.406250
2266		199.218750
2267		195.312500
2268		199.218750
2269		195.312500
2270		199.218750
2271		199.218750
2272		203.125000
2273		199.218750
2274		203.125000
2275		199.218750
2276		207.031250
2277		199.218750
2278		207.031250
2279		199.218750
2280		207.031250
2281		203.125000
2282		210.937500
2283		203.125000
2284		210.937500
2285		207.031250
2286		207.031250
2287		207.031250
2288		210.937500
2289		203.125000
2290		210.937500
2291		203.125000
2292		210.937500
2293		203.125000
2294		210.937500
2295		207.031250
2296		210.937500
2297		207.031250
2298		210.937500
2299		203.125000
2300		210.937500
2301		207.031250
2302		210.937500
2303		207.031250
2304		207.031250
2305		203.125000
2306		207.031250
2307		203.125000
2308		210.937500
2309		203.125000
2310		207.031250
2311		199.218750
2312		207.031250
2313		199.218750
2314		207.031250
2315		199.218750
2316		207.031250
2317		195.312500
2318		203.125000
2319		195.312500
2320		199.218750
2321		195.312500
2322		199.218750
2323		191.406250
2324		199.218750
2325		191.406250
2326		199.218750
2327		187.500000
2328		195.312500
2329		187.500000
2330		195.312500
2331		183.593750
2332		191.406250
2333		179.687500
2334		187.500000
2335		179.687500
2336		183.593750
2337		175.781250
2338		183.593750
2339		171.875000
2340		179.687500
2341		167.968750
2342		175.781250
2343		164.062500
2344		175.781250
2345		160.156250
2346		171.875000
2347		160.156250
2348		167.968750
2349		156.250000
2350		164.062500
2351		152.343750
2352		160.156250
2353		148.437500
2354		156.250000
2355		144.531250
2356		152.343750
2357		140.625000
2358		148.437500
2359		136.718750
2360		144.531250
2361		132.812500
2362		140.625000
2363		125.000000
2364		136.718750
2365		121.093750
2366		132.812500
2367		117.187500
2368		128.906250
2369		113.281250
2370		121.093750
2371		109.375000
2372		117.187500
2373		101.562500
2374		109.375000
2375		97.656250
2376		105.468750
2377		89.843750
2378		101.562500
2379		85.937500
2380		97.656250
2381		78.125000
2382		89.843750
2383		74.218750
2384		85.937500
2385		70.312500
2386		82.031250
2387		66.406250
2388		74.218750
2389		58.593750
2390		66.406250
2391		50.781250
2392		62.500000
2393		46.875000
2394		54.687500
2395		39.062500
2396		50.781250
2397		35.156250
2398		46.875000
2399		27.343750
2400		39.062500
2401		23.437500
2402		35.156250
2403		19.531250
2404		27.343750
2405		11.718750
2406		19.531250
2407		3.906250
2408		15.625000
2409		-3.906250
2410		7.812500
2411		-7.812500
2412		3.906250
2413		-11.718750
2414		-3.906250
2415		-19.531250
2416		-7.812500
2417		-23.437500
2418		-11.718750
2419		-31.250000
2420		-19.531250
2421		-35.156250
2422		-27.343750
2423		-42.968750
2424		-35.156250
2425		-46.875000
2426		-35.156250
2427		-54.687500
2428		-42.968750
2429		-58.593750
2430		-50.781250
2431		-66.406250
2432		-54.687500
2433		-70.312500
2434		-58.593750
2435		-74.218750
2436		-66.406250
2437		-78.125000
2438		-70.312500
2439		-85.937500
2440		-78.125000
2441		-89.843750
2442		-82.031250
2443		-93.750000
2444		-85.937500
2445		-97.656250
2446		-89.843750
2447		-105.468750
2448		-93.750000
2449		-109.375000
2450		-97.656250
2451		-113.281250
2452		-105.468750
2453		-117.187500
2454		-109.375000
2455		-121.093750
2456		-113.281250
2457		-125.000000
2458		-117.187500
2459		-128.906250
2460		-121.093750
2461		-132.812500
2462		-125.000000
2463		-132.812500
2464		-125.000000
2465		-140.625000
2466		-128.906250
2467		-140.625000
2468		-132.812500
2469		-144.531250
2470		-136.718750
2471		-144.531250
2472		-140.625000
2473		-148.437500
2474		-140.625000
2475		-152.343750
2476		-144.531250
2477		-152.343750
2478		-144.531250
2479		-156.250000
2480		-148.437500
2481		-156.250000
2482		-148.437500
2483		-160.156250
2484		-152.343750
2485		-160.156250
2486		-152.343750
2487		-160.156250
2488		-156.250000
2489		-160.156250
2490		-156.250000
2491		-160.156250
2492		-156.250000
2493		-160.156250
2494		-156.250000
2495		-164.062500
2496		-156.250000
2497		-164.062500
2498		-156.250000
2499		-160.156250
2500		-156.250000
2501		-164.062500
2502		-156.250000
2503		-160.156250
2504		-156.250000
2505		-160.156250
2506		-156.250000
2507		-160.156250
2508		-152.343750
2509		-160.156250
2510		-152.343750
2511		-156.250000
2512		-148.437500
2513		-156.250000
2514		-148.437500
2515		-152.343750
2516		-144.531250
2517		-152.343750
2518		-144.531250
2519		-148.437500
2520		-144.531250
2521		-144.531250
2522		-140.625000
2523		-144.531250
2524		-136.718750
2525		-140.625000
2526		-132.812500
2527		-140.625000
2528		-128.906250
2529		-136.718750
2530		-125.000000
2531		-132.812500
2532		-121.093750
2533		-128.906250
2534		-121.093750
2535		-125.000000
2536		-117.187500
2537		-121.093750
2538		-113.281250
2539		-113.281250
2540		-109.375000
2541		-113.281250
2542		-101.562500
2543		-105.468750
2544		-97.656250
2545		-105.468750
2546		-93.750000
2547		-97.656250
2548		-89.843750
2549		-93.750000
2550		-82.031250
2551		-89.843750
2552		-78.125000
2553		-82.031250
2554		-74.218750
2555		-78.125000
2556		-70.312500
2557		-70.312500
2558		-62.500000
2559		-66.406250
2560		-58.593750
2561		-62.500000
2562		-50.781250
2563		-54.687500
2564		-46.875000
2565		-50.781250
2566		-39.062500
2567		-46.875000
2568		-35.156250
2569		-39.062500
2570		-31.250000
2571		-31.250000
2572		-23.437500
2573		-27.343750
2574		-19.531250
2575		-19.531250
2576		-11.718750
2577		-15.625000
2578		-3.906250
2579		-11.718750
2580		0.000000
2581		-3.906250
2582		7.812500
2583		3.906250
2584		11.718750
2585		7.812500
2586		19.531250
2587		15.625000
2588		23.437500
2589		23.437500
2590		31.250000
2591		27.343750
2592		39.062500
2593		31.250000
2594		42.968750
2595		39.062500
2596		50.781250
2597		42.968750
2598		54.687500
2599		50.781250
2600		62.500000
2601		54.687500
2602		66.406250
2603		62.500000
2604		70.312500
2605		70.312500
2606		78.125000
2607		74.218750
2608		85.937500
2609		78.125000
2610		89.843750
2611		85.937500
2612		93.750000
2613		89.843750
2614		97.656250
2615		93.750000
2616		105.468750
2617		101.562500
2618		109.375000
2619		105.468750
2620		113.281250
2621		109.375000
2622		117.187500
2623		117.187500
2624		121.093750
2625		121.093750
2626		128.906250
2627		125.000000
2628		132.812500
2629		128.906250
2630		136.718750
2631		132.812500
2632		140.625000
2633		136.718750
2634		144.531250
2635		140.625000
2636		148.437500
2637		144.531250
2638		152.343750
2639		148.437500
2640		156.250000
2641		156.250000
2642		160.156250
2643		156.250000
2644		164.062500
2645		160.156250
2646		167.968750
2647		164.062500
2648		171.875000
2649		167.968750
2650		175.781250
2651		167.968750
2652		175.781250
2653		171.875000
2654		179.687500
2655		175.781250
2656		183.593750
2657		179.687500
2658		183.593750
2659		179.687500
2660		187.500000
2661		183.593750
2662		191.406250
2663		187.500000
2664		195.312500
2665		187.500000
2666		195.312500
2667		191.406250
2668		195.312500
2669		191.406250
2670		199.218750
2671		195.312500
2672		199.218750
2673		195.312500
2674		203.125000
2675		195.312500
2676		203.125000
2677		199.218750
2678		207.031250
2679		199.218750
2680		207.031250
2681		199.218750
2682		207.031250
2683		203.125000
2684		207.031250
2685		203.125000
2686		210.937500
2687		203.125000
2688		210.937500
2689		207.031250
2690		210.937500
2691		207.031250
2692		210.937500
2693		203.125000
2694		210.937500
2695		203.125000
2696		210.937500
2697		207.031250
2698		210.937500
2699		207.031250
2700		210.937500
2701		207.031250
2702		210.937500
2703		203.125000
2704		210.937500
2705		207.031250
2706		210.937500
2707		207.031250
2708		210.937500
2709		203.125000
2710		210.937500
2711		203.125000
2712		210.937500
2713		199.218750
2714		210.937500
2715		199.218750
2716		207.031250
2717		199.218750
2718		207.031250
2719		199.218750
2720		207.031250
2721		199.218750
2722		203.125000
2723		195.312500
2724		199.218750
2725		195.312500
2726		199.218750
2727		191.406250
2728		199.218750
2729		191.406250
2730		199.218750
2731		187.500000
2732		195.312500
2733		187.500000
2734		195.312500
2735		183.593750
2736		191.406250
2737		179.687500
2738		187.500000
2739		179.687500
2740		183.593750
2741		175.781250
2742		183.593750
2743		171.875000
2744		179.687500
2745		167.968750
2746		175.781250
2747		167.968750
2748		175.781250
2749		160.156250
2750		171.875000
2751		160.156250
2752		167.968750
2753		156.250000
2754		164.062500
2755		152.343750
2756		160.156250
2757		148.437500
2758		156.250000
2759		144.531250
2760		152.343750
2761		140.625000
2762		148.437500
2763		136.718750
2764		144.531250
2765		132.812500
2766		140.625000
2767		125.000000
2768		136.718750
2769		121.093750
2770		132.812500
2771		117.187500
2772		128.906250
2773		113.281250
2774		121.093750
2775		109.375000
2776		117.187500
2777		101.562500
2778		113.281250
2779		97.656250
2780		105.468750
2781		93.750000
2782		101.562500
2783		85.937500
2784		97.656250
2785		82.031250
2786		89.843750
2787		74.218750
2788		85.937500
2789		70.312500
2790		78.125000
2791		66.406250
2792		74.218750
2793		58.593750
2794		66.406250
2795		50.781250
2796		62.500000
2797		46.875000
2798		58.593750
2799		39.062500
2800		50.781250
2801		35.156250
2802		46.875000
2803		31.250000
2804		39.062500
2805		23.437500
2806		35.156250
2807		19.531250
2808		27.343750
2809		11.718750
2810		19.531250
2811		3.906250
2812		15.625000
2813		0.000000
2814		11.718750
2815		-7.812500
2816		3.906250
2817		-15.625000
2818		0.000000
2819		-19.531250
2820		-7.812500
2821		-23.437500
2822		-15.625000
2823		-31.250000
2824		-19.531250
2825		-35.156250
2826		-27.343750
2827		-39.062500
2828		-31.250000
2829		-46.875000
2830		-39.062500
2831		-54.687500
2832		-42.968750
2833		-58.593750
2834		-46.875000
2835		-66.406250
2836		-54.687500
2837		-70.312500
2838		-58.593750
2839		-74.218750
2840		-66.406250
2841		-78.125000
2842		-70.312500
2843		-85.937500
2844		-78.125000
2845		-89.843750
2846		-82.031250
2847		-93.750000
2848		-85.937500
2849		-101.562500
2850		-89.843750
2851		-105.468750
2852		-93.750000
2853		-109.375000
2854		-101.562500
2855		-113.281250
2856		-105.468750
2857		-117.187500
2858		-109.375000
2859		-121.093750
2860		-113.281250
2861		-125.000000
2862		-117.187500
2863		-128.906250
2864		-121.093750
2865		-132.812500
2866		-125.000000
2867		-136.718750
2868		-128.906250
2869		-140.625000
2870		-128.906250
2871		-144.531250
2872		-132.812500
2873		-144.531250
2874		-140.625000
2875		-144.531250
2876		-140.625000
2877		-148.437500
2878		-144.531250
2879		-152.343750
2880		-144.531250
2881		-156.250000
2882		-148.437500
2883		-156.250000
2884		-148.437500
2885		-156.250000
2886		-152.343750
2887		-160.156250
2888		-152.343750
2889		-160.156250
2890		-152.343750
2891		-160.156250
2892		-156.250000
2893		-164.062500
2894		-156.250000
2895		-164.062500
2896		-156.250000
2897		-164.062500
2898		-156.250000
2899		-164.062500
2900		-156.250000
2901		-164.062500
2902		-156.250000
2903		-164.062500
2904		-156.250000
2905		-164.062500
2906		-156.250000
2907		-160.156250
2908		-156.250000
2909		-160.156250
2910		-156.250000
2911		-160.156250
2912		-152.343750
2913		-160.156250
2914		-152.343750
2915		-156.250000
2916		-148.437500
2917		-156.250000
2918		-148.437500
2919		-156.250000
2920		-144.531250
2921		-152.343750
2922		-144.531250
2923		-148.437500
2924		-144.531250
2925		-144.531250
2926		-140.625000
2927		-144.531250
2928		-136.718750
2929		-140.625000
2930		-132.812500
2931		-140.625000
2932		-128.906250
2933		-136.718750
2934		-128.906250
2935		-132.812500
2936		-121.093750
2937		-128.906250
2938		-117.187500
2939		-125.000000
2940		-117.187500
2941		-117.187500
2942		-113.281250
2943		-113.281250
2944		-105.468750
2945		-113.281250
2946		-101.562500
2947		-109.375000
2948		-97.656250
2949		-101.562500
2950		-93.750000
2951		-97.656250
2952		-89.843750
2953		-93.750000
2954		-85.937500
2955		-89.843750
2956		-78.125000
2957		-82.031250
2958		-74.218750
2959		-78.125000
2960		-70.312500
2961		-70.312500
2962		-62.500000
2963		-66.406250
2964		-58.593750
2965		-62.500000
2966		-50.781250
2967		-54.687500
2968		-46.875000
2969		-50.781250
2970		-39.062500
2971		-42.968750
2972		-35.156250
2973		-39.062500
2974		-31.250000
2975		-31.250000
2976		-23.437500
2977		-27.343750
2978		-15.625000
2979		-23.437500
2980		-11.718750
2981		-15.625000
2982		-3.906250
2983		-7.812500
2984		0.000000
2985		-3.906250
2986		7.812500
2987		3.906250
2988		11.718750
2989		7.812500
2990		19.531250
2991		15.625000
2992		23.437500
2993		23.437500
2994		31.250000
2995		27.343750
2996		39.062500
2997		35.156250
2998		42.968750
2999		39.062500
3000		50.781250
3001		42.968750
3002		54.687500
3003		50.781250
3004		62.500000
3005		54.687500
3006		66.406250
3007		62.500000
3008		70.312500
3009		66.406250
3010		74.218750
3011		74.218750
3012		82.031250
3013		78.125000
3014		89.843750
3015		82.031250
3016		93.750000
3017		89.843750
3018		97.656250
3019		93.750000
3020		101.562500
3021		97.656250
3022		109.375000
3023		105.468750
3024		113.281250
3025		109.375000
3026		117.187500
3027		117.187500
3028		121.093750
3029		117.187500
3030		128.906250
3031		121.093750
3032		132.812500
3033		128.906250
3034		136.718750
3035		132.812500
3036		140.625000
3037		136.718750
3038		144.531250
3039		140.625000
3040		148.437500
3041		144.531250
3042		152.343750
3043		148.437500
3044		156.250000
3045		152.343750
3046		160.156250
3047		156.250000
3048		164.062500
3049		160.156250
3050		167.968750
3051		164.062500
3052		171.875000
3053		167.968750
3054		175.781250
3055		167.968750
3056		179.687500
3057		171.875000
3058		179.687500
3059		175.781250
3060		179.687500
3061		179.687500
3062		187.500000
3063		179.687500
3064		187.500000
3065		183.593750
3066		191.406250
3067		183.593750
3068		195.312500
3069		187.500000
3070		195.312500
3071		187.500000
3072		195.312500
3073		191.406250
3074		199.218750
3075		195.312500
3076		199.218750
3077		195.312500
3078		199.218750
3079		195.312500
3080		203.125000
3081		199.218750
3082		207.031250
3083		199.218750
3084		207.031250
3085		199.218750
3086		207.031250
3087		199.218750
3088		207.031250
3089		203.125000
3090		210.937500
3091		203.125000
3092		210.937500
3093		207.031250
3094		210.937500
3095		203.125000
3096		210.937500
3097		203.125000
3098		210.937500
3099		203.125000
3100		210.937500
3101		203.125000
3102		210.937500
3103		203.125000
3104		210.937500
3105		203.125000
3106		210.937500
3107		203.125000
3108		210.937500
3109		207.031250
3110		210.937500
3111		207.031250
3112		207.031250
3113		203.125000
3114		210.937500
3115		203.125000
3116		210.937500
3117		203.125000
3118		207.031250
3119		199.218750
3120		207.031250
3121		199.218750
3122		207.031250
3123		199.218750
3124		207.031250
3125		199.218750
3126		203.125000
3127		195.312500
3128		199.218750
3129		191.406250
3130		199.218750
3131		191.406250
3132		199.218750
3133		191.406250
3134		195.312500
3135		187.500000
3136		195.312500
3137		187.500000
3138		191.406250
3139		183.593750
3140		191.406250
3141		179.687500
3142		187.500000
3143		179.687500
3144		183.593750
3145		175.781250
3146		179.687500
3147		171.875000
3148		179.687500
3149		167.968750
3150		179.687500
3151		164.062500
3152		175.781250
3153		160.156250
3154		171.875000
3155		160.156250
3156		167.968750
3157		156.250000
3158		164.062500
3159		152.343750
3160		160.156250
3161		148.437500
3162		156.250000
3163		140.625000
3164		152.343750
3165		136.718750
3166		148.437500
3167		132.812500
3168		144.531250
3169		132.812500
3170		140.625000
3171		125.000000
3172		136.718750
3173		121.093750
3174		128.906250
3175		117.187500
3176		125.000000
3177		113.281250
3178		121.093750
3179		105.468750
3180		113.281250
3181		101.562500
3182		109.375000
3183		97.656250
3184		105.468750
3185		89.843750
3186		101.562500
3187		85.937500
3188		93.750000
3189		82.031250
3190		89.843750
3191		74.218750
3192		85.937500
3193		70.312500
3194		78.125000
3195		62.500000
3196		70.312500
3197		58.593750
3198		66.406250
3199		50.781250
3200		62.500000
3201		42.968750
3202		54.687500
3203		39.062500
3204		50.781250
3205		35.156250
3206		42.968750
3207		27.343750
3208		39.062500
3209		23.437500
3210		31.250000
3211		15.625000
3212		23.437500
3213		7.812500
3214		19.531250
3215		3.906250
3216		15.625000
3217		-3.906250
3218		7.812500
3219		-7.812500
3220		3.906250
3221		-15.625000
3222		-3.906250
3223		-19.531250
3224		-11.718750
3225		-23.437500
3226		-15.625000
3227		-31.250000
3228		-23.437500
3229		-39.062500
3230		-27.343750
3231		-42.968750
3232		-31.250000
3233		-46.875000
3234		-39.062500
3235		-54.687500
3236		-46.875000
3237		-62.500000
3238		-50.781250
3239		-66.406250
3240		-54.687500
3241		-70.312500
3242		-62.500000
3243		-74.218750
3244		-66.406250
3245		-82.031250
3246		-74.218750
3247		-85.937500
3248		-78.125000
3249		-93.750000
3250		-82.031250
3251		-97.656250
3252		-85.937500
3253		-101.562500
3254		-89.843750
3255		-105.468750
3256		-97.656250
3257		-109.375000
3258		-101.562500
3259		-113.281250
3260		-105.468750
3261		-117.187500
3262		-109.375000
3263		-121.093750
3264		-113.281250
3265		-128.906250
3266		-117.187500
3267		-128.906250
3268		-121.093750
3269		-132.812500
3270		-125.000000
3271		-136.718750
3272		-128.906250
3273		-140.625000
3274		-132.812500
3275		-140.625000
3276		-132.812500
3277		-144.531250
3278		-140.625000
3279		-148.437500
3280		-140.625000
3281		-152.343750
3282		-144.531250
3283		-152.343750
3284		-144.531250
3285		-156.250000
3286		-148.437500
3287		-156.250000
3288		-148.437500
3289		-156.250000
3290		-152.343750
3291		-160.156250
3292		-152.343750
3293		-160.156250
3294		-156.250000
3295		-160.156250
3296		-156.250000
3297		-164.062500
3298		-156.250000
3299		-164.062500
3300		-156.250000
3301		-164.062500
3302		-156.250000
3303		-164.062500
3304		-156.250000
3305		-164.062500
3306		-156.250000
3307		-164.062500
3308		-156.250000
3309		-164.062500
3310		-156.250000
3311		-160.156250
3312		-156.250000
3313		-160.156250
3314		-152.343750
3315		-160.156250
3316		-152.343750
3317		-160.156250
3318		-152.343750
3319		-156.250000
3320		-148.437500
3321		-156.250000
3322		-148.437500
3323		-156.250000
3324		-144.531250
3325		-152.343750
3326		-144.531250
3327		-148.437500
3328		-144.531250
3329		-144.531250
3330		-140.625000
3331		-144.531250
3332		-136.718750
3333		-140.625000
3334		-132.812500
3335		-136.718750
3336		-128.906250
3337		-136.718750
3338		-125.000000
3339		-132.812500
3340		-121.093750
3341		-128.906250
3342		-121.093750
3343		-125.000000
3344		-117.187500
3345		-117.187500
3346		-113.281250
3347		-113.281250
3348		-105.468750
3349		-113.281250
3350		-101.562500
3351		-105.468750
3352		-97.656250
3353		-105.468750
3354		-93.750000
3355		-97.656250
3356		-85.937500
3357		-93.750000
3358		-82.031250
3359		-89.843750
3360		-82.031250
3361		-82.031250
3362		-74.218750
3363		-78.125000
3364		-70.312500
3365		-70.312500
3366		-62.500000
3367		-66.406250
3368		-58.593750
3369		-62.500000
3370		-50.781250
3371		-54.687500
3372		-46.875000
3373		-50.781250
3374		-39.062500
3375		-42.968750
3376		-35.156250
3377		-39.062500
3378		-31.250000
3379		-31.250000
3380		-23.437500
3381		-27.343750
3382		-15.625000
3383		-19.531250
3384		-11.718750
3385		-15.625000
3386		-3.906250
3387		-11.718750
3388		0.000000
3389		-3.906250
3390		7.812500
3391		0.000000
3392		15.625000
3393		7.812500
3394		19.531250
3395		15.625000
3396		23.437500
3397		23.437500
3398		31.250000
3399		27.343750
3400		39.062500
3401		31.250000
3402		42.968750
3403		39.062500
3404		46.875000
3405		42.968750
3406		54.687500
3407		50.781250
3408		62.500000
3409		54.687500
3410		66.406250
3411		62.500000
3412		70.312500
3413		70.312500
3414		74.218750
3415		74.218750
3416		82.031250
3417		78.125000
3418		85.937500
3419		85.937500
3420		93.750000
3421		89.843750
3422		97.656250
3423		93.750000
3424		105.468750
3425		101.562500
3426		109.375000
3427		105.468750
3428		113.281250
3429		109.375000
3430		117.187500
3431		117.187500
3432		125.000000
3433		121.093750
3434		128.906250
3435		121.093750
3436		132.812500
3437		128.906250
3438		136.718750
3439		132.812500
3440		140.625000
3441		136.718750
3442		144.531250
3443		140.625000
3444		148.437500
3445		144.531250
3446		152.343750
3447		148.437500
3448		156.250000
3449		152.343750
3450		160.156250
3451		156.250000
3452		164.062500
3453		160.156250
3454		167.968750
3455		160.156250
3456		171.875000
3457		167.968750
3458		175.781250
3459		171.875000
3460		179.687500
3461		171.875000
3462		179.687500
3463		175.781250
3464		179.687500
3465		179.687500
3466		187.500000
3467		179.687500
3468		187.500000
3469		183.593750
3470		191.406250
3471		183.593750
3472		191.406250
3473		187.500000
3474		195.312500
3475		187.500000
3476		195.312500
3477		191.406250
3478		199.218750
3479		195.312500
3480		199.218750
3481		195.312500
3482		203.125000
3483		195.312500
3484		203.125000
3485		199.218750
3486		203.125000
3487		199.218750
3488		207.031250
3489		199.218750
3490		207.031250
3491		203.125000
3492		207.031250
3493		203.125000
3494		210.937500
3495		203.125000
3496		207.031250
3497		207.031250
3498		207.031250
3499		203.125000
3500		210.937500
3501		203.125000
3502		210.937500
3503		203.125000
3504		210.937500
3505		203.125000
3506		210.937500
3507		203.125000
3508		210.937500
3509		203.125000
3510		210.937500
3511		203.125000
3512		210.937500
3513		207.031250
3514		207.031250
3515		203.125000
3516		210.937500
3517		203.125000
3518		210.937500
3519		203.125000
3520		207.031250
3521		199.218750
3522		207.031250
3523		199.218750
3524		207.031250
3525		199.218750
3526		207.031250
3527		199.218750
3528		207.031250
3529		199.218750
3530		203.125000
3531		195.312500
3532		199.218750
3533		191.406250
3534		199.218750
3535		191.406250
3536		199.218750
3537		191.406250
3538		195.312500
3539		187.500000
3540		195.312500
3541		183.593750
3542		191.406250
3543		183.593750
3544		191.406250
3545		179.687500
3546		187.500000
3547		179.687500
3548		183.593750
3549		171.875000
3550		179.687500
3551		171.875000
3552		179.687500
3553		167.968750
3554		175.781250
3555		164.062500
3556		171.875000
3557		160.156250
3558		171.875000
3559		156.250000
3560		167.968750
3561		156.250000
3562		164.062500
3563		152.343750
3564		156.250000
3565		148.437500
3566		152.343750
3567		140.625000
3568		152.343750
3569		136.718750
3570		148.437500
3571		132.812500
3572		144.531250
3573		128.906250
3574		136.718750
3575		125.000000
3576		132.812500
3577		121.093750
3578		128.906250
3579		117.187500
3580		125.000000
3581		113.281250
3582		117.187500
3583		105.468750
3584		113.281250
3585		97.656250
3586		109.375000
3587		93.750000
3588		105.468750
3589		89.843750
3590		101.562500
3591		85.937500
3592		93.750000
3593		78.125000
3594		89.843750
3595		74.218750
3596		82.031250
3597		70.312500
3598		78.125000
3599		62.500000
3600		70.312500
3601		58.593750
3602		66.406250
3603		50.781250
3604		62.500000
3605		42.968750
3606		54.687500
3607		39.062500
3608		50.781250
3609		31.250000
3610		42.968750
3611		27.343750
3612		35.156250
3613		23.437500
3614		31.250000
3615		15.625000
3616		23.437500
3617		7.812500
3618		19.531250
3619		3.906250
3620		11.718750
3621		-3.906250
3622		7.812500
3623		-7.812500
3624		0.000000
3625		-15.625000
3626		-3.906250
3627		-19.531250
3628		-11.718750
3629		-27.343750
3630		-19.531250
3631		-31.250000
3632		-23.437500
3633		-39.062500
3634		-31.250000
3635		-42.968750
3636		-35.156250
3637		-50.781250
3638		-39.062500
3639		-54.687500
3640		-46.875000
3641		-62.500000
3642		-50.781250
3643		-66.406250
3644		-54.687500
3645		-70.312500
3646		-62.500000
3647		-74.218750
3648		-70.312500
3649		-82.031250
3650		-74.218750
3651		-89.843750
3652		-78.125000
3653		-93.750000
3654		-82.031250
3655		-97.656250
3656		-89.843750
3657		-101.562500
3658		-93.750000
3659		-105.468750
3660		-97.656250
3661		-109.375000
3662		-101.562500
3663		-113.281250
3664		-105.468750
3665		-117.187500
3666		-109.375000
3667		-121.093750
3668		-113.281250
3669		-128.906250
3670		-117.187500
3671		-128.906250
3672		-121.093750
3673		-132.812500
3674		-125.000000
3675		-136.718750
3676		-128.906250
3677		-140.625000
3678		-132.812500
3679		-140.625000
3680		-132.812500
3681		-144.531250
3682		-140.625000
3683		-148.437500
3684		-140.625000
3685		-148.437500
3686		-144.531250
3687		-152.343750
3688		-144.531250
3689		-156.250000
3690		-148.437500
3691		-156.250000
3692		-148.437500
3693		-160.156250
3694		-152.343750
3695		-160.156250
3696		-152.343750
3697		-160.156250
3698		-156.250000
3699		-160.156250
3700		-156.250000
3701		-164.062500
3702		-156.250000
3703		-164.062500
3704		-156.250000
3705		-164.062500
3706		-156.250000
3707		-164.062500
3708		-156.250000
3709		-164.062500
3710		-156.250000
3711		-164.062500
3712		-156.250000
3713		-160.156250
3714		-156.250000
3715		-160.156250
3716		-156.250000
3717		-160.156250
3718		-152.343750
3719		-160.156250
3720		-152.343750
3721		-160.156250
3722		-152.343750
3723		-156.250000
3724		-148.437500
3725		-156.250000
3726		-148.437500
3727		-156.250000
3728		-144.531250
3729		-152.343750
3730		-144.531250
3731		-148.437500
3732		-144.531250
3733		-144.531250
3734		-140.625000
3735		-144.531250
3736		-136.718750
3737		-144.531250
3738		-132.812500
3739		-140.625000
3740		-128.906250
3741		-132.812500
3742		-125.000000
3743		-132.812500
3744		-121.093750
3745		-128.906250
3746		-117.187500
3747		-121.093750
3748		-117.187500
3749		-117.187500
3750		-113.281250
3751		-113.281250
3752		-105.468750
3753		-113.281250
3754		-101.562500
3755		-105.468750
3756		-97.656250
3757		-101.562500
3758		-93.750000
3759		-97.656250
3760		-85.937500
3761		-93.750000
3762		-82.031250
3763		-89.843750
3764		-78.125000
3765		-82.031250
3766		-74.218750
3767		-74.218750
3768		-66.406250
3769		-70.312500
3770		-62.500000
3771		-66.406250
3772		-58.593750
3773		-62.500000
3774		-50.781250
3775		-54.687500
3776		-42.968750
3777		-46.875000
3778		-39.062500
3779		-42.968750
3780		-35.156250
3781		-35.156250
3782		-27.343750
3783		-31.250000
3784		-23.437500
3785		-27.343750
3786		-15.625000
3787		-19.531250
3788		-11.718750
3789		-15.625000
3790		-3.906250
3791		-7.812500
3792		0.000000
3793		0.000000
3794		7.812500
3795		3.906250
3796		15.625000
3797		11.718750
3798		19.531250
3799		15.625000
3800		23.437500
3801		23.437500
3802		31.250000
3803		27.343750
3804		39.062500
3805		35.156250
3806		46.875000
3807		39.062500
3808		50.781250
3809		46.875000
3810		54.687500
3811		50.781250
3812		62.500000
3813		54.687500
3814		66.406250
3815		62.500000
3816		70.312500
3817		70.312500
3818		78.125000
3819		74.218750
3820		82.031250
3821		78.125000
3822		89.843750
3823		85.937500
3824		93.750000
3825		89.843750
3826		101.562500
3827		93.750000
3828		105.468750
3829		101.562500
3830		109.375000
3831		105.468750
3832		113.281250
3833		113.281250
3834		117.187500
3835		117.187500
3836		125.000000
3837		121.093750
3838		128.906250
3839		125.000000
3840		132.812500
3841		128.906250
3842		136.718750
3843		132.812500
3844		144.531250
3845		136.718750
3846		148.437500
3847		140.625000
3848		148.437500
3849		148.437500
3850		152.343750
3851		152.343750
3852		156.250000
3853		152.343750
3854		164.062500
3855		156.250000
3856		164.062500
3857		160.156250
3858		167.968750
3859		164.062500
3860		171.875000
3861		167.968750
3862		175.781250
3863		171.875000
3864		179.687500
3865		175.781250
3866		179.687500
3867		175.781250
3868		183.593750
3869		179.687500
3870		187.500000
3871		179.687500
3872		187.500000
3873		183.593750
3874		191.406250
3875		187.500000
3876		191.406250
3877		187.500000
3878		195.312500
3879		191.406250
3880		195.312500
3881		191.406250
3882		199.218750
3883		195.312500
3884		199.218750
3885		195.312500
3886		203.125000
3887		195.312500
3888		203.125000
3889		199.218750
3890		203.125000
3891		199.218750
3892		207.031250
3893		199.218750
3894		207.031250
3895		199.218750
3896		207.031250
3897		203.125000
3898		207.031250
3899		203.125000
3900		207.031250
3901		203.125000
3902		207.031250
3903		203.125000
3904		210.937500
3905		203.125000
3906		210.937500
3907		203.125000
3908		210.937500
3909		203.125000
3910		210.937500
3911		207.031250
3912		210.937500
3913		207.031250
3914		210.937500
3915		207.031250
3916		210.937500
3917		207.031250
3918		207.031250
3919		203.125000
3920		210.937500
3921		203.125000
3922		210.937500
3923		203.125000
3924		207.031250
3925		199.218750
3926		207.031250
3927		199.218750
3928		207.031250
3929		199.218750
3930		207.031250
3931		199.218750
3932		203.125000
3933		199.218750
3934		203.125000
3935		195.312500
3936		199.218750
3937		191.406250
3938		199.218750
3939		191.406250
3940		199.218750
3941		191.406250
3942		195.312500
3943		187.500000
3944		191.406250
3945		183.593750
3946		191.406250
3947		183.593750
3948		187.500000
3949		179.687500
3950		187.500000
3951		179.687500
3952		183.593750
3953		175.781250
3954		179.687500
3955		171.875000
3956		179.687500
3957		167.968750
3958		175.781250
3959		164.062500
3960		171.875000
3961		164.062500
3962		167.968750
3963		160.156250
3964		164.062500
3965		156.250000
3966		160.156250
3967		152.343750
3968		156.250000
3969		148.437500
3970		152.343750
3971		144.531250
3972		148.437500
3973		140.625000
3974		144.531250
3975		132.812500
3976		140.625000
3977		128.906250
3978		136.718750
3979		125.000000
3980		132.812500
3981		121.093750
3982		128.906250
3983		117.187500
3984		121.093750
3985		109.375000
3986		117.187500
3987		105.468750
3988		113.281250
3989		101.562500
3990		109.375000
3991		93.750000
3992		101.562500
3993		89.843750
3994		97.656250
3995		85.937500
3996		93.750000
3997		78.125000
3998		85.937500
3999		74.218750
4000		82.031250
4001		66.406250
4002		74.218750
4003		62.500000
4004		70.312500
4005		58.593750
4006		62.500000
4007		50.781250
4008		58.593750
4009		42.968750
4010		54.687500
4011		39.062500
4012		46.875000
4013		31.250000
4014		42.968750
4015		27.343750
4016		35.156250
4017		19.531250
4018		27.343750
4019		15.625000
4020		23.437500
4021		7.812500
4022		15.625000
4023		3.906250
4024		11.718750
4025		-3.906250
4026		3.906250
4027		-7.812500
4028		0.000000
4029		-15.625000
4030		-7.812500
4031		-19.531250
4032		-11.718750
4033		-27.343750
4034		-19.531250
4035		-31.250000
4036		-23.437500
4037		-39.062500
4038		-31.250000
4039		-42.968750
4040		-35.156250
4041		-50.781250
4042		-42.968750
4043		-54.687500
4044		-46.875000
4045		-62.500000
4046		-54.687500
4047		-66.406250
4048		-58.593750
4049		-70.312500
4050		-62.500000
4051		-78.125000
4052		-70.312500
4053		-82.031250
4054		-74.218750
4055		-85.937500
4056		-82.031250
4057		-89.843750
4058		-85.937500
4059		-97.656250
4060		-89.843750
4061		-101.562500
4062		-93.750000
4063		-105.468750
4064		-97.656250
4065		-109.375000
4066		-105.468750
4067		-113.281250
4068		-109.375000
4069		-117.187500
4070		-113.281250
4071		-121.093750
4072		-117.187500
4073		-125.000000
4074		-121.093750
4075		-128.906250
4076		-125.000000
4077		-132.812500
4078		-128.906250
4079		-136.718750
4080		-132.812500
4081		-140.625000
4082		-132.812500
4083		-140.625000
4084		-136.718750
4085		-144.531250
4086		-140.625000
4087		-148.437500
4088		-144.531250
4089		-148.437500
4090		-144.531250
4091		-152.343750
4092		-148.437500
4093		-156.250000
4094		-148.437500
4095		-156.250000
4096		-152.343750
4097		-156.250000
4098		-152.343750
4099		-160.156250
4100		-156.250000
4101		-160.156250
4102		-156.250000
4103		-160.156250
4104		-156.250000
4105		-160.156250
4106		-156.250000
4107		-160.156250
4108		-160.156250
4109		-164.062500
4110		-160.156250
4111		-164.062500
4112		-160.156250
4113		-164.062500
4114		-160.156250
4115		-164.062500
4116		-160.156250
4117		-160.156250
4118		-160.156250
4119		-160.156250
4120		-156.250000
4121		-160.156250
4122		-156.250000
4123		-160.156250
4124		-156.250000
4125		-156.250000
4126		-152.343750
4127		-156.250000
4128		-152.343750
4129		-156.250000
4130		-148.437500
4131		-152.343750
4132		-148.437500
4133		-152.343750
4134		-144.531250
4135		-148.437500
4136		-144.531250
4137		-144.531250
4138		-140.625000
4139		-144.531250
4140		-136.718750
4141		-140.625000
4142		-132.812500
4143		-136.718750
4144		-132.812500
4145		-132.812500
4146		-128.906250
4147		-128.906250
4148		-125.000000
4149		-125.000000
4150		-121.093750
4151		-121.093750
4152		-117.187500
4153		-117.187500
4154		-113.281250
4155		-113.281250
4156		-109.375000
4157		-109.375000
4158		-105.468750
4159		-105.468750
4160		-97.656250
4161		-101.562500
4162		-93.750000
4163		-97.656250
4164		-89.843750
4165		-93.750000
4166		-85.937500
4167		-85.937500
4168		-78.125000
4169		-82.031250
4170		-74.218750
4171		-74.218750
4172		-70.312500
4173		-70.312500
4174		-62.500000
4175		-66.406250
4176		-58.593750
4177		-58.593750
4178		-50.781250
4179		-54.687500
4180		-46.875000
4181		-46.875000
4182		-39.062500
4183		-42.968750
4184		-35.156250
4185		-35.156250
4186		-27.343750
4187		-31.250000
4188		-23.437500
4189		-23.437500
4190		-15.625000
4191		-19.531250
4192		-11.718750
4193		-11.718750
4194		-3.906250
4195		-7.812500
4196		0.000000
4197		0.000000
4198		7.812500
4199		3.906250
4200		11.718750
4201		11.718750
4202		19.531250
4203		15.625000
4204		23.437500
4205		23.437500
4206		31.250000
4207		27.343750
4208		35.156250
4209		35.156250
4210		42.968750
4211		42.968750
4212		46.875000
4213		46.875000
4214		54.687500
4215		50.781250
4216		58.593750
4217		58.593750
4218		66.406250
4219		62.500000
4220		70.312500
4221		70.312500
4222		78.125000
4223		74.218750
4224		82.031250
4225		82.031250
4226		89.843750
4227		85.937500
4228		93.750000
4229		89.843750
4230		97.656250
4231		97.656250
4232		101.562500
4233		101.562500
4234		109.375000
4235		105.468750
4236		113.281250
4237		113.281250
4238		117.187500
4239		113.281250
4240		121.093750
4241		121.093750
4242		128.906250
4243		125.000000
4244		132.812500
4245		128.906250
4246		136.718750
4247		132.812500
4248		140.625000
4249		136.718750
4250		144.531250
4251		140.625000
4252		148.437500
4253		148.437500
4254		152.343750
4255		152.343750
4256		156.250000
4257		152.343750
4258		160.156250
4259		156.250000
4260		164.062500
4261		160.156250
4262		167.968750
4263		164.062500
4264		167.968750
4265		167.968750
4266		171.875000
4267		171.875000
4268		175.781250
4269		175.781250
4270		179.687500
4271		175.781250
4272		183.593750
4273		179.687500
4274		183.593750
4275		179.687500
4276		187.500000
4277		183.593750
4278		187.500000
4279		187.500000
4280		191.406250
4281		187.500000
4282		195.312500
4283		191.406250
4284		195.312500
4285		191.406250
4286		195.312500
4287		195.312500
4288		199.218750
4289		195.312500
4290		199.218750
4291		199.218750
4292		203.125000
4293		199.218750
4294		203.125000
4295		199.218750
4296		203.125000
4297		199.218750
4298		207.031250
4299		203.125000
4300		207.031250
4301		203.125000
4302		207.031250
4303		203.125000
4304		207.031250
4305		203.125000
4306		207.031250
4307		207.031250
4308		207.031250
4309		207.031250
4310		207.031250
4311		207.031250
4312		210.937500
4313		207.031250
4314		210.937500
4315		207.031250
4316		210.937500
4317		203.125000
4318		210.937500
4319		207.031250
4320		207.031250
4321		203.125000
4322		207.031250
4323		203.125000
4324		207.031250
4325		203.125000
4326		207.031250
4327		203.125000
4328		207.031250
4329		203.125000
4330		207.031250
4331		199.218750
4332		203.125000
4333		199.218750
4334		203.125000
4335		199.218750
4336		203.125000
4337		195.312500
4338		199.218750
4339		195.312500
4340		199.218750
4341		191.406250
4342		199.218750
4343		191.406250
4344		195.312500
4345		187.500000
4346		195.312500
4347		187.500000
4348		191.406250
4349		183.593750
4350		191.406250
4351		183.593750
4352		187.500000
4353		179.687500
4354		183.593750
4355		175.781250
4356		183.593750
4357		175.781250
4358		179.687500
4359		171.875000
4360		175.781250
4361		167.968750
4362		171.875000
4363		164.062500
4364		171.875000
4365		160.156250
4366		167.968750
4367		156.250000
4368		164.062500
4369		156.250000
4370		160.156250
4371		152.343750
4372		156.250000
4373		148.437500
4374		152.343750
4375		140.625000
4376		148.437500
4377		136.718750
4378		144.531250
4379		132.812500
4380		140.625000
4381		128.906250
4382		136.718750
4383		125.000000
4384		132.812500
4385		121.093750
4386		125.000000
4387		113.281250
4388		121.093750
4389		109.375000
4390		117.187500
4391		105.468750
4392		113.281250
4393		101.562500
4394		105.468750
4395		93.750000
4396		101.562500
4397		89.843750
4398		97.656250
4399		82.031250
4400		89.843750
4401		78.125000
4402		85.937500
4403		74.218750
4404		78.125000
4405		66.406250
4406		74.218750
4407		62.500000
4408		70.312500
4409		54.687500
4410		62.500000
4411		50.781250
4412		58.593750
4413		42.968750
4414		50.781250
4415		39.062500
4416		46.875000
4417		31.250000
4418		42.968750
4419		23.437500
4420		35.156250
4421		19.531250
4422		27.343750
4423		11.718750
4424		23.437500
4425		7.812500
4426		15.625000
4427		3.906250
4428		11.718750
4429		-3.906250
4430		3.906250
4431		-11.718750
4432		0.000000
4433		-15.625000
4434		-7.812500
4435		-23.437500
4436		-15.625000
4437		-27.343750
4438		-19.531250
4439		-35.156250
4440		-27.343750
4441		-39.062500
4442		-31.250000
4443		-46.875000
4444		-35.156250
4445		-50.781250
4446		-42.968750
4447		-54.687500
4448		-50.781250
4449		-62.500000
4450		-54.687500
4451		-66.406250
4452		-58.593750
4453		-74.218750
4454		-66.406250
4455		-78.125000
4456		-70.312500
4457		-82.031250
4458		-74.218750
4459		-85.937500
4460		-82.031250
4461		-93.750000
4462		-85.937500
4463		-97.656250
4464		-89.843750
4465		-101.562500
4466		-93.750000
4467		-105.468750
4468		-101.562500
4469		-109.375000
4470		-105.468750
4471		-113.281250
4472		-109.375000
4473		-121.093750
4474		-113.281250
4475		-121.093750
4476		-117.187500
4477		-125.000000
4478		-121.093750
4479		-128.906250
4480		-125.000000
4481		-132.812500
4482		-128.906250
4483		-136.718750
4484		-132.812500
4485		-140.625000
4486		-132.812500
4487		-144.531250
4488		-136.718750
4489		-144.531250
4490		-140.625000
4491		-148.437500
4492		-144.531250
4493		-148.437500
4494		-144.531250
4495		-152.343750
4496		-148.437500
4497		-152.343750
4498		-148.437500
4499		-156.250000
4500		-152.343750
4501		-156.250000
4502		-152.343750
4503		-160.156250
4504		-152.343750
4505		-160.156250
4506		-156.250000
4507		-160.156250
4508		-156.250000
4509		-160.156250
4510		-156.250000
4511		-164.062500
4512		-160.156250
4513		-164.062500
4514		-160.156250
4515		-160.156250
4516		-160.156250
4517		-164.062500
4518		-160.156250
4519		-160.156250
4520		-156.250000
4521		-160.156250
4522		-160.156250
4523		-160.156250
4524		-156.250000
4525		-160.156250
4526		-156.250000
4527		-160.156250
4528		-156.250000
4529		-156.250000
4530		-152.343750
4531		-156.250000
4532		-152.343750
4533		-156.250000
4534		-148.437500
4535		-152.343750
4536		-148.437500
4537		-152.343750
4538		-144.531250
4539		-148.437500
4540		-144.531250
4541		-144.531250
4542		-140.625000
4543		-144.531250
4544		-136.718750
4545		-140.625000
4546		-132.812500
4547		-136.718750
4548		-128.906250
4549		-132.812500
4550		-128.906250
4551		-128.906250
4552		-125.000000
4553		-125.000000
4554		-121.093750
4555		-121.093750
4556		-117.187500
4557		-117.187500
4558		-109.375000
4559		-113.281250
4560		-105.468750
4561		-109.375000
4562		-101.562500
4563		-105.468750
4564		-97.656250
4565		-101.562500
4566		-93.750000
4567		-93.750000
4568		-89.843750
4569		-89.843750
4570		-82.031250
4571		-85.937500
4572		-78.125000
4573		-82.031250
4574		-74.218750
4575		-74.218750
4576		-66.406250
4577		-70.312500
4578		-62.500000
4579		-66.406250
4580		-58.593750
4581		-58.593750
4582		-50.781250
4583		-54.687500
4584		-42.968750
4585		-46.875000
4586		-39.062500
4587		-42.968750
4588		-35.156250
4589		-35.156250
4590		-27.343750
4591		-31.250000
4592		-23.437500
4593		-23.437500
4594		-15.625000
4595		-19.531250
4596		-11.718750
4597		-11.718750
4598		-3.906250
4599		-7.812500
4600		0.000000
4601		0.000000
4602		7.812500
4603		3.906250
4604		11.718750
4605		11.718750
4606		19.531250
4607		19.531250
4608		27.343750
4609		23.437500
4610		31.250000
4611		31.250000
4612		39.062500
4613		35.156250
4614		42.968750
4615		39.062500
4616		50.781250
4617		46.875000
4618		54.687500
4619		54.687500
4620		62.500000
4621		58.593750
4622		66.406250
4623		66.406250
4624		74.218750
4625		70.312500
4626		78.125000
4627		74.218750
4628		82.031250
4629		82.031250
4630		89.843750
4631		85.937500
4632		93.750000
4633		89.843750
4634		97.656250
4635		97.656250
4636		105.468750
4637		101.562500
4638		109.375000
4639		109.375000
4640		113.281250
4641		113.281250
4642		121.093750
4643		117.187500
4644		125.000000
4645		121.093750
4646		128.906250
4647		125.000000
4648		132.812500
4649		128.906250
4650		136.718750
4651		136.718750
4652		140.625000
4653		140.625000
4654		144.531250
4655		144.531250
4656		148.437500
4657		148.437500
4658		152.343750
4659		152.343750
4660		156.250000
4661		156.250000
4662		164.062500
4663		156.250000
4664		164.062500
4665		164.062500
4666		167.968750
4667		164.062500
4668		171.875000
4669		167.968750
4670		171.875000
4671		171.875000
4672		175.781250
4673		175.781250
4674		179.687500
4675		175.781250
4676		183.593750
4677		179.687500
4678		183.593750
4679		183.593750
4680		187.500000
4681		183.593750
4682		191.406250
4683		187.500000
4684		191.406250
4685		191.406250
4686		195.312500
4687		191.406250
4688		195.312500
4689		195.312500
4690		199.218750
4691		195.312500
4692		199.218750
4693		195.312500
4694		203.125000
4695		199.218750
4696		203.125000
4697		199.218750
4698		203.125000
4699		199.218750
4700		207.031250
4701		203.125000
4702		207.031250
4703		203.125000
4704		207.031250
4705		203.125000
4706		207.031250
4707		207.031250
4708		207.031250
4709		203.125000
4710		210.937500
4711		207.031250
4712		210.937500
4713		207.031250
4714		210.937500
4715		207.031250
4716		210.937500
4717		207.031250
4718		210.937500
4719		207.031250
4720		210.937500
4721		207.031250
4722		210.937500
4723		207.031250
4724		210.937500
4725		203.125000
4726		210.937500
4727		207.031250
4728		207.031250
4729		203.125000
4730		207.031250
4731		203.125000
4732		207.031250
4733		203.125000
4734		207.031250
4735		203.125000
4736		207.031250
4737		199.218750
4738		203.125000
4739		199.218750
4740		203.125000
4741		195.312500
4742		203.125000
4743		195.312500
4744		199.218750
4745		195.312500
4746		199.218750
4747		191.406250
4748		195.312500
4749		191.406250
4750		195.312500
4751		187.500000
4752		191.406250
4753		187.500000
4754		191.406250
4755		183.593750
4756		187.500000
4757		179.687500
4758		183.593750
4759		175.781250
4760		183.593750
4761		175.781250
4762		179.687500
4763		171.875000
4764		175.781250
4765		167.968750
4766		171.875000
4767		164.062500
4768		171.875000
4769		164.062500
4770		167.968750
4771		160.156250
4772		164.062500
4773		156.250000
4774		160.156250
4775		152.343750
4776		156.250000
4777		148.437500
4778		152.343750
4779		144.531250
4780		148.437500
4781		140.625000
4782		144.531250
4783		132.812500
4784		140.625000
4785		128.906250
4786		136.718750
4787		125.000000
4788		132.812500
4789		121.093750
4790		128.906250
4791		113.281250
4792		121.093750
4793		109.375000
4794		117.187500
4795		105.468750
4796		113.281250
4797		101.562500
4798		105.468750
4799		93.750000
4800		101.562500
4801		89.843750
4802		97.656250
4803		85.937500
4804		93.750000
4805		78.125000
4806		85.937500
4807		74.218750
4808		82.031250
4809		66.406250
4810		74.218750
4811		62.500000
4812		70.312500
4813		54.687500
4814		62.500000
4815		50.781250
4816		58.593750
4817		42.968750
4818		50.781250
4819		39.062500
4820		46.875000
4821		31.250000
4822		39.062500
4823		27.343750
4824		35.156250
4825		19.531250
4826		27.343750
4827		15.625000
4828		23.437500
4829		7.812500
4830		15.625000
4831		3.906250
4832		11.718750
4833		-3.906250
4834		3.906250
4835		-7.812500
4836		0.000000
4837		-15.625000
4838		-7.812500
4839		-19.531250
4840		-11.718750
4841		-27.343750
4842		-19.531250
4843		-31.250000
4844		-23.437500
4845		-39.062500
4846		-31.250000
4847		-46.875000
4848		-35.156250
4849		-50.781250
4850		-42.968750
4851		-54.687500
4852		-46.875000
4853		-62.500000
4854		-54.687500
4855		-66.406250
4856		-58.593750
4857		-70.312500
4858		-66.406250
4859		-78.125000
4860		-70.312500
4861		-82.031250
4862		-74.218750
4863		-85.937500
4864		-82.031250
4865		-93.750000
4866		-85.937500
4867		-97.656250
4868		-89.843750
4869		-101.562500
4870		-93.750000
4871		-105.468750
4872		-97.656250
4873		-109.375000
4874		-101.562500
4875		-113.281250
4876		-109.375000
4877		-117.187500
4878		-113.281250
4879		-121.093750
4880		-117.187500
4881		-125.000000
4882		-121.093750
4883		-128.906250
4884		-125.000000
4885		-132.812500
4886		-128.906250
4887		-136.718750
4888		-128.906250
4889		-140.625000
4890		-132.812500
4891		-140.625000
4892		-136.718750
4893		-144.531250
4894		-140.625000
4895		-148.437500
4896		-140.625000
4897		-148.437500
4898		-144.531250
4899		-152.343750
4900		-148.437500
4901		-152.343750
4902		-148.437500
4903		-156.250000
4904		-152.343750
4905		-156.250000
4906		-152.343750
4907		-156.250000
4908		-156.250000
4909		-160.156250
4910		-156.250000
4911		-160.156250
4912		-156.250000
4913		-160.156250
4914		-156.250000
4915		-160.156250
4916		-156.250000
4917		-160.156250
4918		-160.156250
4919		-164.062500
4920		-160.156250
4921		-164.062500
4922		-156.250000
4923		-160.156250
4924		-156.250000
4925		-160.156250
4926		-156.250000
4927		-160.156250
4928		-156.250000
4929		-160.156250
4930		-156.250000
4931		-156.250000
4932		-152.343750
4933		-156.250000
4934		-152.343750
4935		-156.250000
4936		-152.343750
4937		-152.343750
4938		-148.437500
4939		-152.343750
4940		-148.437500
4941		-148.437500
4942		-144.531250
4943		-148.437500
4944		-140.625000
4945		-144.531250
4946		-140.625000
4947		-140.625000
4948		-136.718750
4949		-140.625000
4950		-132.812500
4951		-136.718750
4952		-128.906250
4953		-132.812500
4954		-125.000000
4955		-128.906250
4956		-121.093750
4957		-125.000000
4958		-121.093750
4959		-121.093750
4960		-117.187500
4961		-117.187500
4962		-109.375000
4963		-113.281250
4964		-105.468750
4965		-109.375000
4966		-101.562500
4967		-105.468750
4968		-97.656250
4969		-101.562500
4970		-93.750000
4971		-93.750000
4972		-89.843750
4973		-89.843750
4974		-82.031250
4975		-85.937500
4976		-78.125000
4977		-78.125000
4978		-74.218750
4979		-74.218750
4980		-66.406250
4981		-70.312500
4982		-62.500000
4983		-62.500000
4984		-54.687500
4985		-58.593750
4986		-50.781250
4987		-50.781250
4988		-42.968750
4989		-46.875000
4990		-39.062500
4991		-39.062500
4992		-35.156250
4993		-35.156250
4994		-27.343750
4995		-27.343750
4996		-23.437500
4997		-23.437500
4998		-15.625000
4999		-19.531250
5000		-11.718750
5001		-11.718750
5002		-3.906250
5003		-3.906250
5004		3.906250
5005		0.000000
5006		7.812500
5007		7.812500
5008		15.625000
5009		11.718750
5010		19.531250
5011		19.531250
5012		27.343750
5013		23.437500
5014		31.250000
5015		31.250000
5016		39.062500
5017		35.156250
5018		42.968750
5019		42.968750
5020		50.781250
5021		46.875000
5022		54.687500
5023		54.687500
5024		62.500000
5025		58.593750
5026		66.406250
5027		66.406250
5028		74.218750
5029		70.312500
5030		78.125000
5031		78.125000
5032		85.937500
5033		82.031250
5034		89.843750
5035		85.937500
5036		93.750000
5037		93.750000
5038		101.562500
5039		97.656250
5040		105.468750
5041		101.562500
5042		109.375000
5043		109.375000
5044		117.187500
5045		113.281250
5046		121.093750
5047		117.187500
5048		125.000000
5049		121.093750
5050		128.906250
5051		125.000000
5052		132.812500
5053		128.906250
5054		136.718750
5055		136.718750
5056		140.625000
5057		140.625000
5058		144.531250
5059		144.531250
5060		148.437500
5061		148.437500
5062		152.343750
5063		152.343750
5064		156.250000
5065		156.250000
5066		160.156250
5067		160.156250
5068		164.062500
5069		164.062500
5070		167.968750
5071		164.062500
5072		171.875000
5073		167.968750
5074		175.781250
5075		171.875000
5076		175.781250
5077		175.781250
5078		179.687500
5079		179.687500
5080		183.593750
5081		179.687500
5082		183.593750
5083		183.593750
5084		187.500000
5085		183.593750
5086		191.406250
5087		187.500000
5088		191.406250
5089		191.406250
5090		195.312500
5091		191.406250
5092		195.312500
5093		195.312500
5094		199.218750
5095		195.312500
5096		199.218750
5097		199.218750
5098		203.125000
5099		199.218750
5100		203.125000
5101		199.218750
5102		203.125000
5103		203.125000
5104		203.125000
5105		203.125000
5106		207.031250
5107		203.125000
5108		207.031250
5109		203.125000
5110		207.031250
5111		203.125000
5112		207.031250
5113		207.031250
5114		207.031250
5115		207.031250
5116		210.937500
5117		207.031250
5118		210.937500
5119		207.031250
5120		210.937500
5121		207.031250
5122		210.937500
5123		207.031250
5124		210.937500
5125		207.031250
5126		210.937500
5127		207.031250
5128		210.937500
5129		203.125000
5130		210.937500
5131		203.125000
5132		207.031250
5133		203.125000
5134		207.031250
5135		203.125000
5136		207.031250
5137		203.125000
5138		207.031250
5139		203.125000
5140		207.031250
5141		199.218750
5142		203.125000
5143		199.218750
5144		203.125000
5145		195.312500
5146		203.125000
5147		195.312500
5148		199.218750
5149		191.406250
5150		199.218750
5151		191.406250
5152		195.312500
5153		191.406250
5154		195.312500
5155		187.500000
5156		191.406250
5157		183.593750
5158		191.406250
5159		183.593750
5160		187.500000
5161		179.687500
5162		183.593750
5163		175.781250
5164		183.593750
5165		175.781250
5166		179.687500
5167		171.875000
5168		175.781250
5169		167.968750
5170		171.875000
5171		164.062500
5172		171.875000
5173		160.156250
5174		167.968750
5175		160.156250
5176		164.062500
5177		152.343750
5178		160.156250
5179		152.343750
5180		156.250000
5181		144.531250
5182		152.343750
5183		144.531250
5184		148.437500
5185		136.718750
5186		144.531250
5187		132.812500
5188		140.625000
5189		128.906250
5190		136.718750
5191		125.000000
5192		132.812500
5193		121.093750
5194		125.000000
5195		113.281250
5196		121.093750
5197		109.375000
5198		117.187500
5199		105.468750
5200		113.281250
5201		101.562500
5202		105.468750
5203		93.750000
5204		101.562500
5205		89.843750
5206		97.656250
5207		82.031250
5208		89.843750
5209		78.125000
5210		85.937500
5211		74.218750
5212		82.031250
5213		66.406250
5214		74.218750
5215		62.500000
5216		70.312500
5217		54.687500
5218		62.500000
5219		50.781250
5220		58.593750
5221		42.968750
5222		50.781250
5223		39.062500
5224		46.875000
5225		31.250000
5226		39.062500
5227		23.437500
5228		35.156250
5229		19.531250
5230		27.343750
5231		15.625000
5232		23.437500
5233		7.812500
5234		15.625000
5235		3.906250
5236		7.812500
5237		-3.906250
5238		3.906250
5239		-7.812500
5240		-3.906250
5241		-15.625000
5242		-7.812500
5243		-23.437500
5244		-11.718750
5245		-27.343750
5246		-19.531250
5247		-35.156250
5248		-23.437500
5249		-39.062500
5250		-31.250000
5251		-42.968750
5252		-35.156250
5253		-50.781250
5254		-42.968750
5255		-54.687500
5256		-46.875000
5257		-62.500000
5258		-54.687500
5259		-66.406250
5260		-58.593750
5261		-70.312500
5262		-66.406250
5263		-78.125000
5264		-70.312500
5265		-82.031250
5266		-74.218750
5267		-85.937500
5268		-82.031250
5269		-93.750000
5270		-85.937500
5271		-97.656250
5272		-89.843750
5273		-101.562500
5274		-93.750000
5275		-105.468750
5276		-97.656250
5277		-109.375000
5278		-105.468750
5279		-113.281250
5280		-109.375000
5281		-117.187500
5282		-113.281250
5283		-121.093750
5284		-117.187500
5285		-125.000000
5286		-121.093750
5287		-128.906250
5288		-125.000000
5289		-132.812500
5290		-125.000000
5291		-136.718750
5292		-128.906250
5293		-136.718750
5294		-132.812500
5295		-140.625000
5296		-136.718750
5297		-144.531250
5298		-140.625000
5299		-144.531250
5300		-140.625000
5301		-148.437500
5302		-144.531250
5303		-148.437500
5304		-144.531250
5305		-152.343750
5306		-148.437500
5307		-152.343750
5308		-148.437500
5309		-156.250000
5310		-152.343750
5311		-156.250000
5312		-152.343750
5313		-156.250000
5314		-152.343750
5315		-160.156250
5316		-152.343750
5317		-160.156250
5318		-156.250000
5319		-160.156250
5320		-156.250000
5321		-160.156250
5322		-156.250000
5323		-160.156250
5324		-156.250000
5325		-160.156250
5326		-156.250000
5327		-160.156250
5328		-156.250000
5329		-156.250000
5330		-156.250000
5331		-156.250000
5332		-152.343750
5333		-156.250000
5334		-152.343750
5335		-156.250000
5336		-152.343750
5337		-156.250000
5338		-148.437500
5339		-152.343750
5340		-148.437500
5341		-148.437500
5342		-144.531250
5343		-148.437500
5344		-144.531250
5345		-144.531250
5346		-140.625000
5347		-144.531250
5348		-136.718750
5349		-140.625000
5350		-136.718750
5351		-136.718750
5352		-132.812500
5353		-136.718750
5354		-128.906250
5355		-132.812500
5356		-125.000000
5357		-128.906250
5358		-121.093750
5359		-125.000000
5360		-117.187500
5361		-121.093750
5362		-117.187500
5363		-117.187500
5364		-109.375000
5365		-113.281250
5366		-105.468750
5367		-109.375000
5368		-101.562500
5369		-105.468750
5370		-97.656250
5371		-101.562500
5372		-93.750000
5373		-93.750000
5374		-89.843750
5375		-89.843750
5376		-82.031250
5377		-85.937500
5378		-78.125000
5379		-82.031250
5380		-74.218750
5381		-74.218750
5382		-66.406250
5383		-70.312500
5384		-62.500000
5385		-66.406250
5386		-58.593750
5387		-58.593750
5388		-50.781250
5389		-54.687500
5390		-46.875000
5391		-46.875000
5392		-39.062500
5393		-42.968750
5394		-35.156250
5395		-39.062500
5396		-27.343750
5397		-31.250000
5398		-23.437500
5399		-23.437500
5400		-15.625000
5401		-19.531250
5402		-11.718750
5403		-11.718750
5404		-3.906250
5405		-7.812500
5406		0.000000
5407		0.000000
5408		7.812500
5409		3.906250
5410		11.718750
5411		11.718750
5412		19.531250
5413		15.625000
5414		23.437500
5415		23.437500
5416		31.250000
5417		27.343750
5418		39.062500
5419		35.156250
5420		42.968750
5421		42.968750
5422		46.875000
5423		46.875000
5424		54.687500
5425		50.781250
5426		62.500000
5427		58.593750
5428		66.406250
5429		62.500000
5430		70.312500
5431		70.312500
5432		78.125000
5433		74.218750
5434		82.031250
5435		82.031250
5436		89.843750
5437		85.937500
5438		93.750000
5439		89.843750
5440		97.656250
5441		97.656250
5442		105.468750
5443		101.562500
5444		109.375000
5445		105.468750
5446		113.281250
5447		113.281250
5448		117.187500
5449		117.187500
5450		121.093750
5451		121.093750
5452		128.906250
5453		125.000000
5454		132.812500
5455		128.906250
5456		136.718750
5457		132.812500
5458		140.625000
5459		140.625000
5460		144.531250
5461		144.531250
5462		152.343750
5463		148.437500
5464		152.343750
5465		152.343750
5466		156.250000
5467		156.250000
5468		160.156250
5469		160.156250
5470		164.062500
5471		160.156250
5472		167.968750
5473		164.062500
5474		171.875000
5475		167.968750
5476		175.781250
5477		171.875000
5478		175.781250
5479		175.781250
5480		179.687500
5481		179.687500
5482		183.593750
5483		179.687500
5484		183.593750
5485		183.593750
5486		187.500000
5487		183.593750
5488		191.406250
5489		187.500000
5490		191.406250
5491		191.406250
5492		195.312500
5493		191.406250
5494		195.312500
5495		195.312500
5496		199.218750
5497		195.312500
5498		199.218750
5499		199.218750
5500		203.125000
5501		199.218750
5502		203.125000
5503		199.218750
5504		203.125000
5505		203.125000
5506		207.031250
5507		203.125000
5508		207.031250
5509		203.125000
5510		207.031250
5511		203.125000
5512		210.937500
5513		207.031250
5514		210.937500
5515		207.031250
5516		210.937500
5517		207.031250
5518		210.937500
5519		207.031250
5520		210.937500
5521		207.031250
5522		210.937500
5523		207.031250
5524		210.937500
5525		207.031250
5526		210.937500
5527		207.031250
5528		210.937500
5529		207.031250
5530		210.937500
5531		207.031250
5532		210.937500
5533		207.031250
5534		210.937500
5535		207.031250
5536		210.937500
5537		207.031250
5538		210.937500
5539		203.125000
5540		210.937500
5541		203.125000
5542		207.031250
5543		203.125000
5544		207.031250
5545		203.125000
5546		207.031250
5547		199.218750
5548		203.125000
5549		199.218750
5550		203.125000
5551		199.218750
5552		203.125000
5553		195.312500
5554		199.218750
5555		195.312500
5556		199.218750
5557		191.406250
5558		195.312500
5559		191.406250
5560		195.312500
5561		187.500000
5562		191.406250
5563		183.593750
5564		191.406250
5565		183.593750
5566		187.500000
5567		179.687500
5568		183.593750
5569		175.781250
5570		183.593750
5571		175.781250
5572		179.687500
5573		171.875000
5574		175.781250
5575		167.968750
5576		171.875000
5577		164.062500
5578		167.968750
5579		160.156250
5580		167.968750
5581		156.250000
5582		164.062500
5583		152.343750
5584		160.156250
5585		148.437500
5586		156.250000
5587		144.531250
5588		152.343750
5589		140.625000
5590		148.437500
5591		136.718750
5592		144.531250
5593		132.812500
5594		136.718750
5595		128.906250
5596		132.812500
5597		121.093750
5598		128.906250
5599		117.187500
5600		125.000000
5601		113.281250
5602		121.093750
5603		105.468750
5604		113.281250
5605		101.562500
5606		109.375000
5607		97.656250
5608		105.468750
5609		89.843750
5610		97.656250
5611		85.937500
5612		93.750000
5613		82.031250
5614		89.843750
5615		74.218750
5616		82.031250
5617		70.312500
5618		78.125000
5619		62.500000
5620		70.312500
5621		58.593750
5622		66.406250
5623		50.781250
5624		62.500000
5625		46.875000
5626		54.687500
5627		39.062500
5628		46.875000
5629		35.156250
5630		42.968750
5631		27.343750
5632		35.156250
5633		23.437500
5634		31.250000
5635		15.625000
5636		23.437500
5637		11.718750
5638		19.531250
5639		3.906250
5640		11.718750
5641		-3.906250
5642		7.812500
5643		-7.812500
5644		0.000000
5645		-11.718750
5646		-3.906250
5647		-19.531250
5648		-11.718750
5649		-23.437500
5650		-15.625000
5651		-31.250000
5652		-23.437500
5653		-35.156250
5654		-27.343750
5655		-42.968750
5656		-35.156250
5657		-46.875000
5658		-39.062500
5659		-54.687500
5660		-42.968750
5661		-58.593750
5662		-50.781250
5663		-62.500000
5664		-58.593750
5665		-70.312500
5666		-62.500000
5667		-74.218750
5668		-66.406250
5669		-78.125000
5670		-74.218750
5671		-85.937500
5672		-78.125000
5673		-89.843750
5674		-82.031250
5675		-93.750000
5676		-85.937500
5677		-97.656250
5678		-93.750000
5679		-101.562500
5680		-97.656250
5681		-105.468750
5682		-101.562500
5683		-109.375000
5684		-105.468750
5685		-117.187500
5686		-109.375000
5687		-121.093750
5688		-113.281250
5689		-121.093750
5690		-117.187500
5691		-128.906250
5692		-121.093750
5693		-128.906250
5694		-125.000000
5695		-132.812500
5696		-128.906250
5697		-136.718750
5698		-128.906250
5699		-140.625000
5700		-132.812500
5701		-140.625000
5702		-136.718750
5703		-144.531250
5704		-140.625000
5705		-144.531250
5706		-140.625000
5707		-148.437500
5708		-144.531250
5709		-152.343750
5710		-144.531250
5711		-152.343750
5712		-148.437500
5713		-152.343750
5714		-148.437500
5715		-156.250000
5716		-152.343750
5717		-156.250000
5718		-152.343750
5719		-156.250000
5720		-152.343750
5721		-156.250000
5722		-152.343750
5723		-156.250000
5724		-156.250000
5725		-160.156250
5726		-156.250000
5727		-160.156250
5728		-156.250000
5729		-160.156250
5730		-156.250000
5731		-156.250000
5732		-156.250000
5733		-156.250000
5734		-152.343750
5735		-156.250000
5736		-152.343750
5737		-156.250000
5738		-152.343750
5739		-152.343750
5740		-152.343750
5741		-152.343750
5742		-148.437500
5743		-152.343750
5744		-148.437500
5745		-148.437500
5746		-144.531250
5747		-148.437500
5748		-144.531250
5749		-144.531250
5750		-140.625000
5751		-144.531250
5752		-136.718750
5753		-140.625000
5754		-136.718750
5755		-136.718750
5756		-132.812500
5757		-136.718750
5758		-128.906250
5759		-132.812500
5760		-125.000000
5761		-128.906250
5762		-121.093750
5763		-125.000000
5764		-121.093750
5765		-121.093750
5766		-117.187500
5767		-117.187500
5768		-109.375000
5769		-113.281250
5770		-105.468750
5771		-109.375000
5772		-101.562500
5773		-105.468750
5774		-97.656250
5775		-101.562500
5776		-93.750000
5777		-93.750000
5778		-89.843750
5779		-89.843750
5780		-82.031250
5781		-85.937500
5782		-78.125000
5783		-82.031250
5784		-74.218750
5785		-74.218750
5786		-70.312500
5787		-70.312500
5788		-62.500000
5789		-66.406250
5790		-58.593750
5791		-58.593750
5792		-50.781250
5793		-54.687500
5794		-46.875000
5795		-50.781250
5796		-39.062500
5797		-42.968750
5798		-35.156250
5799		-39.062500
5800		-31.250000
5801		-31.250000
5802		-23.437500
5803		-23.437500
5804		-15.625000
5805		-19.531250
5806		-11.718750
5807		-11.718750
5808		-3.906250
5809		-7.812500
5810		0.000000
5811		0.000000
5812		7.812500
5813		3.906250
5814		11.718750
5815		11.718750
5816		19.531250
5817		15.625000
5818		23.437500
5819		23.437500
5820		31.250000
5821		27.343750
5822		35.156250
5823		35.156250
5824		42.968750
5825		39.062500
5826		46.875000
5827		46.875000
5828		54.687500
5829		50.781250
5830		58.593750
5831		58.593750
5832		66.406250
5833		62.500000
5834		70.312500
5835		70.312500
5836		78.125000
5837		74.218750
5838		82.031250
5839		82.031250
5840		89.843750
5841		85.937500
5842		93.750000
5843		89.843750
5844		97.656250
5845		97.656250
5846		101.562500
5847		101.562500
5848		109.375000
5849		105.468750
5850		113.281250
5851		109.375000
5852		117.187500
5853		117.187500
5854		121.093750
5855		121.093750
5856		128.906250
5857		125.000000
5858		132.812500
5859		128.906250
5860		136.718750
5861		132.812500
5862		140.625000
5863		136.718750
5864		144.531250
5865		140.625000
5866		148.437500
5867		144.531250
5868		152.343750
5869		152.343750
5870		156.250000
5871		152.343750
5872		160.156250
5873		156.250000
5874		164.062500
5875		160.156250
5876		167.968750
5877		164.062500
5878		171.875000
5879		167.968750
5880		175.781250
5881		171.875000
5882		175.781250
5883		175.781250
5884		179.687500
5885		175.781250
5886		183.593750
5887		179.687500
5888		187.500000
5889		179.687500
5890		187.500000
5891		183.593750
5892		191.406250
5893		187.500000
5894		191.406250
5895		191.406250
5896		195.312500
5897		191.406250
5898		199.218750
5899		195.312500
5900		199.218750
5901		195.312500
5902		199.218750
5903		195.312500
5904		203.125000
5905		199.218750
5906		203.125000
5907		199.218750
5908		207.031250
5909		199.218750
5910		207.031250
5911		203.125000
5912		207.031250
5913		203.125000
5914		207.031250
5915		203.125000
5916		207.031250
5917		207.031250
5918		210.937500
5919		207.031250
5920		210.937500
5921		207.031250
5922		210.937500
5923		207.031250
5924		210.937500
5925		207.031250
5926		210.937500
5927		207.031250
5928		210.937500
5929		207.031250
5930		214.843750
5931		207.031250
5932		210.937500
5933		207.031250
5934		210.937500
5935		207.031250
5936		210.937500
5937		207.031250
5938		210.937500
5939		207.031250
5940		210.937500
5941		207.031250
5942		210.937500
5943		207.031250
5944		210.937500
5945		203.125000
5946		207.031250
5947		203.125000
5948		207.031250
5949		203.125000
5950		207.031250
5951		199.218750
5952		203.125000
5953		199.218750
5954		203.125000
5955		199.218750
5956		203.125000
5957		195.312500
5958		199.218750
5959		195.312500
5960		199.218750
5961		191.406250
5962		195.312500
5963		187.500000
5964		195.312500
5965		187.500000
5966		191.406250
5967		183.593750
5968		187.500000
5969		183.593750
5970		187.500000
5971		179.687500
5972		183.593750
5973		175.781250
5974		179.687500
5975		171.875000
5976		179.687500
5977		171.875000
5978		175.781250
5979		167.968750
5980		171.875000
5981		164.062500
5982		167.968750
5983		160.156250
5984		164.062500
5985		156.250000
5986		160.156250
5987		152.343750
5988		156.250000
5989		148.437500
5990		156.250000
5991		144.531250
5992		148.437500
5993		140.625000
5994		144.531250
5995		136.718750
5996		140.625000
5997		128.906250
5998		136.718750
5999		125.000000
6000		132.812500
6001		121.093750
6002		128.906250
6003		117.187500
6004		125.000000
6005		113.281250
6006		117.187500
6007		105.468750
6008		113.281250
6009		101.562500
6010		109.375000
6011		97.656250
6012		101.562500
6013		89.843750
6014		97.656250
6015		85.937500
6016		93.750000
6017		78.125000
6018		85.937500
6019		74.218750
6020		82.031250
6021		70.312500
6022		74.218750
6023		62.500000
6024		70.312500
6025		58.593750
6026		66.406250
6027		50.781250
6028		58.593750
6029		46.875000
6030		54.687500
6031		39.062500
6032		46.875000
6033		35.156250
6034		42.968750
6035		27.343750
6036		35.156250
6037		19.531250
6038		27.343750
6039		11.718750
6040		23.437500
6041		7.812500
6042		19.531250
6043		3.906250
6044		11.718750
6045		-3.906250
6046		3.906250
6047		-7.812500
6048		0.000000
6049		-15.625000
6050		-7.812500
6051		-19.531250
6052		-11.718750
6053		-27.343750
6054		-19.531250
6055		-35.156250
6056		-19.531250
6057		-39.062500
6058		-27.343750
6059		-42.968750
6060		-31.250000
6061		-46.875000
6062		-42.968750
6063		-54.687500
6064		-46.875000
6065		-58.593750
6066		-50.781250
6067		-66.406250
6068		-58.593750
6069		-70.312500
6070		-62.500000
6071		-78.125000
6072		-66.406250
6073		-82.031250
6074		-74.218750
6075		-85.937500
6076		-78.125000
6077		-89.843750
6078		-82.031250
6079		-93.750000
6080		-89.843750
6081		-101.562500
6082		-93.750000
6083		-105.468750
6084		-97.656250
6085		-109.375000
6086		-101.562500
6087		-113.281250
6088		-105.468750
6089		-121.093750
6090		-105.468750
6091		-125.000000
6092		-113.281250
6093		-125.000000
6094		-113.281250
6095		-128.906250
6096		-121.093750
6097		-128.906250
6098		-125.000000
6099		-132.812500
6100		-128.906250
6101		-136.718750
6102		-132.812500
6103		-140.625000
6104		-136.718750
6105		-144.531250
6106		-132.812500
6107		-144.531250
6108		-136.718750
6109		-148.437500
6110		-140.625000
6111		-148.437500
6112		-144.531250
6113		-148.437500
6114		-148.437500
6115		-152.343750
6116		-148.437500
6117		-152.343750
6118		-148.437500
6119		-156.250000
6120		-152.343750
6121		-160.156250
6122		-148.437500
6123		-160.156250
6124		-152.343750
6125		-160.156250
6126		-152.343750
6127		-156.250000
6128		-152.343750
6129		-156.250000
6130		-156.250000
6131		-156.250000
6132		-156.250000
6133		-156.250000
6134		-156.250000
6135		-156.250000
6136		-156.250000
6137		-156.250000
6138		-152.343750
6139		-160.156250
6140		-148.437500
6141		-160.156250
6142		-148.437500
6143		-156.250000
6144		-148.437500
6145		-152.343750
6146		-148.437500
6147		-152.343750
6148		-148.437500
6149		-148.437500
6150		-144.531250
6151		-148.437500
6152		-144.531250
6153		-144.531250
6154		-140.625000
6155		-144.531250
6156		-136.718750
6157		-144.531250
6158		-132.812500
6159		-140.625000
6160		-128.906250
6161		-132.812500
6162		-128.906250
6163		-132.812500
6164		-125.000000
6165		-128.906250
6166		-121.093750
6167		-125.000000
6168		-117.187500
6169		-121.093750
6170		-113.281250
6171		-117.187500
6172		-109.375000
6173		-117.187500
6174		-101.562500
6175		-109.375000
6176		-97.656250
6177		-105.468750
6178		-97.656250
6179		-97.656250
6180		-93.750000
6181		-93.750000
6182		-89.843750
6183		-89.843750
6184		-82.031250
6185		-85.937500
6186		-78.125000
6187		-78.125000
6188		-74.218750
6189		-78.125000
6190		-66.406250
6191		-70.312500
6192		-62.500000
6193		-66.406250
6194		-54.687500
6195		-58.593750
6196		-50.781250
6197		-54.687500
6198		-46.875000
6199		-46.875000
6200		-39.062500
6201		-42.968750
6202		-35.156250
6203		-35.156250
6204		-27.343750
6205		-31.250000
6206		-19.531250
6207		-27.343750
6208		-11.718750
6209		-19.531250
6210		-7.812500
6211		-15.625000
6212		-3.906250
6213		-3.906250
6214		0.000000
6215		0.000000
6216		7.812500
6217		7.812500
6218		15.625000
6219		11.718750
6220		19.531250
6221		19.531250
6222		27.343750
6223		23.437500
6224		35.156250
6225		27.343750
6226		39.062500
6227		35.156250
6228		42.968750
6229		42.968750
6230		50.781250
6231		46.875000
6232		54.687500
6233		54.687500
6234		62.500000
6235		58.593750
6236		66.406250
6237		66.406250
6238		70.312500
6239		70.312500
6240		78.125000
6241		74.218750
6242		85.937500
6243		82.031250
6244		89.843750
6245		85.937500
6246		93.750000
6247		93.750000
6248		97.656250
6249		97.656250
6250		105.468750
6251		101.562500
6252		109.375000
6253		109.375000
6254		113.281250
6255		113.281250
6256		117.187500
6257		117.187500
6258		125.000000
6259		121.093750
6260		128.906250
6261		125.000000
6262		132.812500
6263		132.812500
6264		136.718750
6265		136.718750
6266		140.625000
6267		140.625000
6268		144.531250
6269		144.531250
6270		148.437500
6271		148.437500
6272		152.343750
6273		152.343750
6274		156.250000
6275		156.250000
6276		160.156250
6277		160.156250
6278		164.062500
6279		164.062500
6280		167.968750
6281		164.062500
6282		171.875000
6283		167.968750
6284		175.781250
6285		171.875000
6286		175.781250
6287		175.781250
6288		179.687500
6289		179.687500
6290		183.593750
6291		179.687500
6292		183.593750
6293		183.593750
6294		187.500000
6295		187.500000
6296		191.406250
6297		187.500000
6298		191.406250
6299		191.406250
6300		195.312500
6301		191.406250
6302		195.312500
6303		195.312500
6304		199.218750
6305		195.312500
6306		199.218750
6307		195.312500
6308		203.125000
6309		199.218750
6310		203.125000
6311		199.218750
6312		203.125000
6313		203.125000
6314		207.031250
6315		203.125000
6316		207.031250
6317		203.125000
6318		207.031250
6319		207.031250
6320		210.937500
6321		207.031250
6322		210.937500
6323		207.031250
6324		210.937500
6325		207.031250
6326		210.937500
6327		207.031250
6328		210.937500
6329		207.031250
6330		210.937500
6331		207.031250
6332		210.937500
6333		207.031250
6334		210.937500
6335		207.031250
6336		210.937500
6337		207.031250
6338		210.937500
6339		207.031250
6340		210.937500
6341		207.031250
6342		210.937500
6343		207.031250
6344		210.937500
6345		207.031250
6346		210.937500
6347		203.125000
6348		210.937500
6349		203.125000
6350		207.031250
6351		203.125000
6352		207.031250
6353		203.125000
6354		207.031250
6355		199.218750
6356		203.125000
6357		199.218750
6358		203.125000
6359		195.312500
6360		203.125000
6361		195.312500
6362		199.218750
6363		191.406250
6364		199.218750
6365		191.406250
6366		195.312500
6367		187.500000
6368		195.312500
6369		187.500000
6370		191.406250
6371		183.593750
6372		187.500000
6373		179.687500
6374		187.500000
6375		179.687500
6376		183.593750
6377		175.781250
6378		179.687500
6379		171.875000
6380		175.781250
6381		167.968750
6382		175.781250
6383		167.968750
6384		171.875000
6385		164.062500
6386		167.968750
6387		160.156250
6388		164.062500
6389		152.343750
6390		160.156250
6391		152.343750
6392		160.156250
6393		148.437500
6394		152.343750
6395		144.531250
6396		148.437500
6397		136.718750
6398		148.437500
6399		132.812500
6400		140.625000
6401		128.906250
6402		136.718750
6403		125.000000
6404		132.812500
6405		121.093750
6406		125.000000
6407		117.187500
6408		121.093750
6409		109.375000
6410		117.187500
6411		105.468750
6412		113.281250
6413		101.562500
6414		105.468750
6415		93.750000
6416		101.562500
6417		89.843750
6418		97.656250
6419		85.937500
6420		93.750000
6421		78.125000
6422		85.937500
6423		74.218750
6424		82.031250
6425		66.406250
6426		74.218750
6427		62.500000
6428		70.312500
6429		54.687500
6430		62.500000
6431		50.781250
6432		58.593750
6433		42.968750
6434		50.781250
6435		39.062500
6436		46.875000
6437		31.250000
6438		39.062500
6439		27.343750
6440		35.156250
6441		19.531250
6442		27.343750
6443		15.625000
6444		23.437500
6445		7.812500
6446		15.625000
6447		3.906250
6448		11.718750
6449		-3.906250
6450		3.906250
6451		-7.812500
6452		0.000000
6453		-15.625000
6454		-7.812500
6455		-19.531250
6456		-11.718750
6457		-27.343750
6458		-19.531250
6459		-31.250000
6460		-23.437500
6461		-39.062500
6462		-31.250000
6463		-46.875000
6464		-35.156250
6465		-50.781250
6466		-42.968750
6467		-54.687500
6468		-46.875000
6469		-62.500000
6470		-54.687500
6471		-66.406250
6472		-58.593750
6473		-70.312500
6474		-66.406250
6475		-78.125000
6476		-66.406250
6477		-82.031250
6478		-74.218750
6479		-85.937500
6480		-82.031250
6481		-93.750000
6482		-85.937500
6483		-97.656250
6484		-89.843750
6485		-101.562500
6486		-93.750000
6487		-105.468750
6488		-97.656250
6489		-109.375000
6490		-101.562500
6491		-113.281250
6492		-109.375000
6493		-117.187500
6494		-113.281250
6495		-121.093750
6496		-117.187500
6497		-125.000000
6498		-121.093750
6499		-128.906250
6500		-121.093750
6501		-132.812500
6502		-128.906250
6503		-136.718750
6504		-128.906250
6505		-136.718750
6506		-132.812500
6507		-140.625000
6508		-136.718750
6509		-144.531250
6510		-140.625000
6511		-144.531250
6512		-140.625000
6513		-148.437500
6514		-144.531250
6515		-148.437500
6516		-144.531250
6517		-152.343750
6518		-148.437500
6519		-152.343750
6520		-148.437500
6521		-156.250000
6522		-152.343750
6523		-156.250000
6524		-152.343750
6525		-156.250000
6526		-152.343750
6527		-156.250000
6528		-152.343750
6529		-160.156250
6530		-156.250000
6531		-160.156250
6532		-156.250000
6533		-160.156250
6534		-156.250000
6535		-160.156250
6536		-156.250000
6537		-160.156250
6538		-156.250000
6539		-160.156250
6540		-156.250000
6541		-160.156250
6542		-156.250000
6543		-156.250000
6544		-152.343750
6545		-156.250000
6546		-152.343750
6547		-156.250000
6548		-152.343750
6549		-152.343750
6550		-148.437500
6551		-152.343750
6552		-148.437500
6553		-152.343750
6554		-148.437500
6555		-148.437500
6556		-144.531250
6557		-148.437500
6558		-140.625000
6559		-144.531250
6560		-140.625000
6561		-140.625000
6562		-136.718750
6563		-140.625000
6564		-132.812500
6565		-136.718750
6566		-128.906250
6567		-132.812500
6568		-128.906250
6569		-128.906250
6570		-125.000000
6571		-125.000000
6572		-121.093750
6573		-121.093750
6574		-117.187500
6575		-117.187500
6576		-113.281250
6577		-117.187500
6578		-109.375000
6579		-109.375000
6580		-105.468750
6581		-105.468750
6582		-97.656250
6583		-101.562500
6584		-93.750000
6585		-97.656250
6586		-89.843750
6587		-93.750000
6588		-85.937500
6589		-85.937500
6590		-78.125000
6591		-82.031250
6592		-74.218750
6593		-78.125000
6594		-70.312500
6595		-70.312500
6596		-66.406250
6597		-66.406250
6598		-58.593750
6599		-62.500000
6600		-54.687500
6601		-54.687500
6602		-46.875000
6603		-50.781250
6604		-42.968750
6605		-42.968750
6606		-35.156250
6607		-39.062500
6608		-31.250000
6609		-31.250000
6610		-23.437500
6611		-27.343750
6612		-19.531250
6613		-19.531250
6614		-11.718750
6615		-15.625000
6616		-7.812500
6617		-7.812500
6618		0.000000
6619		-3.906250
6620		7.812500
6621		3.906250
6622		11.718750
6623		11.718750
6624		19.531250
6625		15.625000
6626		23.437500
6627		23.437500
6628		31.250000
6629		27.343750
6630		35.156250
6631		35.156250
6632		42.968750
6633		39.062500
6634		46.875000
6635		46.875000
6636		54.687500
6637		50.781250
6638		58.593750
6639		58.593750
6640		66.406250
6641		62.500000
6642		70.312500
6643		66.406250
6644		74.218750
6645		74.218750
6646		82.031250
6647		78.125000
6648		85.937500
6649		85.937500
6650		89.843750
6651		89.843750
6652		97.656250
6653		93.750000
6654		105.468750
6655		101.562500
6656		105.468750
6657		105.468750
6658		113.281250
6659		109.375000
6660		117.187500
6661		117.187500
6662		121.093750
6663		121.093750
6664		125.000000
6665		125.000000
6666		132.812500
6667		128.906250
6668		136.718750
6669		132.812500
6670		140.625000
6671		136.718750
6672		144.531250
6673		140.625000
6674		148.437500
6675		144.531250
6676		152.343750
6677		148.437500
6678		156.250000
6679		152.343750
6680		160.156250
6681		156.250000
6682		164.062500
6683		160.156250
6684		167.968750
6685		164.062500
6686		167.968750
6687		164.062500
6688		171.875000
6689		171.875000
6690		175.781250
6691		175.781250
6692		179.687500
6693		175.781250
6694		183.593750
6695		179.687500
6696		183.593750
6697		183.593750
6698		187.500000
6699		183.593750
6700		187.500000
6701		187.500000
6702		191.406250
6703		187.500000
6704		191.406250
6705		191.406250
6706		195.312500
6707		191.406250
6708		195.312500
6709		195.312500
6710		199.218750
6711		195.312500
6712		203.125000
6713		199.218750
6714		203.125000
6715		199.218750
6716		203.125000
6717		199.218750
6718		203.125000
6719		203.125000
6720		207.031250
6721		203.125000
6722		207.031250
6723		203.125000
6724		207.031250
6725		203.125000
6726		207.031250
6727		203.125000
6728		210.937500
6729		207.031250
6730		210.937500
6731		207.031250
6732		210.937500
6733		207.031250
6734		210.937500
6735		207.031250
6736		210.937500
6737		207.031250
6738		210.937500
6739		207.031250
6740		210.937500
6741		207.031250
6742		210.937500
6743		203.125000
6744		210.937500
6745		203.125000
6746		210.937500
6747		203.125000
6748		210.937500
6749		203.125000
6750		207.031250
6751		203.125000
6752		207.031250
6753		203.125000
6754		207.031250
6755		203.125000
6756		207.031250
6757		199.218750
6758		203.125000
6759		199.218750
6760		203.125000
6761		195.312500
6762		203.125000
6763		195.312500
6764		199.218750
6765		195.312500
6766		199.218750
6767		191.406250
6768		195.312500
6769		191.406250
6770		195.312500
6771		187.500000
6772		191.406250
6773		183.593750
6774		191.406250
6775		183.593750
6776		187.500000
6777		179.687500
6778		183.593750
6779		175.781250
6780		183.593750
6781		175.781250
6782		179.687500
6783		171.875000
6784		175.781250
6785		167.968750
6786		171.875000
6787		164.062500
6788		167.968750
6789		160.156250
6790		167.968750
6791		156.250000
6792		164.062500
6793		152.343750
6794		160.156250
6795		148.437500
6796		156.250000
6797		144.531250
6798		152.343750
6799		140.625000
6800		148.437500
6801		136.718750
6802		144.531250
6803		132.812500
6804		140.625000
6805		128.906250
6806		132.812500
6807		125.000000
6808		128.906250
6809		117.187500
6810		125.000000
6811		113.281250
6812		121.093750
6813		109.375000
6814		117.187500
6815		105.468750
6816		109.375000
6817		97.656250
6818		105.468750
6819		93.750000
6820		101.562500
6821		85.937500
6822		97.656250
6823		82.031250
6824		89.843750
6825		78.125000
6826		82.031250
6827		70.312500
6828		78.125000
6829		62.500000
6830		74.218750
6831		58.593750
6832		66.406250
6833		54.687500
6834		62.500000
6835		46.875000
6836		54.687500
6837		42.968750
6838		50.781250
6839		35.156250
6840		42.968750
6841		31.250000
6842		39.062500
6843		23.437500
6844		31.250000
6845		19.531250
6846		27.343750
6847		11.718750
6848		19.531250
6849		3.906250
6850		11.718750
6851		0.000000
6852		7.812500
6853		-7.812500
6854		0.000000
6855		-11.718750
6856		-3.906250
6857		-19.531250
6858		-11.718750
6859		-23.437500
6860		-15.625000
6861		-31.250000
6862		-23.437500
6863		-35.156250
6864		-27.343750
6865		-42.968750
6866		-35.156250
6867		-46.875000
6868		-39.062500
6869		-54.687500
6870		-46.875000
6871		-58.593750
6872		-50.781250
6873		-62.500000
6874		-54.687500
6875		-70.312500
6876		-62.500000
6877		-74.218750
6878		-66.406250
6879		-78.125000
6880		-74.218750
6881		-85.937500
6882		-78.125000
6883		-89.843750
6884		-82.031250
6885		-93.750000
6886		-85.937500
6887		-97.656250
6888		-93.750000
6889		-101.562500
6890		-97.656250
6891		-109.375000
6892		-101.562500
6893		-113.281250
6894		-105.468750
6895		-117.187500
6896		-109.375000
6897		-121.093750
6898		-113.281250
6899		-125.000000
6900		-117.187500
6901		-128.906250
6902		-121.093750
6903		-128.906250
6904		-125.000000
6905		-132.812500
6906		-128.906250
6907		-136.718750
6908		-132.812500
6909		-140.625000
6910		-136.718750
6911		-144.531250
6912		-136.718750
6913		-144.531250
6914		-140.625000
6915		-148.437500
6916		-144.531250
6917		-148.437500
6918		-144.531250
6919		-152.343750
6920		-148.437500
6921		-156.250000
6922		-148.437500
6923		-156.250000
6924		-152.343750
6925		-156.250000
6926		-152.343750
6927		-156.250000
6928		-156.250000
6929		-160.156250
6930		-156.250000
6931		-160.156250
6932		-156.250000
6933		-160.156250
6934		-156.250000
6935		-160.156250
6936		-156.250000
6937		-160.156250
6938		-160.156250
6939		-160.156250
6940		-156.250000
6941		-160.156250
6942		-156.250000
6943		-160.156250
6944		-156.250000
6945		-160.156250
6946		-156.250000
6947		-160.156250
6948		-156.250000
6949		-160.156250
6950		-156.250000
6951		-156.250000
6952		-152.343750
6953		-156.250000
6954		-152.343750
6955		-152.343750
6956		-152.343750
6957		-152.343750
6958		-148.437500
6959		-152.343750
6960		-144.531250
6961		-148.437500
6962		-144.531250
6963		-144.531250
6964		-140.625000
6965		-144.531250
6966		-136.718750
6967		-140.625000
6968		-136.718750
6969		-136.718750
6970		-132.812500
6971		-136.718750
6972		-128.906250
6973		-128.906250
6974		-125.000000
6975		-128.906250
6976		-121.093750
6977		-125.000000
6978		-117.187500
6979		-121.093750
6980		-113.281250
6981		-117.187500
6982		-109.375000
6983		-113.281250
6984		-105.468750
6985		-105.468750
6986		-101.562500
6987		-101.562500
6988		-97.656250
6989		-97.656250
6990		-89.843750
6991		-93.750000
6992		-85.937500
6993		-85.937500
6994		-82.031250
6995		-82.031250
6996		-74.218750
6997		-78.125000
6998		-70.312500
6999		-74.218750
7000		-66.406250
7001		-66.406250
7002		-58.593750
7003		-62.500000
7004		-54.687500
7005		-54.687500
7006		-46.875000
7007		-50.781250
7008		-42.968750
7009		-42.968750
7010		-35.156250
7011		-39.062500
7012		-31.250000
7013		-31.250000
7014		-23.437500
7015		-27.343750
7016		-19.531250
7017		-19.531250
7018		-11.718750
7019		-15.625000
7020		-7.812500
7021		-7.812500
7022		0.000000
7023		-3.906250
7024		3.906250
7025		3.906250
7026		11.718750
7027		7.812500
7028		15.625000
7029		15.625000
7030		23.437500
7031		19.531250
7032		27.343750
7033		27.343750
7034		35.156250
7035		31.250000
7036		39.062500
7037		39.062500
7038		46.875000
7039		42.968750
7040		50.781250
7041		50.781250
7042		58.593750
7043		54.687500
7044		62.500000
7045		62.500000
7046		70.312500
7047		66.406250
7048		74.218750
7049		74.218750
7050		82.031250
7051		78.125000
7052		85.937500
7053		85.937500
7054		89.843750
7055		89.843750
7056		97.656250
7057		93.750000
7058		101.562500
7059		101.562500
7060		105.468750
7061		105.468750
7062		113.281250
7063		109.375000
7064		117.187500
7065		113.281250
7066		121.093750
7067		121.093750
7068		125.000000
7069		125.000000
7070		128.906250
7071		128.906250
7072		136.718750
7073		132.812500
7074		140.625000
7075		136.718750
7076		144.531250
7077		140.625000
7078		148.437500
7079		144.531250
7080		152.343750
7081		148.437500
7082		156.250000
7083		152.343750
7084		160.156250
7085		156.250000
7086		164.062500
7087		160.156250
7088		167.968750
7089		164.062500
7090		167.968750
7091		167.968750
7092		171.875000
7093		171.875000
7094		175.781250
7095		171.875000
7096		179.687500
7097		175.781250
7098		183.593750
7099		179.687500
7100		183.593750
7101		179.687500
7102		187.500000
7103		183.593750
7104		187.500000
7105		187.500000
7106		191.406250
7107		187.500000
7108		191.406250
7109		191.406250
7110		195.312500
7111		191.406250
7112		195.312500
7113		195.312500
7114		199.218750
7115		195.312500
7116		199.218750
7117		199.218750
7118		203.125000
7119		199.218750
7120		203.125000
7121		199.218750
7122		203.125000
7123		203.125000
7124		207.031250
7125		203.125000
7126		207.031250
7127		203.125000
7128		207.031250
7129		203.125000
7130		207.031250
7131		207.031250
7132		207.031250
7133		207.031250
7134		207.031250
7135		207.031250
7136		210.937500
7137		207.031250
7138		210.937500
7139		207.031250
7140		210.937500
7141		207.031250
7142		210.937500
7143		207.031250
7144		210.937500
7145		207.031250
7146		210.937500
7147		207.031250
7148		210.937500
7149		207.031250
7150		207.031250
7151		203.125000
7152		207.031250
7153		203.125000
7154		207.031250
7155		203.125000
7156		207.031250
7157		203.125000
7158		207.031250
7159		199.218750
7160		203.125000
7161		199.218750
7162		203.125000
7163		199.218750
7164		203.125000
7165		195.312500
7166		199.218750
7167		195.312500
7168		199.218750
7169		191.406250
7170		195.312500
7171		191.406250
7172		195.312500
7173		187.500000
7174		195.312500
7175		187.500000
7176		191.406250
7177		183.593750
7178		187.500000
7179		179.687500
7180		187.500000
7181		179.687500
7182		183.593750
7183		175.781250
7184		179.687500
7185		171.875000
7186		179.687500
7187		171.875000
7188		175.781250
7189		167.968750
7190		171.875000
7191		164.062500
7192		167.968750
7193		160.156250
7194		164.062500
7195		156.250000
7196		160.156250
7197		152.343750
7198		160.156250
7199		148.437500
7200		156.250000
7201		144.531250
7202		152.343750
7203		140.625000
7204		148.437500
7205		136.718750
7206		144.531250
7207		132.812500
7208		136.718750
7209		128.906250
7210		132.812500
7211		121.093750
7212		128.906250
7213		117.187500
7214		125.000000
7215		113.281250
7216		121.093750
7217		109.375000
7218		113.281250
7219		101.562500
7220		109.375000
7221		97.656250
7222		105.468750
7223		93.750000
7224		97.656250
7225		85.937500
7226		93.750000
7227		82.031250
7228		89.843750
7229		74.218750
7230		82.031250
7231		70.312500
7232		78.125000
7233		62.500000
7234		70.312500
7235		58.593750
7236		66.406250
7237		50.781250
7238		58.593750
7239		46.875000
7240		54.687500
7241		42.968750
7242		46.875000
7243		35.156250
7244		42.968750
7245		27.343750
7246		35.156250
7247		23.437500
7248		31.250000
7249		15.625000
7250		23.437500
7251		11.718750
7252		19.531250
7253		3.906250
7254		11.718750
7255		0.000000
7256		7.812500
7257		-7.812500
7258		0.000000
7259		-11.718750
7260		-3.906250
7261		-19.531250
7262		-11.718750
7263		-23.437500
7264		-15.625000
7265		-31.250000
7266		-23.437500
7267		-35.156250
7268		-27.343750
7269		-42.968750
7270		-35.156250
7271		-46.875000
7272		-39.062500
7273		-54.687500
7274		-46.875000
7275		-58.593750
7276		-50.781250
7277		-62.500000
7278		-58.593750
7279		-70.312500
7280		-62.500000
7281		-74.218750
7282		-66.406250
7283		-82.031250
7284		-74.218750
7285		-85.937500
7286		-78.125000
7287		-89.843750
7288		-82.031250
7289		-93.750000
7290		-89.843750
7291		-101.562500
7292		-93.750000
7293		-105.468750
7294		-97.656250
7295		-109.375000
7296		-101.562500
7297		-113.281250
7298		-105.468750
7299		-117.187500
7300		-109.375000
7301		-121.093750
7302		-113.281250
7303		-125.000000
7304		-117.187500
7305		-128.906250
7306		-121.093750
7307		-132.812500
7308		-125.000000
7309		-132.812500
7310		-128.906250
7311		-136.718750
7312		-132.812500
7313		-140.625000
7314		-136.718750
7315		-144.531250
7316		-140.625000
7317		-144.531250
7318		-140.625000
7319		-148.437500
7320		-144.531250
7321		-148.437500
7322		-144.531250
7323		-152.343750
7324		-148.437500
7325		-152.343750
7326		-148.437500
7327		-156.250000
7328		-152.343750
7329		-156.250000
7330		-152.343750
7331		-160.156250
7332		-156.250000
7333		-160.156250
7334		-156.250000
7335		-160.156250
7336		-156.250000
7337		-160.156250
7338		-156.250000
7339		-160.156250
7340		-156.250000
7341		-160.156250
7342		-156.250000
7343		-160.156250
7344		-156.250000
7345		-160.156250
7346		-156.250000
7347		-160.156250
7348		-156.250000
7349		-160.156250
7350		-156.250000
7351		-160.156250
7352		-156.250000
7353		-156.250000
7354		-152.343750
7355		-156.250000
7356		-152.343750
7357		-156.250000
7358		-152.343750
7359		-152.343750
7360		-148.437500
7361		-152.343750
7362		-148.437500
7363		-148.437500
7364		-144.531250
7365		-148.437500
7366		-144.531250
7367		-144.531250
7368		-140.625000
7369		-140.625000
7370		-136.718750
7371		-136.718750
7372		-132.812500
7373		-136.718750
7374		-128.906250
7375		-132.812500
7376		-128.906250
7377		-128.906250
7378		-121.093750
7379		-125.000000
7380		-121.093750
7381		-121.093750
7382		-113.281250
7383		-117.187500
7384		-109.375000
7385		-113.281250
7386		-105.468750
7387		-109.375000
7388		-101.562500
7389		-105.468750
7390		-97.656250
7391		-101.562500
7392		-93.750000
7393		-93.750000
7394		-89.843750
7395		-89.843750
7396		-82.031250
7397		-85.937500
7398		-78.125000
7399		-82.031250
7400		-74.218750
7401		-74.218750
7402		-66.406250
7403		-70.312500
7404		-62.500000
7405		-62.500000
7406		-58.593750
7407		-58.593750
7408		-50.781250
7409		-54.687500
7410		-46.875000
7411		-46.875000
7412		-39.062500
7413		-42.968750
7414		-35.156250
7415		-35.156250
7416		-27.343750
7417		-31.250000
7418		-23.437500
7419		-23.437500
7420		-15.625000
7421		-19.531250
7422		-11.718750
7423		-11.718750
7424		-3.906250
7425		-7.812500
7426		0.000000
7427		0.000000
7428		7.812500
7429		7.812500
7430		15.625000
7431		11.718750
7432		19.531250
7433		19.531250
7434		27.343750
7435		23.437500
7436		31.250000
7437		31.250000
7438		39.062500
7439		35.156250
7440		42.968750
7441		42.968750
7442		50.781250
7443		46.875000
7444		54.687500
7445		54.687500
7446		62.500000
7447		58.593750
7448		66.406250
7449		66.406250
7450		74.218750
7451		70.312500
7452		78.125000
7453		74.218750
7454		82.031250
7455		82.031250
7456		89.843750
7457		85.937500
7458		93.750000
7459		93.750000
7460		97.656250
7461		97.656250
7462		105.468750
7463		101.562500
7464		109.375000
7465		105.468750
7466		113.281250
7467		113.281250
7468		121.093750
7469		117.187500
7470		125.000000
7471		121.093750
7472		128.906250
7473		125.000000
7474		132.812500
7475		132.812500
7476		136.718750
7477		136.718750
7478		140.625000
7479		140.625000
7480		144.531250
7481		144.531250
7482		148.437500
7483		148.437500
7484		152.343750
7485		152.343750
7486		156.250000
7487		156.250000
7488		160.156250
7489		160.156250
7490		164.062500
7491		164.062500
7492		167.968750
7493		164.062500
7494		171.875000
7495		167.968750
7496		175.781250
7497		171.875000
7498		175.781250
7499		175.781250
7500		179.687500
7501		179.687500
7502		183.593750
7503		179.687500
7504		183.593750
7505		183.593750
7506		187.500000
7507		187.500000
7508		191.406250
7509		187.500000
7510		191.406250
7511		191.406250
7512		195.312500
7513		191.406250
7514		195.312500
7515		195.312500
7516		199.218750
7517		195.312500
7518		199.218750
7519		199.218750
7520		203.125000
7521		199.218750
7522		203.125000
7523		199.218750
7524		203.125000
7525		203.125000
7526		207.031250
7527		203.125000
7528		207.031250
7529		203.125000
7530		207.031250
7531		207.031250
7532		210.937500
7533		207.031250
7534		210.937500
7535		207.031250
7536		210.937500
7537		207.031250
7538		210.937500
7539		207.031250
7540		210.937500
7541		207.031250
7542		210.937500
7543		207.031250
7544		210.937500
7545		207.031250
7546		210.937500
7547		207.031250
7548		210.937500
7549		207.031250
7550		210.937500
7551		207.031250
7552		210.937500
7553		207.031250
7554		210.937500
7555		207.031250
7556		210.937500
7557		207.031250
7558		207.031250
7559		203.125000
7560		207.031250
7561		203.125000
7562		207.031250
7563		203.125000
7564		207.031250
7565		199.218750
7566		203.125000
7567		199.218750
7568		203.125000
7569		199.218750
7570		203.125000
7571		195.312500
7572		199.218750
7573		195.312500
7574		199.218750
7575		191.406250
7576		195.312500
7577		191.406250
7578		195.312500
7579		187.500000
7580		191.406250
7581		183.593750
7582		191.406250
7583		183.593750
7584		187.500000
7585		179.687500
7586		183.593750
7587		179.687500
7588		183.593750
7589		175.781250
7590		179.687500
7591		171.875000
7592		175.781250
7593		167.968750
7594		171.875000
7595		164.062500
7596		171.875000
7597		160.156250
7598		167.968750
7599		156.250000
7600		164.062500
7601		152.343750
7602		160.156250
7603		148.437500
7604		156.250000
7605		144.531250
7606		152.343750
7607		140.625000
7608		148.437500
7609		136.718750
7610		144.531250
7611		132.812500
7612		140.625000
7613		128.906250
7614		132.812500
7615		125.000000
7616		128.906250
7617		117.187500
7618		125.000000
7619		113.281250
7620		121.093750
7621		109.375000
7622		117.187500
7623		105.468750
7624		109.375000
7625		97.656250
7626		105.468750
7627		93.750000
7628		101.562500
7629		89.843750
7630		93.750000
7631		82.031250
7632		89.843750
7633		78.125000
7634		85.937500
7635		70.312500
7636		78.125000
7637		66.406250
7638		74.218750
7639		58.593750
7640		66.406250
7641		54.687500
7642		62.500000
7643		46.875000
7644		54.687500
7645		42.968750
7646		50.781250
7647		35.156250
7648		42.968750
7649		31.250000
7650		39.062500
7651		23.437500
7652		31.250000
7653		19.531250
7654		27.343750
7655		11.718750
7656		19.531250
7657		7.812500
7658		15.625000
7659		0.000000
7660		7.812500
7661		-3.906250
7662		3.906250
7663		-11.718750
7664		-3.906250
7665		-15.625000
7666		-7.812500
7667		-23.437500
7668		-15.625000
7669		-27.343750
7670		-23.437500
7671		-35.156250
7672		-27.343750
7673		-39.062500
7674		-31.250000
7675		-46.875000
7676		-39.062500
7677		-50.781250
7678		-42.968750
7679		-58.593750
7680		-50.781250
7681		-62.500000
7682		-54.687500
7683		-66.406250
7684		-62.500000
7685		-74.218750
7686		-66.406250
7687		-78.125000
7688		-70.312500
7689		-82.031250
7690		-74.218750
7691		-89.843750
7692		-82.031250
7693		-93.750000
7694		-85.937500
7695		-97.656250
7696		-89.843750
7697		-101.562500
7698		-93.750000
7699		-105.468750
7700		-101.562500
7701		-109.375000
7702		-105.468750
7703		-113.281250
7704		-109.375000
7705		-117.187500
7706		-113.281250
7707		-125.000000
7708		-117.187500
7709		-128.906250
7710		-121.093750
7711		-128.906250
7712		-125.000000
7713		-132.812500
7714		-128.906250
7715		-136.718750
7716		-132.812500
7717		-140.625000
7718		-132.812500
7719		-140.625000
7720		-136.718750
7721		-144.531250
7722		-140.625000
7723		-148.437500
7724		-140.625000
7725		-148.437500
7726		-144.531250
7727		-152.343750
7728		-144.531250
7729		-156.250000
7730		-148.437500
7731		-156.250000
7732		-152.343750
7733		-156.250000
7734		-152.343750
7735		-160.156250
7736		-152.343750
7737		-160.156250
7738		-152.343750
7739		-160.156250
7740		-152.343750
7741		-160.156250
7742		-156.250000
7743		-160.156250
7744		-156.250000
7745		-160.156250
7746		-156.250000
7747		-160.156250
7748		-152.343750
7749		-160.156250
7750		-156.250000
7751		-160.156250
7752		-156.250000
7753		-160.156250
7754		-152.343750
7755		-160.156250
7756		-152.343750
7757		-156.250000
7758		-152.343750
7759		-156.250000
7760		-152.343750
7761		-156.250000
7762		-148.437500
7763		-152.343750
7764		-148.437500
7765		-148.437500
7766		-144.531250
7767		-148.437500
7768		-144.531250
7769		-144.531250
7770		-140.625000
7771		-144.531250
7772		-136.718750
7773		-140.625000
7774		-136.718750
7775		-136.718750
7776		-132.812500
7777		-136.718750
7778		-125.000000
7779		-132.812500
7780		-125.000000
7781		-132.812500
7782		-121.093750
7783		-125.000000
7784		-117.187500
7785		-121.093750
7786		-113.281250
7787		-117.187500
7788		-109.375000
7789		-113.281250
7790		-105.468750
7791		-109.375000
7792		-101.562500
7793		-101.562500
7794		-93.750000
7795		-101.562500
7796		-93.750000
7797		-97.656250
7798		-85.937500
7799		-89.843750
7800		-82.031250
7801		-82.031250
7802		-78.125000
7803		-78.125000
7804		-70.312500
7805		-78.125000
7806		-62.500000
7807		-70.312500
7808		-62.500000
7809		-62.500000
7810		-54.687500
7811		-58.593750
7812		-46.875000
7813		-50.781250
7814		-39.062500
7815		-46.875000
7816		-39.062500
7817		-39.062500
7818		-31.250000
7819		-35.156250
7820		-27.343750
7821		-27.343750
7822		-19.531250
7823		-23.437500
7824		-15.625000
7825		-15.625000
7826		-7.812500
7827		-11.718750
7828		0.000000
7829		-7.812500
7830		3.906250
7831		0.000000
7832		7.812500
7833		7.812500
7834		15.625000
7835		11.718750
7836		23.437500
7837		19.531250
7838		31.250000
7839		23.437500
7840		35.156250
7841		31.250000
7842		39.062500
7843		39.062500
7844		42.968750
7845		39.062500
7846		50.781250
7847		46.875000
7848		58.593750
7849		54.687500
7850		62.500000
7851		58.593750
7852		66.406250
7853		66.406250
7854		74.218750
7855		70.312500
7856		82.031250
7857		74.218750
7858		85.937500
7859		82.031250
7860		89.843750
7861		89.843750
7862		97.656250
7863		89.843750
7864		101.562500
7865		93.750000
7866		105.468750
7867		101.562500
7868		109.375000
7869		109.375000
7870		117.187500
7871		113.281250
7872		121.093750
7873		117.187500
7874		125.000000
7875		121.093750
7876		128.906250
7877		128.906250
7878		136.718750
7879		128.906250
7880		140.625000
7881		136.718750
7882		144.531250
7883		140.625000
7884		144.531250
7885		144.531250
7886		148.437500
7887		148.437500
7888		156.250000
7889		148.437500
7890		160.156250
7891		156.250000
7892		160.156250
7893		160.156250
7894		164.062500
7895		160.156250
7896		171.875000
7897		167.968750
7898		175.781250
7899		167.968750
7900		175.781250
7901		171.875000
7902		179.687500
7903		175.781250
7904		183.593750
7905		175.781250
7906		187.500000
7907		179.687500
7908		187.500000
7909		183.593750
7910		187.500000
7911		183.593750
7912		191.406250
7913		187.500000
7914		195.312500
7915		191.406250
7916		195.312500
7917		191.406250
7918		195.312500
7919		195.312500
7920		199.218750
7921		195.312500
7922		203.125000
7923		195.312500
7924		203.125000
7925		199.218750
7926		203.125000
7927		199.218750
7928		207.031250
7929		199.218750
7930		207.031250
7931		203.125000
7932		210.937500
7933		203.125000
7934		207.031250
7935		207.031250
7936		207.031250
7937		207.031250
7938		210.937500
7939		207.031250
7940		210.937500
7941		207.031250
7942		210.937500
7943		207.031250
7944		210.937500
7945		207.031250
7946		214.843750
7947		207.031250
7948		214.843750
7949		207.031250
7950		214.843750
7951		207.031250
7952		210.937500
7953		207.031250
7954		210.937500
7955		203.125000
7956		210.937500
7957		207.031250
7958		210.937500
7959		207.031250
7960		210.937500
7961		203.125000
7962		210.937500
7963		203.125000
7964		207.031250
7965		203.125000
7966		207.031250
7967		203.125000
7968		207.031250
7969		203.125000
7970		203.125000
7971		199.218750
7972		203.125000
7973		195.312500
7974		203.125000
7975		195.312500
7976		203.125000
7977		195.312500
7978		199.218750
7979		191.406250
7980		199.218750
7981		191.406250
7982		195.312500
7983		187.500000
7984		191.406250
7985		187.500000
7986		191.406250
7987		183.593750
7988		187.500000
7989		179.687500
7990		183.593750
7991		175.781250
7992		183.593750
7993		175.781250
7994		179.687500
7995		167.968750
7996		175.781250
7997		167.968750
7998		171.875000
7999		164.062500
8000		171.875000
8001		160.156250
8002		167.968750
8003		156.250000
8004		164.062500
8005		152.343750
8006		160.156250
8007		148.437500
8008		156.250000
8009		144.531250
8010		152.343750
8011		140.625000
8012		148.437500
8013		136.718750
8014		144.531250
8015		132.812500
8016		140.625000
8017		128.906250
8018		136.718750
8019		125.000000
8020		128.906250
8021		117.187500
8022		125.000000
8023		113.281250
8024		121.093750
8025		109.375000
8026		117.187500
8027		105.468750
8028		109.375000
8029		97.656250
8030		105.468750
8031		93.750000
8032		101.562500
8033		85.937500
8034		93.750000
8035		82.031250
8036		89.843750
8037		74.218750
8038		85.937500
8039		70.312500
8040		78.125000
8041		66.406250
8042		74.218750
8043		58.593750
8044		70.312500
8045		50.781250
8046		62.500000
8047		46.875000
8048		54.687500
8049		42.968750
8050		50.781250
8051		35.156250
8052		42.968750
8053		31.250000
8054		39.062500
8055		23.437500
8056		31.250000
8057		15.625000
8058		27.343750
8059		11.718750
8060		19.531250
8061		3.906250
8062		15.625000
8063		0.000000
8064		7.812500
8065		-7.812500
8066		3.906250
8067		-11.718750
8068		-3.906250
8069		-15.625000
8070		-11.718750
8071		-23.437500
8072		-15.625000
8073		-31.250000
8074		-19.531250
8075		-35.156250
8076		-27.343750
8077		-42.968750
8078		-31.250000
8079		-46.875000
8080		-39.062500
8081		-54.687500
8082		-42.968750
8083		-58.593750
8084		-46.875000
8085		-62.500000
8086		-54.687500
8087		-66.406250
8088		-62.500000
8089		-74.218750
8090		-62.500000
8091		-78.125000
8092		-70.312500
8093		-85.937500
8094		-74.218750
8095		-89.843750
8096		-78.125000
8097		-93.750000
8098		-85.937500
8099		-97.656250
8100		-89.843750
8101		-101.562500
8102		-93.750000
8103		-105.468750
8104		-101.562500
8105		-109.375000
8106		-105.468750
8107		-113.281250
8108		-109.375000
8109		-117.187500
8110		-113.281250
8111		-125.000000
8112		-117.187500
8113		-125.000000
8114		-121.093750
8115		-128.906250
8116		-125.000000
8117		-132.812500
8118		-128.906250
8119		-136.718750
8120		-132.812500
8121		-140.625000
8122		-132.812500
8123		-140.625000
8124		-136.718750
8125		-144.531250
8126		-140.625000
8127		-148.437500
8128		-140.625000
8129		-148.437500
8130		-144.531250
8131		-148.437500
8132		-144.531250
8133		-152.343750
8134		-148.437500
8135		-152.343750
8136		-148.437500
8137		-156.250000
8138		-152.343750
8139		-156.250000
8140		-152.343750
8141		-156.250000
8142		-152.343750
8143		-156.250000
8144		-152.343750
8145		-160.156250
8146		-152.343750
8147		-160.156250
8148		-152.343750
8149		-160.156250
8150		-156.250000
8151		-160.156250
8152		-156.250000
8153		-160.156250
8154		-156.250000
8155		-160.156250
8156		-156.250000
8157		-156.250000
8158		-152.343750
8159		-156.250000
8160		-152.343750
8161		-156.250000
8162		-148.437500
8163		-156.250000
8164		-148.437500
8165		-152.343750
8166		-148.437500
8167		-152.343750
8168		-144.531250
8169		-148.437500
8170		-144.531250
8171		-148.437500
8172		-144.531250
8173		-144.531250
8174		-140.625000
8175		-144.531250
8176		-136.718750
8177		-140.625000
8178		-132.812500
8179		-140.625000
8180		-132.812500
8181		-132.812500
8182		-128.906250
8183		-128.906250
8184		-125.000000
8185		-128.906250
8186		-121.093750
8187		-125.000000
8188		-117.187500
8189		-121.093750
8190		-113.281250
8191		-117.187500
8192		-109.375000
8193		-113.281250
8194		-105.468750
8195		-109.375000
8196		-101.562500
8197		-101.562500
8198		-97.656250
8199		-97.656250
8200		-89.843750
8201		-93.750000
8202		-85.937500
8203		-89.843750
8204		-82.031250
8205		-85.937500
8206		-74.218750
8207		-78.125000
8208		-70.312500
8209		-74.218750
8210		-66.406250
8211		-66.406250
8212		-58.593750
8213		-62.500000
8214		-54.687500
8215		-58.593750
8216		-50.781250
8217		-50.781250
8218		-42.968750
8219		-46.875000
8220		-39.062500
8221		-39.062500
8222		-31.250000
8223		-35.156250
8224		-27.343750
8225		-27.343750
8226		-19.531250
8227		-23.437500
8228		-15.625000
8229		-15.625000
8230		-7.812500
8231		-11.718750
8232		-3.906250
8233		-3.906250
8234		3.906250
8235		0.000000
8236		7.812500
8237		7.812500
8238		15.625000
8239		15.625000
8240		19.531250
8241		19.531250
8242		27.343750
8243		23.437500
8244		35.156250
8245		31.250000
8246		39.062500
8247		39.062500
8248		46.875000
8249		42.968750
8250		50.781250
8251		50.781250
8252		58.593750
8253		54.687500
8254		62.500000
8255		62.500000
8256		70.312500
8257		66.406250
8258		74.218750
8259		74.218750
8260		78.125000
8261		78.125000
8262		85.937500
8263		82.031250
8264		89.843750
8265		89.843750
8266		93.750000
8267		93.750000
8268		101.562500
8269		97.656250
8270		105.468750
8271		105.468750
8272		109.375000
8273		109.375000
8274		117.187500
8275		113.281250
8276		121.093750
8277		117.187500
8278		125.000000
8279		125.000000
8280		128.906250
8281		128.906250
8282		132.812500
8283		132.812500
8284		140.625000
8285		136.718750
8286		144.531250
8287		140.625000
8288		148.437500
8289		144.531250
8290		152.343750
8291		148.437500
8292		156.250000
8293		152.343750
8294		160.156250
8295		156.250000
8296		164.062500
8297		160.156250
8298		164.062500
8299		164.062500
8300		167.968750
8301		167.968750
8302		171.875000
8303		171.875000
8304		175.781250
8305		171.875000
8306		179.687500
8307		175.781250
8308		183.593750
8309		179.687500
8310		183.593750
8311		179.687500
8312		187.500000
8313		183.593750
8314		187.500000
8315		187.500000
8316		191.406250
8317		187.500000
8318		195.312500
8319		191.406250
8320		195.312500
8321		195.312500
8322		199.218750
8323		195.312500
8324		199.218750
8325		199.218750
8326		203.125000
8327		199.218750
8328		203.125000
8329		199.218750
8330		203.125000
8331		203.125000
8332		207.031250
8333		203.125000
8334		207.031250
8335		203.125000
8336		207.031250
8337		207.031250
8338		207.031250
8339		207.031250
8340		210.937500
8341		207.031250
8342		210.937500
8343		207.031250
8344		210.937500
8345		207.031250
8346		210.937500
8347		207.031250
8348		210.937500
8349		207.031250
8350		210.937500
8351		207.031250
8352		210.937500
8353		207.031250
8354		210.937500
8355		207.031250
8356		210.937500
8357		207.031250
8358		210.937500
8359		207.031250
8360		210.937500
8361		207.031250
8362		210.937500
8363		207.031250
8364		210.937500
8365		207.031250
8366		207.031250
8367		203.125000
8368		207.031250
8369		203.125000
8370		207.031250
8371		203.125000
8372		207.031250
8373		199.218750
8374		203.125000
8375		199.218750
8376		203.125000
8377		199.218750
8378		203.125000
8379		195.312500
8380		199.218750
8381		195.312500
8382		199.218750
8383		191.406250
8384		195.312500
8385		187.500000
8386		195.312500
8387		187.500000
8388		191.406250
8389		183.593750
8390		191.406250
8391		183.593750
8392		187.500000
8393		179.687500
8394		183.593750
8395		175.781250
8396		183.593750
8397		175.781250
8398		179.687500
8399		171.875000
8400		175.781250
8401		167.968750
8402		171.875000
8403		164.062500
8404		171.875000
8405		160.156250
8406		167.968750
8407		156.250000
8408		164.062500
8409		152.343750
8410		160.156250
8411		148.437500
8412		156.250000
8413		144.531250
8414		152.343750
8415		140.625000
8416		148.437500
8417		136.718750
8418		144.531250
8419		132.812500
8420		140.625000
8421		128.906250
8422		132.812500
8423		121.093750
8424		128.906250
8425		117.187500
8426		125.000000
8427		113.281250
8428		121.093750
8429		109.375000
8430		113.281250
8431		101.562500
8432		109.375000
8433		97.656250
8434		105.468750
8435		93.750000
8436		101.562500
8437		85.937500
8438		93.750000
8439		82.031250
8440		89.843750
8441		78.125000
8442		82.031250
8443		70.312500
8444		78.125000
8445		66.406250
8446		70.312500
8447		58.593750
8448		66.406250
8449		54.687500
8450		62.500000
8451		46.875000
8452		54.687500
8453		42.968750
8454		50.781250
8455		35.156250
8456		42.968750
8457		27.343750
8458		39.062500
8459		23.437500
8460		31.250000
8461		19.531250
8462		23.437500
8463		11.718750
8464		19.531250
8465		3.906250
8466		11.718750
8467		0.000000
8468		7.812500
8469		-7.812500
8470		0.000000
8471		-11.718750
8472		-3.906250
8473		-19.531250
8474		-11.718750
8475		-23.437500
8476		-15.625000
8477		-31.250000
8478		-23.437500
8479		-35.156250
8480		-27.343750
8481		-42.968750
8482		-35.156250
8483		-46.875000
8484		-39.062500
8485		-54.687500
8486		-46.875000
8487		-58.593750
8488		-50.781250
8489		-62.500000
8490		-54.687500
8491		-70.312500
8492		-62.500000
8493		-74.218750
8494		-66.406250
8495		-78.125000
8496		-70.312500
8497		-82.031250
8498		-78.125000
8499		-89.843750
8500		-82.031250
8501		-93.750000
8502		-85.937500
8503		-97.656250
8504		-93.750000
8505		-101.562500
8506		-93.750000
8507		-105.468750
8508		-101.562500
8509		-113.281250
8510		-105.468750
8511		-117.187500
8512		-109.375000
8513		-117.187500
8514		-113.281250
8515		-121.093750
8516		-117.187500
8517		-125.000000
8518		-121.093750
8519		-128.906250
8520		-125.000000
8521		-132.812500
8522		-128.906250
8523		-136.718750
8524		-132.812500
8525		-140.625000
8526		-132.812500
8527		-140.625000
8528		-136.718750
8529		-144.531250
8530		-140.625000
8531		-148.437500
8532		-140.625000
8533		-148.437500
8534		-144.531250
8535		-152.343750
8536		-144.531250
8537		-152.343750
8538		-148.437500
8539		-152.343750
8540		-148.437500
8541		-156.250000
8542		-152.343750
8543		-156.250000
8544		-152.343750
8545		-156.250000
8546		-152.343750
8547		-160.156250
8548		-156.250000
8549		-160.156250
8550		-156.250000
8551		-160.156250
8552		-156.250000
8553		-160.156250
8554		-156.250000
8555		-160.156250
8556		-156.250000
8557		-160.156250
8558		-156.250000
8559		-160.156250
8560		-156.250000
8561		-156.250000
8562		-152.343750
8563		-156.250000
8564		-152.343750
8565		-156.250000
8566		-152.343750
8567		-152.343750
8568		-148.437500
8569		-152.343750
8570		-148.437500
8571		-152.343750
8572		-148.437500
8573		-148.437500
8574		-144.531250
8575		-148.437500
8576		-144.531250
8577		-144.531250
8578		-140.625000
8579		-140.625000
8580		-136.718750
8581		-140.625000
8582		-136.718750
8583		-136.718750
8584		-132.812500
8585		-132.812500
8586		-128.906250
8587		-128.906250
8588		-125.000000
8589		-125.000000
8590		-121.093750
8591		-125.000000
8592		-117.187500
8593		-121.093750
8594		-113.281250
8595		-117.187500
8596		-109.375000
8597		-109.375000
8598		-105.468750
8599		-105.468750
8600		-101.562500
8601		-101.562500
8602		-97.656250
8603		-97.656250
8604		-89.843750
8605		-93.750000
8606		-85.937500
8607		-89.843750
8608		-82.031250
8609		-82.031250
8610		-78.125000
8611		-78.125000
8612		-70.312500
8613		-74.218750
8614		-66.406250
8615		-66.406250
8616		-58.593750
8617		-62.500000
8618		-54.687500
8619		-54.687500
8620		-46.875000
8621		-50.781250
8622		-42.968750
8623		-42.968750
8624		-39.062500
8625		-39.062500
8626		-31.250000
8627		-35.156250
8628		-27.343750
8629		-27.343750
8630		-19.531250
8631		-19.531250
8632		-15.625000
8633		-15.625000
8634		-7.812500
8635		-7.812500
8636		0.000000
8637		-3.906250
8638		3.906250
8639		3.906250
8640		11.718750
8641		7.812500
8642		15.625000
8643		15.625000
8644		23.437500
8645		19.531250
8646		27.343750
8647		27.343750
8648		35.156250
8649		31.250000
8650		42.968750
8651		39.062500
8652		46.875000
8653		42.968750
8654		50.781250
8655		50.781250
8656		58.593750
8657		54.687500
8658		62.500000
8659		62.500000
8660		70.312500
8661		66.406250
8662		74.218750
8663		74.218750
8664		78.125000
8665		78.125000
8666		85.937500
8667		82.031250
8668		89.843750
8669		89.843750
8670		97.656250
8671		93.750000
8672		101.562500
8673		97.656250
8674		105.468750
8675		105.468750
8676		113.281250
8677		109.375000
8678		117.187500
8679		113.281250
8680		121.093750
8681		117.187500
8682		125.000000
8683		125.000000
8684		132.812500
8685		128.906250
8686		132.812500
8687		132.812500
8688		140.625000
8689		136.718750
8690		144.531250
8691		140.625000
8692		148.437500
8693		144.531250
8694		152.343750
8695		148.437500
8696		156.250000
8697		152.343750
8698		160.156250
8699		156.250000
8700		164.062500
8701		160.156250
8702		164.062500
8703		164.062500
8704		167.968750
8705		167.968750
8706		171.875000
8707		171.875000
8708		175.781250
8709		171.875000
8710		179.687500
8711		175.781250
8712		183.593750
8713		179.687500
8714		183.593750
8715		179.687500
8716		187.500000
8717		183.593750
8718		187.500000
8719		187.500000
8720		191.406250
8721		187.500000
8722		191.406250
8723		191.406250
8724		195.312500
8725		191.406250
8726		195.312500
8727		195.312500
8728		199.218750
8729		195.312500
8730		203.125000
8731		195.312500
8732		203.125000
8733		199.218750
8734		203.125000
8735		199.218750
8736		203.125000
8737		203.125000
8738		207.031250
8739		203.125000
8740		207.031250
8741		203.125000
8742		207.031250
8743		203.125000
8744		210.937500
8745		207.031250
8746		210.937500
8747		207.031250
8748		210.937500
8749		207.031250
8750		210.937500
8751		207.031250
8752		210.937500
8753		207.031250
8754		210.937500
8755		207.031250
8756		210.937500
8757		207.031250
8758		210.937500
8759		207.031250
8760		210.937500
8761		207.031250
8762		210.937500
8763		207.031250
8764		210.937500
8765		207.031250
8766		210.937500
8767		203.125000
8768		207.031250
8769		203.125000
8770		207.031250
8771		203.125000
8772		207.031250
8773		203.125000
8774		207.031250
8775		199.218750
8776		203.125000
8777		199.218750
8778		203.125000
8779		195.312500
8780		203.125000
8781		195.312500
8782		199.218750
8783		195.312500
8784		199.218750
8785		191.406250
8786		199.218750
8787		191.406250
8788		195.312500
8789		187.500000
8790		195.312500
8791		187.500000
8792		191.406250
8793		183.593750
8794		187.500000
8795		179.687500
8796		187.500000
8797		179.687500
8798		183.593750
8799		175.781250
8800		179.687500
8801		171.875000
8802		179.687500
8803		167.968750
8804		175.781250
8805		167.968750
8806		171.875000
8807		164.062500
8808		167.968750
8809		160.156250
8810		164.062500
8811		156.250000
8812		160.156250
8813		152.343750
8814		156.250000
8815		148.437500
8816		152.343750
8817		144.531250
8818		148.437500
8819		140.625000
8820		144.531250
8821		136.718750
8822		140.625000
8823		128.906250
8824		136.718750
8825		125.000000
8826		132.812500
8827		121.093750
8828		128.906250
8829		117.187500
8830		125.000000
8831		113.281250
8832		117.187500
8833		105.468750
8834		113.281250
8835		101.562500
8836		109.375000
8837		97.656250
8838		105.468750
8839		89.843750
8840		97.656250
8841		85.937500
8842		93.750000
8843		78.125000
8844		85.937500
8845		74.218750
8846		82.031250
8847		70.312500
8848		78.125000
8849		62.500000
8850		70.312500
8851		58.593750
8852		66.406250
8853		50.781250
8854		58.593750
8855		46.875000
8856		54.687500
8857		39.062500
8858		50.781250
8859		35.156250
8860		42.968750
8861		27.343750
8862		35.156250
8863		23.437500
8864		27.343750
8865		15.625000
8866		23.437500
8867		7.812500
8868		19.531250
8869		3.906250
8870		11.718750
8871		-3.906250
8872		3.906250
8873		-7.812500
8874		0.000000
8875		-15.625000
8876		-7.812500
8877		-19.531250
8878		-11.718750
8879		-27.343750
8880		-15.625000
8881		-31.250000
8882		-23.437500
8883		-39.062500
8884		-31.250000
8885		-42.968750
8886		-35.156250
8887		-46.875000
8888		-42.968750
8889		-54.687500
8890		-46.875000
8891		-58.593750
8892		-50.781250
8893		-66.406250
8894		-58.593750
8895		-70.312500
8896		-62.500000
8897		-78.125000
8898		-70.312500
8899		-82.031250
8900		-74.218750
8901		-85.937500
8902		-78.125000
8903		-89.843750
8904		-85.937500
8905		-93.750000
8906		-89.843750
8907		-101.562500
8908		-93.750000
8909		-105.468750
8910		-97.656250
8911		-109.375000
8912		-101.562500
8913		-113.281250
8914		-105.468750
8915		-117.187500
8916		-109.375000
8917		-121.093750
8918		-113.281250
8919		-125.000000
8920		-117.187500
8921		-128.906250
8922		-121.093750
8923		-132.812500
8924		-125.000000
8925		-136.718750
8926		-128.906250
8927		-136.718750
8928		-132.812500
8929		-140.625000
8930		-136.718750
8931		-144.531250
8932		-140.625000
8933		-144.531250
8934		-140.625000
8935		-148.437500
8936		-144.531250
8937		-152.343750
8938		-144.531250
8939		-152.343750
8940		-148.437500
8941		-152.343750
8942		-148.437500
8943		-156.250000
8944		-152.343750
8945		-156.250000
8946		-152.343750
8947		-156.250000
8948		-152.343750
8949		-160.156250
8950		-156.250000
8951		-160.156250
8952		-156.250000
8953		-160.156250
8954		-156.250000
8955		-160.156250
8956		-156.250000
8957		-160.156250
8958		-156.250000
8959		-160.156250
8960		-156.250000
8961		-160.156250
8962		-156.250000
8963		-160.156250
8964		-156.250000
8965		-160.156250
8966		-156.250000
8967		-160.156250
8968		-152.343750
8969		-156.250000
8970		-152.343750
8971		-156.250000
8972		-152.343750
8973		-152.343750
8974		-148.437500
8975		-152.343750
8976		-148.437500
8977		-148.437500
8978		-144.531250
8979		-148.437500
8980		-144.531250
8981		-144.531250
8982		-140.625000
8983		-144.531250
8984		-136.718750
8985		-140.625000
8986		-136.718750
8987		-136.718750
8988		-132.812500
8989		-136.718750
8990		-128.906250
8991		-132.812500
8992		-125.000000
8993		-128.906250
8994		-121.093750
8995		-125.000000
8996		-117.187500
8997		-121.093750
8998		-113.281250
8999		-117.187500
9000		-109.375000
9001		-113.281250
9002		-105.468750
9003		-109.375000
9004		-101.562500
9005		-105.468750
9006		-97.656250
9007		-97.656250
9008		-89.843750
9009		-93.750000
9010		-85.937500
9011		-89.843750
9012		-82.031250
9013		-85.937500
9014		-78.125000
9015		-78.125000
9016		-70.312500
9017		-74.218750
9018		-66.406250
9019		-66.406250
9020		-62.500000
9021		-62.500000
9022		-54.687500
9023		-58.593750
9024		-50.781250
9025		-50.781250
9026		-42.968750
9027		-46.875000
9028		-39.062500
9029		-39.062500
9030		-31.250000
9031		-35.156250
9032		-27.343750
9033		-27.343750
9034		-19.531250
9035		-23.437500
9036		-15.625000
9037		-15.625000
9038		-7.812500
9039		-11.718750
9040		-3.906250
9041		-3.906250
9042		3.906250
9043		0.000000
9044		7.812500
9045		7.812500
9046		15.625000
9047		11.718750
9048		23.437500
9049		19.531250
9050		27.343750
9051		23.437500
9052		31.250000
9053		31.250000
9054		39.062500
9055		39.062500
9056		46.875000
9057		42.968750
9058		50.781250
9059		50.781250
9060		58.593750
9061		54.687500
9062		62.500000
9063		58.593750
9064		66.406250
9065		66.406250
9066		74.218750
9067		70.312500
9068		78.125000
9069		78.125000
9070		85.937500
9071		82.031250
9072		89.843750
9073		89.843750
9074		93.750000
9075		93.750000
9076		101.562500
9077		97.656250
9078		105.468750
9079		105.468750
9080		109.375000
9081		109.375000
9082		117.187500
9083		113.281250
9084		121.093750
9085		117.187500
9086		125.000000
9087		125.000000
9088		128.906250
9089		128.906250
9090		136.718750
9091		132.812500
9092		140.625000
9093		136.718750
9094		144.531250
9095		140.625000
9096		144.531250
9097		144.531250
9098		152.343750
9099		148.437500
9100		152.343750
9101		152.343750
9102		160.156250
9103		156.250000
9104		164.062500
9105		160.156250
9106		164.062500
9107		164.062500
9108		167.968750
9109		167.968750
9110		171.875000
9111		167.968750
9112		175.781250
9113		171.875000
9114		179.687500
9115		175.781250
9116		179.687500
9117		179.687500
9118		183.593750
9119		179.687500
9120		187.500000
9121		183.593750
9122		187.500000
9123		187.500000
9124		191.406250
9125		187.500000
9126		191.406250
9127		191.406250
9128		195.312500
9129		191.406250
9130		195.312500
9131		195.312500
9132		199.218750
9133		195.312500
9134		203.125000
9135		195.312500
9136		203.125000
9137		199.218750
9138		203.125000
9139		199.218750
9140		203.125000
9141		203.125000
9142		207.031250
9143		203.125000
9144		207.031250
9145		203.125000
9146		207.031250
9147		203.125000
9148		207.031250
9149		203.125000
9150		210.937500
9151		203.125000
9152		210.937500
9153		207.031250
9154		210.937500
9155		207.031250
9156		210.937500
9157		207.031250
9158		210.937500
9159		207.031250
9160		210.937500
9161		207.031250
9162		210.937500
9163		207.031250
9164		210.937500
9165		207.031250
9166		210.937500
9167		207.031250
9168		210.937500
9169		207.031250
9170		207.031250
9171		203.125000
9172		207.031250
9173		203.125000
9174		207.031250
9175		203.125000
9176		207.031250
9177		203.125000
9178		203.125000
9179		199.218750
9180		203.125000
9181		199.218750
9182		203.125000
9183		199.218750
9184		203.125000
9185		195.312500
9186		199.218750
9187		195.312500
9188		199.218750
9189		191.406250
9190		195.312500
9191		191.406250
9192		195.312500
9193		187.500000
9194		191.406250
9195		183.593750
9196		191.406250
9197		183.593750
9198		187.500000
9199		179.687500
9200		183.593750
9201		175.781250
9202		183.593750
9203		175.781250
9204		179.687500
9205		171.875000
9206		175.781250
9207		167.968750
9208		175.781250
9209		164.062500
9210		171.875000
9211		160.156250
9212		167.968750
9213		160.156250
9214		164.062500
9215		152.343750
9216		160.156250
9217		152.343750
9218		156.250000
9219		148.437500
9220		152.343750
9221		140.625000
9222		148.437500
9223		136.718750
9224		144.531250
9225		132.812500
9226		140.625000
9227		128.906250
9228		136.718750
9229		125.000000
9230		128.906250
9231		117.187500
9232		125.000000
9233		113.281250
9234		121.093750
9235		109.375000
9236		117.187500
9237		105.468750
9238		113.281250
9239		97.656250
9240		105.468750
9241		93.750000
9242		101.562500
9243		89.843750
9244		97.656250
9245		82.031250
9246		89.843750
9247		78.125000
9248		85.937500
9249		74.218750
9250		82.031250
9251		66.406250
9252		74.218750
9253		58.593750
9254		70.312500
9255		54.687500
9256		62.500000
9257		50.781250
9258		54.687500
9259		42.968750
9260		50.781250
9261		39.062500
9262		46.875000
9263		31.250000
9264		39.062500
9265		27.343750
9266		35.156250
9267		19.531250
9268		27.343750
9269		11.718750
9270		19.531250
9271		7.812500
9272		15.625000
9273		0.000000
9274		7.812500
9275		-3.906250
9276		3.906250
9277		-11.718750
9278		-3.906250
9279		-15.625000
9280		-7.812500
9281		-23.437500
9282		-15.625000
9283		-27.343750
9284		-19.531250
9285		-35.156250
9286		-27.343750
9287		-39.062500
9288		-31.250000
9289		-46.875000
9290		-39.062500
9291		-50.781250
9292		-42.968750
9293		-54.687500
9294		-50.781250
9295		-62.500000
9296		-54.687500
9297		-66.406250
9298		-58.593750
9299		-74.218750
9300		-66.406250
9301		-78.125000
9302		-70.312500
9303		-82.031250
9304		-74.218750
9305		-85.937500
9306		-82.031250
9307		-93.750000
9308		-85.937500
9309		-97.656250
9310		-89.843750
9311		-101.562500
9312		-93.750000
9313		-105.468750
9314		-101.562500
9315		-109.375000
9316		-105.468750
9317		-113.281250
9318		-109.375000
9319		-117.187500
9320		-113.281250
9321		-121.093750
9322		-117.187500
9323		-125.000000
9324		-121.093750
9325		-128.906250
9326		-125.000000
9327		-132.812500
9328		-128.906250
9329		-136.718750
9330		-128.906250
9331		-140.625000
9332		-132.812500
9333		-140.625000
9334		-136.718750
9335		-144.531250
9336		-140.625000
9337		-148.437500
9338		-140.625000
9339		-148.437500
9340		-144.531250
9341		-152.343750
9342		-148.437500
9343		-152.343750
9344		-148.437500
9345		-156.250000
9346		-148.437500
9347		-156.250000
9348		-152.343750
9349		-156.250000
9350		-152.343750
9351		-160.156250
9352		-152.343750
9353		-160.156250
9354		-156.250000
9355		-160.156250
9356		-156.250000
9357		-160.156250
9358		-156.250000
9359		-160.156250
9360		-156.250000
9361		-160.156250
9362		-156.250000
9363		-160.156250
9364		-156.250000
9365		-160.156250
9366		-156.250000
9367		-160.156250
9368		-156.250000
9369		-160.156250
9370		-156.250000
9371		-156.250000
9372		-152.343750
9373		-156.250000
9374		-152.343750
9375		-156.250000
9376		-152.343750
9377		-152.343750
9378		-148.437500
9379		-152.343750
9380		-148.437500
9381		-148.437500
9382		-144.531250
9383		-148.437500
9384		-140.625000
9385		-144.531250
9386		-140.625000
9387		-140.625000
9388		-136.718750
9389		-140.625000
9390		-132.812500
9391		-136.718750
9392		-132.812500
9393		-132.812500
9394		-125.000000
9395		-128.906250
9396		-125.000000
9397		-125.000000
9398		-121.093750
9399		-121.093750
9400		-117.187500
9401		-117.187500
9402		-113.281250
9403		-113.281250
9404		-109.375000
9405		-109.375000
9406		-105.468750
9407		-105.468750
9408		-97.656250
9409		-101.562500
9410		-93.750000
9411		-97.656250
9412		-89.843750
9413		-93.750000
9414		-85.937500
9415		-85.937500
9416		-82.031250
9417		-82.031250
9418		-74.218750
9419		-78.125000
9420		-70.312500
9421		-70.312500
9422		-66.406250
9423		-66.406250
9424		-58.593750
9425		-58.593750
9426		-54.687500
9427		-54.687500
9428		-46.875000
9429		-50.781250
9430		-42.968750
9431		-42.968750
9432		-35.156250
9433		-39.062500
9434		-31.250000
9435		-31.250000
9436		-23.437500
9437		-27.343750
9438		-19.531250
9439		-19.531250
9440		-11.718750
9441		-15.625000
9442		-7.812500
9443		-7.812500
9444		0.000000
9445		-3.906250
9446		3.906250
9447		3.906250
9448		11.718750
9449		7.812500
9450		19.531250
9451		15.625000
9452		23.437500
9453		19.531250
9454		27.343750
9455		27.343750
9456		35.156250
9457		31.250000
9458		39.062500
9459		39.062500
9460		46.875000
9461		46.875000
9462		54.687500
9463		50.781250
9464		58.593750
9465		58.593750
9466		62.500000
9467		62.500000
9468		70.312500
9469		66.406250
9470		74.218750
9471		74.218750
9472		82.031250
9473		78.125000
9474		85.937500
9475		85.937500
9476		93.750000
9477		89.843750
9478		97.656250
9479		93.750000
9480		101.562500
9481		101.562500
9482		109.375000
9483		105.468750
9484		113.281250
9485		109.375000
9486		117.187500
9487		113.281250
9488		121.093750
9489		121.093750
9490		125.000000
9491		125.000000
9492		132.812500
9493		128.906250
9494		136.718750
9495		132.812500
9496		140.625000
9497		136.718750
9498		144.531250
9499		140.625000
9500		148.437500
9501		144.531250
9502		152.343750
9503		148.437500
9504		156.250000
9505		152.343750
9506		160.156250
9507		156.250000
9508		164.062500
9509		160.156250
9510		167.968750
9511		164.062500
9512		171.875000
9513		167.968750
9514		175.781250
9515		171.875000
9516		175.781250
9517		175.781250
9518		179.687500
9519		175.781250
9520		179.687500
9521		179.687500
9522		183.593750
9523		179.687500
9524		187.500000
9525		183.593750
9526		187.500000
9527		187.500000
9528		191.406250
9529		187.500000
9530		195.312500
9531		191.406250
9532		195.312500
9533		195.312500
9534		199.218750
9535		195.312500
9536		199.218750
9537		195.312500
9538		199.218750
9539		199.218750
9540		203.125000
9541		199.218750
9542		203.125000
9543		199.218750
9544		207.031250
9545		203.125000
9546		207.031250
9547		203.125000
9548		207.031250
9549		203.125000
9550		207.031250
9551		203.125000
9552		207.031250
9553		207.031250
9554		210.937500
9555		207.031250
9556		210.937500
9557		207.031250
9558		210.937500
9559		207.031250
9560		210.937500
9561		207.031250
9562		210.937500
9563		207.031250
9564		210.937500
9565		207.031250
9566		210.937500
9567		207.031250
9568		210.937500
9569		207.031250
9570		210.937500
9571		207.031250
9572		210.937500
9573		207.031250
9574		210.937500
9575		207.031250
9576		210.937500
9577		203.125000
9578		207.031250
9579		203.125000
9580		207.031250
9581		203.125000
9582		207.031250
9583		203.125000
9584		203.125000
9585		199.218750
9586		203.125000
9587		199.218750
9588		203.125000
9589		195.312500
9590		199.218750
9591		191.406250
9592		199.218750
9593		191.406250
9594		199.218750
9595		187.500000
9596		195.312500
9597		187.500000
9598		195.312500
9599		187.500000
9600		191.406250
9601		183.593750
9602		187.500000
9603		179.687500
9604		187.500000
9605		179.687500
9606		183.593750
9607		175.781250
9608		179.687500
9609		171.875000
9610		179.687500
9611		167.968750
9612		175.781250
9613		164.062500
9614		171.875000
9615		164.062500
9616		167.968750
9617		156.250000
9618		164.062500
9619		152.343750
9620		164.062500
9621		152.343750
9622		160.156250
9623		144.531250
9624		156.250000
9625		140.625000
9626		152.343750
9627		136.718750
9628		144.531250
9629		132.812500
9630		140.625000
9631		128.906250
9632		136.718750
9633		125.000000
9634		132.812500
9635		121.093750
9636		128.906250
9637		113.281250
9638		125.000000
9639		109.375000
9640		117.187500
9641		105.468750
9642		113.281250
9643		97.656250
9644		109.375000
9645		93.750000
9646		105.468750
9647		89.843750
9648		97.656250
9649		85.937500
9650		93.750000
9651		78.125000
9652		85.937500
9653		70.312500
9654		82.031250
9655		66.406250
9656		74.218750
9657		58.593750
9658		70.312500
9659		54.687500
9660		62.500000
9661		50.781250
9662		58.593750
9663		42.968750
9664		54.687500
9665		39.062500
9666		46.875000
9667		31.250000
9668		39.062500
9669		27.343750
9670		35.156250
9671		15.625000
9672		31.250000
9673		15.625000
9674		23.437500
9675		7.812500
9676		15.625000
9677		0.000000
9678		11.718750
9679		-3.906250
9680		7.812500
9681		-7.812500
9682		0.000000
9683		-15.625000
9684		-7.812500
9685		-23.437500
9686		-11.718750
9687		-27.343750
9688		-15.625000
9689		-35.156250
9690		-23.437500
9691		-39.062500
9692		-27.343750
9693		-46.875000
9694		-35.156250
9695		-50.781250
9696		-42.968750
9697		-54.687500
9698		-46.875000
9699		-58.593750
9700		-54.687500
9701		-66.406250
9702		-58.593750
9703		-74.218750
9704		-62.500000
9705		-78.125000
9706		-66.406250
9707		-82.031250
9708		-74.218750
9709		-89.843750
9710		-78.125000
9711		-93.750000
9712		-82.031250
9713		-97.656250
9714		-89.843750
9715		-101.562500
9716		-93.750000
9717		-105.468750
9718		-97.656250
9719		-109.375000
9720		-101.562500
9721		-113.281250
9722		-105.468750
9723		-117.187500
9724		-109.375000
9725		-121.093750
9726		-113.281250
9727		-125.000000
9728		-117.187500
9729		-128.906250
9730		-121.093750
9731		-132.812500
9732		-125.000000
9733		-132.812500
9734		-128.906250
9735		-140.625000
9736		-132.812500
9737		-140.625000
9738		-132.812500
9739		-144.531250
9740		-136.718750
9741		-148.437500
9742		-140.625000
9743		-148.437500
9744		-140.625000
9745		-152.343750
9746		-140.625000
9747		-152.343750
9748		-144.531250
9749		-152.343750
9750		-148.437500
9751		-152.343750
9752		-152.343750
9753		-156.250000
9754		-148.437500
9755		-160.156250
9756		-152.343750
9757		-160.156250
9758		-152.343750
9759		-160.156250
9760		-152.343750
9761		-160.156250
9762		-152.343750
9763		-160.156250
9764		-152.343750
9765		-160.156250
9766		-152.343750
9767		-156.250000
9768		-156.250000
9769		-160.156250
9770		-152.343750
9771		-160.156250
9772		-152.343750
9773		-156.250000
9774		-148.437500
9775		-156.250000
9776		-148.437500
9777		-156.250000
9778		-148.437500
9779		-156.250000
9780		-148.437500
9781		-152.343750
9782		-144.531250
9783		-148.437500
9784		-144.531250
9785		-148.437500
9786		-140.625000
9787		-144.531250
9788		-136.718750
9789		-144.531250
9790		-136.718750
9791		-140.625000
9792		-132.812500
9793		-140.625000
9794		-128.906250
9795		-136.718750
9796		-125.000000
9797		-132.812500
9798		-121.093750
9799		-128.906250
9800		-121.093750
9801		-125.000000
9802		-117.187500
9803		-121.093750
9804		-113.281250
9805		-117.187500
9806		-109.375000
9807		-113.281250
9808		-105.468750
9809		-109.375000
9810		-101.562500
9811		-105.468750
9812		-93.750000
9813		-101.562500
9814		-89.843750
9815		-97.656250
9816		-85.937500
9817		-89.843750
9818		-82.031250
9819		-85.937500
9820		-78.125000
9821		-82.031250
9822		-70.312500
9823		-78.125000
9824		-66.406250
9825		-70.312500
9826		-58.593750
9827		-66.406250
9828		-54.687500
9829		-58.593750
9830		-50.781250
9831		-54.687500
9832		-42.968750
9833		-46.875000
9834		-39.062500
9835		-42.968750
9836		-35.156250
9837		-35.156250
9838		-27.343750
9839		-31.250000
9840		-19.531250
9841		-27.343750
9842		-15.625000
9843		-19.531250
9844		-7.812500
9845		-11.718750
9846		-3.906250
9847		-7.812500
9848		3.906250
9849		0.000000
9850		7.812500
9851		7.812500
9852		15.625000
9853		11.718750
9854		19.531250
9855		15.625000
9856		27.343750
9857		23.437500
9858		31.250000
9859		27.343750
9860		39.062500
9861		35.156250
9862		46.875000
9863		42.968750
9864		50.781250
9865		46.875000
9866		54.687500
9867		54.687500
9868		62.500000
9869		58.593750
9870		66.406250
9871		66.406250
9872		74.218750
9873		70.312500
9874		78.125000
9875		74.218750
9876		85.937500
9877		78.125000
9878		89.843750
9879		85.937500
9880		93.750000
9881		89.843750
9882		101.562500
9883		97.656250
9884		105.468750
9885		101.562500
9886		109.375000
9887		105.468750
9888		117.187500
9889		113.281250
9890		121.093750
9891		113.281250
9892		125.000000
9893		121.093750
9894		128.906250
9895		125.000000
9896		132.812500
9897		128.906250
9898		140.625000
9899		132.812500
9900		140.625000
9901		140.625000
9902		144.531250
9903		144.531250
9904		152.343750
9905		144.531250
9906		156.250000
9907		152.343750
9908		160.156250
9909		152.343750
9910		164.062500
9911		156.250000
9912		167.968750
9913		160.156250
9914		171.875000
9915		164.062500
9916		171.875000
9917		167.968750
9918		175.781250
9919		171.875000
9920		179.687500
9921		175.781250
9922		183.593750
9923		175.781250
9924		183.593750
9925		179.687500
9926		187.500000
9927		183.593750
9928		191.406250
9929		183.593750
9930		195.312500
9931		187.500000
9932		195.312500
9933		187.500000
9934		195.312500
9935		191.406250
9936		195.312500
9937		195.312500
9938		199.218750
9939		195.312500
9940		203.125000
9941		195.312500
9942		203.125000
9943		199.218750
9944		203.125000
9945		199.218750
9946		207.031250
9947		199.218750
9948		207.031250
9949		203.125000
9950		207.031250
9951		203.125000
9952		207.031250
9953		207.031250
9954		210.937500
9955		203.125000
9956		210.937500
9957		207.031250
9958		210.937500
9959		207.031250
9960		210.937500
9961		207.031250
9962		214.843750
9963		207.031250
9964		214.843750
9965		207.031250
9966		214.843750
9967		207.031250
9968		210.937500
9969		207.031250
9970		210.937500
9971		207.031250
9972		214.843750
9973		207.031250
9974		210.937500
9975		207.031250
9976		210.937500
9977		203.125000
9978		210.937500
9979		203.125000
9980		210.937500
9981		203.125000
9982		210.937500
9983		203.125000
9984		210.937500
9985		203.125000
9986		207.031250
9987		199.218750
9988		207.031250
9989		199.218750
9990		207.031250
9991		199.218750
9992		203.125000
9993		195.312500
9994		203.125000
9995		191.406250
9996		199.218750
9997		191.406250
9998		199.218750
9999		191.406250
10000		195.312500
