Channel              :		CH1
Frequency            :		1.240kHz
Period               :		0.807ms
PK-PK                :		320.3mV
Probe attenuation    :		1X
Voltage per ADC value:		0.244141mV
Time interval        :		2.00000us

index		CH1_Voltage(mV)
1		-46.875000
2		-46.875000
3		-39.062500
4		-50.781250
5		-42.968750
6		-58.593750
7		-46.875000
8		-62.500000
9		-50.781250
10		-66.406250
11		-54.687500
12		-70.312500
13		-62.500000
14		-74.218750
15		-66.406250
16		-78.125000
17		-70.312500
18		-82.031250
19		-74.218750
20		-85.937500
21		-78.125000
22		-89.843750
23		-82.031250
24		-93.750000
25		-85.937500
26		-97.656250
27		-89.843750
28		-101.562500
29		-93.750000
30		-105.468750
31		-97.656250
32		-109.375000
33		-101.562500
34		-109.375000
35		-101.562500
36		-113.281250
37		-105.468750
38		-117.187500
39		-109.375000
40		-121.093750
41		-113.281250
42		-125.000000
43		-113.281250
44		-125.000000
45		-117.187500
46		-128.906250
47		-121.093750
48		-128.906250
49		-121.093750
50		-132.812500
51		-125.000000
52		-132.812500
53		-125.000000
54		-132.812500
55		-128.906250
56		-136.718750
57		-132.812500
58		-140.625000
59		-132.812500
60		-140.625000
61		-132.812500
62		-140.625000
63		-132.812500
64		-140.625000
65		-132.812500
66		-140.625000
67		-136.718750
68		-144.531250
69		-136.718750
70		-140.625000
71		-136.718750
72		-140.625000
73		-136.718750
74		-144.531250
75		-136.718750
76		-144.531250
77		-136.718750
78		-144.531250
79		-136.718750
80		-140.625000
81		-136.718750
82		-140.625000
83		-132.812500
84		-140.625000
85		-132.812500
86		-140.625000
87		-132.812500
88		-136.718750
89		-132.812500
90		-136.718750
91		-128.906250
92		-136.718750
93		-128.906250
94		-136.718750
95		-125.000000
96		-132.812500
97		-125.000000
98		-132.812500
99		-125.000000
100		-128.906250
101		-121.093750
102		-125.000000
103		-121.093750
104		-121.093750
105		-117.187500
106		-121.093750
107		-113.281250
108		-117.187500
109		-109.375000
110		-117.187500
111		-105.468750
112		-113.281250
113		-105.468750
114		-109.375000
115		-101.562500
116		-105.468750
117		-97.656250
118		-101.562500
119		-93.750000
120		-97.656250
121		-89.843750
122		-93.750000
123		-85.937500
124		-89.843750
125		-82.031250
126		-89.843750
127		-78.125000
128		-82.031250
129		-74.218750
130		-78.125000
131		-70.312500
132		-74.218750
133		-66.406250
134		-70.312500
135		-62.500000
136		-66.406250
137		-58.593750
138		-58.593750
139		-54.687500
140		-54.687500
141		-50.781250
142		-54.687500
143		-42.968750
144		-46.875000
145		-39.062500
146		-42.968750
147		-35.156250
148		-39.062500
149		-27.343750
150		-35.156250
151		-23.437500
152		-27.343750
153		-19.531250
154		-23.437500
155		-15.625000
156		-19.531250
157		-11.718750
158		-11.718750
159		-3.906250
160		-11.718750
161		0.000000
162		-3.906250
163		3.906250
164		0.000000
165		11.718750
166		7.812500
167		15.625000
168		7.812500
169		19.531250
170		15.625000
171		23.437500
172		19.531250
173		27.343750
174		27.343750
175		35.156250
176		31.250000
177		39.062500
178		35.156250
179		42.968750
180		39.062500
181		50.781250
182		42.968750
183		54.687500
184		46.875000
185		58.593750
186		50.781250
187		58.593750
188		58.593750
189		66.406250
190		62.500000
191		70.312500
192		66.406250
193		74.218750
194		70.312500
195		78.125000
196		74.218750
197		82.031250
198		78.125000
199		89.843750
200		82.031250
201		93.750000
202		85.937500
203		97.656250
204		93.750000
205		97.656250
206		97.656250
207		101.562500
208		101.562500
209		105.468750
210		101.562500
211		109.375000
212		105.468750
213		113.281250
214		109.375000
215		117.187500
216		113.281250
217		121.093750
218		117.187500
219		125.000000
220		117.187500
221		125.000000
222		125.000000
223		128.906250
224		125.000000
225		132.812500
226		125.000000
227		136.718750
228		128.906250
229		136.718750
230		132.812500
231		140.625000
232		132.812500
233		144.531250
234		136.718750
235		144.531250
236		140.625000
237		148.437500
238		144.531250
239		148.437500
240		144.531250
241		148.437500
242		144.531250
243		152.343750
244		148.437500
245		156.250000
246		148.437500
247		156.250000
248		152.343750
249		156.250000
250		152.343750
251		160.156250
252		152.343750
253		160.156250
254		156.250000
255		160.156250
256		160.156250
257		160.156250
258		156.250000
259		164.062500
260		160.156250
261		164.062500
262		156.250000
263		167.968750
264		160.156250
265		167.968750
266		160.156250
267		167.968750
268		160.156250
269		167.968750
270		160.156250
271		167.968750
272		164.062500
273		167.968750
274		164.062500
275		167.968750
276		160.156250
277		167.968750
278		160.156250
279		167.968750
280		160.156250
281		167.968750
282		160.156250
283		167.968750
284		160.156250
285		167.968750
286		160.156250
287		167.968750
288		160.156250
289		164.062500
290		160.156250
291		164.062500
292		156.250000
293		164.062500
294		156.250000
295		164.062500
296		156.250000
297		164.062500
298		152.343750
299		160.156250
300		152.343750
301		160.156250
302		152.343750
303		160.156250
304		152.343750
305		156.250000
306		152.343750
307		156.250000
308		148.437500
309		152.343750
310		144.531250
311		152.343750
312		140.625000
313		152.343750
314		140.625000
315		148.437500
316		136.718750
317		144.531250
318		136.718750
319		144.531250
320		132.812500
321		140.625000
322		132.812500
323		136.718750
324		128.906250
325		132.812500
326		125.000000
327		132.812500
328		121.093750
329		128.906250
330		121.093750
331		128.906250
332		117.187500
333		125.000000
334		113.281250
335		121.093750
336		109.375000
337		117.187500
338		109.375000
339		117.187500
340		105.468750
341		109.375000
342		97.656250
343		105.468750
344		93.750000
345		105.468750
346		93.750000
347		101.562500
348		85.937500
349		97.656250
350		82.031250
351		89.843750
352		78.125000
353		89.843750
354		74.218750
355		82.031250
356		70.312500
357		78.125000
358		66.406250
359		74.218750
360		62.500000
361		70.312500
362		58.593750
363		66.406250
364		50.781250
365		62.500000
366		46.875000
367		54.687500
368		42.968750
369		50.781250
370		39.062500
371		46.875000
372		35.156250
373		42.968750
374		31.250000
375		35.156250
376		23.437500
377		31.250000
378		19.531250
379		31.250000
380		11.718750
381		23.437500
382		7.812500
383		19.531250
384		3.906250
385		15.625000
386		0.000000
387		7.812500
388		-3.906250
389		3.906250
390		-7.812500
391		-3.906250
392		-15.625000
393		-7.812500
394		-19.531250
395		-11.718750
396		-27.343750
397		-15.625000
398		-31.250000
399		-19.531250
400		-35.156250
401		-27.343750
402		-39.062500
403		-31.250000
404		-42.968750
405		-35.156250
406		-46.875000
407		-42.968750
408		-50.781250
409		-46.875000
410		-58.593750
411		-50.781250
412		-62.500000
413		-54.687500
414		-66.406250
415		-58.593750
416		-70.312500
417		-62.500000
418		-78.125000
419		-66.406250
420		-82.031250
421		-70.312500
422		-82.031250
423		-74.218750
424		-85.937500
425		-82.031250
426		-93.750000
427		-85.937500
428		-93.750000
429		-85.937500
430		-101.562500
431		-89.843750
432		-101.562500
433		-93.750000
434		-105.468750
435		-97.656250
436		-109.375000
437		-101.562500
438		-113.281250
439		-105.468750
440		-113.281250
441		-109.375000
442		-117.187500
443		-113.281250
444		-121.093750
445		-113.281250
446		-125.000000
447		-117.187500
448		-125.000000
449		-117.187500
450		-128.906250
451		-121.093750
452		-132.812500
453		-125.000000
454		-132.812500
455		-125.000000
456		-132.812500
457		-128.906250
458		-136.718750
459		-132.812500
460		-140.625000
461		-132.812500
462		-140.625000
463		-132.812500
464		-140.625000
465		-132.812500
466		-140.625000
467		-132.812500
468		-144.531250
469		-132.812500
470		-144.531250
471		-136.718750
472		-144.531250
473		-136.718750
474		-140.625000
475		-136.718750
476		-144.531250
477		-136.718750
478		-144.531250
479		-136.718750
480		-144.531250
481		-136.718750
482		-144.531250
483		-136.718750
484		-144.531250
485		-136.718750
486		-140.625000
487		-136.718750
488		-140.625000
489		-132.812500
490		-136.718750
491		-136.718750
492		-136.718750
493		-132.812500
494		-136.718750
495		-128.906250
496		-136.718750
497		-128.906250
498		-132.812500
499		-125.000000
500		-132.812500
501		-125.000000
502		-128.906250
503		-121.093750
504		-128.906250
505		-121.093750
506		-125.000000
507		-117.187500
508		-121.093750
509		-117.187500
510		-121.093750
511		-113.281250
512		-117.187500
513		-109.375000
514		-113.281250
515		-105.468750
516		-113.281250
517		-101.562500
518		-109.375000
519		-97.656250
520		-105.468750
521		-97.656250
522		-101.562500
523		-93.750000
524		-97.656250
525		-89.843750
526		-93.750000
527		-85.937500
528		-89.843750
529		-82.031250
530		-85.937500
531		-78.125000
532		-82.031250
533		-74.218750
534		-78.125000
535		-70.312500
536		-74.218750
537		-66.406250
538		-70.312500
539		-62.500000
540		-66.406250
541		-58.593750
542		-58.593750
543		-54.687500
544		-54.687500
545		-46.875000
546		-50.781250
547		-42.968750
548		-46.875000
549		-35.156250
550		-42.968750
551		-35.156250
552		-35.156250
553		-27.343750
554		-35.156250
555		-23.437500
556		-27.343750
557		-19.531250
558		-23.437500
559		-15.625000
560		-15.625000
561		-11.718750
562		-15.625000
563		-3.906250
564		-7.812500
565		3.906250
566		-3.906250
567		7.812500
568		0.000000
569		11.718750
570		7.812500
571		15.625000
572		11.718750
573		19.531250
574		15.625000
575		23.437500
576		23.437500
577		31.250000
578		27.343750
579		35.156250
580		31.250000
581		39.062500
582		35.156250
583		46.875000
584		42.968750
585		50.781250
586		42.968750
587		54.687500
588		46.875000
589		58.593750
590		54.687500
591		62.500000
592		58.593750
593		66.406250
594		66.406250
595		74.218750
596		66.406250
597		78.125000
598		70.312500
599		82.031250
600		74.218750
601		85.937500
602		78.125000
603		89.843750
604		85.937500
605		93.750000
606		85.937500
607		97.656250
608		93.750000
609		97.656250
610		97.656250
611		101.562500
612		101.562500
613		105.468750
614		101.562500
615		109.375000
616		105.468750
617		113.281250
618		109.375000
619		117.187500
620		113.281250
621		121.093750
622		117.187500
623		125.000000
624		117.187500
625		125.000000
626		125.000000
627		128.906250
628		125.000000
629		132.812500
630		128.906250
631		136.718750
632		128.906250
633		136.718750
634		132.812500
635		140.625000
636		132.812500
637		144.531250
638		136.718750
639		144.531250
640		140.625000
641		148.437500
642		144.531250
643		148.437500
644		144.531250
645		148.437500
646		144.531250
647		152.343750
648		148.437500
649		156.250000
650		148.437500
651		156.250000
652		152.343750
653		156.250000
654		152.343750
655		160.156250
656		152.343750
657		160.156250
658		156.250000
659		160.156250
660		156.250000
661		160.156250
662		156.250000
663		164.062500
664		156.250000
665		164.062500
666		160.156250
667		167.968750
668		160.156250
669		167.968750
670		160.156250
671		167.968750
672		160.156250
673		167.968750
674		160.156250
675		167.968750
676		164.062500
677		164.062500
678		164.062500
679		167.968750
680		160.156250
681		167.968750
682		160.156250
683		167.968750
684		160.156250
685		167.968750
686		160.156250
687		167.968750
688		160.156250
689		167.968750
690		160.156250
691		167.968750
692		160.156250
693		164.062500
694		160.156250
695		164.062500
696		156.250000
697		164.062500
698		156.250000
699		164.062500
700		152.343750
701		160.156250
702		152.343750
703		160.156250
704		152.343750
705		160.156250
706		152.343750
707		156.250000
708		152.343750
709		156.250000
710		148.437500
711		152.343750
712		144.531250
713		152.343750
714		140.625000
715		152.343750
716		140.625000
717		148.437500
718		140.625000
719		148.437500
720		136.718750
721		144.531250
722		132.812500
723		140.625000
724		132.812500
725		140.625000
726		132.812500
727		136.718750
728		128.906250
729		132.812500
730		121.093750
731		132.812500
732		121.093750
733		128.906250
734		117.187500
735		125.000000
736		113.281250
737		121.093750
738		113.281250
739		121.093750
740		105.468750
741		117.187500
742		105.468750
743		109.375000
744		101.562500
745		105.468750
746		97.656250
747		105.468750
748		93.750000
749		101.562500
750		89.843750
751		97.656250
752		85.937500
753		93.750000
754		82.031250
755		89.843750
756		74.218750
757		85.937500
758		74.218750
759		82.031250
760		70.312500
761		74.218750
762		62.500000
763		70.312500
764		58.593750
765		66.406250
766		54.687500
767		62.500000
768		50.781250
769		58.593750
770		46.875000
771		54.687500
772		39.062500
773		50.781250
774		35.156250
775		46.875000
776		31.250000
777		39.062500
778		27.343750
779		35.156250
780		19.531250
781		27.343750
782		15.625000
783		27.343750
784		11.718750
785		19.531250
786		7.812500
787		15.625000
788		0.000000
789		11.718750
790		-3.906250
791		7.812500
792		-7.812500
793		0.000000
794		-11.718750
795		-3.906250
796		-19.531250
797		-11.718750
798		-23.437500
799		-11.718750
800		-27.343750
801		-15.625000
802		-35.156250
803		-23.437500
804		-39.062500
805		-27.343750
806		-42.968750
807		-35.156250
808		-46.875000
809		-39.062500
810		-50.781250
811		-42.968750
812		-54.687500
813		-46.875000
814		-62.500000
815		-50.781250
816		-66.406250
817		-58.593750
818		-70.312500
819		-62.500000
820		-74.218750
821		-66.406250
822		-78.125000
823		-70.312500
824		-82.031250
825		-74.218750
826		-85.937500
827		-78.125000
828		-89.843750
829		-82.031250
830		-93.750000
831		-85.937500
832		-97.656250
833		-89.843750
834		-101.562500
835		-93.750000
836		-105.468750
837		-97.656250
838		-109.375000
839		-101.562500
840		-113.281250
841		-101.562500
842		-113.281250
843		-105.468750
844		-117.187500
845		-109.375000
846		-121.093750
847		-113.281250
848		-125.000000
849		-117.187500
850		-125.000000
851		-117.187500
852		-128.906250
853		-121.093750
854		-132.812500
855		-121.093750
856		-132.812500
857		-125.000000
858		-132.812500
859		-128.906250
860		-132.812500
861		-128.906250
862		-136.718750
863		-132.812500
864		-140.625000
865		-132.812500
866		-140.625000
867		-132.812500
868		-140.625000
869		-132.812500
870		-144.531250
871		-136.718750
872		-144.531250
873		-136.718750
874		-144.531250
875		-136.718750
876		-140.625000
877		-136.718750
878		-144.531250
879		-140.625000
880		-144.531250
881		-136.718750
882		-144.531250
883		-136.718750
884		-144.531250
885		-136.718750
886		-144.531250
887		-136.718750
888		-144.531250
889		-136.718750
890		-140.625000
891		-136.718750
892		-140.625000
893		-136.718750
894		-136.718750
895		-136.718750
896		-136.718750
897		-132.812500
898		-136.718750
899		-128.906250
900		-136.718750
901		-128.906250
902		-132.812500
903		-125.000000
904		-132.812500
905		-125.000000
906		-128.906250
907		-121.093750
908		-128.906250
909		-121.093750
910		-125.000000
911		-121.093750
912		-121.093750
913		-117.187500
914		-121.093750
915		-113.281250
916		-117.187500
917		-109.375000
918		-113.281250
919		-105.468750
920		-109.375000
921		-101.562500
922		-109.375000
923		-97.656250
924		-105.468750
925		-93.750000
926		-101.562500
927		-93.750000
928		-97.656250
929		-89.843750
930		-93.750000
931		-85.937500
932		-89.843750
933		-82.031250
934		-85.937500
935		-74.218750
936		-82.031250
937		-74.218750
938		-78.125000
939		-70.312500
940		-74.218750
941		-62.500000
942		-70.312500
943		-58.593750
944		-62.500000
945		-54.687500
946		-58.593750
947		-50.781250
948		-54.687500
949		-46.875000
950		-50.781250
951		-42.968750
952		-46.875000
953		-35.156250
954		-42.968750
955		-31.250000
956		-35.156250
957		-27.343750
958		-31.250000
959		-23.437500
960		-27.343750
961		-19.531250
962		-19.531250
963		-11.718750
964		-15.625000
965		-7.812500
966		-11.718750
967		-3.906250
968		-7.812500
969		3.906250
970		-3.906250
971		7.812500
972		3.906250
973		11.718750
974		7.812500
975		15.625000
976		11.718750
977		19.531250
978		19.531250
979		27.343750
980		23.437500
981		31.250000
982		27.343750
983		35.156250
984		31.250000
985		42.968750
986		35.156250
987		46.875000
988		39.062500
989		50.781250
990		42.968750
991		54.687500
992		50.781250
993		58.593750
994		54.687500
995		62.500000
996		62.500000
997		66.406250
998		66.406250
999		74.218750
1000		66.406250
1001		78.125000
1002		70.312500
1003		82.031250
1004		78.125000
1005		85.937500
1006		82.031250
1007		89.843750
1008		85.937500
1009		93.750000
1010		85.937500
1011		97.656250
1012		93.750000
1013		101.562500
1014		97.656250
1015		105.468750
1016		97.656250
1017		109.375000
1018		101.562500
1019		113.281250
1020		105.468750
1021		117.187500
1022		109.375000
1023		117.187500
1024		113.281250
1025		121.093750
1026		117.187500
1027		125.000000
1028		121.093750
1029		125.000000
1030		125.000000
1031		128.906250
1032		125.000000
1033		132.812500
1034		128.906250
1035		136.718750
1036		128.906250
1037		140.625000
1038		132.812500
1039		140.625000
1040		136.718750
1041		144.531250
1042		136.718750
1043		144.531250
1044		140.625000
1045		148.437500
1046		144.531250
1047		148.437500
1048		144.531250
1049		152.343750
1050		144.531250
1051		152.343750
1052		148.437500
1053		156.250000
1054		148.437500
1055		156.250000
1056		148.437500
1057		160.156250
1058		152.343750
1059		160.156250
1060		152.343750
1061		160.156250
1062		156.250000
1063		160.156250
1064		156.250000
1065		160.156250
1066		156.250000
1067		164.062500
1068		156.250000
1069		164.062500
1070		160.156250
1071		167.968750
1072		160.156250
1073		164.062500
1074		160.156250
1075		167.968750
1076		160.156250
1077		167.968750
1078		160.156250
1079		164.062500
1080		160.156250
1081		164.062500
1082		160.156250
1083		167.968750
1084		160.156250
1085		167.968750
1086		160.156250
1087		167.968750
1088		160.156250
1089		167.968750
1090		160.156250
1091		167.968750
1092		160.156250
1093		167.968750
1094		160.156250
1095		164.062500
1096		160.156250
1097		164.062500
1098		156.250000
1099		164.062500
1100		156.250000
1101		164.062500
1102		156.250000
1103		164.062500
1104		152.343750
1105		160.156250
1106		152.343750
1107		160.156250
1108		152.343750
1109		160.156250
1110		152.343750
1111		156.250000
1112		148.437500
1113		152.343750
1114		148.437500
1115		152.343750
1116		144.531250
1117		152.343750
1118		140.625000
1119		148.437500
1120		140.625000
1121		148.437500
1122		136.718750
1123		144.531250
1124		136.718750
1125		144.531250
1126		132.812500
1127		140.625000
1128		132.812500
1129		140.625000
1130		128.906250
1131		132.812500
1132		125.000000
1133		132.812500
1134		121.093750
1135		128.906250
1136		121.093750
1137		128.906250
1138		117.187500
1139		125.000000
1140		113.281250
1141		121.093750
1142		109.375000
1143		117.187500
1144		105.468750
1145		113.281250
1146		105.468750
1147		109.375000
1148		101.562500
1149		105.468750
1150		93.750000
1151		101.562500
1152		89.843750
1153		97.656250
1154		85.937500
1155		93.750000
1156		82.031250
1157		93.750000
1158		78.125000
1159		89.843750
1160		74.218750
1161		82.031250
1162		70.312500
1163		78.125000
1164		66.406250
1165		74.218750
1166		58.593750
1167		70.312500
1168		54.687500
1169		66.406250
1170		50.781250
1171		62.500000
1172		46.875000
1173		54.687500
1174		42.968750
1175		50.781250
1176		39.062500
1177		46.875000
1178		35.156250
1179		42.968750
1180		31.250000
1181		35.156250
1182		23.437500
1183		31.250000
1184		19.531250
1185		27.343750
1186		11.718750
1187		23.437500
1188		7.812500
1189		19.531250
1190		3.906250
1191		11.718750
1192		0.000000
1193		7.812500
1194		-7.812500
1195		3.906250
1196		-7.812500
1197		-3.906250
1198		-15.625000
1199		-7.812500
1200		-19.531250
1201		-11.718750
1202		-27.343750
1203		-15.625000
1204		-31.250000
1205		-19.531250
1206		-35.156250
1207		-23.437500
1208		-42.968750
1209		-31.250000
1210		-46.875000
1211		-35.156250
1212		-46.875000
1213		-39.062500
1214		-54.687500
1215		-46.875000
1216		-58.593750
1217		-50.781250
1218		-62.500000
1219		-54.687500
1220		-66.406250
1221		-58.593750
1222		-74.218750
1223		-62.500000
1224		-78.125000
1225		-66.406250
1226		-82.031250
1227		-70.312500
1228		-82.031250
1229		-74.218750
1230		-85.937500
1231		-82.031250
1232		-89.843750
1233		-85.937500
1234		-97.656250
1235		-89.843750
1236		-101.562500
1237		-89.843750
1238		-101.562500
1239		-93.750000
1240		-105.468750
1241		-97.656250
1242		-113.281250
1243		-101.562500
1244		-113.281250
1245		-105.468750
1246		-113.281250
1247		-109.375000
1248		-117.187500
1249		-113.281250
1250		-125.000000
1251		-117.187500
1252		-125.000000
1253		-117.187500
1254		-128.906250
1255		-121.093750
1256		-128.906250
1257		-121.093750
1258		-132.812500
1259		-125.000000
1260		-132.812500
1261		-125.000000
1262		-136.718750
1263		-128.906250
1264		-136.718750
1265		-132.812500
1266		-136.718750
1267		-132.812500
1268		-140.625000
1269		-132.812500
1270		-144.531250
1271		-132.812500
1272		-144.531250
1273		-136.718750
1274		-144.531250
1275		-136.718750
1276		-144.531250
1277		-136.718750
1278		-144.531250
1279		-136.718750
1280		-144.531250
1281		-140.625000
1282		-144.531250
1283		-140.625000
1284		-144.531250
1285		-136.718750
1286		-144.531250
1287		-136.718750
1288		-144.531250
1289		-136.718750
1290		-144.531250
1291		-136.718750
1292		-144.531250
1293		-136.718750
1294		-144.531250
1295		-136.718750
1296		-140.625000
1297		-136.718750
1298		-136.718750
1299		-132.812500
1300		-136.718750
1301		-132.812500
1302		-136.718750
1303		-128.906250
1304		-136.718750
1305		-128.906250
1306		-132.812500
1307		-125.000000
1308		-132.812500
1309		-125.000000
1310		-128.906250
1311		-121.093750
1312		-128.906250
1313		-121.093750
1314		-121.093750
1315		-117.187500
1316		-121.093750
1317		-117.187500
1318		-117.187500
1319		-109.375000
1320		-117.187500
1321		-109.375000
1322		-113.281250
1323		-105.468750
1324		-109.375000
1325		-101.562500
1326		-105.468750
1327		-97.656250
1328		-105.468750
1329		-93.750000
1330		-101.562500
1331		-93.750000
1332		-93.750000
1333		-89.843750
1334		-89.843750
1335		-82.031250
1336		-89.843750
1337		-78.125000
1338		-85.937500
1339		-74.218750
1340		-82.031250
1341		-70.312500
1342		-74.218750
1343		-66.406250
1344		-70.312500
1345		-62.500000
1346		-66.406250
1347		-58.593750
1348		-62.500000
1349		-54.687500
1350		-58.593750
1351		-50.781250
1352		-54.687500
1353		-42.968750
1354		-50.781250
1355		-39.062500
1356		-42.968750
1357		-35.156250
1358		-39.062500
1359		-27.343750
1360		-35.156250
1361		-23.437500
1362		-27.343750
1363		-19.531250
1364		-23.437500
1365		-15.625000
1366		-19.531250
1367		-11.718750
1368		-11.718750
1369		-3.906250
1370		-11.718750
1371		0.000000
1372		-3.906250
1373		3.906250
1374		0.000000
1375		11.718750
1376		3.906250
1377		15.625000
1378		11.718750
1379		19.531250
1380		15.625000
1381		23.437500
1382		19.531250
1383		27.343750
1384		27.343750
1385		35.156250
1386		31.250000
1387		39.062500
1388		35.156250
1389		42.968750
1390		39.062500
1391		50.781250
1392		42.968750
1393		50.781250
1394		46.875000
1395		58.593750
1396		50.781250
1397		62.500000
1398		58.593750
1399		66.406250
1400		62.500000
1401		70.312500
1402		66.406250
1403		78.125000
1404		70.312500
1405		78.125000
1406		74.218750
1407		82.031250
1408		78.125000
1409		85.937500
1410		82.031250
1411		89.843750
1412		85.937500
1413		97.656250
1414		89.843750
1415		97.656250
1416		93.750000
1417		101.562500
1418		97.656250
1419		105.468750
1420		101.562500
1421		109.375000
1422		105.468750
1423		113.281250
1424		109.375000
1425		117.187500
1426		113.281250
1427		121.093750
1428		113.281250
1429		121.093750
1430		117.187500
1431		125.000000
1432		121.093750
1433		128.906250
1434		125.000000
1435		128.906250
1436		125.000000
1437		136.718750
1438		128.906250
1439		136.718750
1440		128.906250
1441		140.625000
1442		132.812500
1443		144.531250
1444		136.718750
1445		144.531250
1446		136.718750
1447		148.437500
1448		140.625000
1449		148.437500
1450		144.531250
1451		148.437500
1452		144.531250
1453		152.343750
1454		144.531250
1455		152.343750
1456		148.437500
1457		156.250000
1458		148.437500
1459		156.250000
1460		152.343750
1461		160.156250
1462		152.343750
1463		160.156250
1464		156.250000
1465		160.156250
1466		156.250000
1467		160.156250
1468		156.250000
1469		164.062500
1470		156.250000
1471		164.062500
1472		156.250000
1473		164.062500
1474		160.156250
1475		164.062500
1476		160.156250
1477		167.968750
1478		160.156250
1479		167.968750
1480		160.156250
1481		167.968750
1482		164.062500
1483		164.062500
1484		160.156250
1485		164.062500
1486		160.156250
1487		167.968750
1488		160.156250
1489		167.968750
1490		160.156250
1491		167.968750
1492		160.156250
1493		167.968750
1494		160.156250
1495		164.062500
1496		160.156250
1497		164.062500
1498		160.156250
1499		164.062500
1500		160.156250
1501		164.062500
1502		156.250000
1503		164.062500
1504		156.250000
1505		164.062500
1506		152.343750
1507		164.062500
1508		152.343750
1509		160.156250
1510		152.343750
1511		160.156250
1512		148.437500
1513		156.250000
1514		148.437500
1515		156.250000
1516		148.437500
1517		152.343750
1518		148.437500
1519		152.343750
1520		140.625000
1521		152.343750
1522		140.625000
1523		148.437500
1524		140.625000
1525		144.531250
1526		136.718750
1527		144.531250
1528		132.812500
1529		140.625000
1530		132.812500
1531		140.625000
1532		128.906250
1533		136.718750
1534		128.906250
1535		132.812500
1536		125.000000
1537		128.906250
1538		121.093750
1539		128.906250
1540		117.187500
1541		125.000000
1542		113.281250
1543		121.093750
1544		109.375000
1545		121.093750
1546		105.468750
1547		113.281250
1548		105.468750
1549		113.281250
1550		101.562500
1551		105.468750
1552		97.656250
1553		101.562500
1554		93.750000
1555		101.562500
1556		89.843750
1557		97.656250
1558		82.031250
1559		93.750000
1560		78.125000
1561		89.843750
1562		78.125000
1563		85.937500
1564		70.312500
1565		82.031250
1566		70.312500
1567		74.218750
1568		62.500000
1569		70.312500
1570		58.593750
1571		66.406250
1572		54.687500
1573		62.500000
1574		50.781250
1575		58.593750
1576		46.875000
1577		54.687500
1578		39.062500
1579		46.875000
1580		35.156250
1581		42.968750
1582		31.250000
1583		39.062500
1584		27.343750
1585		35.156250
1586		19.531250
1587		27.343750
1588		15.625000
1589		27.343750
1590		7.812500
1591		19.531250
1592		3.906250
1593		15.625000
1594		0.000000
1595		11.718750
1596		-3.906250
1597		3.906250
1598		-7.812500
1599		0.000000
1600		-11.718750
1601		-7.812500
1602		-15.625000
1603		-11.718750
1604		-23.437500
1605		-15.625000
1606		-27.343750
1607		-19.531250
1608		-35.156250
1609		-23.437500
1610		-39.062500
1611		-27.343750
1612		-42.968750
1613		-35.156250
1614		-46.875000
1615		-39.062500
1616		-50.781250
1617		-42.968750
1618		-54.687500
1619		-50.781250
1620		-62.500000
1621		-54.687500
1622		-66.406250
1623		-58.593750
1624		-70.312500
1625		-62.500000
1626		-74.218750
1627		-66.406250
1628		-78.125000
1629		-70.312500
1630		-82.031250
1631		-74.218750
1632		-85.937500
1633		-78.125000
1634		-89.843750
1635		-82.031250
1636		-93.750000
1637		-85.937500
1638		-97.656250
1639		-89.843750
1640		-101.562500
1641		-93.750000
1642		-105.468750
1643		-97.656250
1644		-109.375000
1645		-101.562500
1646		-113.281250
1647		-101.562500
1648		-117.187500
1649		-105.468750
1650		-117.187500
1651		-113.281250
1652		-121.093750
1653		-113.281250
1654		-125.000000
1655		-117.187500
1656		-125.000000
1657		-117.187500
1658		-128.906250
1659		-121.093750
1660		-132.812500
1661		-125.000000
1662		-132.812500
1663		-125.000000
1664		-136.718750
1665		-128.906250
1666		-136.718750
1667		-128.906250
1668		-136.718750
1669		-132.812500
1670		-140.625000
1671		-132.812500
1672		-140.625000
1673		-132.812500
1674		-140.625000
1675		-136.718750
1676		-144.531250
1677		-136.718750
1678		-144.531250
1679		-136.718750
1680		-144.531250
1681		-136.718750
1682		-144.531250
1683		-136.718750
1684		-144.531250
1685		-140.625000
1686		-144.531250
1687		-140.625000
1688		-144.531250
1689		-136.718750
1690		-144.531250
1691		-136.718750
1692		-144.531250
1693		-136.718750
1694		-144.531250
1695		-136.718750
1696		-144.531250
1697		-136.718750
1698		-140.625000
1699		-132.812500
1700		-140.625000
1701		-136.718750
1702		-136.718750
1703		-132.812500
1704		-136.718750
1705		-128.906250
1706		-136.718750
1707		-128.906250
1708		-132.812500
1709		-128.906250
1710		-132.812500
1711		-125.000000
1712		-128.906250
1713		-121.093750
1714		-128.906250
1715		-121.093750
1716		-125.000000
1717		-117.187500
1718		-121.093750
1719		-117.187500
1720		-117.187500
1721		-113.281250
1722		-117.187500
1723		-109.375000
1724		-113.281250
1725		-105.468750
1726		-113.281250
1727		-101.562500
1728		-109.375000
1729		-97.656250
1730		-105.468750
1731		-93.750000
1732		-101.562500
1733		-93.750000
1734		-93.750000
1735		-89.843750
1736		-93.750000
1737		-85.937500
1738		-89.843750
1739		-82.031250
1740		-85.937500
1741		-78.125000
1742		-82.031250
1743		-70.312500
1744		-78.125000
1745		-66.406250
1746		-74.218750
1747		-62.500000
1748		-70.312500
1749		-58.593750
1750		-62.500000
1751		-54.687500
1752		-58.593750
1753		-50.781250
1754		-54.687500
1755		-46.875000
1756		-50.781250
1757		-39.062500
1758		-46.875000
1759		-35.156250
1760		-42.968750
1761		-31.250000
1762		-39.062500
1763		-27.343750
1764		-31.250000
1765		-19.531250
1766		-27.343750
1767		-15.625000
1768		-19.531250
1769		-11.718750
1770		-15.625000
1771		-7.812500
1772		-11.718750
1773		0.000000
1774		-7.812500
1775		3.906250
1776		-3.906250
1777		7.812500
1778		3.906250
1779		11.718750
1780		7.812500
1781		19.531250
1782		11.718750
1783		23.437500
1784		19.531250
1785		27.343750
1786		23.437500
1787		31.250000
1788		27.343750
1789		39.062500
1790		31.250000
1791		42.968750
1792		39.062500
1793		46.875000
1794		42.968750
1795		50.781250
1796		46.875000
1797		54.687500
1798		50.781250
1799		58.593750
1800		54.687500
1801		62.500000
1802		62.500000
1803		66.406250
1804		66.406250
1805		70.312500
1806		66.406250
1807		78.125000
1808		74.218750
1809		82.031250
1810		74.218750
1811		85.937500
1812		82.031250
1813		89.843750
1814		85.937500
1815		93.750000
1816		89.843750
1817		97.656250
1818		93.750000
1819		101.562500
1820		97.656250
1821		105.468750
1822		101.562500
1823		109.375000
1824		101.562500
1825		113.281250
1826		105.468750
1827		117.187500
1828		109.375000
1829		117.187500
1830		113.281250
1831		121.093750
1832		117.187500
1833		125.000000
1834		117.187500
1835		125.000000
1836		125.000000
1837		128.906250
1838		128.906250
1839		136.718750
1840		128.906250
1841		136.718750
1842		132.812500
1843		140.625000
1844		132.812500
1845		140.625000
1846		136.718750
1847		144.531250
1848		136.718750
1849		144.531250
1850		140.625000
1851		148.437500
1852		144.531250
1853		148.437500
1854		144.531250
1855		152.343750
1856		144.531250
1857		152.343750
1858		148.437500
1859		156.250000
1860		148.437500
1861		156.250000
1862		152.343750
1863		160.156250
1864		152.343750
1865		160.156250
1866		152.343750
1867		160.156250
1868		156.250000
1869		160.156250
1870		160.156250
1871		160.156250
1872		156.250000
1873		164.062500
1874		156.250000
1875		164.062500
1876		160.156250
1877		164.062500
1878		160.156250
1879		164.062500
1880		160.156250
1881		167.968750
1882		160.156250
1883		167.968750
1884		160.156250
1885		167.968750
1886		164.062500
1887		164.062500
1888		164.062500
1889		167.968750
1890		160.156250
1891		167.968750
1892		160.156250
1893		167.968750
1894		160.156250
1895		167.968750
1896		160.156250
1897		167.968750
1898		160.156250
1899		167.968750
1900		160.156250
1901		164.062500
1902		160.156250
1903		164.062500
1904		160.156250
1905		164.062500
1906		156.250000
1907		164.062500
1908		156.250000
1909		164.062500
1910		152.343750
1911		160.156250
1912		152.343750
1913		160.156250
1914		152.343750
1915		156.250000
1916		148.437500
1917		156.250000
1918		148.437500
1919		156.250000
1920		148.437500
1921		152.343750
1922		144.531250
1923		152.343750
1924		140.625000
1925		148.437500
1926		140.625000
1927		148.437500
1928		140.625000
1929		144.531250
1930		136.718750
1931		140.625000
1932		132.812500
1933		140.625000
1934		128.906250
1935		136.718750
1936		128.906250
1937		132.812500
1938		125.000000
1939		132.812500
1940		121.093750
1941		128.906250
1942		117.187500
1943		125.000000
1944		117.187500
1945		125.000000
1946		113.281250
1947		121.093750
1948		109.375000
1949		117.187500
1950		105.468750
1951		113.281250
1952		105.468750
1953		113.281250
1954		101.562500
1955		105.468750
1956		93.750000
1957		101.562500
1958		93.750000
1959		97.656250
1960		89.843750
1961		93.750000
1962		85.937500
1963		89.843750
1964		82.031250
1965		85.937500
1966		74.218750
1967		82.031250
1968		70.312500
1969		78.125000
1970		66.406250
1971		74.218750
1972		62.500000
1973		70.312500
1974		58.593750
1975		66.406250
1976		54.687500
1977		58.593750
1978		50.781250
1979		54.687500
1980		42.968750
1981		50.781250
1982		39.062500
1983		46.875000
1984		35.156250
1985		42.968750
1986		31.250000
1987		39.062500
1988		23.437500
1989		31.250000
1990		19.531250
1991		27.343750
1992		15.625000
1993		23.437500
1994		7.812500
1995		15.625000
1996		3.906250
1997		11.718750
1998		0.000000
1999		7.812500
2000		-3.906250
2001		0.000000
2002		-7.812500
2003		-3.906250
2004		-15.625000
2005		-7.812500
2006		-19.531250
2007		-11.718750
2008		-23.437500
2009		-15.625000
2010		-27.343750
2011		-23.437500
2012		-35.156250
2013		-27.343750
2014		-39.062500
2015		-31.250000
2016		-42.968750
2017		-35.156250
2018		-46.875000
2019		-42.968750
2020		-54.687500
2021		-46.875000
2022		-58.593750
2023		-50.781250
2024		-62.500000
2025		-54.687500
2026		-66.406250
2027		-58.593750
2028		-70.312500
2029		-62.500000
2030		-74.218750
2031		-70.312500
2032		-78.125000
2033		-74.218750
2034		-82.031250
2035		-78.125000
2036		-85.937500
2037		-78.125000
2038		-89.843750
2039		-85.937500
2040		-93.750000
2041		-89.843750
2042		-97.656250
2043		-93.750000
2044		-101.562500
2045		-97.656250
2046		-105.468750
2047		-97.656250
2048		-109.375000
2049		-101.562500
2050		-113.281250
2051		-105.468750
2052		-117.187500
2053		-109.375000
2054		-117.187500
2055		-113.281250
2056		-121.093750
2057		-117.187500
2058		-125.000000
2059		-117.187500
2060		-125.000000
2061		-121.093750
2062		-128.906250
2063		-121.093750
2064		-128.906250
2065		-125.000000
2066		-132.812500
2067		-128.906250
2068		-132.812500
2069		-128.906250
2070		-136.718750
2071		-132.812500
2072		-136.718750
2073		-132.812500
2074		-136.718750
2075		-132.812500
2076		-140.625000
2077		-136.718750
2078		-140.625000
2079		-136.718750
2080		-140.625000
2081		-136.718750
2082		-140.625000
2083		-136.718750
2084		-140.625000
2085		-136.718750
2086		-140.625000
2087		-140.625000
2088		-144.531250
2089		-140.625000
2090		-144.531250
2091		-140.625000
2092		-144.531250
2093		-140.625000
2094		-140.625000
2095		-136.718750
2096		-140.625000
2097		-136.718750
2098		-140.625000
2099		-136.718750
2100		-140.625000
2101		-136.718750
2102		-140.625000
2103		-136.718750
2104		-136.718750
2105		-132.812500
2106		-136.718750
2107		-132.812500
2108		-136.718750
2109		-128.906250
2110		-132.812500
2111		-128.906250
2112		-132.812500
2113		-125.000000
2114		-128.906250
2115		-125.000000
2116		-128.906250
2117		-121.093750
2118		-125.000000
2119		-121.093750
2120		-121.093750
2121		-117.187500
2122		-121.093750
2123		-113.281250
2124		-117.187500
2125		-113.281250
2126		-113.281250
2127		-109.375000
2128		-109.375000
2129		-105.468750
2130		-109.375000
2131		-101.562500
2132		-105.468750
2133		-97.656250
2134		-101.562500
2135		-93.750000
2136		-97.656250
2137		-93.750000
2138		-93.750000
2139		-89.843750
2140		-89.843750
2141		-85.937500
2142		-85.937500
2143		-82.031250
2144		-82.031250
2145		-74.218750
2146		-78.125000
2147		-70.312500
2148		-74.218750
2149		-66.406250
2150		-70.312500
2151		-62.500000
2152		-66.406250
2153		-58.593750
2154		-62.500000
2155		-54.687500
2156		-54.687500
2157		-50.781250
2158		-50.781250
2159		-42.968750
2160		-46.875000
2161		-39.062500
2162		-42.968750
2163		-35.156250
2164		-35.156250
2165		-31.250000
2166		-31.250000
2167		-23.437500
2168		-27.343750
2169		-19.531250
2170		-23.437500
2171		-15.625000
2172		-19.531250
2173		-11.718750
2174		-11.718750
2175		-3.906250
2176		-7.812500
2177		0.000000
2178		-3.906250
2179		3.906250
2180		3.906250
2181		7.812500
2182		7.812500
2183		11.718750
2184		11.718750
2185		19.531250
2186		15.625000
2187		23.437500
2188		23.437500
2189		27.343750
2190		27.343750
2191		31.250000
2192		31.250000
2193		39.062500
2194		35.156250
2195		42.968750
2196		39.062500
2197		46.875000
2198		46.875000
2199		50.781250
2200		50.781250
2201		54.687500
2202		54.687500
2203		62.500000
2204		58.593750
2205		66.406250
2206		62.500000
2207		70.312500
2208		66.406250
2209		74.218750
2210		70.312500
2211		78.125000
2212		74.218750
2213		82.031250
2214		82.031250
2215		85.937500
2216		85.937500
2217		89.843750
2218		89.843750
2219		93.750000
2220		93.750000
2221		97.656250
2222		97.656250
2223		101.562500
2224		101.562500
2225		105.468750
2226		101.562500
2227		109.375000
2228		105.468750
2229		113.281250
2230		109.375000
2231		117.187500
2232		113.281250
2233		121.093750
2234		117.187500
2235		121.093750
2236		121.093750
2237		125.000000
2238		121.093750
2239		128.906250
2240		125.000000
2241		128.906250
2242		128.906250
2243		132.812500
2244		132.812500
2245		136.718750
2246		132.812500
2247		140.625000
2248		136.718750
2249		140.625000
2250		136.718750
2251		144.531250
2252		140.625000
2253		144.531250
2254		144.531250
2255		148.437500
2256		144.531250
2257		148.437500
2258		148.437500
2259		152.343750
2260		148.437500
2261		152.343750
2262		148.437500
2263		156.250000
2264		152.343750
2265		160.156250
2266		152.343750
2267		156.250000
2268		156.250000
2269		160.156250
2270		156.250000
2271		160.156250
2272		156.250000
2273		160.156250
2274		160.156250
2275		164.062500
2276		160.156250
2277		164.062500
2278		160.156250
2279		164.062500
2280		160.156250
2281		164.062500
2282		160.156250
2283		164.062500
2284		160.156250
2285		164.062500
2286		160.156250
2287		167.968750
2288		160.156250
2289		164.062500
2290		164.062500
2291		164.062500
2292		160.156250
2293		167.968750
2294		164.062500
2295		164.062500
2296		160.156250
2297		167.968750
2298		164.062500
2299		164.062500
2300		160.156250
2301		164.062500
2302		160.156250
2303		164.062500
2304		160.156250
2305		164.062500
2306		160.156250
2307		164.062500
2308		160.156250
2309		164.062500
2310		156.250000
2311		160.156250
2312		156.250000
2313		160.156250
2314		156.250000
2315		160.156250
2316		152.343750
2317		156.250000
2318		152.343750
2319		156.250000
2320		152.343750
2321		156.250000
2322		148.437500
2323		152.343750
2324		148.437500
2325		152.343750
2326		144.531250
2327		148.437500
2328		144.531250
2329		148.437500
2330		140.625000
2331		144.531250
2332		136.718750
2333		144.531250
2334		136.718750
2335		140.625000
2336		132.812500
2337		140.625000
2338		132.812500
2339		136.718750
2340		128.906250
2341		132.812500
2342		125.000000
2343		128.906250
2344		121.093750
2345		128.906250
2346		121.093750
2347		125.000000
2348		117.187500
2349		121.093750
2350		113.281250
2351		117.187500
2352		109.375000
2353		113.281250
2354		105.468750
2355		109.375000
2356		101.562500
2357		109.375000
2358		97.656250
2359		105.468750
2360		93.750000
2361		101.562500
2362		89.843750
2363		97.656250
2364		85.937500
2365		93.750000
2366		82.031250
2367		89.843750
2368		78.125000
2369		85.937500
2370		74.218750
2371		82.031250
2372		70.312500
2373		74.218750
2374		66.406250
2375		70.312500
2376		62.500000
2377		66.406250
2378		54.687500
2379		62.500000
2380		50.781250
2381		58.593750
2382		46.875000
2383		54.687500
2384		42.968750
2385		50.781250
2386		39.062500
2387		42.968750
2388		31.250000
2389		39.062500
2390		27.343750
2391		35.156250
2392		23.437500
2393		27.343750
2394		15.625000
2395		23.437500
2396		11.718750
2397		19.531250
2398		7.812500
2399		15.625000
2400		3.906250
2401		7.812500
2402		-3.906250
2403		3.906250
2404		-7.812500
2405		0.000000
2406		-11.718750
2407		-3.906250
2408		-15.625000
2409		-11.718750
2410		-23.437500
2411		-15.625000
2412		-27.343750
2413		-19.531250
2414		-31.250000
2415		-23.437500
2416		-35.156250
2417		-31.250000
2418		-42.968750
2419		-35.156250
2420		-46.875000
2421		-39.062500
2422		-50.781250
2423		-42.968750
2424		-54.687500
2425		-46.875000
2426		-58.593750
2427		-54.687500
2428		-62.500000
2429		-58.593750
2430		-70.312500
2431		-62.500000
2432		-74.218750
2433		-66.406250
2434		-78.125000
2435		-70.312500
2436		-82.031250
2437		-74.218750
2438		-85.937500
2439		-78.125000
2440		-89.843750
2441		-82.031250
2442		-93.750000
2443		-85.937500
2444		-97.656250
2445		-89.843750
2446		-101.562500
2447		-93.750000
2448		-105.468750
2449		-97.656250
2450		-109.375000
2451		-101.562500
2452		-113.281250
2453		-105.468750
2454		-113.281250
2455		-109.375000
2456		-117.187500
2457		-109.375000
2458		-121.093750
2459		-113.281250
2460		-121.093750
2461		-117.187500
2462		-125.000000
2463		-121.093750
2464		-128.906250
2465		-121.093750
2466		-128.906250
2467		-125.000000
2468		-132.812500
2469		-125.000000
2470		-132.812500
2471		-128.906250
2472		-136.718750
2473		-128.906250
2474		-136.718750
2475		-132.812500
2476		-136.718750
2477		-132.812500
2478		-140.625000
2479		-136.718750
2480		-140.625000
2481		-136.718750
2482		-140.625000
2483		-136.718750
2484		-140.625000
2485		-136.718750
2486		-144.531250
2487		-140.625000
2488		-144.531250
2489		-140.625000
2490		-144.531250
2491		-140.625000
2492		-144.531250
2493		-140.625000
2494		-144.531250
2495		-140.625000
2496		-144.531250
2497		-140.625000
2498		-144.531250
2499		-140.625000
2500		-140.625000
2501		-136.718750
2502		-140.625000
2503		-136.718750
2504		-140.625000
2505		-136.718750
2506		-140.625000
2507		-136.718750
2508		-136.718750
2509		-132.812500
2510		-136.718750
2511		-132.812500
2512		-136.718750
2513		-132.812500
2514		-132.812500
2515		-128.906250
2516		-132.812500
2517		-128.906250
2518		-128.906250
2519		-125.000000
2520		-125.000000
2521		-121.093750
2522		-125.000000
2523		-117.187500
2524		-121.093750
2525		-117.187500
2526		-121.093750
2527		-113.281250
2528		-117.187500
2529		-109.375000
2530		-113.281250
2531		-109.375000
2532		-109.375000
2533		-105.468750
2534		-109.375000
2535		-101.562500
2536		-105.468750
2537		-97.656250
2538		-101.562500
2539		-93.750000
2540		-97.656250
2541		-89.843750
2542		-93.750000
2543		-85.937500
2544		-89.843750
2545		-82.031250
2546		-85.937500
2547		-78.125000
2548		-82.031250
2549		-74.218750
2550		-78.125000
2551		-70.312500
2552		-74.218750
2553		-66.406250
2554		-70.312500
2555		-62.500000
2556		-62.500000
2557		-58.593750
2558		-58.593750
2559		-54.687500
2560		-54.687500
2561		-46.875000
2562		-50.781250
2563		-42.968750
2564		-46.875000
2565		-39.062500
2566		-42.968750
2567		-35.156250
2568		-35.156250
2569		-27.343750
2570		-31.250000
2571		-23.437500
2572		-27.343750
2573		-19.531250
2574		-19.531250
2575		-15.625000
2576		-15.625000
2577		-7.812500
2578		-11.718750
2579		-3.906250
2580		-7.812500
2581		0.000000
2582		0.000000
2583		7.812500
2584		3.906250
2585		11.718750
2586		7.812500
2587		15.625000
2588		11.718750
2589		19.531250
2590		19.531250
2591		23.437500
2592		23.437500
2593		31.250000
2594		27.343750
2595		35.156250
2596		31.250000
2597		39.062500
2598		35.156250
2599		42.968750
2600		42.968750
2601		46.875000
2602		46.875000
2603		54.687500
2604		50.781250
2605		58.593750
2606		54.687500
2607		62.500000
2608		58.593750
2609		66.406250
2610		66.406250
2611		70.312500
2612		70.312500
2613		74.218750
2614		74.218750
2615		78.125000
2616		78.125000
2617		82.031250
2618		82.031250
2619		85.937500
2620		85.937500
2621		89.843750
2622		89.843750
2623		93.750000
2624		93.750000
2625		97.656250
2626		97.656250
2627		101.562500
2628		101.562500
2629		105.468750
2630		105.468750
2631		109.375000
2632		109.375000
2633		113.281250
2634		109.375000
2635		117.187500
2636		113.281250
2637		121.093750
2638		117.187500
2639		121.093750
2640		121.093750
2641		125.000000
2642		125.000000
2643		128.906250
2644		125.000000
2645		132.812500
2646		128.906250
2647		132.812500
2648		132.812500
2649		136.718750
2650		132.812500
2651		140.625000
2652		136.718750
2653		140.625000
2654		136.718750
2655		144.531250
2656		140.625000
2657		144.531250
2658		144.531250
2659		148.437500
2660		144.531250
2661		148.437500
2662		148.437500
2663		152.343750
2664		148.437500
2665		152.343750
2666		152.343750
2667		156.250000
2668		152.343750
2669		156.250000
2670		152.343750
2671		156.250000
2672		156.250000
2673		160.156250
2674		156.250000
2675		160.156250
2676		156.250000
2677		160.156250
2678		160.156250
2679		160.156250
2680		156.250000
2681		164.062500
2682		160.156250
2683		164.062500
2684		160.156250
2685		164.062500
2686		160.156250
2687		164.062500
2688		160.156250
2689		164.062500
2690		160.156250
2691		164.062500
2692		160.156250
2693		164.062500
2694		164.062500
2695		164.062500
2696		160.156250
2697		164.062500
2698		160.156250
2699		167.968750
2700		160.156250
2701		164.062500
2702		160.156250
2703		164.062500
2704		160.156250
2705		164.062500
2706		160.156250
2707		164.062500
2708		160.156250
2709		164.062500
2710		160.156250
2711		160.156250
2712		156.250000
2713		160.156250
2714		156.250000
2715		160.156250
2716		156.250000
2717		160.156250
2718		152.343750
2719		156.250000
2720		152.343750
2721		156.250000
2722		152.343750
2723		156.250000
2724		148.437500
2725		152.343750
2726		148.437500
2727		152.343750
2728		144.531250
2729		148.437500
2730		144.531250
2731		148.437500
2732		140.625000
2733		144.531250
2734		140.625000
2735		144.531250
2736		136.718750
2737		140.625000
2738		132.812500
2739		140.625000
2740		132.812500
2741		136.718750
2742		128.906250
2743		132.812500
2744		125.000000
2745		132.812500
2746		121.093750
2747		128.906250
2748		121.093750
2749		125.000000
2750		117.187500
2751		121.093750
2752		113.281250
2753		117.187500
2754		109.375000
2755		117.187500
2756		105.468750
2757		113.281250
2758		101.562500
2759		109.375000
2760		101.562500
2761		105.468750
2762		97.656250
2763		101.562500
2764		93.750000
2765		97.656250
2766		85.937500
2767		93.750000
2768		85.937500
2769		89.843750
2770		78.125000
2771		85.937500
2772		74.218750
2773		82.031250
2774		70.312500
2775		78.125000
2776		66.406250
2777		74.218750
2778		62.500000
2779		70.312500
2780		58.593750
2781		62.500000
2782		54.687500
2783		58.593750
2784		46.875000
2785		54.687500
2786		42.968750
2787		50.781250
2788		39.062500
2789		46.875000
2790		35.156250
2791		42.968750
2792		27.343750
2793		35.156250
2794		23.437500
2795		31.250000
2796		19.531250
2797		27.343750
2798		15.625000
2799		19.531250
2800		11.718750
2801		15.625000
2802		3.906250
2803		11.718750
2804		0.000000
2805		7.812500
2806		-3.906250
2807		3.906250
2808		-11.718750
2809		-3.906250
2810		-15.625000
2811		-7.812500
2812		-19.531250
2813		-11.718750
2814		-23.437500
2815		-15.625000
2816		-31.250000
2817		-23.437500
2818		-35.156250
2819		-27.343750
2820		-39.062500
2821		-31.250000
2822		-42.968750
2823		-39.062500
2824		-46.875000
2825		-42.968750
2826		-54.687500
2827		-46.875000
2828		-58.593750
2829		-50.781250
2830		-62.500000
2831		-54.687500
2832		-66.406250
2833		-58.593750
2834		-70.312500
2835		-62.500000
2836		-74.218750
2837		-70.312500
2838		-82.031250
2839		-74.218750
2840		-85.937500
2841		-78.125000
2842		-89.843750
2843		-82.031250
2844		-93.750000
2845		-85.937500
2846		-97.656250
2847		-89.843750
2848		-101.562500
2849		-93.750000
2850		-105.468750
2851		-97.656250
2852		-105.468750
2853		-101.562500
2854		-109.375000
2855		-105.468750
2856		-113.281250
2857		-109.375000
2858		-117.187500
2859		-113.281250
2860		-121.093750
2861		-113.281250
2862		-125.000000
2863		-117.187500
2864		-125.000000
2865		-121.093750
2866		-128.906250
2867		-125.000000
2868		-128.906250
2869		-125.000000
2870		-132.812500
2871		-128.906250
2872		-136.718750
2873		-128.906250
2874		-136.718750
2875		-132.812500
2876		-140.625000
2877		-132.812500
2878		-140.625000
2879		-136.718750
2880		-144.531250
2881		-136.718750
2882		-144.531250
2883		-140.625000
2884		-144.531250
2885		-140.625000
2886		-144.531250
2887		-140.625000
2888		-144.531250
2889		-140.625000
2890		-148.437500
2891		-144.531250
2892		-148.437500
2893		-144.531250
2894		-148.437500
2895		-144.531250
2896		-148.437500
2897		-144.531250
2898		-148.437500
2899		-144.531250
2900		-148.437500
2901		-144.531250
2902		-148.437500
2903		-144.531250
2904		-148.437500
2905		-144.531250
2906		-148.437500
2907		-140.625000
2908		-144.531250
2909		-140.625000
2910		-144.531250
2911		-140.625000
2912		-144.531250
2913		-140.625000
2914		-140.625000
2915		-136.718750
2916		-140.625000
2917		-136.718750
2918		-136.718750
2919		-132.812500
2920		-136.718750
2921		-132.812500
2922		-132.812500
2923		-128.906250
2924		-132.812500
2925		-125.000000
2926		-128.906250
2927		-125.000000
2928		-128.906250
2929		-121.093750
2930		-125.000000
2931		-121.093750
2932		-121.093750
2933		-117.187500
2934		-121.093750
2935		-113.281250
2936		-117.187500
2937		-109.375000
2938		-113.281250
2939		-105.468750
2940		-109.375000
2941		-101.562500
2942		-105.468750
2943		-97.656250
2944		-101.562500
2945		-93.750000
2946		-97.656250
2947		-93.750000
2948		-93.750000
2949		-89.843750
2950		-89.843750
2951		-85.937500
2952		-85.937500
2953		-78.125000
2954		-82.031250
2955		-74.218750
2956		-78.125000
2957		-70.312500
2958		-74.218750
2959		-66.406250
2960		-70.312500
2961		-62.500000
2962		-66.406250
2963		-58.593750
2964		-58.593750
2965		-50.781250
2966		-54.687500
2967		-46.875000
2968		-50.781250
2969		-42.968750
2970		-46.875000
2971		-39.062500
2972		-39.062500
2973		-35.156250
2974		-35.156250
2975		-27.343750
2976		-31.250000
2977		-23.437500
2978		-23.437500
2979		-19.531250
2980		-19.531250
2981		-15.625000
2982		-15.625000
2983		-7.812500
2984		-11.718750
2985		-3.906250
2986		-3.906250
2987		0.000000
2988		0.000000
2989		7.812500
2990		3.906250
2991		11.718750
2992		7.812500
2993		15.625000
2994		15.625000
2995		19.531250
2996		19.531250
2997		23.437500
2998		23.437500
2999		31.250000
3000		27.343750
3001		35.156250
3002		35.156250
3003		39.062500
3004		39.062500
3005		42.968750
3006		42.968750
3007		50.781250
3008		46.875000
3009		54.687500
3010		50.781250
3011		58.593750
3012		58.593750
3013		62.500000
3014		62.500000
3015		66.406250
3016		66.406250
3017		70.312500
3018		70.312500
3019		74.218750
3020		74.218750
3021		82.031250
3022		78.125000
3023		85.937500
3024		82.031250
3025		89.843750
3026		85.937500
3027		93.750000
3028		89.843750
3029		97.656250
3030		93.750000
3031		101.562500
3032		97.656250
3033		101.562500
3034		101.562500
3035		105.468750
3036		105.468750
3037		109.375000
3038		105.468750
3039		113.281250
3040		109.375000
3041		117.187500
3042		113.281250
3043		121.093750
3044		117.187500
3045		121.093750
3046		121.093750
3047		125.000000
3048		125.000000
3049		128.906250
3050		125.000000
3051		132.812500
3052		128.906250
3053		132.812500
3054		132.812500
3055		136.718750
3056		132.812500
3057		136.718750
3058		136.718750
3059		140.625000
3060		136.718750
3061		144.531250
3062		140.625000
3063		144.531250
3064		140.625000
3065		148.437500
3066		144.531250
3067		148.437500
3068		144.531250
3069		152.343750
3070		148.437500
3071		152.343750
3072		148.437500
3073		152.343750
3074		152.343750
3075		156.250000
3076		152.343750
3077		156.250000
3078		152.343750
3079		156.250000
3080		152.343750
3081		160.156250
3082		156.250000
3083		160.156250
3084		156.250000
3085		160.156250
3086		156.250000
3087		160.156250
3088		156.250000
3089		160.156250
3090		160.156250
3091		164.062500
3092		160.156250
3093		164.062500
3094		160.156250
3095		164.062500
3096		160.156250
3097		164.062500
3098		160.156250
3099		164.062500
3100		160.156250
3101		164.062500
3102		160.156250
3103		164.062500
3104		160.156250
3105		164.062500
3106		160.156250
3107		160.156250
3108		156.250000
3109		160.156250
3110		156.250000
3111		160.156250
3112		156.250000
3113		160.156250
3114		156.250000
3115		160.156250
3116		156.250000
3117		160.156250
3118		152.343750
3119		156.250000
3120		152.343750
3121		156.250000
3122		152.343750
3123		156.250000
3124		148.437500
3125		152.343750
3126		148.437500
3127		152.343750
3128		144.531250
3129		152.343750
3130		144.531250
3131		148.437500
3132		144.531250
3133		148.437500
3134		140.625000
3135		144.531250
3136		140.625000
3137		144.531250
3138		136.718750
3139		140.625000
3140		132.812500
3141		136.718750
3142		128.906250
3143		136.718750
3144		128.906250
3145		132.812500
3146		125.000000
3147		132.812500
3148		121.093750
3149		128.906250
3150		121.093750
3151		125.000000
3152		117.187500
3153		121.093750
3154		113.281250
3155		117.187500
3156		109.375000
3157		117.187500
3158		105.468750
3159		113.281250
3160		101.562500
3161		109.375000
3162		101.562500
3163		105.468750
3164		97.656250
3165		101.562500
3166		89.843750
3167		97.656250
3168		89.843750
3169		93.750000
3170		82.031250
3171		89.843750
3172		78.125000
3173		85.937500
3174		74.218750
3175		82.031250
3176		70.312500
3177		78.125000
3178		66.406250
3179		74.218750
3180		62.500000
3181		70.312500
3182		58.593750
3183		66.406250
3184		54.687500
3185		62.500000
3186		50.781250
3187		54.687500
3188		42.968750
3189		50.781250
3190		39.062500
3191		46.875000
3192		35.156250
3193		42.968750
3194		31.250000
3195		35.156250
3196		27.343750
3197		31.250000
3198		19.531250
3199		27.343750
3200		15.625000
3201		23.437500
3202		11.718750
3203		15.625000
3204		3.906250
3205		11.718750
3206		0.000000
3207		7.812500
3208		-3.906250
3209		3.906250
3210		-11.718750
3211		-3.906250
3212		-15.625000
3213		-7.812500
3214		-19.531250
3215		-11.718750
3216		-23.437500
3217		-19.531250
3218		-31.250000
3219		-23.437500
3220		-35.156250
3221		-27.343750
3222		-39.062500
3223		-31.250000
3224		-42.968750
3225		-39.062500
3226		-46.875000
3227		-42.968750
3228		-54.687500
3229		-46.875000
3230		-58.593750
3231		-50.781250
3232		-62.500000
3233		-54.687500
3234		-66.406250
3235		-62.500000
3236		-70.312500
3237		-66.406250
3238		-78.125000
3239		-70.312500
3240		-82.031250
3241		-74.218750
3242		-85.937500
3243		-78.125000
3244		-89.843750
3245		-82.031250
3246		-93.750000
3247		-85.937500
3248		-97.656250
3249		-89.843750
3250		-101.562500
3251		-93.750000
3252		-105.468750
3253		-97.656250
3254		-109.375000
3255		-101.562500
3256		-113.281250
3257		-105.468750
3258		-113.281250
3259		-109.375000
3260		-117.187500
3261		-113.281250
3262		-121.093750
3263		-113.281250
3264		-125.000000
3265		-117.187500
3266		-125.000000
3267		-121.093750
3268		-128.906250
3269		-125.000000
3270		-132.812500
3271		-128.906250
3272		-132.812500
3273		-128.906250
3274		-136.718750
3275		-132.812500
3276		-140.625000
3277		-132.812500
3278		-140.625000
3279		-136.718750
3280		-140.625000
3281		-136.718750
3282		-144.531250
3283		-140.625000
3284		-144.531250
3285		-140.625000
3286		-144.531250
3287		-140.625000
3288		-148.437500
3289		-144.531250
3290		-148.437500
3291		-144.531250
3292		-148.437500
3293		-144.531250
3294		-148.437500
3295		-144.531250
3296		-148.437500
3297		-144.531250
3298		-148.437500
3299		-144.531250
3300		-148.437500
3301		-144.531250
3302		-148.437500
3303		-144.531250
3304		-148.437500
3305		-144.531250
3306		-148.437500
3307		-144.531250
3308		-148.437500
3309		-144.531250
3310		-148.437500
3311		-144.531250
3312		-144.531250
3313		-140.625000
3314		-144.531250
3315		-140.625000
3316		-144.531250
3317		-140.625000
3318		-140.625000
3319		-136.718750
3320		-140.625000
3321		-136.718750
3322		-140.625000
3323		-132.812500
3324		-136.718750
3325		-132.812500
3326		-132.812500
3327		-128.906250
3328		-132.812500
3329		-125.000000
3330		-128.906250
3331		-125.000000
3332		-128.906250
3333		-121.093750
3334		-125.000000
3335		-117.187500
3336		-121.093750
3337		-113.281250
3338		-117.187500
3339		-113.281250
3340		-117.187500
3341		-109.375000
3342		-113.281250
3343		-105.468750
3344		-109.375000
3345		-101.562500
3346		-105.468750
3347		-97.656250
3348		-101.562500
3349		-93.750000
3350		-97.656250
3351		-89.843750
3352		-93.750000
3353		-85.937500
3354		-89.843750
3355		-82.031250
3356		-85.937500
3357		-78.125000
3358		-82.031250
3359		-74.218750
3360		-78.125000
3361		-70.312500
3362		-70.312500
3363		-66.406250
3364		-66.406250
3365		-62.500000
3366		-62.500000
3367		-54.687500
3368		-58.593750
3369		-50.781250
3370		-54.687500
3371		-46.875000
3372		-46.875000
3373		-42.968750
3374		-42.968750
3375		-39.062500
3376		-39.062500
3377		-31.250000
3378		-35.156250
3379		-27.343750
3380		-31.250000
3381		-23.437500
3382		-23.437500
3383		-19.531250
3384		-19.531250
3385		-11.718750
3386		-15.625000
3387		-7.812500
3388		-7.812500
3389		-3.906250
3390		-3.906250
3391		3.906250
3392		0.000000
3393		7.812500
3394		3.906250
3395		11.718750
3396		11.718750
3397		15.625000
3398		15.625000
3399		23.437500
3400		19.531250
3401		27.343750
3402		23.437500
3403		31.250000
3404		31.250000
3405		39.062500
3406		35.156250
3407		39.062500
3408		39.062500
3409		46.875000
3410		42.968750
3411		50.781250
3412		46.875000
3413		54.687500
3414		50.781250
3415		58.593750
3416		58.593750
3417		62.500000
3418		62.500000
3419		70.312500
3420		66.406250
3421		74.218750
3422		70.312500
3423		78.125000
3424		74.218750
3425		82.031250
3426		78.125000
3427		85.937500
3428		82.031250
3429		89.843750
3430		85.937500
3431		93.750000
3432		89.843750
3433		97.656250
3434		93.750000
3435		101.562500
3436		97.656250
3437		105.468750
3438		101.562500
3439		105.468750
3440		105.468750
3441		109.375000
3442		109.375000
3443		113.281250
3444		113.281250
3445		117.187500
3446		113.281250
3447		121.093750
3448		117.187500
3449		121.093750
3450		121.093750
3451		125.000000
3452		125.000000
3453		128.906250
3454		125.000000
3455		132.812500
3456		128.906250
3457		132.812500
3458		132.812500
3459		136.718750
3460		132.812500
3461		140.625000
3462		136.718750
3463		140.625000
3464		136.718750
3465		144.531250
3466		140.625000
3467		144.531250
3468		144.531250
3469		148.437500
3470		144.531250
3471		148.437500
3472		144.531250
3473		152.343750
3474		148.437500
3475		152.343750
3476		148.437500
3477		152.343750
3478		152.343750
3479		156.250000
3480		152.343750
3481		156.250000
3482		152.343750
3483		156.250000
3484		152.343750
3485		156.250000
3486		156.250000
3487		160.156250
3488		156.250000
3489		160.156250
3490		156.250000
3491		160.156250
3492		156.250000
3493		160.156250
3494		156.250000
3495		160.156250
3496		156.250000
3497		164.062500
3498		156.250000
3499		160.156250
3500		160.156250
3501		160.156250
3502		156.250000
3503		160.156250
3504		156.250000
3505		160.156250
3506		156.250000
3507		160.156250
3508		156.250000
3509		160.156250
3510		156.250000
3511		160.156250
3512		156.250000
3513		160.156250
3514		156.250000
3515		160.156250
3516		156.250000
3517		160.156250
3518		152.343750
3519		156.250000
3520		152.343750
3521		156.250000
3522		152.343750
3523		156.250000
3524		152.343750
3525		156.250000
3526		148.437500
3527		152.343750
3528		148.437500
3529		152.343750
3530		144.531250
3531		152.343750
3532		144.531250
3533		148.437500
3534		144.531250
3535		148.437500
3536		140.625000
3537		144.531250
3538		136.718750
3539		144.531250
3540		136.718750
3541		140.625000
3542		132.812500
3543		136.718750
3544		132.812500
3545		136.718750
3546		128.906250
3547		132.812500
3548		125.000000
3549		132.812500
3550		125.000000
3551		128.906250
3552		121.093750
3553		125.000000
3554		117.187500
3555		121.093750
3556		113.281250
3557		121.093750
3558		109.375000
3559		117.187500
3560		105.468750
3561		113.281250
3562		105.468750
3563		109.375000
3564		101.562500
3565		105.468750
3566		97.656250
3567		101.562500
3568		93.750000
3569		97.656250
3570		89.843750
3571		93.750000
3572		85.937500
3573		89.843750
3574		82.031250
3575		85.937500
3576		78.125000
3577		82.031250
3578		74.218750
3579		78.125000
3580		66.406250
3581		74.218750
3582		62.500000
3583		70.312500
3584		58.593750
3585		66.406250
3586		54.687500
3587		62.500000
3588		50.781250
3589		58.593750
3590		46.875000
3591		50.781250
3592		39.062500
3593		46.875000
3594		35.156250
3595		42.968750
3596		31.250000
3597		39.062500
3598		23.437500
3599		31.250000
3600		19.531250
3601		27.343750
3602		15.625000
3603		23.437500
3604		11.718750
3605		19.531250
3606		7.812500
3607		11.718750
3608		0.000000
3609		7.812500
3610		-3.906250
3611		3.906250
3612		-7.812500
3613		-3.906250
3614		-15.625000
3615		-7.812500
3616		-19.531250
3617		-11.718750
3618		-23.437500
3619		-15.625000
3620		-27.343750
3621		-23.437500
3622		-35.156250
3623		-27.343750
3624		-39.062500
3625		-31.250000
3626		-42.968750
3627		-35.156250
3628		-46.875000
3629		-42.968750
3630		-54.687500
3631		-46.875000
3632		-58.593750
3633		-50.781250
3634		-62.500000
3635		-54.687500
3636		-66.406250
3637		-58.593750
3638		-70.312500
3639		-66.406250
3640		-74.218750
3641		-70.312500
3642		-78.125000
3643		-74.218750
3644		-85.937500
3645		-78.125000
3646		-89.843750
3647		-82.031250
3648		-93.750000
3649		-85.937500
3650		-97.656250
3651		-89.843750
3652		-101.562500
3653		-93.750000
3654		-105.468750
3655		-97.656250
3656		-105.468750
3657		-101.562500
3658		-109.375000
3659		-105.468750
3660		-113.281250
3661		-109.375000
3662		-117.187500
3663		-113.281250
3664		-121.093750
3665		-113.281250
3666		-125.000000
3667		-117.187500
3668		-125.000000
3669		-121.093750
3670		-128.906250
3671		-125.000000
3672		-132.812500
3673		-125.000000
3674		-132.812500
3675		-128.906250
3676		-136.718750
3677		-132.812500
3678		-136.718750
3679		-132.812500
3680		-140.625000
3681		-136.718750
3682		-144.531250
3683		-136.718750
3684		-144.531250
3685		-140.625000
3686		-144.531250
3687		-140.625000
3688		-148.437500
3689		-144.531250
3690		-148.437500
3691		-144.531250
3692		-148.437500
3693		-144.531250
3694		-148.437500
3695		-144.531250
3696		-148.437500
3697		-148.437500
3698		-152.343750
3699		-148.437500
3700		-152.343750
3701		-148.437500
3702		-152.343750
3703		-148.437500
3704		-152.343750
3705		-148.437500
3706		-152.343750
3707		-148.437500
3708		-152.343750
3709		-148.437500
3710		-148.437500
3711		-144.531250
3712		-148.437500
3713		-144.531250
3714		-148.437500
3715		-144.531250
3716		-148.437500
3717		-140.625000
3718		-144.531250
3719		-140.625000
3720		-144.531250
3721		-140.625000
3722		-144.531250
3723		-136.718750
3724		-140.625000
3725		-136.718750
3726		-140.625000
3727		-132.812500
3728		-136.718750
3729		-132.812500
3730		-136.718750
3731		-128.906250
3732		-132.812500
3733		-128.906250
3734		-132.812500
3735		-125.000000
3736		-125.000000
3737		-121.093750
3738		-125.000000
3739		-117.187500
3740		-121.093750
3741		-117.187500
3742		-117.187500
3743		-113.281250
3744		-113.281250
3745		-109.375000
3746		-113.281250
3747		-105.468750
3748		-109.375000
3749		-101.562500
3750		-105.468750
3751		-97.656250
3752		-101.562500
3753		-93.750000
3754		-97.656250
3755		-89.843750
3756		-93.750000
3757		-85.937500
3758		-89.843750
3759		-82.031250
3760		-85.937500
3761		-78.125000
3762		-82.031250
3763		-74.218750
3764		-74.218750
3765		-66.406250
3766		-70.312500
3767		-62.500000
3768		-66.406250
3769		-58.593750
3770		-62.500000
3771		-54.687500
3772		-58.593750
3773		-50.781250
3774		-50.781250
3775		-42.968750
3776		-46.875000
3777		-42.968750
3778		-42.968750
3779		-35.156250
3780		-39.062500
3781		-31.250000
3782		-35.156250
3783		-27.343750
3784		-27.343750
3785		-19.531250
3786		-23.437500
3787		-15.625000
3788		-19.531250
3789		-11.718750
3790		-11.718750
3791		-3.906250
3792		-7.812500
3793		0.000000
3794		-3.906250
3795		3.906250
3796		0.000000
3797		7.812500
3798		7.812500
3799		15.625000
3800		11.718750
3801		19.531250
3802		15.625000
3803		23.437500
3804		23.437500
3805		27.343750
3806		27.343750
3807		31.250000
3808		31.250000
3809		39.062500
3810		35.156250
3811		42.968750
3812		39.062500
3813		46.875000
3814		42.968750
3815		50.781250
3816		50.781250
3817		58.593750
3818		54.687500
3819		58.593750
3820		58.593750
3821		66.406250
3822		62.500000
3823		70.312500
3824		66.406250
3825		74.218750
3826		70.312500
3827		78.125000
3828		74.218750
3829		82.031250
3830		78.125000
3831		85.937500
3832		85.937500
3833		89.843750
3834		89.843750
3835		93.750000
3836		89.843750
3837		97.656250
3838		93.750000
3839		101.562500
3840		97.656250
3841		105.468750
3842		101.562500
3843		109.375000
3844		105.468750
3845		113.281250
3846		109.375000
3847		113.281250
3848		113.281250
3849		117.187500
3850		113.281250
3851		121.093750
3852		117.187500
3853		125.000000
3854		121.093750
3855		125.000000
3856		125.000000
3857		128.906250
3858		128.906250
3859		132.812500
3860		128.906250
3861		136.718750
3862		132.812500
3863		136.718750
3864		136.718750
3865		140.625000
3866		136.718750
3867		140.625000
3868		140.625000
3869		144.531250
3870		140.625000
3871		144.531250
3872		140.625000
3873		148.437500
3874		144.531250
3875		148.437500
3876		148.437500
3877		148.437500
3878		148.437500
3879		152.343750
3880		148.437500
3881		152.343750
3882		152.343750
3883		156.250000
3884		152.343750
3885		156.250000
3886		152.343750
3887		156.250000
3888		156.250000
3889		156.250000
3890		156.250000
3891		160.156250
3892		156.250000
3893		160.156250
3894		156.250000
3895		160.156250
3896		156.250000
3897		160.156250
3898		156.250000
3899		160.156250
3900		156.250000
3901		160.156250
3902		156.250000
3903		160.156250
3904		156.250000
3905		164.062500
3906		156.250000
3907		160.156250
3908		156.250000
3909		160.156250
3910		156.250000
3911		160.156250
3912		156.250000
3913		160.156250
3914		156.250000
3915		160.156250
3916		156.250000
3917		160.156250
3918		156.250000
3919		160.156250
3920		156.250000
3921		156.250000
3922		152.343750
3923		156.250000
3924		152.343750
3925		156.250000
3926		152.343750
3927		156.250000
3928		148.437500
3929		152.343750
3930		148.437500
3931		152.343750
3932		148.437500
3933		152.343750
3934		144.531250
3935		148.437500
3936		144.531250
3937		148.437500
3938		140.625000
3939		148.437500
3940		136.718750
3941		144.531250
3942		136.718750
3943		140.625000
3944		136.718750
3945		140.625000
3946		132.812500
3947		136.718750
3948		128.906250
3949		136.718750
3950		128.906250
3951		132.812500
3952		125.000000
3953		128.906250
3954		121.093750
3955		125.000000
3956		117.187500
3957		125.000000
3958		113.281250
3959		121.093750
3960		113.281250
3961		117.187500
3962		109.375000
3963		113.281250
3964		105.468750
3965		109.375000
3966		101.562500
3967		109.375000
3968		97.656250
3969		105.468750
3970		93.750000
3971		101.562500
3972		89.843750
3973		97.656250
3974		85.937500
3975		93.750000
3976		82.031250
3977		89.843750
3978		78.125000
3979		85.937500
3980		74.218750
3981		82.031250
3982		70.312500
3983		78.125000
3984		66.406250
3985		70.312500
3986		62.500000
3987		70.312500
3988		58.593750
3989		62.500000
3990		50.781250
3991		58.593750
3992		46.875000
3993		54.687500
3994		42.968750
3995		50.781250
3996		39.062500
3997		42.968750
3998		35.156250
3999		39.062500
4000		27.343750
4001		35.156250
4002		23.437500
4003		31.250000
4004		19.531250
4005		23.437500
4006		11.718750
4007		19.531250
4008		7.812500
4009		15.625000
4010		3.906250
4011		11.718750
4012		0.000000
4013		3.906250
4014		-7.812500
4015		0.000000
4016		-11.718750
4017		-3.906250
4018		-15.625000
4019		-7.812500
4020		-19.531250
4021		-15.625000
4022		-27.343750
4023		-19.531250
4024		-31.250000
4025		-23.437500
4026		-35.156250
4027		-27.343750
4028		-42.968750
4029		-31.250000
4030		-46.875000
4031		-39.062500
4032		-50.781250
4033		-42.968750
4034		-54.687500
4035		-46.875000
4036		-58.593750
4037		-50.781250
4038		-62.500000
4039		-58.593750
4040		-70.312500
4041		-62.500000
4042		-74.218750
4043		-66.406250
4044		-78.125000
4045		-70.312500
4046		-82.031250
4047		-74.218750
4048		-85.937500
4049		-78.125000
4050		-89.843750
4051		-82.031250
4052		-93.750000
4053		-85.937500
4054		-97.656250
4055		-93.750000
4056		-101.562500
4057		-97.656250
4058		-105.468750
4059		-101.562500
4060		-109.375000
4061		-101.562500
4062		-113.281250
4063		-105.468750
4064		-117.187500
4065		-109.375000
4066		-121.093750
4067		-113.281250
4068		-125.000000
4069		-117.187500
4070		-125.000000
4071		-121.093750
4072		-128.906250
4073		-125.000000
4074		-132.812500
4075		-125.000000
4076		-132.812500
4077		-128.906250
4078		-136.718750
4079		-128.906250
4080		-140.625000
4081		-132.812500
4082		-140.625000
4083		-136.718750
4084		-144.531250
4085		-136.718750
4086		-144.531250
4087		-136.718750
4088		-144.531250
4089		-140.625000
4090		-144.531250
4091		-144.531250
4092		-148.437500
4093		-144.531250
4094		-148.437500
4095		-144.531250
4096		-148.437500
4097		-144.531250
4098		-148.437500
4099		-148.437500
4100		-148.437500
4101		-148.437500
4102		-152.343750
4103		-148.437500
4104		-152.343750
4105		-148.437500
4106		-152.343750
4107		-148.437500
4108		-152.343750
4109		-148.437500
4110		-148.437500
4111		-148.437500
4112		-148.437500
4113		-148.437500
4114		-148.437500
4115		-144.531250
4116		-148.437500
4117		-144.531250
4118		-148.437500
4119		-144.531250
4120		-148.437500
4121		-144.531250
4122		-144.531250
4123		-140.625000
4124		-144.531250
4125		-140.625000
4126		-140.625000
4127		-136.718750
4128		-140.625000
4129		-136.718750
4130		-136.718750
4131		-132.812500
4132		-136.718750
4133		-132.812500
4134		-132.812500
4135		-128.906250
4136		-132.812500
4137		-125.000000
4138		-128.906250
4139		-121.093750
4140		-125.000000
4141		-121.093750
4142		-121.093750
4143		-117.187500
4144		-121.093750
4145		-113.281250
4146		-117.187500
4147		-113.281250
4148		-113.281250
4149		-109.375000
4150		-109.375000
4151		-105.468750
4152		-105.468750
4153		-101.562500
4154		-101.562500
4155		-97.656250
4156		-97.656250
4157		-93.750000
4158		-93.750000
4159		-89.843750
4160		-89.843750
4161		-85.937500
4162		-85.937500
4163		-82.031250
4164		-82.031250
4165		-78.125000
4166		-78.125000
4167		-70.312500
4168		-74.218750
4169		-66.406250
4170		-70.312500
4171		-62.500000
4172		-62.500000
4173		-58.593750
4174		-58.593750
4175		-54.687500
4176		-54.687500
4177		-46.875000
4178		-50.781250
4179		-42.968750
4180		-46.875000
4181		-39.062500
4182		-39.062500
4183		-35.156250
4184		-35.156250
4185		-27.343750
4186		-31.250000
4187		-23.437500
4188		-27.343750
4189		-19.531250
4190		-19.531250
4191		-11.718750
4192		-15.625000
4193		-7.812500
4194		-11.718750
4195		0.000000
4196		-7.812500
4197		3.906250
4198		0.000000
4199		7.812500
4200		3.906250
4201		11.718750
4202		7.812500
4203		15.625000
4204		15.625000
4205		19.531250
4206		19.531250
4207		27.343750
4208		23.437500
4209		31.250000
4210		27.343750
4211		39.062500
4212		31.250000
4213		42.968750
4214		35.156250
4215		42.968750
4216		42.968750
4217		50.781250
4218		46.875000
4219		54.687500
4220		50.781250
4221		58.593750
4222		58.593750
4223		62.500000
4224		62.500000
4225		66.406250
4226		62.500000
4227		74.218750
4228		70.312500
4229		78.125000
4230		70.312500
4231		82.031250
4232		78.125000
4233		82.031250
4234		82.031250
4235		89.843750
4236		85.937500
4237		89.843750
4238		89.843750
4239		93.750000
4240		93.750000
4241		97.656250
4242		97.656250
4243		105.468750
4244		97.656250
4245		109.375000
4246		101.562500
4247		113.281250
4248		101.562500
4249		113.281250
4250		109.375000
4251		117.187500
4252		113.281250
4253		121.093750
4254		117.187500
4255		121.093750
4256		121.093750
4257		125.000000
4258		121.093750
4259		128.906250
4260		125.000000
4261		132.812500
4262		125.000000
4263		136.718750
4264		128.906250
4265		136.718750
4266		132.812500
4267		136.718750
4268		136.718750
4269		140.625000
4270		136.718750
4271		140.625000
4272		140.625000
4273		144.531250
4274		140.625000
4275		144.531250
4276		140.625000
4277		152.343750
4278		140.625000
4279		152.343750
4280		144.531250
4281		156.250000
4282		144.531250
4283		152.343750
4284		148.437500
4285		156.250000
4286		152.343750
4287		156.250000
4288		152.343750
4289		156.250000
4290		152.343750
4291		156.250000
4292		156.250000
4293		156.250000
4294		152.343750
4295		164.062500
4296		152.343750
4297		164.062500
4298		152.343750
4299		164.062500
4300		156.250000
4301		160.156250
4302		156.250000
4303		160.156250
4304		156.250000
4305		160.156250
4306		160.156250
4307		160.156250
4308		160.156250
4309		160.156250
4310		156.250000
4311		164.062500
4312		156.250000
4313		164.062500
4314		152.343750
4315		164.062500
4316		156.250000
4317		160.156250
4318		156.250000
4319		160.156250
4320		156.250000
4321		160.156250
4322		156.250000
4323		156.250000
4324		152.343750
4325		156.250000
4326		148.437500
4327		160.156250
4328		148.437500
4329		160.156250
4330		148.437500
4331		156.250000
4332		148.437500
4333		156.250000
4334		148.437500
4335		152.343750
4336		144.531250
4337		148.437500
4338		144.531250
4339		148.437500
4340		144.531250
4341		148.437500
4342		140.625000
4343		144.531250
4344		136.718750
4345		144.531250
4346		132.812500
4347		144.531250
4348		132.812500
4349		140.625000
4350		132.812500
4351		136.718750
4352		128.906250
4353		132.812500
4354		125.000000
4355		128.906250
4356		125.000000
4357		128.906250
4358		121.093750
4359		125.000000
4360		113.281250
4361		125.000000
4362		109.375000
4363		121.093750
4364		109.375000
4365		117.187500
4366		109.375000
4367		117.187500
4368		105.468750
4369		109.375000
4370		101.562500
4371		105.468750
4372		97.656250
4373		101.562500
4374		93.750000
4375		101.562500
4376		89.843750
4377		93.750000
4378		85.937500
4379		89.843750
4380		82.031250
4381		89.843750
4382		78.125000
4383		85.937500
4384		74.218750
4385		78.125000
4386		66.406250
4387		74.218750
4388		62.500000
4389		70.312500
4390		58.593750
4391		66.406250
4392		54.687500
4393		62.500000
4394		50.781250
4395		54.687500
4396		42.968750
4397		54.687500
4398		39.062500
4399		46.875000
4400		35.156250
4401		42.968750
4402		31.250000
4403		39.062500
4404		27.343750
4405		31.250000
4406		19.531250
4407		27.343750
4408		15.625000
4409		23.437500
4410		11.718750
4411		19.531250
4412		7.812500
4413		11.718750
4414		0.000000
4415		7.812500
4416		-3.906250
4417		3.906250
4418		-7.812500
4419		0.000000
4420		-11.718750
4421		-7.812500
4422		-19.531250
4423		-11.718750
4424		-23.437500
4425		-15.625000
4426		-27.343750
4427		-23.437500
4428		-31.250000
4429		-27.343750
4430		-39.062500
4431		-31.250000
4432		-42.968750
4433		-35.156250
4434		-46.875000
4435		-42.968750
4436		-50.781250
4437		-46.875000
4438		-58.593750
4439		-50.781250
4440		-62.500000
4441		-54.687500
4442		-66.406250
4443		-62.500000
4444		-70.312500
4445		-66.406250
4446		-74.218750
4447		-70.312500
4448		-78.125000
4449		-74.218750
4450		-85.937500
4451		-78.125000
4452		-89.843750
4453		-82.031250
4454		-93.750000
4455		-85.937500
4456		-97.656250
4457		-89.843750
4458		-101.562500
4459		-93.750000
4460		-105.468750
4461		-97.656250
4462		-109.375000
4463		-101.562500
4464		-113.281250
4465		-105.468750
4466		-113.281250
4467		-109.375000
4468		-117.187500
4469		-113.281250
4470		-121.093750
4471		-117.187500
4472		-125.000000
4473		-121.093750
4474		-128.906250
4475		-121.093750
4476		-128.906250
4477		-125.000000
4478		-132.812500
4479		-128.906250
4480		-132.812500
4481		-128.906250
4482		-136.718750
4483		-132.812500
4484		-140.625000
4485		-136.718750
4486		-140.625000
4487		-136.718750
4488		-144.531250
4489		-140.625000
4490		-144.531250
4491		-140.625000
4492		-144.531250
4493		-140.625000
4494		-148.437500
4495		-144.531250
4496		-148.437500
4497		-144.531250
4498		-148.437500
4499		-144.531250
4500		-148.437500
4501		-148.437500
4502		-152.343750
4503		-148.437500
4504		-152.343750
4505		-148.437500
4506		-152.343750
4507		-148.437500
4508		-152.343750
4509		-148.437500
4510		-152.343750
4511		-148.437500
4512		-152.343750
4513		-148.437500
4514		-152.343750
4515		-148.437500
4516		-152.343750
4517		-148.437500
4518		-148.437500
4519		-144.531250
4520		-148.437500
4521		-144.531250
4522		-148.437500
4523		-144.531250
4524		-148.437500
4525		-144.531250
4526		-144.531250
4527		-140.625000
4528		-144.531250
4529		-140.625000
4530		-144.531250
4531		-136.718750
4532		-140.625000
4533		-136.718750
4534		-136.718750
4535		-132.812500
4536		-136.718750
4537		-128.906250
4538		-132.812500
4539		-128.906250
4540		-132.812500
4541		-125.000000
4542		-128.906250
4543		-125.000000
4544		-125.000000
4545		-121.093750
4546		-121.093750
4547		-117.187500
4548		-121.093750
4549		-113.281250
4550		-117.187500
4551		-109.375000
4552		-113.281250
4553		-105.468750
4554		-109.375000
4555		-105.468750
4556		-105.468750
4557		-101.562500
4558		-101.562500
4559		-93.750000
4560		-97.656250
4561		-93.750000
4562		-93.750000
4563		-85.937500
4564		-89.843750
4565		-82.031250
4566		-85.937500
4567		-78.125000
4568		-82.031250
4569		-74.218750
4570		-78.125000
4571		-70.312500
4572		-70.312500
4573		-66.406250
4574		-66.406250
4575		-62.500000
4576		-62.500000
4577		-54.687500
4578		-58.593750
4579		-50.781250
4580		-54.687500
4581		-46.875000
4582		-50.781250
4583		-42.968750
4584		-42.968750
4585		-35.156250
4586		-39.062500
4587		-31.250000
4588		-35.156250
4589		-27.343750
4590		-27.343750
4591		-23.437500
4592		-23.437500
4593		-15.625000
4594		-19.531250
4595		-11.718750
4596		-15.625000
4597		-7.812500
4598		-7.812500
4599		-3.906250
4600		-3.906250
4601		3.906250
4602		0.000000
4603		7.812500
4604		3.906250
4605		11.718750
4606		11.718750
4607		15.625000
4608		15.625000
4609		23.437500
4610		19.531250
4611		27.343750
4612		27.343750
4613		31.250000
4614		27.343750
4615		35.156250
4616		35.156250
4617		42.968750
4618		39.062500
4619		46.875000
4620		42.968750
4621		50.781250
4622		50.781250
4623		54.687500
4624		54.687500
4625		58.593750
4626		58.593750
4627		62.500000
4628		62.500000
4629		66.406250
4630		66.406250
4631		74.218750
4632		70.312500
4633		78.125000
4634		74.218750
4635		82.031250
4636		78.125000
4637		85.937500
4638		82.031250
4639		89.843750
4640		85.937500
4641		93.750000
4642		89.843750
4643		97.656250
4644		93.750000
4645		101.562500
4646		97.656250
4647		105.468750
4648		101.562500
4649		105.468750
4650		105.468750
4651		109.375000
4652		109.375000
4653		113.281250
4654		113.281250
4655		117.187500
4656		113.281250
4657		121.093750
4658		117.187500
4659		125.000000
4660		121.093750
4661		125.000000
4662		125.000000
4663		128.906250
4664		125.000000
4665		132.812500
4666		128.906250
4667		132.812500
4668		132.812500
4669		136.718750
4670		132.812500
4671		136.718750
4672		136.718750
4673		140.625000
4674		136.718750
4675		140.625000
4676		140.625000
4677		144.531250
4678		140.625000
4679		144.531250
4680		144.531250
4681		148.437500
4682		144.531250
4683		148.437500
4684		148.437500
4685		152.343750
4686		148.437500
4687		152.343750
4688		148.437500
4689		152.343750
4690		152.343750
4691		156.250000
4692		152.343750
4693		156.250000
4694		152.343750
4695		156.250000
4696		156.250000
4697		156.250000
4698		156.250000
4699		160.156250
4700		156.250000
4701		160.156250
4702		156.250000
4703		160.156250
4704		156.250000
4705		160.156250
4706		156.250000
4707		160.156250
4708		156.250000
4709		160.156250
4710		156.250000
4711		160.156250
4712		156.250000
4713		160.156250
4714		156.250000
4715		160.156250
4716		156.250000
4717		160.156250
4718		156.250000
4719		160.156250
4720		156.250000
4721		160.156250
4722		156.250000
4723		160.156250
4724		156.250000
4725		156.250000
4726		152.343750
4727		156.250000
4728		152.343750
4729		156.250000
4730		152.343750
4731		156.250000
4732		152.343750
4733		152.343750
4734		148.437500
4735		152.343750
4736		148.437500
4737		152.343750
4738		144.531250
4739		148.437500
4740		144.531250
4741		148.437500
4742		144.531250
4743		148.437500
4744		140.625000
4745		144.531250
4746		140.625000
4747		144.531250
4748		136.718750
4749		140.625000
4750		132.812500
4751		136.718750
4752		132.812500
4753		136.718750
4754		128.906250
4755		132.812500
4756		125.000000
4757		132.812500
4758		125.000000
4759		128.906250
4760		121.093750
4761		125.000000
4762		117.187500
4763		121.093750
4764		113.281250
4765		121.093750
4766		113.281250
4767		117.187500
4768		109.375000
4769		113.281250
4770		105.468750
4771		109.375000
4772		101.562500
4773		105.468750
4774		97.656250
4775		101.562500
4776		93.750000
4777		101.562500
4778		89.843750
4779		97.656250
4780		85.937500
4781		93.750000
4782		82.031250
4783		89.843750
4784		78.125000
4785		85.937500
4786		74.218750
4787		78.125000
4788		70.312500
4789		74.218750
4790		66.406250
4791		70.312500
4792		62.500000
4793		66.406250
4794		54.687500
4795		62.500000
4796		50.781250
4797		58.593750
4798		46.875000
4799		54.687500
4800		42.968750
4801		50.781250
4802		39.062500
4803		42.968750
4804		31.250000
4805		39.062500
4806		27.343750
4807		35.156250
4808		23.437500
4809		31.250000
4810		19.531250
4811		23.437500
4812		11.718750
4813		19.531250
4814		7.812500
4815		15.625000
4816		3.906250
4817		11.718750
4818		0.000000
4819		3.906250
4820		-7.812500
4821		0.000000
4822		-11.718750
4823		-3.906250
4824		-15.625000
4825		-11.718750
4826		-23.437500
4827		-15.625000
4828		-27.343750
4829		-19.531250
4830		-31.250000
4831		-23.437500
4832		-39.062500
4833		-27.343750
4834		-42.968750
4835		-35.156250
4836		-46.875000
4837		-39.062500
4838		-50.781250
4839		-42.968750
4840		-54.687500
4841		-50.781250
4842		-58.593750
4843		-54.687500
4844		-66.406250
4845		-58.593750
4846		-70.312500
4847		-62.500000
4848		-74.218750
4849		-66.406250
4850		-78.125000
4851		-70.312500
4852		-82.031250
4853		-78.125000
4854		-85.937500
4855		-82.031250
4856		-89.843750
4857		-85.937500
4858		-93.750000
4859		-89.843750
4860		-97.656250
4861		-93.750000
4862		-101.562500
4863		-97.656250
4864		-105.468750
4865		-101.562500
4866		-109.375000
4867		-101.562500
4868		-113.281250
4869		-105.468750
4870		-117.187500
4871		-109.375000
4872		-117.187500
4873		-113.281250
4874		-121.093750
4875		-117.187500
4876		-125.000000
4877		-121.093750
4878		-128.906250
4879		-125.000000
4880		-128.906250
4881		-125.000000
4882		-132.812500
4883		-125.000000
4884		-136.718750
4885		-128.906250
4886		-136.718750
4887		-132.812500
4888		-140.625000
4889		-136.718750
4890		-140.625000
4891		-136.718750
4892		-140.625000
4893		-136.718750
4894		-144.531250
4895		-140.625000
4896		-144.531250
4897		-140.625000
4898		-148.437500
4899		-140.625000
4900		-148.437500
4901		-140.625000
4902		-148.437500
4903		-144.531250
4904		-148.437500
4905		-144.531250
4906		-148.437500
4907		-144.531250
4908		-148.437500
4909		-148.437500
4910		-148.437500
4911		-148.437500
4912		-148.437500
4913		-144.531250
4914		-152.343750
4915		-144.531250
4916		-152.343750
4917		-144.531250
4918		-148.437500
4919		-144.531250
4920		-148.437500
4921		-144.531250
4922		-148.437500
4923		-144.531250
4924		-144.531250
4925		-144.531250
4926		-144.531250
4927		-140.625000
4928		-144.531250
4929		-140.625000
4930		-140.625000
4931		-136.718750
4932		-140.625000
4933		-132.812500
4934		-140.625000
4935		-132.812500
4936		-136.718750
4937		-132.812500
4938		-132.812500
4939		-128.906250
4940		-132.812500
4941		-125.000000
4942		-128.906250
4943		-125.000000
4944		-125.000000
4945		-121.093750
4946		-125.000000
4947		-117.187500
4948		-121.093750
4949		-113.281250
4950		-117.187500
4951		-109.375000
4952		-113.281250
4953		-109.375000
4954		-109.375000
4955		-105.468750
4956		-105.468750
4957		-101.562500
4958		-105.468750
4959		-97.656250
4960		-101.562500
4961		-93.750000
4962		-97.656250
4963		-89.843750
4964		-93.750000
4965		-85.937500
4966		-89.843750
4967		-82.031250
4968		-85.937500
4969		-78.125000
4970		-78.125000
4971		-74.218750
4972		-74.218750
4973		-70.312500
4974		-70.312500
4975		-62.500000
4976		-66.406250
4977		-58.593750
4978		-62.500000
4979		-54.687500
4980		-58.593750
4981		-50.781250
4982		-50.781250
4983		-42.968750
4984		-50.781250
4985		-39.062500
4986		-42.968750
4987		-35.156250
4988		-39.062500
4989		-31.250000
4990		-31.250000
4991		-27.343750
4992		-27.343750
4993		-19.531250
4994		-23.437500
4995		-15.625000
4996		-19.531250
4997		-11.718750
4998		-11.718750
4999		-3.906250
5000		-7.812500
5001		0.000000
5002		-3.906250
5003		3.906250
5004		0.000000
5005		7.812500
5006		7.812500
5007		15.625000
5008		11.718750
5009		19.531250
5010		15.625000
5011		23.437500
5012		23.437500
5013		27.343750
5014		27.343750
5015		35.156250
5016		31.250000
5017		39.062500
5018		35.156250
5019		42.968750
5020		39.062500
5021		46.875000
5022		46.875000
5023		50.781250
5024		50.781250
5025		54.687500
5026		54.687500
5027		62.500000
5028		58.593750
5029		66.406250
5030		62.500000
5031		70.312500
5032		66.406250
5033		74.218750
5034		70.312500
5035		78.125000
5036		78.125000
5037		82.031250
5038		78.125000
5039		85.937500
5040		85.937500
5041		89.843750
5042		89.843750
5043		93.750000
5044		93.750000
5045		97.656250
5046		93.750000
5047		101.562500
5048		97.656250
5049		105.468750
5050		101.562500
5051		109.375000
5052		105.468750
5053		109.375000
5054		109.375000
5055		113.281250
5056		113.281250
5057		117.187500
5058		117.187500
5059		121.093750
5060		121.093750
5061		125.000000
5062		121.093750
5063		128.906250
5064		125.000000
5065		128.906250
5066		128.906250
5067		132.812500
5068		128.906250
5069		132.812500
5070		132.812500
5071		136.718750
5072		136.718750
5073		140.625000
5074		136.718750
5075		140.625000
5076		140.625000
5077		144.531250
5078		140.625000
5079		144.531250
5080		144.531250
5081		148.437500
5082		144.531250
5083		148.437500
5084		144.531250
5085		152.343750
5086		148.437500
5087		152.343750
5088		148.437500
5089		156.250000
5090		152.343750
5091		156.250000
5092		152.343750
5093		156.250000
5094		152.343750
5095		156.250000
5096		156.250000
5097		156.250000
5098		156.250000
5099		160.156250
5100		156.250000
5101		160.156250
5102		156.250000
5103		160.156250
5104		156.250000
5105		160.156250
5106		160.156250
5107		160.156250
5108		160.156250
5109		160.156250
5110		160.156250
5111		164.062500
5112		160.156250
5113		164.062500
5114		160.156250
5115		160.156250
5116		160.156250
5117		160.156250
5118		160.156250
5119		160.156250
5120		156.250000
5121		164.062500
5122		156.250000
5123		164.062500
5124		156.250000
5125		160.156250
5126		156.250000
5127		160.156250
5128		156.250000
5129		160.156250
5130		156.250000
5131		156.250000
5132		152.343750
5133		156.250000
5134		152.343750
5135		156.250000
5136		152.343750
5137		156.250000
5138		148.437500
5139		152.343750
5140		148.437500
5141		152.343750
5142		148.437500
5143		152.343750
5144		144.531250
5145		148.437500
5146		144.531250
5147		148.437500
5148		140.625000
5149		144.531250
5150		140.625000
5151		144.531250
5152		136.718750
5153		140.625000
5154		132.812500
5155		140.625000
5156		132.812500
5157		136.718750
5158		128.906250
5159		132.812500
5160		125.000000
5161		132.812500
5162		125.000000
5163		128.906250
5164		121.093750
5165		125.000000
5166		117.187500
5167		125.000000
5168		113.281250
5169		121.093750
5170		109.375000
5171		117.187500
5172		109.375000
5173		113.281250
5174		105.468750
5175		109.375000
5176		101.562500
5177		105.468750
5178		97.656250
5179		101.562500
5180		93.750000
5181		97.656250
5182		89.843750
5183		93.750000
5184		85.937500
5185		89.843750
5186		82.031250
5187		85.937500
5188		78.125000
5189		82.031250
5190		74.218750
5191		78.125000
5192		70.312500
5193		74.218750
5194		66.406250
5195		70.312500
5196		58.593750
5197		66.406250
5198		54.687500
5199		62.500000
5200		50.781250
5201		58.593750
5202		46.875000
5203		54.687500
5204		42.968750
5205		46.875000
5206		35.156250
5207		42.968750
5208		31.250000
5209		39.062500
5210		27.343750
5211		35.156250
5212		23.437500
5213		27.343750
5214		15.625000
5215		23.437500
5216		11.718750
5217		19.531250
5218		7.812500
5219		15.625000
5220		3.906250
5221		7.812500
5222		-3.906250
5223		3.906250
5224		-7.812500
5225		0.000000
5226		-11.718750
5227		-3.906250
5228		-15.625000
5229		-11.718750
5230		-23.437500
5231		-15.625000
5232		-27.343750
5233		-19.531250
5234		-31.250000
5235		-27.343750
5236		-35.156250
5237		-31.250000
5238		-42.968750
5239		-35.156250
5240		-46.875000
5241		-39.062500
5242		-50.781250
5243		-42.968750
5244		-54.687500
5245		-50.781250
5246		-62.500000
5247		-54.687500
5248		-66.406250
5249		-58.593750
5250		-70.312500
5251		-62.500000
5252		-74.218750
5253		-66.406250
5254		-78.125000
5255		-74.218750
5256		-82.031250
5257		-78.125000
5258		-85.937500
5259		-82.031250
5260		-89.843750
5261		-85.937500
5262		-93.750000
5263		-89.843750
5264		-97.656250
5265		-93.750000
5266		-101.562500
5267		-97.656250
5268		-105.468750
5269		-97.656250
5270		-109.375000
5271		-105.468750
5272		-113.281250
5273		-105.468750
5274		-117.187500
5275		-109.375000
5276		-117.187500
5277		-113.281250
5278		-121.093750
5279		-117.187500
5280		-125.000000
5281		-121.093750
5282		-128.906250
5283		-121.093750
5284		-128.906250
5285		-125.000000
5286		-132.812500
5287		-128.906250
5288		-132.812500
5289		-128.906250
5290		-136.718750
5291		-132.812500
5292		-136.718750
5293		-132.812500
5294		-140.625000
5295		-136.718750
5296		-140.625000
5297		-136.718750
5298		-144.531250
5299		-136.718750
5300		-144.531250
5301		-140.625000
5302		-144.531250
5303		-140.625000
5304		-144.531250
5305		-140.625000
5306		-144.531250
5307		-144.531250
5308		-148.437500
5309		-144.531250
5310		-148.437500
5311		-144.531250
5312		-148.437500
5313		-144.531250
5314		-148.437500
5315		-144.531250
5316		-148.437500
5317		-144.531250
5318		-148.437500
5319		-144.531250
5320		-148.437500
5321		-144.531250
5322		-144.531250
5323		-144.531250
5324		-144.531250
5325		-140.625000
5326		-144.531250
5327		-140.625000
5328		-144.531250
5329		-140.625000
5330		-140.625000
5331		-136.718750
5332		-140.625000
5333		-136.718750
5334		-136.718750
5335		-132.812500
5336		-136.718750
5337		-132.812500
5338		-132.812500
5339		-128.906250
5340		-132.812500
5341		-128.906250
5342		-128.906250
5343		-125.000000
5344		-128.906250
5345		-125.000000
5346		-125.000000
5347		-121.093750
5348		-121.093750
5349		-117.187500
5350		-121.093750
5351		-113.281250
5352		-117.187500
5353		-113.281250
5354		-113.281250
5355		-109.375000
5356		-109.375000
5357		-105.468750
5358		-105.468750
5359		-101.562500
5360		-101.562500
5361		-97.656250
5362		-101.562500
5363		-93.750000
5364		-97.656250
5365		-89.843750
5366		-93.750000
5367		-85.937500
5368		-89.843750
5369		-82.031250
5370		-82.031250
5371		-78.125000
5372		-82.031250
5373		-74.218750
5374		-74.218750
5375		-70.312500
5376		-70.312500
5377		-66.406250
5378		-66.406250
5379		-58.593750
5380		-62.500000
5381		-54.687500
5382		-58.593750
5383		-50.781250
5384		-50.781250
5385		-46.875000
5386		-46.875000
5387		-42.968750
5388		-42.968750
5389		-35.156250
5390		-39.062500
5391		-31.250000
5392		-35.156250
5393		-27.343750
5394		-27.343750
5395		-23.437500
5396		-23.437500
5397		-15.625000
5398		-19.531250
5399		-11.718750
5400		-15.625000
5401		-7.812500
5402		-7.812500
5403		-3.906250
5404		-3.906250
5405		3.906250
5406		0.000000
5407		7.812500
5408		7.812500
5409		11.718750
5410		11.718750
5411		19.531250
5412		15.625000
5413		23.437500
5414		19.531250
5415		27.343750
5416		23.437500
5417		31.250000
5418		31.250000
5419		35.156250
5420		35.156250
5421		42.968750
5422		39.062500
5423		46.875000
5424		42.968750
5425		50.781250
5426		46.875000
5427		54.687500
5428		54.687500
5429		58.593750
5430		58.593750
5431		62.500000
5432		62.500000
5433		70.312500
5434		66.406250
5435		74.218750
5436		70.312500
5437		78.125000
5438		74.218750
5439		82.031250
5440		78.125000
5441		85.937500
5442		82.031250
5443		89.843750
5444		85.937500
5445		93.750000
5446		89.843750
5447		97.656250
5448		93.750000
5449		101.562500
5450		97.656250
5451		105.468750
5452		101.562500
5453		109.375000
5454		105.468750
5455		109.375000
5456		109.375000
5457		113.281250
5458		113.281250
5459		117.187500
5460		113.281250
5461		121.093750
5462		117.187500
5463		125.000000
5464		121.093750
5465		125.000000
5466		125.000000
5467		128.906250
5468		125.000000
5469		132.812500
5470		128.906250
5471		132.812500
5472		132.812500
5473		136.718750
5474		136.718750
5475		140.625000
5476		136.718750
5477		140.625000
5478		140.625000
5479		144.531250
5480		140.625000
5481		144.531250
5482		144.531250
5483		148.437500
5484		144.531250
5485		148.437500
5486		148.437500
5487		152.343750
5488		148.437500
5489		152.343750
5490		148.437500
5491		152.343750
5492		152.343750
5493		156.250000
5494		152.343750
5495		156.250000
5496		156.250000
5497		156.250000
5498		156.250000
5499		160.156250
5500		156.250000
5501		160.156250
5502		156.250000
5503		160.156250
5504		156.250000
5505		160.156250
5506		160.156250
5507		160.156250
5508		160.156250
5509		164.062500
5510		160.156250
5511		164.062500
5512		160.156250
5513		164.062500
5514		160.156250
5515		164.062500
5516		160.156250
5517		164.062500
5518		160.156250
5519		164.062500
5520		160.156250
5521		164.062500
5522		160.156250
5523		164.062500
5524		160.156250
5525		164.062500
5526		160.156250
5527		160.156250
5528		156.250000
5529		160.156250
5530		156.250000
5531		160.156250
5532		156.250000
5533		160.156250
5534		156.250000
5535		160.156250
5536		156.250000
5537		156.250000
5538		152.343750
5539		156.250000
5540		152.343750
5541		156.250000
5542		152.343750
5543		152.343750
5544		148.437500
5545		152.343750
5546		148.437500
5547		152.343750
5548		144.531250
5549		148.437500
5550		144.531250
5551		148.437500
5552		140.625000
5553		144.531250
5554		140.625000
5555		144.531250
5556		136.718750
5557		140.625000
5558		136.718750
5559		140.625000
5560		132.812500
5561		136.718750
5562		128.906250
5563		136.718750
5564		125.000000
5565		132.812500
5566		125.000000
5567		128.906250
5568		121.093750
5569		125.000000
5570		117.187500
5571		121.093750
5572		113.281250
5573		121.093750
5574		113.281250
5575		117.187500
5576		109.375000
5577		113.281250
5578		105.468750
5579		109.375000
5580		101.562500
5581		105.468750
5582		97.656250
5583		101.562500
5584		93.750000
5585		101.562500
5586		89.843750
5587		93.750000
5588		85.937500
5589		89.843750
5590		82.031250
5591		85.937500
5592		78.125000
5593		82.031250
5594		74.218750
5595		78.125000
5596		66.406250
5597		74.218750
5598		62.500000
5599		70.312500
5600		58.593750
5601		66.406250
5602		54.687500
5603		62.500000
5604		50.781250
5605		54.687500
5606		42.968750
5607		50.781250
5608		39.062500
5609		46.875000
5610		35.156250
5611		42.968750
5612		31.250000
5613		39.062500
5614		27.343750
5615		35.156250
5616		19.531250
5617		27.343750
5618		15.625000
5619		23.437500
5620		11.718750
5621		19.531250
5622		7.812500
5623		11.718750
5624		0.000000
5625		7.812500
5626		-3.906250
5627		3.906250
5628		-7.812500
5629		0.000000
5630		-11.718750
5631		-7.812500
5632		-19.531250
5633		-11.718750
5634		-23.437500
5635		-15.625000
5636		-27.343750
5637		-19.531250
5638		-31.250000
5639		-27.343750
5640		-39.062500
5641		-31.250000
5642		-42.968750
5643		-35.156250
5644		-46.875000
5645		-39.062500
5646		-50.781250
5647		-46.875000
5648		-54.687500
5649		-50.781250
5650		-62.500000
5651		-54.687500
5652		-66.406250
5653		-58.593750
5654		-70.312500
5655		-62.500000
5656		-74.218750
5657		-70.312500
5658		-78.125000
5659		-74.218750
5660		-82.031250
5661		-78.125000
5662		-85.937500
5663		-82.031250
5664		-89.843750
5665		-85.937500
5666		-93.750000
5667		-89.843750
5668		-97.656250
5669		-93.750000
5670		-101.562500
5671		-97.656250
5672		-105.468750
5673		-101.562500
5674		-109.375000
5675		-105.468750
5676		-113.281250
5677		-105.468750
5678		-117.187500
5679		-109.375000
5680		-117.187500
5681		-113.281250
5682		-121.093750
5683		-117.187500
5684		-125.000000
5685		-121.093750
5686		-125.000000
5687		-121.093750
5688		-128.906250
5689		-125.000000
5690		-132.812500
5691		-128.906250
5692		-132.812500
5693		-128.906250
5694		-136.718750
5695		-132.812500
5696		-136.718750
5697		-132.812500
5698		-140.625000
5699		-136.718750
5700		-140.625000
5701		-136.718750
5702		-140.625000
5703		-136.718750
5704		-144.531250
5705		-140.625000
5706		-144.531250
5707		-140.625000
5708		-144.531250
5709		-140.625000
5710		-144.531250
5711		-140.625000
5712		-144.531250
5713		-144.531250
5714		-144.531250
5715		-144.531250
5716		-144.531250
5717		-144.531250
5718		-148.437500
5719		-140.625000
5720		-144.531250
5721		-144.531250
5722		-144.531250
5723		-144.531250
5724		-144.531250
5725		-140.625000
5726		-144.531250
5727		-140.625000
5728		-144.531250
5729		-140.625000
5730		-144.531250
5731		-136.718750
5732		-140.625000
5733		-136.718750
5734		-140.625000
5735		-136.718750
5736		-136.718750
5737		-132.812500
5738		-136.718750
5739		-132.812500
5740		-136.718750
5741		-132.812500
5742		-132.812500
5743		-128.906250
5744		-128.906250
5745		-125.000000
5746		-128.906250
5747		-125.000000
5748		-125.000000
5749		-121.093750
5750		-125.000000
5751		-117.187500
5752		-121.093750
5753		-117.187500
5754		-117.187500
5755		-113.281250
5756		-113.281250
5757		-109.375000
5758		-109.375000
5759		-105.468750
5760		-109.375000
5761		-101.562500
5762		-105.468750
5763		-97.656250
5764		-101.562500
5765		-93.750000
5766		-97.656250
5767		-93.750000
5768		-93.750000
5769		-85.937500
5770		-89.843750
5771		-82.031250
5772		-85.937500
5773		-78.125000
5774		-82.031250
5775		-74.218750
5776		-78.125000
5777		-70.312500
5778		-74.218750
5779		-66.406250
5780		-66.406250
5781		-62.500000
5782		-62.500000
5783		-58.593750
5784		-58.593750
5785		-50.781250
5786		-54.687500
5787		-46.875000
5788		-50.781250
5789		-42.968750
5790		-46.875000
5791		-39.062500
5792		-39.062500
5793		-35.156250
5794		-35.156250
5795		-27.343750
5796		-31.250000
5797		-23.437500
5798		-27.343750
5799		-19.531250
5800		-23.437500
5801		-15.625000
5802		-15.625000
5803		-7.812500
5804		-11.718750
5805		-3.906250
5806		-3.906250
5807		0.000000
5808		0.000000
5809		3.906250
5810		3.906250
5811		11.718750
5812		7.812500
5813		15.625000
5814		15.625000
5815		19.531250
5816		19.531250
5817		23.437500
5818		23.437500
5819		31.250000
5820		27.343750
5821		35.156250
5822		31.250000
5823		39.062500
5824		39.062500
5825		42.968750
5826		42.968750
5827		46.875000
5828		46.875000
5829		54.687500
5830		50.781250
5831		58.593750
5832		54.687500
5833		62.500000
5834		62.500000
5835		66.406250
5836		66.406250
5837		70.312500
5838		70.312500
5839		74.218750
5840		74.218750
5841		78.125000
5842		78.125000
5843		82.031250
5844		82.031250
5845		85.937500
5846		85.937500
5847		89.843750
5848		89.843750
5849		97.656250
5850		93.750000
5851		97.656250
5852		97.656250
5853		101.562500
5854		101.562500
5855		105.468750
5856		105.468750
5857		109.375000
5858		109.375000
5859		113.281250
5860		109.375000
5861		117.187500
5862		113.281250
5863		121.093750
5864		117.187500
5865		125.000000
5866		121.093750
5867		125.000000
5868		125.000000
5869		128.906250
5870		125.000000
5871		132.812500
5872		128.906250
5873		132.812500
5874		132.812500
5875		136.718750
5876		132.812500
5877		140.625000
5878		136.718750
5879		140.625000
5880		136.718750
5881		144.531250
5882		140.625000
5883		144.531250
5884		140.625000
5885		148.437500
5886		144.531250
5887		148.437500
5888		148.437500
5889		152.343750
5890		148.437500
5891		152.343750
5892		148.437500
5893		152.343750
5894		148.437500
5895		156.250000
5896		152.343750
5897		156.250000
5898		152.343750
5899		160.156250
5900		156.250000
5901		160.156250
5902		156.250000
5903		164.062500
5904		156.250000
5905		160.156250
5906		156.250000
5907		160.156250
5908		156.250000
5909		164.062500
5910		156.250000
5911		164.062500
5912		160.156250
5913		164.062500
5914		160.156250
5915		164.062500
5916		160.156250
5917		164.062500
5918		160.156250
5919		167.968750
5920		160.156250
5921		164.062500
5922		160.156250
5923		164.062500
5924		160.156250
5925		164.062500
5926		156.250000
5927		164.062500
5928		160.156250
5929		164.062500
5930		160.156250
5931		164.062500
5932		156.250000
5933		164.062500
5934		156.250000
5935		160.156250
5936		152.343750
5937		164.062500
5938		156.250000
5939		160.156250
5940		152.343750
5941		160.156250
5942		152.343750
5943		160.156250
5944		152.343750
5945		156.250000
5946		148.437500
5947		152.343750
5948		144.531250
5949		152.343750
5950		144.531250
5951		156.250000
5952		140.625000
5953		152.343750
5954		144.531250
5955		148.437500
5956		140.625000
5957		144.531250
5958		136.718750
5959		144.531250
5960		132.812500
5961		144.531250
5962		132.812500
5963		140.625000
5964		132.812500
5965		136.718750
5966		125.000000
5967		136.718750
5968		121.093750
5969		132.812500
5970		121.093750
5971		132.812500
5972		121.093750
5973		125.000000
5974		117.187500
5975		121.093750
5976		113.281250
5977		121.093750
5978		109.375000
5979		117.187500
5980		105.468750
5981		113.281250
5982		101.562500
5983		109.375000
5984		97.656250
5985		109.375000
5986		93.750000
5987		105.468750
5988		93.750000
5989		97.656250
5990		89.843750
5991		93.750000
5992		82.031250
5993		89.843750
5994		82.031250
5995		89.843750
5996		78.125000
5997		82.031250
5998		70.312500
5999		78.125000
6000		66.406250
6001		74.218750
6002		62.500000
6003		70.312500
6004		58.593750
6005		66.406250
6006		54.687500
6007		58.593750
6008		46.875000
6009		54.687500
6010		42.968750
6011		54.687500
6012		39.062500
6013		46.875000
6014		35.156250
6015		42.968750
6016		27.343750
6017		39.062500
6018		23.437500
6019		35.156250
6020		19.531250
6021		27.343750
6022		15.625000
6023		23.437500
6024		7.812500
6025		15.625000
6026		3.906250
6027		11.718750
6028		0.000000
6029		7.812500
6030		-3.906250
6031		3.906250
6032		-11.718750
6033		-3.906250
6034		-15.625000
6035		-3.906250
6036		-19.531250
6037		-11.718750
6038		-23.437500
6039		-15.625000
6040		-31.250000
6041		-23.437500
6042		-35.156250
6043		-23.437500
6044		-39.062500
6045		-31.250000
6046		-42.968750
6047		-35.156250
6048		-46.875000
6049		-39.062500
6050		-54.687500
6051		-46.875000
6052		-58.593750
6053		-50.781250
6054		-62.500000
6055		-50.781250
6056		-66.406250
6057		-58.593750
6058		-70.312500
6059		-66.406250
6060		-78.125000
6061		-66.406250
6062		-78.125000
6063		-74.218750
6064		-82.031250
6065		-78.125000
6066		-89.843750
6067		-82.031250
6068		-89.843750
6069		-82.031250
6070		-93.750000
6071		-89.843750
6072		-97.656250
6073		-93.750000
6074		-101.562500
6075		-97.656250
6076		-105.468750
6077		-101.562500
6078		-109.375000
6079		-101.562500
6080		-113.281250
6081		-105.468750
6082		-117.187500
6083		-109.375000
6084		-121.093750
6085		-113.281250
6086		-121.093750
6087		-117.187500
6088		-125.000000
6089		-121.093750
6090		-125.000000
6091		-121.093750
6092		-128.906250
6093		-125.000000
6094		-132.812500
6095		-125.000000
6096		-132.812500
6097		-128.906250
6098		-132.812500
6099		-132.812500
6100		-140.625000
6101		-128.906250
6102		-140.625000
6103		-132.812500
6104		-140.625000
6105		-132.812500
6106		-140.625000
6107		-136.718750
6108		-140.625000
6109		-136.718750
6110		-144.531250
6111		-136.718750
6112		-144.531250
6113		-136.718750
6114		-144.531250
6115		-140.625000
6116		-144.531250
6117		-140.625000
6118		-144.531250
6119		-140.625000
6120		-148.437500
6121		-136.718750
6122		-144.531250
6123		-140.625000
6124		-144.531250
6125		-140.625000
6126		-144.531250
6127		-140.625000
6128		-144.531250
6129		-136.718750
6130		-144.531250
6131		-136.718750
6132		-140.625000
6133		-136.718750
6134		-140.625000
6135		-136.718750
6136		-140.625000
6137		-136.718750
6138		-136.718750
6139		-132.812500
6140		-136.718750
6141		-132.812500
6142		-132.812500
6143		-128.906250
6144		-132.812500
6145		-128.906250
6146		-132.812500
6147		-125.000000
6148		-128.906250
6149		-125.000000
6150		-125.000000
6151		-121.093750
6152		-125.000000
6153		-117.187500
6154		-121.093750
6155		-117.187500
6156		-117.187500
6157		-113.281250
6158		-113.281250
6159		-109.375000
6160		-113.281250
6161		-105.468750
6162		-109.375000
6163		-101.562500
6164		-105.468750
6165		-97.656250
6166		-101.562500
6167		-97.656250
6168		-97.656250
6169		-93.750000
6170		-93.750000
6171		-85.937500
6172		-89.843750
6173		-85.937500
6174		-85.937500
6175		-82.031250
6176		-82.031250
6177		-78.125000
6178		-78.125000
6179		-70.312500
6180		-74.218750
6181		-66.406250
6182		-70.312500
6183		-62.500000
6184		-66.406250
6185		-58.593750
6186		-58.593750
6187		-54.687500
6188		-54.687500
6189		-50.781250
6190		-50.781250
6191		-42.968750
6192		-46.875000
6193		-39.062500
6194		-42.968750
6195		-35.156250
6196		-39.062500
6197		-27.343750
6198		-31.250000
6199		-23.437500
6200		-27.343750
6201		-19.531250
6202		-23.437500
6203		-15.625000
6204		-19.531250
6205		-11.718750
6206		-11.718750
6207		-3.906250
6208		-7.812500
6209		0.000000
6210		-3.906250
6211		7.812500
6212		0.000000
6213		11.718750
6214		7.812500
6215		15.625000
6216		11.718750
6217		19.531250
6218		15.625000
6219		23.437500
6220		19.531250
6221		31.250000
6222		27.343750
6223		35.156250
6224		31.250000
6225		39.062500
6226		35.156250
6227		42.968750
6228		39.062500
6229		50.781250
6230		42.968750
6231		54.687500
6232		50.781250
6233		58.593750
6234		54.687500
6235		62.500000
6236		58.593750
6237		66.406250
6238		62.500000
6239		70.312500
6240		66.406250
6241		74.218750
6242		74.218750
6243		78.125000
6244		74.218750
6245		82.031250
6246		78.125000
6247		85.937500
6248		82.031250
6249		93.750000
6250		85.937500
6251		93.750000
6252		93.750000
6253		101.562500
6254		93.750000
6255		101.562500
6256		97.656250
6257		105.468750
6258		105.468750
6259		109.375000
6260		105.468750
6261		113.281250
6262		109.375000
6263		117.187500
6264		113.281250
6265		121.093750
6266		117.187500
6267		125.000000
6268		121.093750
6269		125.000000
6270		121.093750
6271		128.906250
6272		125.000000
6273		128.906250
6274		128.906250
6275		132.812500
6276		132.812500
6277		136.718750
6278		132.812500
6279		140.625000
6280		136.718750
6281		140.625000
6282		136.718750
6283		144.531250
6284		140.625000
6285		144.531250
6286		140.625000
6287		148.437500
6288		144.531250
6289		148.437500
6290		148.437500
6291		152.343750
6292		148.437500
6293		152.343750
6294		148.437500
6295		156.250000
6296		152.343750
6297		156.250000
6298		152.343750
6299		156.250000
6300		152.343750
6301		160.156250
6302		156.250000
6303		160.156250
6304		156.250000
6305		160.156250
6306		156.250000
6307		160.156250
6308		160.156250
6309		164.062500
6310		160.156250
6311		164.062500
6312		160.156250
6313		164.062500
6314		160.156250
6315		164.062500
6316		160.156250
6317		167.968750
6318		160.156250
6319		164.062500
6320		160.156250
6321		164.062500
6322		160.156250
6323		164.062500
6324		160.156250
6325		164.062500
6326		160.156250
6327		164.062500
6328		160.156250
6329		164.062500
6330		160.156250
6331		164.062500
6332		160.156250
6333		164.062500
6334		160.156250
6335		164.062500
6336		160.156250
6337		160.156250
6338		156.250000
6339		164.062500
6340		156.250000
6341		160.156250
6342		156.250000
6343		160.156250
6344		152.343750
6345		156.250000
6346		152.343750
6347		156.250000
6348		152.343750
6349		156.250000
6350		148.437500
6351		156.250000
6352		148.437500
6353		152.343750
6354		144.531250
6355		152.343750
6356		144.531250
6357		148.437500
6358		144.531250
6359		148.437500
6360		140.625000
6361		144.531250
6362		140.625000
6363		144.531250
6364		136.718750
6365		140.625000
6366		132.812500
6367		136.718750
6368		132.812500
6369		136.718750
6370		128.906250
6371		132.812500
6372		125.000000
6373		128.906250
6374		121.093750
6375		128.906250
6376		121.093750
6377		125.000000
6378		117.187500
6379		121.093750
6380		113.281250
6381		117.187500
6382		109.375000
6383		113.281250
6384		105.468750
6385		113.281250
6386		101.562500
6387		109.375000
6388		97.656250
6389		105.468750
6390		93.750000
6391		101.562500
6392		89.843750
6393		97.656250
6394		85.937500
6395		93.750000
6396		82.031250
6397		89.843750
6398		78.125000
6399		85.937500
6400		74.218750
6401		82.031250
6402		70.312500
6403		78.125000
6404		66.406250
6405		74.218750
6406		62.500000
6407		66.406250
6408		58.593750
6409		62.500000
6410		50.781250
6411		58.593750
6412		46.875000
6413		54.687500
6414		42.968750
6415		50.781250
6416		39.062500
6417		42.968750
6418		31.250000
6419		39.062500
6420		27.343750
6421		35.156250
6422		23.437500
6423		31.250000
6424		19.531250
6425		27.343750
6426		15.625000
6427		19.531250
6428		7.812500
6429		15.625000
6430		3.906250
6431		11.718750
6432		0.000000
6433		7.812500
6434		-7.812500
6435		0.000000
6436		-11.718750
6437		-3.906250
6438		-15.625000
6439		-7.812500
6440		-19.531250
6441		-15.625000
6442		-23.437500
6443		-19.531250
6444		-31.250000
6445		-23.437500
6446		-35.156250
6447		-27.343750
6448		-39.062500
6449		-35.156250
6450		-46.875000
6451		-39.062500
6452		-50.781250
6453		-42.968750
6454		-54.687500
6455		-46.875000
6456		-58.593750
6457		-50.781250
6458		-62.500000
6459		-54.687500
6460		-66.406250
6461		-62.500000
6462		-74.218750
6463		-66.406250
6464		-78.125000
6465		-70.312500
6466		-82.031250
6467		-74.218750
6468		-85.937500
6469		-78.125000
6470		-89.843750
6471		-82.031250
6472		-93.750000
6473		-85.937500
6474		-97.656250
6475		-89.843750
6476		-101.562500
6477		-93.750000
6478		-105.468750
6479		-97.656250
6480		-105.468750
6481		-101.562500
6482		-109.375000
6483		-105.468750
6484		-113.281250
6485		-109.375000
6486		-117.187500
6487		-113.281250
6488		-121.093750
6489		-113.281250
6490		-121.093750
6491		-117.187500
6492		-125.000000
6493		-121.093750
6494		-128.906250
6495		-121.093750
6496		-128.906250
6497		-125.000000
6498		-132.812500
6499		-125.000000
6500		-132.812500
6501		-128.906250
6502		-136.718750
6503		-132.812500
6504		-136.718750
6505		-132.812500
6506		-136.718750
6507		-132.812500
6508		-140.625000
6509		-136.718750
6510		-140.625000
6511		-136.718750
6512		-140.625000
6513		-136.718750
6514		-144.531250
6515		-140.625000
6516		-144.531250
6517		-140.625000
6518		-144.531250
6519		-140.625000
6520		-144.531250
6521		-140.625000
6522		-144.531250
6523		-140.625000
6524		-144.531250
6525		-140.625000
6526		-144.531250
6527		-140.625000
6528		-144.531250
6529		-140.625000
6530		-144.531250
6531		-140.625000
6532		-144.531250
6533		-140.625000
6534		-140.625000
6535		-136.718750
6536		-140.625000
6537		-136.718750
6538		-140.625000
6539		-136.718750
6540		-140.625000
6541		-132.812500
6542		-136.718750
6543		-132.812500
6544		-136.718750
6545		-132.812500
6546		-132.812500
6547		-128.906250
6548		-132.812500
6549		-125.000000
6550		-128.906250
6551		-125.000000
6552		-128.906250
6553		-121.093750
6554		-125.000000
6555		-121.093750
6556		-121.093750
6557		-117.187500
6558		-117.187500
6559		-113.281250
6560		-117.187500
6561		-109.375000
6562		-113.281250
6563		-109.375000
6564		-109.375000
6565		-105.468750
6566		-105.468750
6567		-101.562500
6568		-101.562500
6569		-97.656250
6570		-101.562500
6571		-93.750000
6572		-93.750000
6573		-89.843750
6574		-93.750000
6575		-85.937500
6576		-89.843750
6577		-82.031250
6578		-85.937500
6579		-78.125000
6580		-82.031250
6581		-74.218750
6582		-74.218750
6583		-70.312500
6584		-70.312500
6585		-66.406250
6586		-66.406250
6587		-58.593750
6588		-62.500000
6589		-54.687500
6590		-58.593750
6591		-50.781250
6592		-54.687500
6593		-46.875000
6594		-50.781250
6595		-42.968750
6596		-42.968750
6597		-39.062500
6598		-39.062500
6599		-31.250000
6600		-35.156250
6601		-27.343750
6602		-31.250000
6603		-23.437500
6604		-23.437500
6605		-19.531250
6606		-19.531250
6607		-11.718750
6608		-15.625000
6609		-7.812500
6610		-11.718750
6611		-3.906250
6612		-3.906250
6613		0.000000
6614		0.000000
6615		7.812500
6616		3.906250
6617		11.718750
6618		7.812500
6619		15.625000
6620		15.625000
6621		23.437500
6622		19.531250
6623		27.343750
6624		23.437500
6625		31.250000
6626		31.250000
6627		35.156250
6628		35.156250
6629		39.062500
6630		39.062500
6631		46.875000
6632		42.968750
6633		50.781250
6634		46.875000
6635		54.687500
6636		50.781250
6637		58.593750
6638		54.687500
6639		62.500000
6640		62.500000
6641		70.312500
6642		66.406250
6643		70.312500
6644		70.312500
6645		74.218750
6646		74.218750
6647		82.031250
6648		78.125000
6649		85.937500
6650		82.031250
6651		89.843750
6652		85.937500
6653		93.750000
6654		89.843750
6655		97.656250
6656		93.750000
6657		101.562500
6658		97.656250
6659		105.468750
6660		101.562500
6661		105.468750
6662		105.468750
6663		109.375000
6664		109.375000
6665		117.187500
6666		113.281250
6667		117.187500
6668		113.281250
6669		121.093750
6670		117.187500
6671		125.000000
6672		121.093750
6673		125.000000
6674		125.000000
6675		128.906250
6676		125.000000
6677		132.812500
6678		128.906250
6679		136.718750
6680		132.812500
6681		136.718750
6682		136.718750
6683		140.625000
6684		136.718750
6685		144.531250
6686		140.625000
6687		144.531250
6688		140.625000
6689		148.437500
6690		144.531250
6691		148.437500
6692		144.531250
6693		148.437500
6694		148.437500
6695		152.343750
6696		148.437500
6697		152.343750
6698		148.437500
6699		156.250000
6700		152.343750
6701		156.250000
6702		152.343750
6703		156.250000
6704		152.343750
6705		160.156250
6706		156.250000
6707		160.156250
6708		156.250000
6709		160.156250
6710		160.156250
6711		160.156250
6712		160.156250
6713		164.062500
6714		160.156250
6715		164.062500
6716		160.156250
6717		164.062500
6718		160.156250
6719		164.062500
6720		160.156250
6721		164.062500
6722		160.156250
6723		164.062500
6724		160.156250
6725		164.062500
6726		160.156250
6727		164.062500
6728		160.156250
6729		164.062500
6730		160.156250
6731		164.062500
6732		160.156250
6733		164.062500
6734		160.156250
6735		164.062500
6736		160.156250
6737		164.062500
6738		160.156250
6739		164.062500
6740		160.156250
6741		164.062500
6742		156.250000
6743		160.156250
6744		156.250000
6745		160.156250
6746		156.250000
6747		160.156250
6748		152.343750
6749		160.156250
6750		152.343750
6751		156.250000
6752		152.343750
6753		156.250000
6754		148.437500
6755		152.343750
6756		148.437500
6757		152.343750
6758		144.531250
6759		152.343750
6760		144.531250
6761		148.437500
6762		140.625000
6763		148.437500
6764		140.625000
6765		144.531250
6766		136.718750
6767		140.625000
6768		136.718750
6769		140.625000
6770		132.812500
6771		136.718750
6772		128.906250
6773		136.718750
6774		125.000000
6775		132.812500
6776		125.000000
6777		128.906250
6778		121.093750
6779		125.000000
6780		117.187500
6781		125.000000
6782		113.281250
6783		121.093750
6784		113.281250
6785		117.187500
6786		109.375000
6787		113.281250
6788		105.468750
6789		109.375000
6790		101.562500
6791		105.468750
6792		97.656250
6793		105.468750
6794		93.750000
6795		101.562500
6796		89.843750
6797		97.656250
6798		85.937500
6799		89.843750
6800		82.031250
6801		85.937500
6802		78.125000
6803		82.031250
6804		74.218750
6805		78.125000
6806		70.312500
6807		74.218750
6808		62.500000
6809		70.312500
6810		58.593750
6811		66.406250
6812		54.687500
6813		62.500000
6814		50.781250
6815		58.593750
6816		46.875000
6817		50.781250
6818		39.062500
6819		46.875000
6820		35.156250
6821		42.968750
6822		31.250000
6823		39.062500
6824		27.343750
6825		35.156250
6826		23.437500
6827		27.343750
6828		15.625000
6829		23.437500
6830		11.718750
6831		19.531250
6832		7.812500
6833		15.625000
6834		0.000000
6835		7.812500
6836		-3.906250
6837		3.906250
6838		-7.812500
6839		0.000000
6840		-11.718750
6841		-3.906250
6842		-19.531250
6843		-11.718750
6844		-23.437500
6845		-15.625000
6846		-27.343750
6847		-19.531250
6848		-31.250000
6849		-27.343750
6850		-39.062500
6851		-31.250000
6852		-42.968750
6853		-35.156250
6854		-46.875000
6855		-39.062500
6856		-50.781250
6857		-42.968750
6858		-54.687500
6859		-50.781250
6860		-62.500000
6861		-54.687500
6862		-66.406250
6863		-58.593750
6864		-70.312500
6865		-62.500000
6866		-74.218750
6867		-66.406250
6868		-78.125000
6869		-70.312500
6870		-82.031250
6871		-78.125000
6872		-85.937500
6873		-78.125000
6874		-89.843750
6875		-85.937500
6876		-93.750000
6877		-85.937500
6878		-97.656250
6879		-89.843750
6880		-101.562500
6881		-97.656250
6882		-105.468750
6883		-97.656250
6884		-109.375000
6885		-101.562500
6886		-109.375000
6887		-105.468750
6888		-113.281250
6889		-109.375000
6890		-117.187500
6891		-113.281250
6892		-121.093750
6893		-117.187500
6894		-121.093750
6895		-117.187500
6896		-125.000000
6897		-121.093750
6898		-128.906250
6899		-125.000000
6900		-128.906250
6901		-125.000000
6902		-132.812500
6903		-128.906250
6904		-132.812500
6905		-128.906250
6906		-136.718750
6907		-132.812500
6908		-136.718750
6909		-132.812500
6910		-140.625000
6911		-132.812500
6912		-140.625000
6913		-136.718750
6914		-140.625000
6915		-136.718750
6916		-144.531250
6917		-136.718750
6918		-144.531250
6919		-140.625000
6920		-144.531250
6921		-140.625000
6922		-144.531250
6923		-140.625000
6924		-144.531250
6925		-140.625000
6926		-144.531250
6927		-140.625000
6928		-144.531250
6929		-140.625000
6930		-144.531250
6931		-140.625000
6932		-144.531250
6933		-140.625000
6934		-144.531250
6935		-140.625000
6936		-144.531250
6937		-136.718750
6938		-140.625000
6939		-136.718750
6940		-140.625000
6941		-136.718750
6942		-140.625000
6943		-136.718750
6944		-136.718750
6945		-132.812500
6946		-136.718750
6947		-132.812500
6948		-132.812500
6949		-128.906250
6950		-132.812500
6951		-128.906250
6952		-128.906250
6953		-125.000000
6954		-128.906250
6955		-125.000000
6956		-125.000000
6957		-121.093750
6958		-125.000000
6959		-117.187500
6960		-121.093750
6961		-117.187500
6962		-117.187500
6963		-109.375000
6964		-113.281250
6965		-109.375000
6966		-109.375000
6967		-105.468750
6968		-109.375000
6969		-101.562500
6970		-105.468750
6971		-97.656250
6972		-101.562500
6973		-97.656250
6974		-97.656250
6975		-93.750000
6976		-93.750000
6977		-89.843750
6978		-89.843750
6979		-82.031250
6980		-85.937500
6981		-82.031250
6982		-82.031250
6983		-74.218750
6984		-78.125000
6985		-70.312500
6986		-74.218750
6987		-66.406250
6988		-70.312500
6989		-62.500000
6990		-66.406250
6991		-58.593750
6992		-58.593750
6993		-54.687500
6994		-54.687500
6995		-50.781250
6996		-50.781250
6997		-42.968750
6998		-46.875000
6999		-39.062500
7000		-42.968750
7001		-35.156250
7002		-35.156250
7003		-31.250000
7004		-31.250000
7005		-23.437500
7006		-27.343750
7007		-19.531250
7008		-23.437500
7009		-15.625000
7010		-15.625000
7011		-11.718750
7012		-11.718750
7013		-3.906250
7014		-7.812500
7015		0.000000
7016		0.000000
7017		3.906250
7018		3.906250
7019		11.718750
7020		7.812500
7021		15.625000
7022		11.718750
7023		19.531250
7024		19.531250
7025		23.437500
7026		23.437500
7027		27.343750
7028		27.343750
7029		35.156250
7030		31.250000
7031		39.062500
7032		35.156250
7033		42.968750
7034		39.062500
7035		46.875000
7036		46.875000
7037		50.781250
7038		50.781250
7039		58.593750
7040		54.687500
7041		62.500000
7042		58.593750
7043		66.406250
7044		62.500000
7045		70.312500
7046		66.406250
7047		74.218750
7048		74.218750
7049		78.125000
7050		78.125000
7051		82.031250
7052		82.031250
7053		85.937500
7054		85.937500
7055		89.843750
7056		89.843750
7057		93.750000
7058		93.750000
7059		97.656250
7060		97.656250
7061		101.562500
7062		101.562500
7063		105.468750
7064		105.468750
7065		109.375000
7066		105.468750
7067		113.281250
7068		109.375000
7069		117.187500
7070		113.281250
7071		117.187500
7072		117.187500
7073		121.093750
7074		121.093750
7075		125.000000
7076		125.000000
7077		128.906250
7078		125.000000
7079		132.812500
7080		128.906250
7081		132.812500
7082		132.812500
7083		136.718750
7084		132.812500
7085		140.625000
7086		136.718750
7087		140.625000
7088		140.625000
7089		144.531250
7090		140.625000
7091		144.531250
7092		144.531250
7093		148.437500
7094		144.531250
7095		148.437500
7096		148.437500
7097		152.343750
7098		148.437500
7099		152.343750
7100		152.343750
7101		156.250000
7102		152.343750
7103		156.250000
7104		152.343750
7105		156.250000
7106		156.250000
7107		160.156250
7108		156.250000
7109		160.156250
7110		156.250000
7111		160.156250
7112		156.250000
7113		164.062500
7114		160.156250
7115		164.062500
7116		160.156250
7117		164.062500
7118		160.156250
7119		164.062500
7120		160.156250
7121		164.062500
7122		160.156250
7123		164.062500
7124		160.156250
7125		164.062500
7126		164.062500
7127		164.062500
7128		160.156250
7129		167.968750
7130		160.156250
7131		164.062500
7132		160.156250
7133		164.062500
7134		160.156250
7135		164.062500
7136		160.156250
7137		164.062500
7138		160.156250
7139		164.062500
7140		160.156250
7141		164.062500
7142		160.156250
7143		164.062500
7144		160.156250
7145		164.062500
7146		156.250000
7147		160.156250
7148		156.250000
7149		160.156250
7150		156.250000
7151		160.156250
7152		152.343750
7153		156.250000
7154		152.343750
7155		156.250000
7156		152.343750
7157		156.250000
7158		148.437500
7159		152.343750
7160		148.437500
7161		152.343750
7162		144.531250
7163		148.437500
7164		144.531250
7165		148.437500
7166		140.625000
7167		144.531250
7168		140.625000
7169		144.531250
7170		136.718750
7171		140.625000
7172		132.812500
7173		140.625000
7174		132.812500
7175		136.718750
7176		128.906250
7177		132.812500
7178		125.000000
7179		132.812500
7180		125.000000
7181		128.906250
7182		121.093750
7183		125.000000
7184		117.187500
7185		121.093750
7186		113.281250
7187		121.093750
7188		109.375000
7189		117.187500
7190		105.468750
7191		113.281250
7192		101.562500
7193		109.375000
7194		101.562500
7195		105.468750
7196		93.750000
7197		101.562500
7198		93.750000
7199		97.656250
7200		89.843750
7201		93.750000
7202		82.031250
7203		89.843750
7204		78.125000
7205		85.937500
7206		74.218750
7207		82.031250
7208		70.312500
7209		78.125000
7210		66.406250
7211		74.218750
7212		62.500000
7213		70.312500
7214		58.593750
7215		66.406250
7216		54.687500
7217		58.593750
7218		46.875000
7219		54.687500
7220		42.968750
7221		50.781250
7222		39.062500
7223		46.875000
7224		35.156250
7225		39.062500
7226		31.250000
7227		35.156250
7228		23.437500
7229		31.250000
7230		19.531250
7231		27.343750
7232		15.625000
7233		19.531250
7234		7.812500
7235		15.625000
7236		3.906250
7237		11.718750
7238		0.000000
7239		7.812500
7240		-3.906250
7241		0.000000
7242		-11.718750
7243		-3.906250
7244		-15.625000
7245		-7.812500
7246		-19.531250
7247		-11.718750
7248		-23.437500
7249		-19.531250
7250		-31.250000
7251		-23.437500
7252		-35.156250
7253		-27.343750
7254		-39.062500
7255		-31.250000
7256		-46.875000
7257		-39.062500
7258		-50.781250
7259		-42.968750
7260		-54.687500
7261		-46.875000
7262		-58.593750
7263		-50.781250
7264		-62.500000
7265		-54.687500
7266		-66.406250
7267		-62.500000
7268		-74.218750
7269		-66.406250
7270		-74.218750
7271		-70.312500
7272		-78.125000
7273		-74.218750
7274		-82.031250
7275		-78.125000
7276		-89.843750
7277		-82.031250
7278		-89.843750
7279		-85.937500
7280		-97.656250
7281		-89.843750
7282		-97.656250
7283		-93.750000
7284		-101.562500
7285		-97.656250
7286		-105.468750
7287		-101.562500
7288		-109.375000
7289		-105.468750
7290		-113.281250
7291		-105.468750
7292		-117.187500
7293		-109.375000
7294		-117.187500
7295		-113.281250
7296		-121.093750
7297		-117.187500
7298		-125.000000
7299		-117.187500
7300		-125.000000
7301		-121.093750
7302		-128.906250
7303		-125.000000
7304		-132.812500
7305		-125.000000
7306		-132.812500
7307		-128.906250
7308		-136.718750
7309		-132.812500
7310		-136.718750
7311		-132.812500
7312		-136.718750
7313		-132.812500
7314		-140.625000
7315		-136.718750
7316		-140.625000
7317		-136.718750
7318		-140.625000
7319		-136.718750
7320		-140.625000
7321		-136.718750
7322		-144.531250
7323		-140.625000
7324		-144.531250
7325		-140.625000
7326		-144.531250
7327		-140.625000
7328		-144.531250
7329		-140.625000
7330		-144.531250
7331		-140.625000
7332		-144.531250
7333		-140.625000
7334		-144.531250
7335		-140.625000
7336		-144.531250
7337		-140.625000
7338		-144.531250
7339		-136.718750
7340		-140.625000
7341		-136.718750
7342		-140.625000
7343		-136.718750
7344		-140.625000
7345		-136.718750
7346		-140.625000
7347		-132.812500
7348		-136.718750
7349		-132.812500
7350		-136.718750
7351		-132.812500
7352		-132.812500
7353		-128.906250
7354		-132.812500
7355		-128.906250
7356		-128.906250
7357		-125.000000
7358		-128.906250
7359		-121.093750
7360		-125.000000
7361		-121.093750
7362		-121.093750
7363		-117.187500
7364		-121.093750
7365		-113.281250
7366		-117.187500
7367		-109.375000
7368		-113.281250
7369		-109.375000
7370		-109.375000
7371		-105.468750
7372		-105.468750
7373		-101.562500
7374		-101.562500
7375		-97.656250
7376		-101.562500
7377		-93.750000
7378		-97.656250
7379		-89.843750
7380		-93.750000
7381		-85.937500
7382		-89.843750
7383		-82.031250
7384		-85.937500
7385		-78.125000
7386		-82.031250
7387		-74.218750
7388		-74.218750
7389		-70.312500
7390		-70.312500
7391		-66.406250
7392		-66.406250
7393		-62.500000
7394		-62.500000
7395		-54.687500
7396		-58.593750
7397		-50.781250
7398		-54.687500
7399		-46.875000
7400		-46.875000
7401		-42.968750
7402		-42.968750
7403		-39.062500
7404		-39.062500
7405		-31.250000
7406		-35.156250
7407		-27.343750
7408		-31.250000
7409		-23.437500
7410		-23.437500
7411		-19.531250
7412		-19.531250
7413		-11.718750
7414		-15.625000
7415		-7.812500
7416		-11.718750
7417		-3.906250
7418		-3.906250
7419		0.000000
7420		0.000000
7421		7.812500
7422		3.906250
7423		11.718750
7424		11.718750
7425		15.625000
7426		15.625000
7427		19.531250
7428		19.531250
7429		27.343750
7430		23.437500
7431		31.250000
7432		27.343750
7433		35.156250
7434		35.156250
7435		39.062500
7436		39.062500
7437		46.875000
7438		42.968750
7439		50.781250
7440		46.875000
7441		54.687500
7442		50.781250
7443		58.593750
7444		58.593750
7445		62.500000
7446		62.500000
7447		66.406250
7448		66.406250
7449		74.218750
7450		70.312500
7451		78.125000
7452		74.218750
7453		82.031250
7454		78.125000
7455		85.937500
7456		82.031250
7457		89.843750
7458		85.937500
7459		93.750000
7460		89.843750
7461		97.656250
7462		93.750000
7463		101.562500
7464		97.656250
7465		105.468750
7466		101.562500
7467		105.468750
7468		105.468750
7469		109.375000
7470		109.375000
7471		113.281250
7472		113.281250
7473		117.187500
7474		113.281250
7475		121.093750
7476		117.187500
7477		125.000000
7478		121.093750
7479		125.000000
7480		125.000000
7481		128.906250
7482		125.000000
7483		132.812500
7484		128.906250
7485		136.718750
7486		132.812500
7487		136.718750
7488		132.812500
7489		140.625000
7490		136.718750
7491		140.625000
7492		140.625000
7493		144.531250
7494		140.625000
7495		144.531250
7496		144.531250
7497		148.437500
7498		144.531250
7499		152.343750
7500		148.437500
7501		152.343750
7502		148.437500
7503		152.343750
7504		152.343750
7505		156.250000
7506		152.343750
7507		156.250000
7508		156.250000
7509		156.250000
7510		156.250000
7511		160.156250
7512		156.250000
7513		160.156250
7514		156.250000
7515		160.156250
7516		160.156250
7517		164.062500
7518		160.156250
7519		164.062500
7520		160.156250
7521		164.062500
7522		160.156250
7523		164.062500
7524		160.156250
7525		164.062500
7526		160.156250
7527		164.062500
7528		160.156250
7529		164.062500
7530		160.156250
7531		164.062500
7532		160.156250
7533		164.062500
7534		164.062500
7535		164.062500
7536		164.062500
7537		164.062500
7538		160.156250
7539		164.062500
7540		160.156250
7541		164.062500
7542		160.156250
7543		164.062500
7544		160.156250
7545		164.062500
7546		160.156250
7547		164.062500
7548		160.156250
7549		164.062500
7550		156.250000
7551		160.156250
7552		156.250000
7553		160.156250
7554		156.250000
7555		160.156250
7556		152.343750
7557		156.250000
7558		152.343750
7559		156.250000
7560		152.343750
7561		156.250000
7562		148.437500
7563		152.343750
7564		148.437500
7565		152.343750
7566		144.531250
7567		148.437500
7568		144.531250
7569		148.437500
7570		140.625000
7571		144.531250
7572		140.625000
7573		144.531250
7574		136.718750
7575		140.625000
7576		132.812500
7577		140.625000
7578		128.906250
7579		136.718750
7580		128.906250
7581		132.812500
7582		125.000000
7583		132.812500
7584		121.093750
7585		128.906250
7586		121.093750
7587		125.000000
7588		117.187500
7589		121.093750
7590		113.281250
7591		117.187500
7592		109.375000
7593		113.281250
7594		105.468750
7595		113.281250
7596		101.562500
7597		109.375000
7598		97.656250
7599		105.468750
7600		93.750000
7601		101.562500
7602		89.843750
7603		97.656250
7604		85.937500
7605		93.750000
7606		82.031250
7607		89.843750
7608		78.125000
7609		85.937500
7610		74.218750
7611		82.031250
7612		70.312500
7613		74.218750
7614		66.406250
7615		74.218750
7616		58.593750
7617		66.406250
7618		54.687500
7619		62.500000
7620		50.781250
7621		58.593750
7622		46.875000
7623		54.687500
7624		42.968750
7625		46.875000
7626		39.062500
7627		42.968750
7628		31.250000
7629		39.062500
7630		27.343750
7631		35.156250
7632		23.437500
7633		31.250000
7634		19.531250
7635		23.437500
7636		11.718750
7637		19.531250
7638		7.812500
7639		15.625000
7640		3.906250
7641		11.718750
7642		-3.906250
7643		3.906250
7644		-7.812500
7645		0.000000
7646		-11.718750
7647		-3.906250
7648		-15.625000
7649		-7.812500
7650		-19.531250
7651		-15.625000
7652		-27.343750
7653		-19.531250
7654		-31.250000
7655		-23.437500
7656		-35.156250
7657		-27.343750
7658		-39.062500
7659		-35.156250
7660		-46.875000
7661		-39.062500
7662		-50.781250
7663		-42.968750
7664		-54.687500
7665		-46.875000
7666		-58.593750
7667		-50.781250
7668		-62.500000
7669		-54.687500
7670		-66.406250
7671		-62.500000
7672		-74.218750
7673		-66.406250
7674		-78.125000
7675		-70.312500
7676		-82.031250
7677		-74.218750
7678		-85.937500
7679		-78.125000
7680		-89.843750
7681		-82.031250
7682		-93.750000
7683		-85.937500
7684		-97.656250
7685		-89.843750
7686		-101.562500
7687		-93.750000
7688		-105.468750
7689		-97.656250
7690		-105.468750
7691		-101.562500
7692		-109.375000
7693		-105.468750
7694		-113.281250
7695		-109.375000
7696		-117.187500
7697		-109.375000
7698		-117.187500
7699		-113.281250
7700		-121.093750
7701		-117.187500
7702		-125.000000
7703		-121.093750
7704		-125.000000
7705		-121.093750
7706		-128.906250
7707		-125.000000
7708		-128.906250
7709		-125.000000
7710		-132.812500
7711		-128.906250
7712		-132.812500
7713		-128.906250
7714		-136.718750
7715		-132.812500
7716		-136.718750
7717		-132.812500
7718		-140.625000
7719		-136.718750
7720		-140.625000
7721		-136.718750
7722		-140.625000
7723		-136.718750
7724		-140.625000
7725		-136.718750
7726		-140.625000
7727		-140.625000
7728		-144.531250
7729		-140.625000
7730		-144.531250
7731		-140.625000
7732		-144.531250
7733		-140.625000
7734		-144.531250
7735		-140.625000
7736		-144.531250
7737		-140.625000
7738		-140.625000
7739		-140.625000
7740		-140.625000
7741		-136.718750
7742		-140.625000
7743		-136.718750
7744		-140.625000
7745		-136.718750
7746		-140.625000
7747		-136.718750
7748		-136.718750
7749		-132.812500
7750		-136.718750
7751		-132.812500
7752		-136.718750
7753		-132.812500
7754		-132.812500
7755		-128.906250
7756		-132.812500
7757		-125.000000
7758		-128.906250
7759		-125.000000
7760		-128.906250
7761		-121.093750
7762		-125.000000
7763		-121.093750
7764		-121.093750
7765		-117.187500
7766		-121.093750
7767		-113.281250
7768		-117.187500
7769		-113.281250
7770		-113.281250
7771		-109.375000
7772		-109.375000
7773		-105.468750
7774		-109.375000
7775		-101.562500
7776		-105.468750
7777		-97.656250
7778		-101.562500
7779		-93.750000
7780		-97.656250
7781		-89.843750
7782		-93.750000
7783		-85.937500
7784		-89.843750
7785		-82.031250
7786		-85.937500
7787		-78.125000
7788		-82.031250
7789		-74.218750
7790		-78.125000
7791		-70.312500
7792		-74.218750
7793		-66.406250
7794		-70.312500
7795		-62.500000
7796		-62.500000
7797		-58.593750
7798		-58.593750
7799		-54.687500
7800		-54.687500
7801		-46.875000
7802		-50.781250
7803		-42.968750
7804		-46.875000
7805		-39.062500
7806		-39.062500
7807		-35.156250
7808		-35.156250
7809		-31.250000
7810		-31.250000
7811		-23.437500
7812		-27.343750
7813		-19.531250
7814		-23.437500
7815		-15.625000
7816		-15.625000
7817		-11.718750
7818		-11.718750
7819		-3.906250
7820		-7.812500
7821		0.000000
7822		0.000000
7823		3.906250
7824		3.906250
7825		11.718750
7826		7.812500
7827		15.625000
7828		11.718750
7829		19.531250
7830		15.625000
7831		23.437500
7832		23.437500
7833		31.250000
7834		27.343750
7835		35.156250
7836		31.250000
7837		39.062500
7838		35.156250
7839		42.968750
7840		39.062500
7841		46.875000
7842		46.875000
7843		54.687500
7844		50.781250
7845		58.593750
7846		54.687500
7847		62.500000
7848		58.593750
7849		66.406250
7850		62.500000
7851		70.312500
7852		70.312500
7853		74.218750
7854		74.218750
7855		82.031250
7856		78.125000
7857		82.031250
7858		82.031250
7859		85.937500
7860		85.937500
7861		89.843750
7862		89.843750
7863		93.750000
7864		93.750000
7865		97.656250
7866		97.656250
7867		101.562500
7868		101.562500
7869		105.468750
7870		105.468750
7871		109.375000
7872		109.375000
7873		113.281250
7874		109.375000
7875		117.187500
7876		113.281250
7877		121.093750
7878		117.187500
7879		121.093750
7880		121.093750
7881		125.000000
7882		125.000000
7883		128.906250
7884		125.000000
7885		132.812500
7886		128.906250
7887		132.812500
7888		132.812500
7889		136.718750
7890		132.812500
7891		140.625000
7892		136.718750
7893		140.625000
7894		140.625000
7895		144.531250
7896		140.625000
7897		144.531250
7898		144.531250
7899		148.437500
7900		144.531250
7901		148.437500
7902		148.437500
7903		152.343750
7904		148.437500
7905		152.343750
7906		152.343750
7907		156.250000
7908		152.343750
7909		156.250000
7910		152.343750
7911		156.250000
7912		156.250000
7913		160.156250
7914		156.250000
7915		160.156250
7916		156.250000
7917		160.156250
7918		160.156250
7919		164.062500
7920		160.156250
7921		164.062500
7922		160.156250
7923		164.062500
7924		160.156250
7925		164.062500
7926		160.156250
7927		164.062500
7928		160.156250
7929		164.062500
7930		160.156250
7931		164.062500
7932		164.062500
7933		164.062500
7934		164.062500
7935		164.062500
7936		164.062500
7937		167.968750
7938		164.062500
7939		164.062500
7940		160.156250
7941		164.062500
7942		160.156250
7943		164.062500
7944		160.156250
7945		164.062500
7946		160.156250
7947		164.062500
7948		160.156250
7949		164.062500
7950		160.156250
7951		164.062500
7952		156.250000
7953		164.062500
7954		156.250000
7955		160.156250
7956		156.250000
7957		160.156250
7958		156.250000
7959		160.156250
7960		152.343750
7961		156.250000
7962		152.343750
7963		156.250000
7964		148.437500
7965		152.343750
7966		148.437500
7967		152.343750
7968		148.437500
7969		148.437500
7970		144.531250
7971		148.437500
7972		140.625000
7973		148.437500
7974		140.625000
7975		144.531250
7976		136.718750
7977		140.625000
7978		136.718750
7979		140.625000
7980		132.812500
7981		136.718750
7982		128.906250
7983		136.718750
7984		125.000000
7985		132.812500
7986		125.000000
7987		128.906250
7988		121.093750
7989		125.000000
7990		117.187500
7991		125.000000
7992		113.281250
7993		121.093750
7994		109.375000
7995		117.187500
7996		109.375000
7997		113.281250
7998		105.468750
7999		109.375000
8000		101.562500
8001		109.375000
8002		97.656250
8003		105.468750
8004		93.750000
8005		97.656250
8006		89.843750
8007		93.750000
8008		85.937500
8009		89.843750
8010		82.031250
8011		85.937500
8012		78.125000
8013		82.031250
8014		70.312500
8015		78.125000
8016		66.406250
8017		74.218750
8018		62.500000
8019		70.312500
8020		58.593750
8021		66.406250
8022		54.687500
8023		62.500000
8024		50.781250
8025		54.687500
8026		46.875000
8027		54.687500
8028		39.062500
8029		46.875000
8030		35.156250
8031		42.968750
8032		31.250000
8033		39.062500
8034		27.343750
8035		31.250000
8036		19.531250
8037		27.343750
8038		15.625000
8039		23.437500
8040		11.718750
8041		19.531250
8042		3.906250
8043		11.718750
8044		0.000000
8045		7.812500
8046		-3.906250
8047		3.906250
8048		-7.812500
8049		0.000000
8050		-11.718750
8051		-7.812500
8052		-19.531250
8053		-11.718750
8054		-23.437500
8055		-15.625000
8056		-27.343750
8057		-23.437500
8058		-31.250000
8059		-27.343750
8060		-39.062500
8061		-31.250000
8062		-42.968750
8063		-35.156250
8064		-46.875000
8065		-39.062500
8066		-50.781250
8067		-46.875000
8068		-58.593750
8069		-50.781250
8070		-62.500000
8071		-54.687500
8072		-66.406250
8073		-58.593750
8074		-70.312500
8075		-62.500000
8076		-74.218750
8077		-66.406250
8078		-78.125000
8079		-74.218750
8080		-82.031250
8081		-74.218750
8082		-85.937500
8083		-82.031250
8084		-89.843750
8085		-82.031250
8086		-93.750000
8087		-89.843750
8088		-97.656250
8089		-93.750000
8090		-101.562500
8091		-97.656250
8092		-105.468750
8093		-97.656250
8094		-109.375000
8095		-101.562500
8096		-113.281250
8097		-105.468750
8098		-113.281250
8099		-109.375000
8100		-117.187500
8101		-109.375000
8102		-121.093750
8103		-113.281250
8104		-121.093750
8105		-117.187500
8106		-125.000000
8107		-121.093750
8108		-128.906250
8109		-121.093750
8110		-128.906250
8111		-125.000000
8112		-132.812500
8113		-128.906250
8114		-132.812500
8115		-128.906250
8116		-136.718750
8117		-132.812500
8118		-136.718750
8119		-132.812500
8120		-136.718750
8121		-132.812500
8122		-140.625000
8123		-132.812500
8124		-140.625000
8125		-136.718750
8126		-140.625000
8127		-136.718750
8128		-140.625000
8129		-136.718750
8130		-140.625000
8131		-136.718750
8132		-144.531250
8133		-140.625000
8134		-144.531250
8135		-140.625000
8136		-144.531250
8137		-140.625000
8138		-144.531250
8139		-140.625000
8140		-144.531250
8141		-140.625000
8142		-140.625000
8143		-136.718750
8144		-144.531250
8145		-136.718750
8146		-144.531250
8147		-136.718750
8148		-140.625000
8149		-132.812500
8150		-140.625000
8151		-132.812500
8152		-136.718750
8153		-132.812500
8154		-136.718750
8155		-128.906250
8156		-132.812500
8157		-128.906250
8158		-132.812500
8159		-128.906250
8160		-132.812500
8161		-125.000000
8162		-128.906250
8163		-121.093750
8164		-128.906250
8165		-121.093750
8166		-125.000000
8167		-117.187500
8168		-121.093750
8169		-113.281250
8170		-117.187500
8171		-109.375000
8172		-117.187500
8173		-109.375000
8174		-113.281250
8175		-105.468750
8176		-109.375000
8177		-101.562500
8178		-105.468750
8179		-97.656250
8180		-105.468750
8181		-93.750000
8182		-101.562500
8183		-89.843750
8184		-97.656250
8185		-89.843750
8186		-93.750000
8187		-82.031250
8188		-89.843750
8189		-82.031250
8190		-82.031250
8191		-78.125000
8192		-78.125000
8193		-74.218750
8194		-78.125000
8195		-66.406250
8196		-70.312500
8197		-62.500000
8198		-70.312500
8199		-58.593750
8200		-62.500000
8201		-54.687500
8202		-58.593750
8203		-50.781250
8204		-54.687500
8205		-42.968750
8206		-50.781250
8207		-42.968750
8208		-42.968750
8209		-35.156250
8210		-39.062500
8211		-31.250000
8212		-35.156250
8213		-27.343750
8214		-31.250000
8215		-19.531250
8216		-23.437500
8217		-15.625000
8218		-19.531250
8219		-11.718750
8220		-15.625000
8221		-7.812500
8222		-11.718750
8223		-3.906250
8224		-3.906250
8225		3.906250
8226		0.000000
8227		7.812500
8228		3.906250
8229		15.625000
8230		7.812500
8231		19.531250
8232		11.718750
8233		23.437500
8234		19.531250
8235		31.250000
8236		23.437500
8237		31.250000
8238		27.343750
8239		39.062500
8240		35.156250
8241		42.968750
8242		39.062500
8243		46.875000
8244		42.968750
8245		50.781250
8246		46.875000
8247		54.687500
8248		50.781250
8249		62.500000
8250		54.687500
8251		66.406250
8252		58.593750
8253		70.312500
8254		66.406250
8255		74.218750
8256		70.312500
8257		78.125000
8258		74.218750
8259		82.031250
8260		78.125000
8261		85.937500
8262		82.031250
8263		89.843750
8264		85.937500
8265		93.750000
8266		89.843750
8267		97.656250
8268		93.750000
8269		101.562500
8270		97.656250
8271		105.468750
8272		101.562500
8273		109.375000
8274		105.468750
8275		113.281250
8276		109.375000
8277		117.187500
8278		113.281250
8279		121.093750
8280		113.281250
8281		125.000000
8282		117.187500
8283		125.000000
8284		121.093750
8285		128.906250
8286		125.000000
8287		132.812500
8288		125.000000
8289		132.812500
8290		128.906250
8291		136.718750
8292		132.812500
8293		136.718750
8294		136.718750
8295		140.625000
8296		136.718750
8297		144.531250
8298		136.718750
8299		148.437500
8300		140.625000
8301		148.437500
8302		144.531250
8303		148.437500
8304		144.531250
8305		152.343750
8306		144.531250
8307		152.343750
8308		148.437500
8309		152.343750
8310		152.343750
8311		156.250000
8312		152.343750
8313		160.156250
8314		152.343750
8315		160.156250
8316		152.343750
8317		160.156250
8318		156.250000
8319		164.062500
8320		156.250000
8321		164.062500
8322		156.250000
8323		164.062500
8324		160.156250
8325		164.062500
8326		160.156250
8327		164.062500
8328		160.156250
8329		167.968750
8330		160.156250
8331		167.968750
8332		160.156250
8333		167.968750
8334		160.156250
8335		167.968750
8336		160.156250
8337		167.968750
8338		160.156250
8339		167.968750
8340		160.156250
8341		167.968750
8342		164.062500
8343		167.968750
8344		160.156250
8345		167.968750
8346		160.156250
8347		167.968750
8348		160.156250
8349		167.968750
8350		160.156250
8351		167.968750
8352		160.156250
8353		164.062500
8354		156.250000
8355		164.062500
8356		156.250000
8357		164.062500
8358		156.250000
8359		160.156250
8360		156.250000
8361		160.156250
8362		152.343750
8363		160.156250
8364		152.343750
8365		160.156250
8366		148.437500
8367		156.250000
8368		148.437500
8369		156.250000
8370		144.531250
8371		152.343750
8372		144.531250
8373		152.343750
8374		144.531250
8375		148.437500
8376		140.625000
8377		144.531250
8378		136.718750
8379		144.531250
8380		136.718750
8381		144.531250
8382		132.812500
8383		140.625000
8384		128.906250
8385		136.718750
8386		128.906250
8387		136.718750
8388		125.000000
8389		132.812500
8390		121.093750
8391		128.906250
8392		121.093750
8393		125.000000
8394		117.187500
8395		121.093750
8396		113.281250
8397		121.093750
8398		109.375000
8399		117.187500
8400		105.468750
8401		113.281250
8402		101.562500
8403		109.375000
8404		97.656250
8405		105.468750
8406		93.750000
8407		101.562500
8408		89.843750
8409		97.656250
8410		85.937500
8411		93.750000
8412		82.031250
8413		89.843750
8414		78.125000
8415		85.937500
8416		74.218750
8417		82.031250
8418		70.312500
8419		78.125000
8420		62.500000
8421		74.218750
8422		62.500000
8423		70.312500
8424		58.593750
8425		66.406250
8426		50.781250
8427		58.593750
8428		46.875000
8429		54.687500
8430		42.968750
8431		50.781250
8432		35.156250
8433		46.875000
8434		31.250000
8435		39.062500
8436		27.343750
8437		39.062500
8438		23.437500
8439		31.250000
8440		19.531250
8441		27.343750
8442		15.625000
8443		19.531250
8444		7.812500
8445		15.625000
8446		3.906250
8447		11.718750
8448		0.000000
8449		7.812500
8450		-7.812500
8451		3.906250
8452		-11.718750
8453		-3.906250
8454		-15.625000
8455		-7.812500
8456		-23.437500
8457		-11.718750
8458		-23.437500
8459		-15.625000
8460		-31.250000
8461		-23.437500
8462		-35.156250
8463		-27.343750
8464		-42.968750
8465		-31.250000
8466		-46.875000
8467		-35.156250
8468		-50.781250
8469		-39.062500
8470		-58.593750
8471		-46.875000
8472		-58.593750
8473		-50.781250
8474		-62.500000
8475		-54.687500
8476		-66.406250
8477		-62.500000
8478		-70.312500
8479		-66.406250
8480		-78.125000
8481		-66.406250
8482		-82.031250
8483		-74.218750
8484		-85.937500
8485		-78.125000
8486		-89.843750
8487		-82.031250
8488		-93.750000
8489		-85.937500
8490		-97.656250
8491		-85.937500
8492		-97.656250
8493		-93.750000
8494		-101.562500
8495		-97.656250
8496		-109.375000
8497		-101.562500
8498		-109.375000
8499		-101.562500
8500		-113.281250
8501		-105.468750
8502		-117.187500
8503		-109.375000
8504		-117.187500
8505		-109.375000
8506		-121.093750
8507		-113.281250
8508		-125.000000
8509		-117.187500
8510		-125.000000
8511		-121.093750
8512		-128.906250
8513		-125.000000
8514		-132.812500
8515		-125.000000
8516		-132.812500
8517		-125.000000
8518		-136.718750
8519		-128.906250
8520		-136.718750
8521		-128.906250
8522		-140.625000
8523		-132.812500
8524		-140.625000
8525		-132.812500
8526		-140.625000
8527		-136.718750
8528		-140.625000
8529		-136.718750
8530		-144.531250
8531		-136.718750
8532		-144.531250
8533		-136.718750
8534		-144.531250
8535		-136.718750
8536		-144.531250
8537		-136.718750
8538		-144.531250
8539		-136.718750
8540		-144.531250
8541		-136.718750
8542		-144.531250
8543		-136.718750
8544		-140.625000
8545		-140.625000
8546		-144.531250
8547		-136.718750
8548		-144.531250
8549		-136.718750
8550		-140.625000
8551		-136.718750
8552		-140.625000
8553		-132.812500
8554		-140.625000
8555		-132.812500
8556		-136.718750
8557		-128.906250
8558		-136.718750
8559		-128.906250
8560		-132.812500
8561		-128.906250
8562		-132.812500
8563		-128.906250
8564		-132.812500
8565		-125.000000
8566		-128.906250
8567		-121.093750
8568		-125.000000
8569		-117.187500
8570		-125.000000
8571		-117.187500
8572		-121.093750
8573		-113.281250
8574		-117.187500
8575		-109.375000
8576		-113.281250
8577		-109.375000
8578		-109.375000
8579		-105.468750
8580		-109.375000
8581		-101.562500
8582		-105.468750
8583		-97.656250
8584		-101.562500
8585		-93.750000
8586		-97.656250
8587		-89.843750
8588		-93.750000
8589		-85.937500
8590		-89.843750
8591		-82.031250
8592		-85.937500
8593		-78.125000
8594		-82.031250
8595		-74.218750
8596		-78.125000
8597		-70.312500
8598		-74.218750
8599		-66.406250
8600		-70.312500
8601		-58.593750
8602		-66.406250
8603		-54.687500
8604		-62.500000
8605		-50.781250
8606		-58.593750
8607		-46.875000
8608		-50.781250
8609		-42.968750
8610		-46.875000
8611		-39.062500
8612		-39.062500
8613		-35.156250
8614		-39.062500
8615		-27.343750
8616		-31.250000
8617		-23.437500
8618		-27.343750
8619		-19.531250
8620		-23.437500
8621		-11.718750
8622		-19.531250
8623		-7.812500
8624		-11.718750
8625		-3.906250
8626		-7.812500
8627		0.000000
8628		0.000000
8629		3.906250
8630		3.906250
8631		11.718750
8632		7.812500
8633		15.625000
8634		11.718750
8635		19.531250
8636		15.625000
8637		27.343750
8638		19.531250
8639		31.250000
8640		27.343750
8641		35.156250
8642		31.250000
8643		39.062500
8644		35.156250
8645		42.968750
8646		42.968750
8647		46.875000
8648		42.968750
8649		54.687500
8650		50.781250
8651		58.593750
8652		54.687500
8653		62.500000
8654		58.593750
8655		66.406250
8656		62.500000
8657		70.312500
8658		66.406250
8659		74.218750
8660		70.312500
8661		78.125000
8662		78.125000
8663		82.031250
8664		82.031250
8665		89.843750
8666		85.937500
8667		93.750000
8668		85.937500
8669		97.656250
8670		89.843750
8671		101.562500
8672		93.750000
8673		105.468750
8674		97.656250
8675		109.375000
8676		101.562500
8677		109.375000
8678		109.375000
8679		113.281250
8680		109.375000
8681		117.187500
8682		113.281250
8683		121.093750
8684		113.281250
8685		125.000000
8686		117.187500
8687		128.906250
8688		121.093750
8689		128.906250
8690		125.000000
8691		132.812500
8692		128.906250
8693		136.718750
8694		132.812500
8695		136.718750
8696		132.812500
8697		140.625000
8698		136.718750
8699		144.531250
8700		136.718750
8701		144.531250
8702		140.625000
8703		148.437500
8704		140.625000
8705		148.437500
8706		144.531250
8707		152.343750
8708		144.531250
8709		152.343750
8710		148.437500
8711		152.343750
8712		152.343750
8713		156.250000
8714		152.343750
8715		156.250000
8716		152.343750
8717		160.156250
8718		156.250000
8719		160.156250
8720		156.250000
8721		160.156250
8722		156.250000
8723		164.062500
8724		156.250000
8725		164.062500
8726		160.156250
8727		164.062500
8728		160.156250
8729		164.062500
8730		160.156250
8731		164.062500
8732		160.156250
8733		167.968750
8734		160.156250
8735		167.968750
8736		160.156250
8737		167.968750
8738		160.156250
8739		167.968750
8740		160.156250
8741		167.968750
8742		160.156250
8743		167.968750
8744		164.062500
8745		167.968750
8746		164.062500
8747		164.062500
8748		160.156250
8749		167.968750
8750		160.156250
8751		167.968750
8752		160.156250
8753		167.968750
8754		160.156250
8755		164.062500
8756		156.250000
8757		164.062500
8758		156.250000
8759		164.062500
8760		156.250000
8761		164.062500
8762		156.250000
8763		160.156250
8764		156.250000
8765		160.156250
8766		152.343750
8767		160.156250
8768		148.437500
8769		160.156250
8770		148.437500
8771		156.250000
8772		148.437500
8773		156.250000
8774		144.531250
8775		152.343750
8776		144.531250
8777		152.343750
8778		144.531250
8779		148.437500
8780		140.625000
8781		144.531250
8782		136.718750
8783		144.531250
8784		132.812500
8785		140.625000
8786		132.812500
8787		140.625000
8788		128.906250
8789		136.718750
8790		125.000000
8791		132.812500
8792		121.093750
8793		132.812500
8794		121.093750
8795		128.906250
8796		117.187500
8797		125.000000
8798		113.281250
8799		121.093750
8800		109.375000
8801		117.187500
8802		109.375000
8803		117.187500
8804		105.468750
8805		113.281250
8806		97.656250
8807		109.375000
8808		93.750000
8809		105.468750
8810		93.750000
8811		101.562500
8812		89.843750
8813		97.656250
8814		85.937500
8815		93.750000
8816		78.125000
8817		89.843750
8818		74.218750
8819		85.937500
8820		70.312500
8821		82.031250
8822		66.406250
8823		78.125000
8824		62.500000
8825		74.218750
8826		58.593750
8827		66.406250
8828		54.687500
8829		62.500000
8830		50.781250
8831		58.593750
8832		42.968750
8833		54.687500
8834		39.062500
8835		50.781250
8836		35.156250
8837		42.968750
8838		27.343750
8839		39.062500
8840		23.437500
8841		35.156250
8842		19.531250
8843		31.250000
8844		15.625000
8845		27.343750
8846		11.718750
8847		19.531250
8848		7.812500
8849		15.625000
8850		0.000000
8851		11.718750
8852		-3.906250
8853		3.906250
8854		-7.812500
8855		0.000000
8856		-15.625000
8857		-3.906250
8858		-19.531250
8859		-7.812500
8860		-23.437500
8861		-15.625000
8862		-27.343750
8863		-19.531250
8864		-31.250000
8865		-27.343750
8866		-39.062500
8867		-31.250000
8868		-42.968750
8869		-35.156250
8870		-46.875000
8871		-39.062500
8872		-54.687500
8873		-42.968750
8874		-58.593750
8875		-46.875000
8876		-62.500000
8877		-50.781250
8878		-66.406250
8879		-58.593750
8880		-70.312500
8881		-62.500000
8882		-74.218750
8883		-66.406250
8884		-78.125000
8885		-70.312500
8886		-82.031250
8887		-74.218750
8888		-85.937500
8889		-78.125000
8890		-89.843750
8891		-82.031250
8892		-93.750000
8893		-85.937500
8894		-97.656250
8895		-89.843750
8896		-101.562500
8897		-93.750000
8898		-105.468750
8899		-97.656250
8900		-109.375000
8901		-101.562500
8902		-113.281250
8903		-105.468750
8904		-117.187500
8905		-105.468750
8906		-117.187500
8907		-109.375000
8908		-121.093750
8909		-113.281250
8910		-125.000000
8911		-117.187500
8912		-125.000000
8913		-121.093750
8914		-125.000000
8915		-121.093750
8916		-132.812500
8917		-125.000000
8918		-132.812500
8919		-125.000000
8920		-132.812500
8921		-128.906250
8922		-136.718750
8923		-128.906250
8924		-140.625000
8925		-132.812500
8926		-140.625000
8927		-132.812500
8928		-140.625000
8929		-132.812500
8930		-140.625000
8931		-136.718750
8932		-140.625000
8933		-136.718750
8934		-144.531250
8935		-136.718750
8936		-144.531250
8937		-136.718750
8938		-144.531250
8939		-136.718750
8940		-144.531250
8941		-136.718750
8942		-144.531250
8943		-136.718750
8944		-144.531250
8945		-136.718750
8946		-140.625000
8947		-140.625000
8948		-140.625000
8949		-140.625000
8950		-144.531250
8951		-136.718750
8952		-144.531250
8953		-136.718750
8954		-140.625000
8955		-132.812500
8956		-140.625000
8957		-132.812500
8958		-140.625000
8959		-132.812500
8960		-136.718750
8961		-128.906250
8962		-136.718750
8963		-128.906250
8964		-132.812500
8965		-128.906250
8966		-128.906250
8967		-125.000000
8968		-132.812500
8969		-121.093750
8970		-128.906250
8971		-121.093750
8972		-125.000000
8973		-117.187500
8974		-121.093750
8975		-113.281250
8976		-121.093750
8977		-113.281250
8978		-117.187500
8979		-109.375000
8980		-113.281250
8981		-109.375000
8982		-109.375000
8983		-105.468750
8984		-105.468750
8985		-97.656250
8986		-105.468750
8987		-93.750000
8988		-101.562500
8989		-89.843750
8990		-97.656250
8991		-89.843750
8992		-93.750000
8993		-85.937500
8994		-89.843750
8995		-78.125000
8996		-85.937500
8997		-78.125000
8998		-78.125000
8999		-74.218750
9000		-74.218750
9001		-66.406250
9002		-74.218750
9003		-62.500000
9004		-70.312500
9005		-58.593750
9006		-62.500000
9007		-54.687500
9008		-58.593750
9009		-50.781250
9010		-54.687500
9011		-46.875000
9012		-50.781250
9013		-42.968750
9014		-42.968750
9015		-35.156250
9016		-39.062500
9017		-31.250000
9018		-35.156250
9019		-27.343750
9020		-31.250000
9021		-19.531250
9022		-27.343750
9023		-15.625000
9024		-19.531250
9025		-11.718750
9026		-15.625000
9027		-7.812500
9028		-11.718750
9029		0.000000
9030		-3.906250
9031		0.000000
9032		0.000000
9033		7.812500
9034		3.906250
9035		15.625000
9036		7.812500
9037		19.531250
9038		11.718750
9039		23.437500
9040		15.625000
9041		27.343750
9042		23.437500
9043		31.250000
9044		31.250000
9045		39.062500
9046		31.250000
9047		42.968750
9048		39.062500
9049		46.875000
9050		42.968750
9051		50.781250
9052		46.875000
9053		58.593750
9054		50.781250
9055		62.500000
9056		54.687500
9057		66.406250
9058		58.593750
9059		70.312500
9060		62.500000
9061		74.218750
9062		70.312500
9063		78.125000
9064		74.218750
9065		82.031250
9066		78.125000
9067		85.937500
9068		82.031250
9069		89.843750
9070		85.937500
9071		93.750000
9072		89.843750
9073		97.656250
9074		93.750000
9075		101.562500
9076		97.656250
9077		105.468750
9078		97.656250
9079		109.375000
9080		105.468750
9081		109.375000
9082		109.375000
9083		117.187500
9084		113.281250
9085		121.093750
9086		113.281250
9087		121.093750
9088		117.187500
9089		125.000000
9090		121.093750
9091		128.906250
9092		125.000000
9093		132.812500
9094		125.000000
9095		132.812500
9096		128.906250
9097		136.718750
9098		132.812500
9099		136.718750
9100		136.718750
9101		140.625000
9102		136.718750
9103		144.531250
9104		136.718750
9105		148.437500
9106		140.625000
9107		148.437500
9108		140.625000
9109		152.343750
9110		144.531250
9111		152.343750
9112		144.531250
9113		152.343750
9114		148.437500
9115		152.343750
9116		152.343750
9117		156.250000
9118		152.343750
9119		160.156250
9120		152.343750
9121		160.156250
9122		152.343750
9123		160.156250
9124		156.250000
9125		164.062500
9126		156.250000
9127		164.062500
9128		156.250000
9129		164.062500
9130		156.250000
9131		164.062500
9132		160.156250
9133		164.062500
9134		160.156250
9135		167.968750
9136		160.156250
9137		167.968750
9138		160.156250
9139		167.968750
9140		160.156250
9141		167.968750
9142		160.156250
9143		167.968750
9144		160.156250
9145		167.968750
9146		160.156250
9147		167.968750
9148		164.062500
9149		167.968750
9150		164.062500
9151		164.062500
9152		160.156250
9153		167.968750
9154		160.156250
9155		167.968750
9156		160.156250
9157		167.968750
9158		160.156250
9159		164.062500
9160		156.250000
9161		164.062500
9162		156.250000
9163		164.062500
9164		156.250000
9165		164.062500
9166		156.250000
9167		160.156250
9168		152.343750
9169		160.156250
9170		152.343750
9171		160.156250
9172		148.437500
9173		156.250000
9174		148.437500
9175		156.250000
9176		148.437500
9177		152.343750
9178		144.531250
9179		152.343750
9180		144.531250
9181		148.437500
9182		140.625000
9183		144.531250
9184		140.625000
9185		144.531250
9186		136.718750
9187		144.531250
9188		132.812500
9189		140.625000
9190		132.812500
9191		136.718750
9192		128.906250
9193		136.718750
9194		125.000000
9195		132.812500
9196		121.093750
9197		132.812500
9198		121.093750
9199		125.000000
9200		117.187500
9201		121.093750
9202		113.281250
9203		121.093750
9204		109.375000
9205		117.187500
9206		105.468750
9207		113.281250
9208		101.562500
9209		113.281250
9210		97.656250
9211		109.375000
9212		93.750000
9213		105.468750
9214		93.750000
9215		101.562500
9216		89.843750
9217		93.750000
9218		82.031250
9219		89.843750
9220		78.125000
9221		89.843750
9222		74.218750
9223		82.031250
9224		70.312500
9225		78.125000
9226		66.406250
9227		74.218750
9228		58.593750
9229		70.312500
9230		58.593750
9231		66.406250
9232		54.687500
9233		58.593750
9234		50.781250
9235		54.687500
9236		42.968750
9237		50.781250
9238		39.062500
9239		46.875000
9240		31.250000
9241		42.968750
9242		27.343750
9243		39.062500
9244		23.437500
9245		31.250000
9246		19.531250
9247		27.343750
9248		15.625000
9249		23.437500
9250		11.718750
9251		15.625000
9252		3.906250
9253		11.718750
9254		-3.906250
9255		7.812500
9256		-3.906250
9257		3.906250
9258		-11.718750
9259		0.000000
9260		-15.625000
9261		-7.812500
9262		-19.531250
9263		-11.718750
9264		-23.437500
9265		-15.625000
9266		-31.250000
9267		-23.437500
9268		-35.156250
9269		-27.343750
9270		-39.062500
9271		-31.250000
9272		-46.875000
9273		-35.156250
9274		-50.781250
9275		-39.062500
9276		-54.687500
9277		-42.968750
9278		-58.593750
9279		-46.875000
9280		-62.500000
9281		-54.687500
9282		-66.406250
9283		-58.593750
9284		-70.312500
9285		-66.406250
9286		-78.125000
9287		-70.312500
9288		-82.031250
9289		-70.312500
9290		-85.937500
9291		-74.218750
9292		-89.843750
9293		-78.125000
9294		-93.750000
9295		-85.937500
9296		-97.656250
9297		-85.937500
9298		-97.656250
9299		-93.750000
9300		-101.562500
9301		-97.656250
9302		-105.468750
9303		-101.562500
9304		-109.375000
9305		-101.562500
9306		-113.281250
9307		-105.468750
9308		-113.281250
9309		-105.468750
9310		-121.093750
9311		-109.375000
9312		-121.093750
9313		-113.281250
9314		-125.000000
9315		-117.187500
9316		-125.000000
9317		-121.093750
9318		-128.906250
9319		-121.093750
9320		-132.812500
9321		-121.093750
9322		-132.812500
9323		-125.000000
9324		-136.718750
9325		-128.906250
9326		-136.718750
9327		-128.906250
9328		-136.718750
9329		-128.906250
9330		-140.625000
9331		-132.812500
9332		-140.625000
9333		-132.812500
9334		-140.625000
9335		-136.718750
9336		-144.531250
9337		-136.718750
9338		-144.531250
9339		-136.718750
9340		-144.531250
9341		-136.718750
9342		-144.531250
9343		-136.718750
9344		-144.531250
9345		-136.718750
9346		-144.531250
9347		-136.718750
9348		-144.531250
9349		-136.718750
9350		-140.625000
9351		-136.718750
9352		-140.625000
9353		-136.718750
9354		-140.625000
9355		-136.718750
9356		-140.625000
9357		-132.812500
9358		-140.625000
9359		-132.812500
9360		-140.625000
9361		-132.812500
9362		-136.718750
9363		-128.906250
9364		-136.718750
9365		-128.906250
9366		-132.812500
9367		-128.906250
9368		-128.906250
9369		-125.000000
9370		-128.906250
9371		-121.093750
9372		-128.906250
9373		-121.093750
9374		-125.000000
9375		-117.187500
9376		-125.000000
9377		-113.281250
9378		-121.093750
9379		-113.281250
9380		-117.187500
9381		-109.375000
9382		-113.281250
9383		-109.375000
9384		-109.375000
9385		-105.468750
9386		-105.468750
9387		-101.562500
9388		-105.468750
9389		-93.750000
9390		-101.562500
9391		-89.843750
9392		-97.656250
9393		-89.843750
9394		-93.750000
9395		-85.937500
9396		-89.843750
9397		-82.031250
9398		-85.937500
9399		-78.125000
9400		-82.031250
9401		-74.218750
9402		-78.125000
9403		-70.312500
9404		-74.218750
9405		-66.406250
9406		-70.312500
9407		-58.593750
9408		-66.406250
9409		-54.687500
9410		-58.593750
9411		-50.781250
9412		-54.687500
9413		-46.875000
9414		-50.781250
9415		-42.968750
9416		-46.875000
9417		-39.062500
9418		-39.062500
9419		-35.156250
9420		-35.156250
9421		-27.343750
9422		-35.156250
9423		-23.437500
9424		-27.343750
9425		-19.531250
9426		-19.531250
9427		-11.718750
9428		-19.531250
9429		-7.812500
9430		-11.718750
9431		-3.906250
9432		-7.812500
9433		0.000000
9434		-3.906250
9435		3.906250
9436		3.906250
9437		11.718750
9438		7.812500
9439		15.625000
9440		11.718750
9441		19.531250
9442		15.625000
9443		27.343750
9444		23.437500
9445		31.250000
9446		23.437500
9447		35.156250
9448		31.250000
9449		39.062500
9450		35.156250
9451		42.968750
9452		42.968750
9453		46.875000
9454		46.875000
9455		54.687500
9456		50.781250
9457		58.593750
9458		54.687500
9459		62.500000
9460		58.593750
9461		70.312500
9462		62.500000
9463		70.312500
9464		70.312500
9465		78.125000
9466		70.312500
9467		78.125000
9468		78.125000
9469		82.031250
9470		82.031250
9471		89.843750
9472		85.937500
9473		93.750000
9474		85.937500
9475		97.656250
9476		93.750000
9477		101.562500
9478		93.750000
9479		105.468750
9480		97.656250
9481		109.375000
9482		105.468750
9483		109.375000
9484		109.375000
9485		113.281250
9486		113.281250
9487		117.187500
9488		113.281250
9489		121.093750
9490		117.187500
9491		125.000000
9492		117.187500
9493		128.906250
9494		121.093750
9495		132.812500
9496		125.000000
9497		132.812500
9498		128.906250
9499		136.718750
9500		132.812500
9501		136.718750
9502		132.812500
9503		140.625000
9504		136.718750
9505		144.531250
9506		136.718750
9507		144.531250
9508		140.625000
9509		148.437500
9510		144.531250
9511		148.437500
9512		144.531250
9513		152.343750
9514		148.437500
9515		152.343750
9516		148.437500
9517		156.250000
9518		152.343750
9519		156.250000
9520		152.343750
9521		156.250000
9522		152.343750
9523		160.156250
9524		152.343750
9525		160.156250
9526		156.250000
9527		164.062500
9528		156.250000
9529		164.062500
9530		156.250000
9531		164.062500
9532		156.250000
9533		164.062500
9534		160.156250
9535		164.062500
9536		160.156250
9537		164.062500
9538		160.156250
9539		167.968750
9540		160.156250
9541		167.968750
9542		160.156250
9543		167.968750
9544		160.156250
9545		167.968750
9546		160.156250
9547		167.968750
9548		160.156250
9549		167.968750
9550		160.156250
9551		167.968750
9552		164.062500
9553		167.968750
9554		164.062500
9555		167.968750
9556		160.156250
9557		167.968750
9558		160.156250
9559		167.968750
9560		160.156250
9561		164.062500
9562		156.250000
9563		164.062500
9564		156.250000
9565		164.062500
9566		156.250000
9567		164.062500
9568		156.250000
9569		160.156250
9570		156.250000
9571		160.156250
9572		152.343750
9573		160.156250
9574		152.343750
9575		160.156250
9576		148.437500
9577		156.250000
9578		148.437500
9579		156.250000
9580		144.531250
9581		152.343750
9582		144.531250
9583		152.343750
9584		144.531250
9585		148.437500
9586		140.625000
9587		144.531250
9588		136.718750
9589		144.531250
9590		136.718750
9591		144.531250
9592		132.812500
9593		140.625000
9594		128.906250
9595		136.718750
9596		128.906250
9597		136.718750
9598		125.000000
9599		132.812500
9600		121.093750
9601		128.906250
9602		121.093750
9603		125.000000
9604		117.187500
9605		121.093750
9606		109.375000
9607		117.187500
9608		109.375000
9609		117.187500
9610		105.468750
9611		113.281250
9612		101.562500
9613		109.375000
9614		97.656250
9615		105.468750
9616		89.843750
9617		101.562500
9618		89.843750
9619		97.656250
9620		85.937500
9621		93.750000
9622		82.031250
9623		89.843750
9624		78.125000
9625		85.937500
9626		74.218750
9627		82.031250
9628		66.406250
9629		78.125000
9630		62.500000
9631		74.218750
9632		58.593750
9633		70.312500
9634		54.687500
9635		62.500000
9636		50.781250
9637		58.593750
9638		46.875000
9639		54.687500
9640		39.062500
9641		50.781250
9642		35.156250
9643		46.875000
9644		31.250000
9645		39.062500
9646		27.343750
9647		35.156250
9648		19.531250
9649		31.250000
9650		15.625000
9651		27.343750
9652		11.718750
9653		19.531250
9654		7.812500
9655		15.625000
9656		0.000000
9657		11.718750
9658		-3.906250
9659		7.812500
9660		-11.718750
9661		3.906250
9662		-15.625000
9663		-3.906250
9664		-19.531250
9665		-7.812500
9666		-23.437500
9667		-11.718750
9668		-27.343750
9669		-15.625000
9670		-31.250000
9671		-23.437500
9672		-35.156250
9673		-27.343750
9674		-42.968750
9675		-31.250000
9676		-46.875000
9677		-39.062500
9678		-50.781250
9679		-42.968750
9680		-54.687500
9681		-46.875000
9682		-62.500000
9683		-50.781250
9684		-62.500000
9685		-58.593750
9686		-66.406250
9687		-62.500000
9688		-74.218750
9689		-66.406250
9690		-78.125000
9691		-70.312500
9692		-82.031250
9693		-74.218750
9694		-85.937500
9695		-78.125000
9696		-89.843750
9697		-82.031250
9698		-93.750000
9699		-85.937500
9700		-97.656250
9701		-89.843750
9702		-101.562500
9703		-89.843750
9704		-105.468750
9705		-97.656250
9706		-109.375000
9707		-101.562500
9708		-113.281250
9709		-101.562500
9710		-113.281250
9711		-105.468750
9712		-117.187500
9713		-109.375000
9714		-121.093750
9715		-113.281250
9716		-125.000000
9717		-113.281250
9718		-125.000000
9719		-117.187500
9720		-125.000000
9721		-121.093750
9722		-128.906250
9723		-125.000000
9724		-132.812500
9725		-125.000000
9726		-132.812500
9727		-125.000000
9728		-136.718750
9729		-128.906250
9730		-136.718750
9731		-128.906250
9732		-140.625000
9733		-132.812500
9734		-140.625000
9735		-132.812500
9736		-140.625000
9737		-136.718750
9738		-140.625000
9739		-136.718750
9740		-144.531250
9741		-136.718750
9742		-144.531250
9743		-136.718750
9744		-144.531250
9745		-136.718750
9746		-144.531250
9747		-136.718750
9748		-144.531250
9749		-136.718750
9750		-144.531250
9751		-136.718750
9752		-144.531250
9753		-136.718750
9754		-140.625000
9755		-136.718750
9756		-140.625000
9757		-136.718750
9758		-140.625000
9759		-132.812500
9760		-140.625000
9761		-132.812500
9762		-140.625000
9763		-132.812500
9764		-140.625000
9765		-128.906250
9766		-136.718750
9767		-128.906250
9768		-136.718750
9769		-128.906250
9770		-132.812500
9771		-128.906250
9772		-128.906250
9773		-125.000000
9774		-128.906250
9775		-121.093750
9776		-125.000000
9777		-117.187500
9778		-125.000000
9779		-117.187500
9780		-121.093750
9781		-113.281250
9782		-121.093750
9783		-109.375000
9784		-117.187500
9785		-109.375000
9786		-113.281250
9787		-105.468750
9788		-109.375000
9789		-101.562500
9790		-105.468750
9791		-97.656250
9792		-105.468750
9793		-93.750000
9794		-101.562500
9795		-89.843750
9796		-97.656250
9797		-85.937500
9798		-93.750000
9799		-82.031250
9800		-89.843750
9801		-82.031250
9802		-85.937500
9803		-78.125000
9804		-78.125000
9805		-74.218750
9806		-74.218750
9807		-66.406250
9808		-70.312500
9809		-62.500000
9810		-66.406250
9811		-58.593750
9812		-62.500000
9813		-54.687500
9814		-58.593750
9815		-50.781250
9816		-54.687500
9817		-42.968750
9818		-50.781250
9819		-39.062500
9820		-42.968750
9821		-35.156250
9822		-39.062500
9823		-31.250000
9824		-35.156250
9825		-27.343750
9826		-31.250000
9827		-19.531250
9828		-27.343750
9829		-15.625000
9830		-23.437500
9831		-11.718750
9832		-15.625000
9833		-7.812500
9834		-11.718750
9835		0.000000
9836		-7.812500
9837		0.000000
9838		0.000000
9839		7.812500
9840		3.906250
9841		11.718750
9842		7.812500
9843		19.531250
9844		15.625000
9845		23.437500
9846		15.625000
9847		27.343750
9848		23.437500
9849		35.156250
9850		27.343750
9851		39.062500
9852		31.250000
9853		42.968750
9854		39.062500
9855		46.875000
9856		42.968750
9857		50.781250
9858		46.875000
9859		54.687500
9860		50.781250
9861		62.500000
9862		54.687500
9863		66.406250
9864		58.593750
9865		70.312500
9866		66.406250
9867		74.218750
9868		70.312500
9869		78.125000
9870		74.218750
9871		82.031250
9872		78.125000
9873		85.937500
9874		82.031250
9875		89.843750
9876		85.937500
9877		93.750000
9878		89.843750
9879		97.656250
9880		93.750000
9881		101.562500
9882		97.656250
9883		105.468750
9884		101.562500
9885		109.375000
9886		105.468750
9887		113.281250
9888		109.375000
9889		117.187500
9890		113.281250
9891		117.187500
9892		113.281250
9893		125.000000
9894		117.187500
9895		125.000000
9896		121.093750
9897		128.906250
9898		121.093750
9899		132.812500
9900		125.000000
9901		136.718750
9902		128.906250
9903		136.718750
9904		132.812500
9905		136.718750
9906		136.718750
9907		140.625000
9908		136.718750
9909		144.531250
9910		140.625000
9911		144.531250
9912		140.625000
9913		148.437500
9914		140.625000
9915		152.343750
9916		144.531250
9917		152.343750
9918		144.531250
9919		156.250000
9920		148.437500
9921		156.250000
9922		152.343750
9923		156.250000
9924		152.343750
9925		160.156250
9926		152.343750
9927		160.156250
9928		152.343750
9929		160.156250
9930		156.250000
9931		164.062500
9932		156.250000
9933		164.062500
9934		156.250000
9935		164.062500
9936		156.250000
9937		164.062500
9938		160.156250
9939		164.062500
9940		160.156250
9941		164.062500
9942		160.156250
9943		167.968750
9944		160.156250
9945		167.968750
9946		160.156250
9947		167.968750
9948		160.156250
9949		167.968750
9950		160.156250
9951		167.968750
9952		160.156250
9953		167.968750
9954		164.062500
9955		167.968750
9956		164.062500
9957		167.968750
9958		160.156250
9959		167.968750
9960		160.156250
9961		167.968750
9962		160.156250
9963		167.968750
9964		160.156250
9965		167.968750
9966		156.250000
9967		164.062500
9968		156.250000
9969		164.062500
9970		156.250000
9971		164.062500
9972		156.250000
9973		160.156250
9974		156.250000
9975		160.156250
9976		152.343750
9977		160.156250
9978		148.437500
9979		156.250000
9980		148.437500
9981		156.250000
9982		144.531250
9983		156.250000
9984		144.531250
9985		152.343750
9986		144.531250
9987		152.343750
9988		144.531250
9989		148.437500
9990		140.625000
9991		144.531250
9992		136.718750
9993		144.531250
9994		132.812500
9995		140.625000
9996		132.812500
9997		140.625000
9998		128.906250
9999		136.718750
10000		125.000000
