Channel              :		CH1
Frequency            :		1.774kHz
Period               :		0.564ms
PK-PK                :		246.1mV
Probe attenuation    :		1X
Voltage per ADC value:		0.122070mV
Time interval        :		2.00000us

index		CH1_Voltage(mV)
1		125.000000
2		125.000000
3		121.093750
4		125.000000
5		121.093750
6		123.046875
7		119.140625
8		123.046875
9		117.187500
10		121.093750
11		117.187500
12		121.093750
13		115.234375
14		119.140625
15		113.281250
16		117.187500
17		111.328125
18		115.234375
19		109.375000
20		113.281250
21		107.421875
22		111.328125
23		105.468750
24		109.375000
25		101.562500
26		107.421875
27		99.609375
28		103.515625
29		95.703125
30		101.562500
31		93.750000
32		97.656250
33		89.843750
34		93.750000
35		85.937500
36		91.796875
37		82.031250
38		87.890625
39		78.125000
40		83.984375
41		74.218750
42		80.078125
43		70.312500
44		76.171875
45		64.453125
46		72.265625
47		60.546875
48		68.359375
49		56.640625
50		62.500000
51		50.781250
52		56.640625
53		44.921875
54		52.734375
55		41.015625
56		46.875000
57		37.109375
58		42.968750
59		31.250000
60		37.109375
61		25.390625
62		33.203125
63		21.484375
64		27.343750
65		15.625000
66		21.484375
67		9.765625
68		15.625000
69		3.906250
70		11.718750
71		-1.953125
72		5.859375
73		-5.859375
74		0.000000
75		-11.718750
76		-3.906250
77		-17.578125
78		-9.765625
79		-23.437500
80		-15.625000
81		-27.343750
82		-21.484375
83		-33.203125
84		-27.343750
85		-39.062500
86		-31.250000
87		-42.968750
88		-37.109375
89		-48.828125
90		-41.015625
91		-52.734375
92		-46.875000
93		-58.593750
94		-50.781250
95		-62.500000
96		-56.640625
97		-66.406250
98		-60.546875
99		-70.312500
100		-64.453125
101		-76.171875
102		-70.312500
103		-80.078125
104		-74.218750
105		-83.984375
106		-78.125000
107		-85.937500
108		-82.031250
109		-89.843750
110		-85.937500
111		-93.750000
112		-87.890625
113		-97.656250
114		-91.796875
115		-99.609375
116		-95.703125
117		-101.562500
118		-97.656250
119		-103.515625
120		-99.609375
121		-105.468750
122		-103.515625
123		-107.421875
124		-105.468750
125		-109.375000
126		-107.421875
127		-111.328125
128		-107.421875
129		-111.328125
130		-109.375000
131		-113.281250
132		-109.375000
133		-113.281250
134		-111.328125
135		-115.234375
136		-111.328125
137		-115.234375
138		-111.328125
139		-113.281250
140		-111.328125
141		-113.281250
142		-111.328125
143		-113.281250
144		-109.375000
145		-111.328125
146		-109.375000
147		-111.328125
148		-107.421875
149		-109.375000
150		-107.421875
151		-107.421875
152		-103.515625
153		-107.421875
154		-101.562500
155		-103.515625
156		-99.609375
157		-101.562500
158		-95.703125
159		-99.609375
160		-93.750000
161		-95.703125
162		-91.796875
163		-93.750000
164		-87.890625
165		-89.843750
166		-85.937500
167		-85.937500
168		-82.031250
169		-82.031250
170		-76.171875
171		-78.125000
172		-72.265625
173		-74.218750
174		-68.359375
175		-70.312500
176		-64.453125
177		-66.406250
178		-58.593750
179		-60.546875
180		-54.687500
181		-56.640625
182		-50.781250
183		-52.734375
184		-44.921875
185		-46.875000
186		-39.062500
187		-41.015625
188		-35.156250
189		-37.109375
190		-29.296875
191		-31.250000
192		-25.390625
193		-25.390625
194		-19.531250
195		-21.484375
196		-13.671875
197		-15.625000
198		-9.765625
199		-9.765625
200		-3.906250
201		-3.906250
202		1.953125
203		0.000000
204		7.812500
205		5.859375
206		13.671875
207		11.718750
208		17.578125
209		17.578125
210		23.437500
211		21.484375
212		27.343750
213		27.343750
214		33.203125
215		31.250000
216		39.062500
217		37.109375
218		44.921875
219		42.968750
220		48.828125
221		46.875000
222		52.734375
223		52.734375
224		58.593750
225		56.640625
226		62.500000
227		60.546875
228		68.359375
229		66.406250
230		72.265625
231		70.312500
232		76.171875
233		74.218750
234		80.078125
235		78.125000
236		83.984375
237		82.031250
238		87.890625
239		85.937500
240		91.796875
241		89.843750
242		93.750000
243		93.750000
244		97.656250
245		95.703125
246		101.562500
247		99.609375
248		105.468750
249		101.562500
250		105.468750
251		105.468750
252		109.375000
253		107.421875
254		111.328125
255		109.375000
256		113.281250
257		111.328125
258		115.234375
259		113.281250
260		117.187500
261		115.234375
262		119.140625
263		117.187500
264		121.093750
265		119.140625
266		121.093750
267		121.093750
268		123.046875
269		121.093750
270		125.000000
271		121.093750
272		125.000000
273		123.046875
274		125.000000
275		123.046875
276		125.000000
277		123.046875
278		125.000000
279		123.046875
280		126.953125
281		123.046875
282		125.000000
283		123.046875
284		125.000000
285		123.046875
286		125.000000
287		121.093750
288		125.000000
289		119.140625
290		123.046875
291		119.140625
292		123.046875
293		117.187500
294		121.093750
295		115.234375
296		119.140625
297		113.281250
298		119.140625
299		111.328125
300		117.187500
301		111.328125
302		115.234375
303		107.421875
304		111.328125
305		103.515625
306		109.375000
307		103.515625
308		107.421875
309		99.609375
310		105.468750
311		97.656250
312		101.562500
313		93.750000
314		99.609375
315		89.843750
316		95.703125
317		85.937500
318		91.796875
319		82.031250
320		87.890625
321		80.078125
322		85.937500
323		76.171875
324		82.031250
325		70.312500
326		76.171875
327		66.406250
328		72.265625
329		62.500000
330		68.359375
331		56.640625
332		62.500000
333		52.734375
334		58.593750
335		46.875000
336		54.687500
337		41.015625
338		48.828125
339		35.156250
340		44.921875
341		31.250000
342		41.015625
343		27.343750
344		35.156250
345		21.484375
346		29.296875
347		15.625000
348		23.437500
349		11.718750
350		17.578125
351		5.859375
352		11.718750
353		0.000000
354		7.812500
355		-7.812500
356		3.906250
357		-11.718750
358		-1.953125
359		-15.625000
360		-7.812500
361		-21.484375
362		-13.671875
363		-25.390625
364		-19.531250
365		-31.250000
366		-21.484375
367		-37.109375
368		-29.296875
369		-41.015625
370		-35.156250
371		-48.828125
372		-39.062500
373		-54.687500
374		-42.968750
375		-58.593750
376		-48.828125
377		-62.500000
378		-52.734375
379		-66.406250
380		-58.593750
381		-72.265625
382		-62.500000
383		-74.218750
384		-66.406250
385		-78.125000
386		-72.265625
387		-83.984375
388		-76.171875
389		-87.890625
390		-78.125000
391		-91.796875
392		-82.031250
393		-93.750000
394		-85.937500
395		-97.656250
396		-87.890625
397		-99.609375
398		-91.796875
399		-101.562500
400		-95.703125
401		-103.515625
402		-99.609375
403		-105.468750
404		-101.562500
405		-109.375000
406		-101.562500
407		-111.328125
408		-103.515625
409		-111.328125
410		-105.468750
411		-113.281250
412		-107.421875
413		-113.281250
414		-107.421875
415		-115.234375
416		-109.375000
417		-113.281250
418		-111.328125
419		-113.281250
420		-111.328125
421		-115.234375
422		-109.375000
423		-115.234375
424		-109.375000
425		-115.234375
426		-107.421875
427		-113.281250
428		-107.421875
429		-113.281250
430		-105.468750
431		-111.328125
432		-103.515625
433		-109.375000
434		-103.515625
435		-105.468750
436		-101.562500
437		-103.515625
438		-97.656250
439		-103.515625
440		-95.703125
441		-101.562500
442		-93.750000
443		-97.656250
444		-89.843750
445		-95.703125
446		-85.937500
447		-91.796875
448		-83.984375
449		-87.890625
450		-80.078125
451		-82.031250
452		-78.125000
453		-78.125000
454		-72.265625
455		-76.171875
456		-68.359375
457		-72.265625
458		-62.500000
459		-68.359375
460		-58.593750
461		-64.453125
462		-52.734375
463		-58.593750
464		-48.828125
465		-54.687500
466		-42.968750
467		-48.828125
468		-41.015625
469		-42.968750
470		-35.156250
471		-37.109375
472		-29.296875
473		-33.203125
474		-25.390625
475		-29.296875
476		-17.578125
477		-23.437500
478		-13.671875
479		-17.578125
480		-7.812500
481		-11.718750
482		-1.953125
483		-5.859375
484		1.953125
485		0.000000
486		5.859375
487		5.859375
488		11.718750
489		9.765625
490		19.531250
491		13.671875
492		25.390625
493		19.531250
494		29.296875
495		23.437500
496		35.156250
497		29.296875
498		39.062500
499		35.156250
500		44.921875
501		41.015625
502		48.828125
503		46.875000
504		52.734375
505		50.781250
506		58.593750
507		54.687500
508		64.453125
509		58.593750
510		68.359375
511		62.500000
512		72.265625
513		66.406250
514		76.171875
515		72.265625
516		82.031250
517		76.171875
518		83.984375
519		82.031250
520		85.937500
521		85.937500
522		89.843750
523		85.937500
524		95.703125
525		89.843750
526		99.609375
527		91.796875
528		101.562500
529		95.703125
530		105.468750
531		99.609375
532		107.421875
533		101.562500
534		111.328125
535		107.421875
536		111.328125
537		109.375000
538		113.281250
539		109.375000
540		117.187500
541		111.328125
542		119.140625
543		113.281250
544		121.093750
545		113.281250
546		121.093750
547		117.187500
548		123.046875
549		117.187500
550		125.000000
551		119.140625
552		125.000000
553		121.093750
554		125.000000
555		121.093750
556		126.953125
557		121.093750
558		126.953125
559		121.093750
560		126.953125
561		121.093750
562		126.953125
563		121.093750
564		126.953125
565		121.093750
566		126.953125
567		121.093750
568		126.953125
569		121.093750
570		125.000000
571		121.093750
572		123.046875
573		117.187500
574		123.046875
575		115.234375
576		123.046875
577		113.281250
578		121.093750
579		111.328125
580		119.140625
581		111.328125
582		119.140625
583		109.375000
584		115.234375
585		109.375000
586		113.281250
587		105.468750
588		109.375000
589		101.562500
590		107.421875
591		97.656250
592		105.468750
593		95.703125
594		103.515625
595		91.796875
596		99.609375
597		89.843750
598		97.656250
599		83.984375
600		93.750000
601		83.984375
602		89.843750
603		80.078125
604		83.984375
605		74.218750
606		80.078125
607		68.359375
608		78.125000
609		64.453125
610		74.218750
611		60.546875
612		70.312500
613		56.640625
614		66.406250
615		50.781250
616		60.546875
617		46.875000
618		56.640625
619		42.968750
620		48.828125
621		39.062500
622		44.921875
623		31.250000
624		39.062500
625		27.343750
626		35.156250
627		21.484375
628		31.250000
629		15.625000
630		25.390625
631		9.765625
632		21.484375
633		3.906250
634		15.625000
635		1.953125
636		9.765625
637		-3.906250
638		1.953125
639		-11.718750
640		-1.953125
641		-17.578125
642		-5.859375
643		-21.484375
644		-11.718750
645		-27.343750
646		-15.625000
647		-31.250000
648		-23.437500
649		-37.109375
650		-27.343750
651		-41.015625
652		-33.203125
653		-44.921875
654		-39.062500
655		-50.781250
656		-44.921875
657		-58.593750
658		-48.828125
659		-62.500000
660		-52.734375
661		-66.406250
662		-56.640625
663		-70.312500
664		-62.500000
665		-76.171875
666		-66.406250
667		-78.125000
668		-70.312500
669		-82.031250
670		-74.218750
671		-85.937500
672		-80.078125
673		-89.843750
674		-83.984375
675		-93.750000
676		-85.937500
677		-97.656250
678		-87.890625
679		-99.609375
680		-91.796875
681		-101.562500
682		-93.750000
683		-105.468750
684		-97.656250
685		-107.421875
686		-99.609375
687		-107.421875
688		-103.515625
689		-109.375000
690		-105.468750
691		-111.328125
692		-105.468750
693		-113.281250
694		-105.468750
695		-115.234375
696		-107.421875
697		-115.234375
698		-107.421875
699		-115.234375
700		-109.375000
701		-115.234375
702		-109.375000
703		-113.281250
704		-111.328125
705		-113.281250
706		-109.375000
707		-115.234375
708		-107.421875
709		-113.281250
710		-107.421875
711		-113.281250
712		-105.468750
713		-111.328125
714		-103.515625
715		-109.375000
716		-101.562500
717		-107.421875
718		-99.609375
719		-105.468750
720		-99.609375
721		-101.562500
722		-97.656250
723		-99.609375
724		-91.796875
725		-97.656250
726		-89.843750
727		-95.703125
728		-85.937500
729		-91.796875
730		-82.031250
731		-87.890625
732		-80.078125
733		-85.937500
734		-74.218750
735		-80.078125
736		-72.265625
737		-74.218750
738		-70.312500
739		-70.312500
740		-64.453125
741		-68.359375
742		-58.593750
743		-64.453125
744		-54.687500
745		-60.546875
746		-48.828125
747		-54.687500
748		-44.921875
749		-48.828125
750		-39.062500
751		-44.921875
752		-35.156250
753		-41.015625
754		-31.250000
755		-31.250000
756		-25.390625
757		-27.343750
758		-17.578125
759		-23.437500
760		-13.671875
761		-19.531250
762		-7.812500
763		-11.718750
764		-1.953125
765		-7.812500
766		1.953125
767		-1.953125
768		7.812500
769		3.906250
770		11.718750
771		9.765625
772		17.578125
773		15.625000
774		23.437500
775		19.531250
776		29.296875
777		23.437500
778		35.156250
779		29.296875
780		39.062500
781		35.156250
782		44.921875
783		39.062500
784		50.781250
785		44.921875
786		54.687500
787		50.781250
788		56.640625
789		56.640625
790		62.500000
791		60.546875
792		68.359375
793		62.500000
794		72.265625
795		66.406250
796		76.171875
797		72.265625
798		80.078125
799		76.171875
800		83.984375
801		80.078125
802		87.890625
803		83.984375
804		89.843750
805		89.843750
806		93.750000
807		91.796875
808		99.609375
809		93.750000
810		101.562500
811		97.656250
812		105.468750
813		99.609375
814		107.421875
815		101.562500
816		109.375000
817		105.468750
818		113.281250
819		107.421875
820		115.234375
821		111.328125
822		115.234375
823		113.281250
824		117.187500
825		115.234375
826		119.140625
827		115.234375
828		121.093750
829		117.187500
830		123.046875
831		119.140625
832		123.046875
833		119.140625
834		125.000000
835		121.093750
836		125.000000
837		121.093750
838		125.000000
839		123.046875
840		125.000000
841		121.093750
842		126.953125
843		121.093750
844		126.953125
845		121.093750
846		128.906250
847		121.093750
848		126.953125
849		121.093750
850		126.953125
851		119.140625
852		126.953125
853		119.140625
854		125.000000
855		119.140625
856		123.046875
857		117.187500
858		121.093750
859		115.234375
860		123.046875
861		111.328125
862		121.093750
863		111.328125
864		119.140625
865		109.375000
866		117.187500
867		107.421875
868		115.234375
869		103.515625
870		111.328125
871		103.515625
872		107.421875
873		101.562500
874		105.468750
875		95.703125
876		103.515625
877		93.750000
878		101.562500
879		89.843750
880		97.656250
881		85.937500
882		93.750000
883		82.031250
884		89.843750
885		78.125000
886		87.890625
887		76.171875
888		83.984375
889		72.265625
890		78.125000
891		66.406250
892		72.265625
893		60.546875
894		70.312500
895		56.640625
896		66.406250
897		50.781250
898		62.500000
899		46.875000
900		56.640625
901		41.015625
902		52.734375
903		39.062500
904		48.828125
905		33.203125
906		41.015625
907		29.296875
908		35.156250
909		21.484375
910		31.250000
911		15.625000
912		27.343750
913		9.765625
914		21.484375
915		5.859375
916		15.625000
917		0.000000
918		9.765625
919		-5.859375
920		3.906250
921		-7.812500
922		0.000000
923		-13.671875
924		-7.812500
925		-21.484375
926		-13.671875
927		-27.343750
928		-17.578125
929		-33.203125
930		-21.484375
931		-37.109375
932		-27.343750
933		-41.015625
934		-33.203125
935		-46.875000
936		-37.109375
937		-50.781250
938		-42.968750
939		-54.687500
940		-48.828125
941		-60.546875
942		-54.687500
943		-66.406250
944		-56.640625
945		-70.312500
946		-60.546875
947		-76.171875
948		-66.406250
949		-80.078125
950		-70.312500
951		-83.984375
952		-74.218750
953		-87.890625
954		-78.125000
955		-87.890625
956		-83.984375
957		-91.796875
958		-85.937500
959		-97.656250
960		-89.843750
961		-99.609375
962		-91.796875
963		-101.562500
964		-93.750000
965		-105.468750
966		-97.656250
967		-107.421875
968		-99.609375
969		-109.375000
970		-101.562500
971		-109.375000
972		-103.515625
973		-109.375000
974		-107.421875
975		-113.281250
976		-107.421875
977		-115.234375
978		-107.421875
979		-115.234375
980		-107.421875
981		-115.234375
982		-109.375000
983		-115.234375
984		-109.375000
985		-115.234375
986		-109.375000
987		-115.234375
988		-109.375000
989		-113.281250
990		-109.375000
991		-111.328125
992		-109.375000
993		-113.281250
994		-105.468750
995		-111.328125
996		-105.468750
997		-111.328125
998		-103.515625
999		-109.375000
1000		-101.562500
1001		-105.468750
1002		-97.656250
1003		-103.515625
1004		-97.656250
1005		-101.562500
1006		-95.703125
1007		-97.656250
1008		-91.796875
1009		-93.750000
1010		-85.937500
1011		-93.750000
1012		-83.984375
1013		-89.843750
1014		-80.078125
1015		-83.984375
1016		-76.171875
1017		-82.031250
1018		-72.265625
1019		-78.125000
1020		-68.359375
1021		-74.218750
1022		-66.406250
1023		-68.359375
1024		-60.546875
1025		-62.500000
1026		-56.640625
1027		-60.546875
1028		-50.781250
1029		-56.640625
1030		-44.921875
1031		-50.781250
1032		-41.015625
1033		-46.875000
1034		-35.156250
1035		-41.015625
1036		-29.296875
1037		-35.156250
1038		-25.390625
1039		-29.296875
1040		-21.484375
1041		-23.437500
1042		-17.578125
1043		-17.578125
1044		-9.765625
1045		-15.625000
1046		-3.906250
1047		-7.812500
1048		1.953125
1049		-3.906250
1050		5.859375
1051		1.953125
1052		11.718750
1053		7.812500
1054		17.578125
1055		11.718750
1056		21.484375
1057		19.531250
1058		25.390625
1059		25.390625
1060		33.203125
1061		27.343750
1062		39.062500
1063		33.203125
1064		42.968750
1065		37.109375
1066		48.828125
1067		42.968750
1068		52.734375
1069		48.828125
1070		58.593750
1071		52.734375
1072		62.500000
1073		58.593750
1074		64.453125
1075		64.453125
1076		70.312500
1077		68.359375
1078		74.218750
1079		70.312500
1080		80.078125
1081		76.171875
1082		83.984375
1083		78.125000
1084		87.890625
1085		82.031250
1086		91.796875
1087		85.937500
1088		95.703125
1089		89.843750
1090		95.703125
1091		93.750000
1092		99.609375
1093		97.656250
1094		105.468750
1095		97.656250
1096		105.468750
1097		101.562500
1098		109.375000
1099		103.515625
1100		111.328125
1101		105.468750
1102		113.281250
1103		109.375000
1104		117.187500
1105		109.375000
1106		117.187500
1107		115.234375
1108		117.187500
1109		117.187500
1110		119.140625
1111		115.234375
1112		123.046875
1113		117.187500
1114		125.000000
1115		117.187500
1116		125.000000
1117		119.140625
1118		125.000000
1119		119.140625
1120		126.953125
1121		121.093750
1122		126.953125
1123		121.093750
1124		126.953125
1125		123.046875
1126		125.000000
1127		121.093750
1128		126.953125
1129		119.140625
1130		126.953125
1131		119.140625
1132		126.953125
1133		119.140625
1134		126.953125
1135		117.187500
1136		125.000000
1137		117.187500
1138		125.000000
1139		117.187500
1140		123.046875
1141		117.187500
1142		119.140625
1143		111.328125
1144		119.140625
1145		111.328125
1146		119.140625
1147		109.375000
1148		117.187500
1149		107.421875
1150		113.281250
1151		103.515625
1152		113.281250
1153		101.562500
1154		109.375000
1155		99.609375
1156		107.421875
1157		97.656250
1158		103.515625
1159		93.750000
1160		99.609375
1161		89.843750
1162		97.656250
1163		85.937500
1164		95.703125
1165		82.031250
1166		91.796875
1167		78.125000
1168		87.890625
1169		74.218750
1170		83.984375
1171		70.312500
1172		80.078125
1173		68.359375
1174		74.218750
1175		64.453125
1176		68.359375
1177		58.593750
1178		64.453125
1179		52.734375
1180		62.500000
1181		48.828125
1182		56.640625
1183		41.015625
1184		52.734375
1185		37.109375
1186		46.875000
1187		31.250000
1188		42.968750
1189		29.296875
1190		37.109375
1191		23.437500
1192		31.250000
1193		19.531250
1194		25.390625
1195		11.718750
1196		21.484375
1197		5.859375
1198		15.625000
1199		0.000000
1200		11.718750
1201		-3.906250
1202		5.859375
1203		-9.765625
1204		1.953125
1205		-15.625000
1206		-3.906250
1207		-19.531250
1208		-9.765625
1209		-25.390625
1210		-17.578125
1211		-31.250000
1212		-23.437500
1213		-37.109375
1214		-27.343750
1215		-41.015625
1216		-31.250000
1217		-46.875000
1218		-37.109375
1219		-50.781250
1220		-41.015625
1221		-56.640625
1222		-44.921875
1223		-58.593750
1224		-50.781250
1225		-64.453125
1226		-58.593750
1227		-70.312500
1228		-62.500000
1229		-74.218750
1230		-64.453125
1231		-78.125000
1232		-70.312500
1233		-82.031250
1234		-72.265625
1235		-85.937500
1236		-78.125000
1237		-89.843750
1238		-80.078125
1239		-91.796875
1240		-83.984375
1241		-93.750000
1242		-89.843750
1243		-97.656250
1244		-91.796875
1245		-101.562500
1246		-93.750000
1247		-103.515625
1248		-95.703125
1249		-107.421875
1250		-97.656250
1251		-109.375000
1252		-101.562500
1253		-111.328125
1254		-101.562500
1255		-111.328125
1256		-103.515625
1257		-111.328125
1258		-105.468750
1259		-111.328125
1260		-109.375000
1261		-115.234375
1262		-109.375000
1263		-115.234375
1264		-109.375000
1265		-115.234375
1266		-109.375000
1267		-115.234375
1268		-109.375000
1269		-115.234375
1270		-109.375000
1271		-115.234375
1272		-107.421875
1273		-113.281250
1274		-107.421875
1275		-111.328125
1276		-107.421875
1277		-109.375000
1278		-105.468750
1279		-109.375000
1280		-101.562500
1281		-109.375000
1282		-99.609375
1283		-105.468750
1284		-97.656250
1285		-103.515625
1286		-95.703125
1287		-101.562500
1288		-93.750000
1289		-97.656250
1290		-89.843750
1291		-95.703125
1292		-89.843750
1293		-89.843750
1294		-85.937500
1295		-87.890625
1296		-80.078125
1297		-85.937500
1298		-76.171875
1299		-82.031250
1300		-72.265625
1301		-78.125000
1302		-68.359375
1303		-74.218750
1304		-64.453125
1305		-68.359375
1306		-58.593750
1307		-64.453125
1308		-56.640625
1309		-58.593750
1310		-52.734375
1311		-52.734375
1312		-46.875000
1313		-50.781250
1314		-41.015625
1315		-44.921875
1316		-35.156250
1317		-41.015625
1318		-29.296875
1319		-35.156250
1320		-25.390625
1321		-29.296875
1322		-19.531250
1323		-25.390625
1324		-15.625000
1325		-17.578125
1326		-11.718750
1327		-11.718750
1328		-5.859375
1329		-7.812500
1330		1.953125
1331		-3.906250
1332		5.859375
1333		1.953125
1334		11.718750
1335		7.812500
1336		17.578125
1337		11.718750
1338		21.484375
1339		17.578125
1340		27.343750
1341		23.437500
1342		33.203125
1343		29.296875
1344		37.109375
1345		35.156250
1346		44.921875
1347		37.109375
1348		48.828125
1349		42.968750
1350		52.734375
1351		48.828125
1352		58.593750
1353		52.734375
1354		62.500000
1355		56.640625
1356		66.406250
1357		62.500000
1358		70.312500
1359		68.359375
1360		74.218750
1361		72.265625
1362		78.125000
1363		76.171875
1364		83.984375
1365		78.125000
1366		87.890625
1367		82.031250
1368		91.796875
1369		85.937500
1370		95.703125
1371		89.843750
1372		97.656250
1373		93.750000
1374		101.562500
1375		95.703125
1376		101.562500
1377		101.562500
1378		105.468750
1379		103.515625
1380		111.328125
1381		103.515625
1382		111.328125
1383		107.421875
1384		115.234375
1385		109.375000
1386		117.187500
1387		111.328125
1388		119.140625
1389		111.328125
1390		121.093750
1391		115.234375
1392		121.093750
1393		119.140625
1394		121.093750
1395		119.140625
1396		123.046875
1397		117.187500
1398		125.000000
1399		119.140625
1400		126.953125
1401		121.093750
1402		126.953125
1403		121.093750
1404		126.953125
1405		121.093750
1406		126.953125
1407		121.093750
1408		128.906250
1409		123.046875
1410		125.000000
1411		123.046875
1412		125.000000
1413		121.093750
1414		126.953125
1415		119.140625
1416		126.953125
1417		119.140625
1418		126.953125
1419		117.187500
1420		125.000000
1421		117.187500
1422		123.046875
1423		115.234375
1424		123.046875
1425		115.234375
1426		121.093750
1427		113.281250
1428		117.187500
1429		109.375000
1430		115.234375
1431		107.421875
1432		115.234375
1433		105.468750
1434		113.281250
1435		103.515625
1436		109.375000
1437		99.609375
1438		107.421875
1439		97.656250
1440		105.468750
1441		95.703125
1442		103.515625
1443		91.796875
1444		97.656250
1445		87.890625
1446		93.750000
1447		82.031250
1448		91.796875
1449		80.078125
1450		87.890625
1451		76.171875
1452		83.984375
1453		72.265625
1454		80.078125
1455		66.406250
1456		76.171875
1457		62.500000
1458		72.265625
1459		60.546875
1460		68.359375
1461		54.687500
1462		60.546875
1463		48.828125
1464		56.640625
1465		42.968750
1466		52.734375
1467		39.062500
1468		48.828125
1469		33.203125
1470		42.968750
1471		27.343750
1472		39.062500
1473		23.437500
1474		33.203125
1475		19.531250
1476		29.296875
1477		13.671875
1478		21.484375
1479		7.812500
1480		15.625000
1481		1.953125
1482		11.718750
1483		-3.906250
1484		5.859375
1485		-7.812500
1486		1.953125
1487		-15.625000
1488		-3.906250
1489		-19.531250
1490		-9.765625
1491		-25.390625
1492		-13.671875
1493		-29.296875
1494		-21.484375
1495		-33.203125
1496		-27.343750
1497		-41.015625
1498		-33.203125
1499		-46.875000
1500		-35.156250
1501		-50.781250
1502		-41.015625
1503		-56.640625
1504		-44.921875
1505		-60.546875
1506		-50.781250
1507		-64.453125
1508		-54.687500
1509		-68.359375
1510		-60.546875
1511		-72.265625
1512		-66.406250
1513		-78.125000
1514		-70.312500
1515		-82.031250
1516		-72.265625
1517		-85.937500
1518		-76.171875
1519		-89.843750
1520		-80.078125
1521		-91.796875
1522		-83.984375
1523		-95.703125
1524		-87.890625
1525		-97.656250
1526		-89.843750
1527		-99.609375
1528		-95.703125
1529		-101.562500
1530		-97.656250
1531		-107.421875
1532		-99.609375
1533		-107.421875
1534		-101.562500
1535		-111.328125
1536		-103.515625
1537		-111.328125
1538		-105.468750
1539		-113.281250
1540		-107.421875
1541		-113.281250
1542		-107.421875
1543		-115.234375
1544		-107.421875
1545		-113.281250
1546		-111.328125
1547		-115.234375
1548		-109.375000
1549		-115.234375
1550		-109.375000
1551		-115.234375
1552		-109.375000
1553		-115.234375
1554		-107.421875
1555		-115.234375
1556		-107.421875
1557		-113.281250
1558		-107.421875
1559		-113.281250
1560		-105.468750
1561		-109.375000
1562		-105.468750
1563		-107.421875
1564		-103.515625
1565		-107.421875
1566		-99.609375
1567		-105.468750
1568		-97.656250
1569		-103.515625
1570		-93.750000
1571		-99.609375
1572		-91.796875
1573		-97.656250
1574		-87.890625
1575		-93.750000
1576		-83.984375
1577		-87.890625
1578		-83.984375
1579		-83.984375
1580		-80.078125
1581		-82.031250
1582		-74.218750
1583		-80.078125
1584		-70.312500
1585		-76.171875
1586		-66.406250
1587		-72.265625
1588		-62.500000
1589		-66.406250
1590		-56.640625
1591		-62.500000
1592		-50.781250
1593		-56.640625
1594		-48.828125
1595		-50.781250
1596		-44.921875
1597		-44.921875
1598		-37.109375
1599		-42.968750
1600		-31.250000
1601		-37.109375
1602		-27.343750
1603		-31.250000
1604		-21.484375
1605		-27.343750
1606		-15.625000
1607		-21.484375
1608		-9.765625
1609		-15.625000
1610		-7.812500
1611		-7.812500
1612		-1.953125
1613		-1.953125
1614		3.906250
1615		1.953125
1616		9.765625
1617		5.859375
1618		15.625000
1619		9.765625
1620		21.484375
1621		15.625000
1622		27.343750
1623		21.484375
1624		31.250000
1625		27.343750
1626		37.109375
1627		31.250000
1628		41.015625
1629		39.062500
1630		44.921875
1631		44.921875
1632		52.734375
1633		46.875000
1634		56.640625
1635		52.734375
1636		62.500000
1637		56.640625
1638		66.406250
1639		60.546875
1640		70.312500
1641		66.406250
1642		74.218750
1643		68.359375
1644		78.125000
1645		76.171875
1646		80.078125
1647		80.078125
1648		83.984375
1649		82.031250
1650		91.796875
1651		83.984375
1652		93.750000
1653		87.890625
1654		97.656250
1655		91.796875
1656		101.562500
1657		95.703125
1658		103.515625
1659		97.656250
1660		107.421875
1661		103.515625
1662		107.421875
1663		105.468750
1664		109.375000
1665		107.421875
1666		113.281250
1667		109.375000
1668		115.234375
1669		111.328125
1670		117.187500
1671		113.281250
1672		119.140625
1673		115.234375
1674		121.093750
1675		117.187500
1676		123.046875
1677		117.187500
1678		123.046875
1679		121.093750
1680		123.046875
1681		119.140625
1682		125.000000
1683		119.140625
1684		126.953125
1685		121.093750
1686		126.953125
1687		121.093750
1688		126.953125
1689		121.093750
1690		126.953125
1691		121.093750
1692		126.953125
1693		121.093750
1694		126.953125
1695		123.046875
1696		125.000000
1697		123.046875
1698		125.000000
1699		119.140625
1700		125.000000
1701		117.187500
1702		125.000000
1703		117.187500
1704		125.000000
1705		115.234375
1706		123.046875
1707		113.281250
1708		121.093750
1709		111.328125
1710		119.140625
1711		111.328125
1712		117.187500
1713		109.375000
1714		113.281250
1715		105.468750
1716		111.328125
1717		101.562500
1718		111.328125
1719		99.609375
1720		109.375000
1721		97.656250
1722		105.468750
1723		93.750000
1724		101.562500
1725		91.796875
1726		99.609375
1727		87.890625
1728		95.703125
1729		85.937500
1730		91.796875
1731		82.031250
1732		87.890625
1733		76.171875
1734		83.984375
1735		72.265625
1736		82.031250
1737		68.359375
1738		78.125000
1739		62.500000
1740		72.265625
1741		60.546875
1742		68.359375
1743		54.687500
1744		64.453125
1745		50.781250
1746		58.593750
1747		46.875000
1748		52.734375
1749		39.062500
1750		46.875000
1751		33.203125
1752		44.921875
1753		29.296875
1754		39.062500
1755		23.437500
1756		35.156250
1757		19.531250
1758		29.296875
1759		13.671875
1760		25.390625
1761		9.765625
1762		19.531250
1763		3.906250
1764		11.718750
1765		-1.953125
1766		5.859375
1767		-7.812500
1768		1.953125
1769		-13.671875
1770		-1.953125
1771		-17.578125
1772		-7.812500
1773		-23.437500
1774		-13.671875
1775		-27.343750
1776		-19.531250
1777		-33.203125
1778		-23.437500
1779		-37.109375
1780		-31.250000
1781		-42.968750
1782		-37.109375
1783		-48.828125
1784		-41.015625
1785		-54.687500
1786		-44.921875
1787		-58.593750
1788		-48.828125
1789		-64.453125
1790		-52.734375
1791		-68.359375
1792		-58.593750
1793		-72.265625
1794		-62.500000
1795		-74.218750
1796		-68.359375
1797		-80.078125
1798		-74.218750
1799		-83.984375
1800		-78.125000
1801		-87.890625
1802		-78.125000
1803		-91.796875
1804		-83.984375
1805		-95.703125
1806		-85.937500
1807		-97.656250
1808		-89.843750
1809		-99.609375
1810		-93.750000
1811		-101.562500
1812		-95.703125
1813		-103.515625
1814		-99.609375
1815		-105.468750
1816		-101.562500
1817		-109.375000
1818		-101.562500
1819		-111.328125
1820		-103.515625
1821		-113.281250
1822		-105.468750
1823		-113.281250
1824		-105.468750
1825		-113.281250
1826		-107.421875
1827		-115.234375
1828		-107.421875
1829		-113.281250
1830		-109.375000
1831		-113.281250
1832		-111.328125
1833		-115.234375
1834		-107.421875
1835		-113.281250
1836		-107.421875
1837		-113.281250
1838		-107.421875
1839		-113.281250
1840		-105.468750
1841		-111.328125
1842		-103.515625
1843		-109.375000
1844		-101.562500
1845		-109.375000
1846		-101.562500
1847		-103.515625
1848		-99.609375
1849		-101.562500
1850		-97.656250
1851		-101.562500
1852		-93.750000
1853		-97.656250
1854		-91.796875
1855		-95.703125
1856		-87.890625
1857		-91.796875
1858		-83.984375
1859		-89.843750
1860		-80.078125
1861		-85.937500
1862		-78.125000
1863		-80.078125
1864		-76.171875
1865		-76.171875
1866		-70.312500
1867		-72.265625
1868		-64.453125
1869		-68.359375
1870		-60.546875
1871		-66.406250
1872		-56.640625
1873		-60.546875
1874		-50.781250
1875		-56.640625
1876		-46.875000
1877		-52.734375
1878		-42.968750
1879		-46.875000
1880		-39.062500
1881		-39.062500
1882		-33.203125
1883		-35.156250
1884		-25.390625
1885		-31.250000
1886		-21.484375
1887		-27.343750
1888		-15.625000
1889		-21.484375
1890		-9.765625
1891		-15.625000
1892		-3.906250
1893		-11.718750
1894		0.000000
1895		-3.906250
1896		3.906250
1897		1.953125
1898		9.765625
1899		7.812500
1900		13.671875
1901		11.718750
1902		21.484375
1903		17.578125
1904		27.343750
1905		21.484375
1906		33.203125
1907		27.343750
1908		37.109375
1909		33.203125
1910		42.968750
1911		37.109375
1912		46.875000
1913		42.968750
1914		50.781250
1915		48.828125
1916		54.687500
1917		54.687500
1918		62.500000
1919		56.640625
1920		66.406250
1921		60.546875
1922		70.312500
1923		66.406250
1924		74.218750
1925		70.312500
1926		78.125000
1927		74.218750
1928		82.031250
1929		76.171875
1930		85.937500
1931		83.984375
1932		87.890625
1933		87.890625
1934		93.750000
1935		89.843750
1936		97.656250
1937		91.796875
1938		101.562500
1939		95.703125
1940		103.515625
1941		97.656250
1942		107.421875
1943		101.562500
1944		109.375000
1945		103.515625
1946		111.328125
1947		107.421875
1948		111.328125
1949		111.328125
1950		115.234375
1951		111.328125
1952		119.140625
1953		113.281250
1954		119.140625
1955		115.234375
1956		121.093750
1957		115.234375
1958		123.046875
1959		117.187500
1960		125.000000
1961		119.140625
1962		125.000000
1963		119.140625
1964		125.000000
1965		121.093750
1966		125.000000
1967		121.093750
1968		126.953125
1969		121.093750
1970		126.953125
1971		121.093750
1972		128.906250
1973		121.093750
1974		126.953125
1975		121.093750
1976		128.906250
1977		121.093750
1978		126.953125
1979		121.093750
1980		126.953125
1981		121.093750
1982		125.000000
1983		121.093750
1984		123.046875
1985		117.187500
1986		123.046875
1987		115.234375
1988		123.046875
1989		113.281250
1990		121.093750
1991		111.328125
1992		119.140625
1993		109.375000
1994		117.187500
1995		107.421875
1996		115.234375
1997		107.421875
1998		113.281250
1999		105.468750
2000		109.375000
2001		99.609375
2002		107.421875
2003		97.656250
2004		105.468750
2005		93.750000
2006		103.515625
2007		91.796875
2008		99.609375
2009		87.890625
2010		97.656250
2011		83.984375
2012		93.750000
2013		82.031250
2014		89.843750
2015		78.125000
2016		83.984375
2017		72.265625
2018		80.078125
2019		68.359375
2020		78.125000
2021		62.500000
2022		74.218750
2023		58.593750
2024		68.359375
2025		54.687500
2026		64.453125
2027		48.828125
2028		60.546875
2029		44.921875
2030		54.687500
2031		41.015625
2032		48.828125
2033		37.109375
2034		44.921875
2035		31.250000
2036		37.109375
2037		25.390625
2038		35.156250
2039		19.531250
2040		29.296875
2041		13.671875
2042		23.437500
2043		9.765625
2044		19.531250
2045		3.906250
2046		13.671875
2047		0.000000
2048		7.812500
2049		-5.859375
2050		0.000000
2051		-13.671875
2052		-3.906250
2053		-17.578125
2054		-7.812500
2055		-23.437500
2056		-13.671875
2057		-29.296875
2058		-19.531250
2059		-35.156250
2060		-23.437500
2061		-39.062500
2062		-29.296875
2063		-42.968750
2064		-35.156250
2065		-46.875000
2066		-41.015625
2067		-52.734375
2068		-46.875000
2069		-58.593750
2070		-50.781250
2071		-64.453125
2072		-52.734375
2073		-68.359375
2074		-58.593750
2075		-72.265625
2076		-62.500000
2077		-76.171875
2078		-68.359375
2079		-82.031250
2080		-72.265625
2081		-82.031250
2082		-74.218750
2083		-85.937500
2084		-82.031250
2085		-91.796875
2086		-83.984375
2087		-95.703125
2088		-85.937500
2089		-97.656250
2090		-89.843750
2091		-101.562500
2092		-91.796875
2093		-103.515625
2094		-95.703125
2095		-105.468750
2096		-97.656250
2097		-107.421875
2098		-99.609375
2099		-107.421875
2100		-103.515625
2101		-109.375000
2102		-105.468750
2103		-113.281250
2104		-105.468750
2105		-113.281250
2106		-107.421875
2107		-115.234375
2108		-107.421875
2109		-115.234375
2110		-107.421875
2111		-115.234375
2112		-109.375000
2113		-115.234375
2114		-109.375000
2115		-113.281250
2116		-111.328125
2117		-113.281250
2118		-109.375000
2119		-115.234375
2120		-107.421875
2121		-113.281250
2122		-105.468750
2123		-113.281250
2124		-105.468750
2125		-111.328125
2126		-103.515625
2127		-109.375000
2128		-101.562500
2129		-107.421875
2130		-99.609375
2131		-105.468750
2132		-97.656250
2133		-101.562500
2134		-95.703125
2135		-97.656250
2136		-91.796875
2137		-97.656250
2138		-89.843750
2139		-93.750000
2140		-85.937500
2141		-91.796875
2142		-82.031250
2143		-87.890625
2144		-78.125000
2145		-83.984375
2146		-74.218750
2147		-80.078125
2148		-72.265625
2149		-74.218750
2150		-68.359375
2151		-68.359375
2152		-64.453125
2153		-66.406250
2154		-56.640625
2155		-62.500000
2156		-52.734375
2157		-58.593750
2158		-48.828125
2159		-52.734375
2160		-42.968750
2161		-48.828125
2162		-37.109375
2163		-42.968750
2164		-31.250000
2165		-37.109375
2166		-29.296875
2167		-31.250000
2168		-23.437500
2169		-25.390625
2170		-17.578125
2171		-21.484375
2172		-11.718750
2173		-17.578125
2174		-5.859375
2175		-11.718750
2176		0.000000
2177		-5.859375
2178		5.859375
2179		0.000000
2180		9.765625
2181		3.906250
2182		13.671875
2183		11.718750
2184		19.531250
2185		17.578125
2186		25.390625
2187		21.484375
2188		31.250000
2189		25.390625
2190		35.156250
2191		31.250000
2192		41.015625
2193		37.109375
2194		46.875000
2195		41.015625
2196		50.781250
2197		46.875000
2198		54.687500
2199		52.734375
2200		58.593750
2201		58.593750
2202		62.500000
2203		60.546875
2204		70.312500
2205		64.453125
2206		74.218750
2207		68.359375
2208		78.125000
2209		72.265625
2210		82.031250
2211		76.171875
2212		85.937500
2213		80.078125
2214		89.843750
2215		83.984375
2216		91.796875
2217		89.843750
2218		95.703125
2219		93.750000
2220		99.609375
2221		93.750000
2222		103.515625
2223		97.656250
2224		107.421875
2225		101.562500
2226		109.375000
2227		103.515625
2228		111.328125
2229		105.468750
2230		113.281250
2231		107.421875
2232		115.234375
2233		111.328125
2234		115.234375
2235		113.281250
2236		117.187500
2237		115.234375
2238		121.093750
2239		115.234375
2240		123.046875
2241		117.187500
2242		125.000000
2243		117.187500
2244		125.000000
2245		119.140625
2246		126.953125
2247		121.093750
2248		126.953125
2249		121.093750
2250		126.953125
2251		123.046875
2252		125.000000
2253		121.093750
2254		128.906250
2255		121.093750
2256		128.906250
2257		121.093750
2258		128.906250
2259		121.093750
2260		126.953125
2261		119.140625
2262		126.953125
2263		119.140625
2264		126.953125
2265		119.140625
2266		125.000000
2267		119.140625
2268		123.046875
2269		119.140625
2270		121.093750
2271		115.234375
2272		123.046875
2273		113.281250
2274		121.093750
2275		111.328125
2276		119.140625
2277		109.375000
2278		117.187500
2279		105.468750
2280		115.234375
2281		103.515625
2282		111.328125
2283		103.515625
2284		107.421875
2285		99.609375
2286		105.468750
2287		95.703125
2288		101.562500
2289		91.796875
2290		101.562500
2291		87.890625
2292		97.656250
2293		85.937500
2294		93.750000
2295		82.031250
2296		89.843750
2297		78.125000
2298		87.890625
2299		76.171875
2300		82.031250
2301		70.312500
2302		76.171875
2303		64.453125
2304		72.265625
2305		60.546875
2306		70.312500
2307		56.640625
2308		66.406250
2309		50.781250
2310		60.546875
2311		46.875000
2312		56.640625
2313		41.015625
2314		50.781250
2315		37.109375
2316		46.875000
2317		33.203125
2318		39.062500
2319		27.343750
2320		35.156250
2321		21.484375
2322		29.296875
2323		15.625000
2324		25.390625
2325		9.765625
2326		19.531250
2327		3.906250
2328		15.625000
2329		-1.953125
2330		9.765625
2331		-5.859375
2332		3.906250
2333		-9.765625
2334		-1.953125
2335		-15.625000
2336		-7.812500
2337		-23.437500
2338		-13.671875
2339		-27.343750
2340		-17.578125
2341		-33.203125
2342		-21.484375
2343		-39.062500
2344		-27.343750
2345		-42.968750
2346		-33.203125
2347		-48.828125
2348		-37.109375
2349		-50.781250
2350		-42.968750
2351		-56.640625
2352		-50.781250
2353		-60.546875
2354		-54.687500
2355		-66.406250
2356		-58.593750
2357		-70.312500
2358		-60.546875
2359		-76.171875
2360		-66.406250
2361		-78.125000
2362		-70.312500
2363		-82.031250
2364		-74.218750
2365		-85.937500
2366		-78.125000
2367		-87.890625
2368		-83.984375
2369		-91.796875
2370		-87.890625
2371		-95.703125
2372		-89.843750
2373		-99.609375
2374		-91.796875
2375		-101.562500
2376		-93.750000
2377		-105.468750
2378		-95.703125
2379		-107.421875
2380		-99.609375
2381		-109.375000
2382		-101.562500
2383		-109.375000
2384		-103.515625
2385		-109.375000
2386		-105.468750
2387		-113.281250
2388		-107.421875
2389		-113.281250
2390		-107.421875
2391		-115.234375
2392		-107.421875
2393		-115.234375
2394		-107.421875
2395		-115.234375
2396		-107.421875
2397		-115.234375
2398		-107.421875
2399		-115.234375
2400		-107.421875
2401		-111.328125
2402		-109.375000
2403		-111.328125
2404		-107.421875
2405		-111.328125
2406		-105.468750
2407		-111.328125
2408		-103.515625
2409		-109.375000
2410		-101.562500
2411		-107.421875
2412		-99.609375
2413		-105.468750
2414		-97.656250
2415		-103.515625
2416		-93.750000
2417		-99.609375
2418		-93.750000
2419		-95.703125
2420		-89.843750
2421		-91.796875
2422		-85.937500
2423		-91.796875
2424		-82.031250
2425		-87.890625
2426		-78.125000
2427		-83.984375
2428		-74.218750
2429		-80.078125
2430		-70.312500
2431		-74.218750
2432		-66.406250
2433		-72.265625
2434		-64.453125
2435		-64.453125
2436		-58.593750
2437		-60.546875
2438		-54.687500
2439		-56.640625
2440		-48.828125
2441		-52.734375
2442		-42.968750
2443		-48.828125
2444		-37.109375
2445		-42.968750
2446		-33.203125
2447		-39.062500
2448		-27.343750
2449		-33.203125
2450		-23.437500
2451		-27.343750
2452		-19.531250
2453		-19.531250
2454		-13.671875
2455		-15.625000
2456		-7.812500
2457		-11.718750
2458		-1.953125
2459		-5.859375
2460		3.906250
2461		-1.953125
2462		9.765625
2463		3.906250
2464		15.625000
2465		9.765625
2466		19.531250
2467		15.625000
2468		23.437500
2469		21.484375
2470		29.296875
2471		27.343750
2472		35.156250
2473		31.250000
2474		41.015625
2475		35.156250
2476		44.921875
2477		41.015625
2478		50.781250
2479		46.875000
2480		54.687500
2481		50.781250
2482		60.546875
2483		54.687500
2484		64.453125
2485		62.500000
2486		66.406250
2487		66.406250
2488		72.265625
2489		68.359375
2490		78.125000
2491		72.265625
2492		82.031250
2493		76.171875
2494		85.937500
2495		80.078125
2496		89.843750
2497		83.984375
2498		93.750000
2499		85.937500
2500		95.703125
2501		91.796875
2502		97.656250
2503		95.703125
2504		101.562500
2505		99.609375
2506		105.468750
2507		99.609375
2508		107.421875
2509		103.515625
2510		111.328125
2511		105.468750
2512		113.281250
2513		107.421875
2514		115.234375
2515		109.375000
2516		117.187500
2517		111.328125
2518		119.140625
2519		115.234375
2520		119.140625
2521		117.187500
2522		121.093750
2523		115.234375
2524		125.000000
2525		119.140625
2526		125.000000
2527		119.140625
2528		126.953125
2529		119.140625
2530		126.953125
2531		121.093750
2532		126.953125
2533		121.093750
2534		126.953125
2535		123.046875
2536		126.953125
2537		123.046875
2538		126.953125
2539		121.093750
2540		126.953125
2541		121.093750
2542		126.953125
2543		119.140625
2544		126.953125
2545		119.140625
2546		125.000000
2547		119.140625
2548		125.000000
2549		117.187500
2550		125.000000
2551		117.187500
2552		123.046875
2553		117.187500
2554		119.140625
2555		113.281250
2556		119.140625
2557		111.328125
2558		119.140625
2559		109.375000
2560		117.187500
2561		107.421875
2562		115.234375
2563		103.515625
2564		111.328125
2565		101.562500
2566		109.375000
2567		99.609375
2568		107.421875
2569		97.656250
2570		101.562500
2571		93.750000
2572		99.609375
2573		89.843750
2574		95.703125
2575		85.937500
2576		93.750000
2577		82.031250
2578		89.843750
2579		78.125000
2580		85.937500
2581		74.218750
2582		82.031250
2583		68.359375
2584		78.125000
2585		66.406250
2586		76.171875
2587		62.500000
2588		68.359375
2589		56.640625
2590		64.453125
2591		50.781250
2592		60.546875
2593		46.875000
2594		56.640625
2595		41.015625
2596		50.781250
2597		37.109375
2598		46.875000
2599		31.250000
2600		42.968750
2601		27.343750
2602		37.109375
2603		23.437500
2604		29.296875
2605		17.578125
2606		25.390625
2607		9.765625
2608		19.531250
2609		3.906250
2610		15.625000
2611		0.000000
2612		9.765625
2613		-5.859375
2614		5.859375
2615		-11.718750
2616		-1.953125
2617		-17.578125
2618		-5.859375
2619		-19.531250
2620		-11.718750
2621		-25.390625
2622		-17.578125
2623		-33.203125
2624		-23.437500
2625		-39.062500
2626		-27.343750
2627		-42.968750
2628		-33.203125
2629		-48.828125
2630		-39.062500
2631		-52.734375
2632		-42.968750
2633		-56.640625
2634		-46.875000
2635		-60.546875
2636		-52.734375
2637		-64.453125
2638		-58.593750
2639		-70.312500
2640		-62.500000
2641		-76.171875
2642		-66.406250
2643		-80.078125
2644		-70.312500
2645		-83.984375
2646		-74.218750
2647		-85.937500
2648		-78.125000
2649		-89.843750
2650		-82.031250
2651		-93.750000
2652		-83.984375
2653		-93.750000
2654		-89.843750
2655		-97.656250
2656		-93.750000
2657		-101.562500
2658		-95.703125
2659		-105.468750
2660		-95.703125
2661		-107.421875
2662		-99.609375
2663		-109.375000
2664		-101.562500
2665		-109.375000
2666		-103.515625
2667		-111.328125
2668		-103.515625
2669		-113.281250
2670		-105.468750
2671		-111.328125
2672		-109.375000
2673		-115.234375
2674		-107.421875
2675		-115.234375
2676		-107.421875
2677		-115.234375
2678		-107.421875
2679		-115.234375
2680		-107.421875
2681		-115.234375
2682		-107.421875
2683		-113.281250
2684		-107.421875
2685		-113.281250
2686		-107.421875
2687		-109.375000
2688		-107.421875
2689		-109.375000
2690		-105.468750
2691		-109.375000
2692		-101.562500
2693		-107.421875
2694		-99.609375
2695		-105.468750
2696		-97.656250
2697		-103.515625
2698		-95.703125
2699		-99.609375
2700		-91.796875
2701		-97.656250
2702		-89.843750
2703		-93.750000
2704		-87.890625
2705		-89.843750
2706		-83.984375
2707		-85.937500
2708		-78.125000
2709		-83.984375
2710		-74.218750
2711		-80.078125
2712		-72.265625
2713		-76.171875
2714		-66.406250
2715		-72.265625
2716		-62.500000
2717		-68.359375
2718		-58.593750
2719		-62.500000
2720		-54.687500
2721		-56.640625
2722		-50.781250
2723		-50.781250
2724		-44.921875
2725		-48.828125
2726		-39.062500
2727		-42.968750
2728		-33.203125
2729		-39.062500
2730		-29.296875
2731		-33.203125
2732		-23.437500
2733		-27.343750
2734		-17.578125
2735		-21.484375
2736		-13.671875
2737		-15.625000
2738		-9.765625
2739		-9.765625
2740		-3.906250
2741		-5.859375
2742		3.906250
2743		-1.953125
2744		9.765625
2745		3.906250
2746		13.671875
2747		7.812500
2748		19.531250
2749		13.671875
2750		25.390625
2751		19.531250
2752		31.250000
2753		25.390625
2754		33.203125
2755		31.250000
2756		39.062500
2757		37.109375
2758		44.921875
2759		39.062500
2760		50.781250
2761		44.921875
2762		54.687500
2763		48.828125
2764		60.546875
2765		54.687500
2766		64.453125
2767		58.593750
2768		68.359375
2769		62.500000
2770		72.265625
2771		70.312500
2772		76.171875
2773		74.218750
2774		80.078125
2775		78.125000
2776		85.937500
2777		80.078125
2778		89.843750
2779		83.984375
2780		93.750000
2781		87.890625
2782		97.656250
2783		91.796875
2784		99.609375
2785		93.750000
2786		103.515625
2787		97.656250
2788		103.515625
2789		101.562500
2790		107.421875
2791		105.468750
2792		111.328125
2793		105.468750
2794		113.281250
2795		107.421875
2796		115.234375
2797		109.375000
2798		117.187500
2799		111.328125
2800		119.140625
2801		113.281250
2802		121.093750
2803		115.234375
2804		123.046875
2805		119.140625
2806		121.093750
2807		121.093750
2808		123.046875
2809		119.140625
2810		126.953125
2811		119.140625
2812		126.953125
2813		121.093750
2814		126.953125
2815		121.093750
2816		128.906250
2817		121.093750
2818		128.906250
2819		121.093750
2820		128.906250
2821		123.046875
2822		126.953125
2823		123.046875
2824		125.000000
2825		121.093750
2826		126.953125
2827		121.093750
2828		126.953125
2829		119.140625
2830		126.953125
2831		117.187500
2832		125.000000
2833		117.187500
2834		123.046875
2835		115.234375
2836		123.046875
2837		115.234375
2838		121.093750
2839		113.281250
2840		117.187500
2841		109.375000
2842		115.234375
2843		107.421875
2844		115.234375
2845		105.468750
2846		113.281250
2847		103.515625
2848		111.328125
2849		99.609375
2850		107.421875
2851		97.656250
2852		105.468750
2853		93.750000
2854		103.515625
2855		91.796875
2856		97.656250
2857		87.890625
2858		93.750000
2859		82.031250
2860		91.796875
2861		78.125000
2862		87.890625
2863		76.171875
2864		83.984375
2865		70.312500
2866		80.078125
2867		66.406250
2868		76.171875
2869		62.500000
2870		72.265625
2871		58.593750
2872		68.359375
2873		54.687500
2874		60.546875
2875		48.828125
2876		56.640625
2877		42.968750
2878		52.734375
2879		39.062500
2880		48.828125
2881		33.203125
2882		42.968750
2883		27.343750
2884		39.062500
2885		23.437500
2886		33.203125
2887		19.531250
2888		27.343750
2889		13.671875
2890		19.531250
2891		9.765625
2892		15.625000
2893		1.953125
2894		11.718750
2895		-3.906250
2896		5.859375
2897		-9.765625
2898		1.953125
2899		-15.625000
2900		-3.906250
2901		-19.531250
2902		-9.765625
2903		-25.390625
2904		-15.625000
2905		-29.296875
2906		-21.484375
2907		-33.203125
2908		-27.343750
2909		-41.015625
2910		-33.203125
2911		-46.875000
2912		-35.156250
2913		-50.781250
2914		-41.015625
2915		-56.640625
2916		-44.921875
2917		-60.546875
2918		-50.781250
2919		-64.453125
2920		-54.687500
2921		-68.359375
2922		-60.546875
2923		-72.265625
2924		-66.406250
2925		-76.171875
2926		-70.312500
2927		-82.031250
2928		-72.265625
2929		-83.984375
2930		-76.171875
2931		-89.843750
2932		-80.078125
2933		-91.796875
2934		-83.984375
2935		-95.703125
2936		-85.937500
2937		-97.656250
2938		-89.843750
2939		-99.609375
2940		-93.750000
2941		-101.562500
2942		-97.656250
2943		-105.468750
2944		-97.656250
2945		-107.421875
2946		-99.609375
2947		-109.375000
2948		-101.562500
2949		-111.328125
2950		-103.515625
2951		-111.328125
2952		-105.468750
2953		-113.281250
2954		-105.468750
2955		-113.281250
2956		-107.421875
2957		-111.328125
2958		-109.375000
2959		-115.234375
2960		-107.421875
2961		-115.234375
2962		-107.421875
2963		-113.281250
2964		-107.421875
2965		-113.281250
2966		-105.468750
2967		-113.281250
2968		-105.468750
2969		-111.328125
2970		-105.468750
2971		-111.328125
2972		-103.515625
2973		-107.421875
2974		-103.515625
2975		-105.468750
2976		-101.562500
2977		-105.468750
2978		-97.656250
2979		-103.515625
2980		-95.703125
2981		-99.609375
2982		-91.796875
2983		-97.656250
2984		-89.843750
2985		-95.703125
2986		-85.937500
2987		-91.796875
2988		-82.031250
2989		-87.890625
2990		-80.078125
2991		-82.031250
2992		-78.125000
2993		-78.125000
2994		-70.312500
2995		-76.171875
2996		-68.359375
2997		-72.265625
2998		-62.500000
2999		-68.359375
3000		-58.593750
3001		-62.500000
3002		-52.734375
3003		-58.593750
3004		-48.828125
3005		-54.687500
3006		-46.875000
3007		-46.875000
3008		-41.015625
3009		-42.968750
3010		-35.156250
3011		-39.062500
3012		-27.343750
3013		-33.203125
3014		-23.437500
3015		-29.296875
3016		-17.578125
3017		-23.437500
3018		-11.718750
3019		-17.578125
3020		-7.812500
3021		-13.671875
3022		-3.906250
3023		-5.859375
3024		1.953125
3025		0.000000
3026		5.859375
3027		3.906250
3028		13.671875
3029		7.812500
3030		19.531250
3031		13.671875
3032		23.437500
3033		17.578125
3034		29.296875
3035		23.437500
3036		35.156250
3037		29.296875
3038		41.015625
3039		35.156250
3040		42.968750
3041		41.015625
3042		48.828125
3043		46.875000
3044		54.687500
3045		48.828125
3046		58.593750
3047		54.687500
3048		64.453125
3049		60.546875
3050		68.359375
3051		62.500000
3052		72.265625
3053		68.359375
3054		78.125000
3055		72.265625
3056		80.078125
3057		78.125000
3058		83.984375
3059		82.031250
3060		87.890625
3061		83.984375
3062		93.750000
3063		87.890625
3064		95.703125
3065		91.796875
3066		99.609375
3067		93.750000
3068		101.562500
3069		97.656250
3070		105.468750
3071		99.609375
3072		107.421875
3073		103.515625
3074		109.375000
3075		107.421875
3076		111.328125
3077		107.421875
3078		115.234375
3079		109.375000
3080		117.187500
3081		111.328125
3082		119.140625
3083		113.281250
3084		121.093750
3085		115.234375
3086		123.046875
3087		117.187500
3088		123.046875
3089		117.187500
3090		125.000000
3091		121.093750
3092		123.046875
3093		121.093750
3094		126.953125
3095		121.093750
3096		126.953125
3097		121.093750
3098		126.953125
3099		121.093750
3100		128.906250
3101		121.093750
3102		128.906250
3103		121.093750
3104		128.906250
3105		121.093750
3106		128.906250
3107		123.046875
3108		125.000000
3109		123.046875
3110		125.000000
3111		119.140625
3112		126.953125
3113		117.187500
3114		125.000000
3115		117.187500
3116		125.000000
3117		115.234375
3118		123.046875
3119		113.281250
3120		121.093750
3121		111.328125
3122		119.140625
3123		111.328125
3124		117.187500
3125		109.375000
3126		113.281250
3127		105.468750
3128		111.328125
3129		103.515625
3130		111.328125
3131		99.609375
3132		107.421875
3133		97.656250
3134		105.468750
3135		93.750000
3136		101.562500
3137		89.843750
3138		99.609375
3139		87.890625
3140		95.703125
3141		85.937500
3142		89.843750
3143		80.078125
3144		85.937500
3145		76.171875
3146		83.984375
3147		70.312500
3148		80.078125
3149		66.406250
3150		76.171875
3151		62.500000
3152		72.265625
3153		58.593750
3154		66.406250
3155		52.734375
3156		62.500000
3157		50.781250
3158		58.593750
3159		44.921875
3160		52.734375
3161		39.062500
3162		46.875000
3163		33.203125
3164		44.921875
3165		27.343750
3166		39.062500
3167		23.437500
3168		33.203125
3169		17.578125
3170		27.343750
3171		13.671875
3172		21.484375
3173		9.765625
3174		17.578125
3175		3.906250
3176		9.765625
3177		-1.953125
3178		3.906250
3179		-9.765625
3180		1.953125
3181		-15.625000
3182		-3.906250
3183		-19.531250
3184		-9.765625
3185		-25.390625
3186		-15.625000
3187		-29.296875
3188		-19.531250
3189		-35.156250
3190		-25.390625
3191		-39.062500
3192		-33.203125
3193		-42.968750
3194		-37.109375
3195		-48.828125
3196		-41.015625
3197		-56.640625
3198		-44.921875
3199		-60.546875
3200		-50.781250
3201		-64.453125
3202		-54.687500
3203		-68.359375
3204		-60.546875
3205		-74.218750
3206		-62.500000
3207		-76.171875
3208		-68.359375
3209		-80.078125
3210		-74.218750
3211		-85.937500
3212		-78.125000
3213		-89.843750
3214		-80.078125
3215		-91.796875
3216		-83.984375
3217		-95.703125
3218		-85.937500
3219		-99.609375
3220		-89.843750
3221		-101.562500
3222		-91.796875
3223		-101.562500
3224		-93.750000
3225		-103.515625
3226		-99.609375
3227		-105.468750
3228		-101.562500
3229		-109.375000
3230		-101.562500
3231		-111.328125
3232		-103.515625
3233		-111.328125
3234		-105.468750
3235		-113.281250
3236		-105.468750
3237		-113.281250
3238		-107.421875
3239		-115.234375
3240		-107.421875
3241		-111.328125
3242		-109.375000
3243		-111.328125
3244		-109.375000
3245		-115.234375
3246		-107.421875
3247		-113.281250
3248		-107.421875
3249		-113.281250
3250		-105.468750
3251		-111.328125
3252		-103.515625
3253		-111.328125
3254		-103.515625
3255		-109.375000
3256		-101.562500
3257		-105.468750
3258		-99.609375
3259		-103.515625
3260		-99.609375
3261		-99.609375
3262		-95.703125
3263		-99.609375
3264		-91.796875
3265		-97.656250
3266		-89.843750
3267		-93.750000
3268		-85.937500
3269		-91.796875
3270		-82.031250
3271		-87.890625
3272		-80.078125
3273		-83.984375
3274		-76.171875
3275		-78.125000
3276		-72.265625
3277		-74.218750
3278		-68.359375
3279		-70.312500
3280		-62.500000
3281		-68.359375
3282		-58.593750
3283		-64.453125
3284		-54.687500
3285		-58.593750
3286		-48.828125
3287		-52.734375
3288		-44.921875
3289		-48.828125
3290		-39.062500
3291		-44.921875
3292		-35.156250
3293		-37.109375
3294		-31.250000
3295		-33.203125
3296		-23.437500
3297		-27.343750
3298		-17.578125
3299		-23.437500
3300		-13.671875
3301		-17.578125
3302		-7.812500
3303		-11.718750
3304		-1.953125
3305		-7.812500
3306		1.953125
3307		-1.953125
3308		5.859375
3309		5.859375
3310		11.718750
3311		9.765625
3312		17.578125
3313		13.671875
3314		23.437500
3315		19.531250
3316		29.296875
3317		23.437500
3318		35.156250
3319		31.250000
3320		39.062500
3321		33.203125
3322		44.921875
3323		41.015625
3324		50.781250
3325		44.921875
3326		52.734375
3327		50.781250
3328		58.593750
3329		56.640625
3330		64.453125
3331		58.593750
3332		68.359375
3333		62.500000
3334		72.265625
3335		68.359375
3336		76.171875
3337		72.265625
3338		82.031250
3339		76.171875
3340		85.937500
3341		80.078125
3342		87.890625
3343		85.937500
3344		89.843750
3345		89.843750
3346		95.703125
3347		91.796875
3348		99.609375
3349		93.750000
3350		101.562500
3351		99.609375
3352		105.468750
3353		99.609375
3354		107.421875
3355		103.515625
3356		109.375000
3357		105.468750
3358		111.328125
3359		109.375000
3360		113.281250
3361		111.328125
3362		115.234375
3363		113.281250
3364		119.140625
3365		113.281250
3366		121.093750
3367		115.234375
3368		123.046875
3369		117.187500
3370		125.000000
3371		119.140625
3372		125.000000
3373		119.140625
3374		126.953125
3375		121.093750
3376		126.953125
3377		123.046875
3378		125.000000
3379		121.093750
3380		128.906250
3381		121.093750
3382		128.906250
3383		123.046875
3384		128.906250
3385		121.093750
3386		128.906250
3387		121.093750
3388		128.906250
3389		121.093750
3390		128.906250
3391		121.093750
3392		126.953125
3393		123.046875
3394		125.000000
3395		121.093750
3396		125.000000
3397		117.187500
3398		125.000000
3399		117.187500
3400		123.046875
3401		115.234375
3402		121.093750
3403		113.281250
3404		119.140625
3405		111.328125
3406		119.140625
3407		109.375000
3408		115.234375
3409		107.421875
3410		115.234375
3411		105.468750
3412		109.375000
3413		101.562500
3414		107.421875
3415		97.656250
3416		107.421875
3417		95.703125
3418		103.515625
3419		91.796875
3420		99.609375
3421		87.890625
3422		95.703125
3423		83.984375
3424		93.750000
3425		82.031250
3426		89.843750
3427		78.125000
3428		83.984375
3429		74.218750
3430		80.078125
3431		68.359375
3432		78.125000
3433		64.453125
3434		74.218750
3435		60.546875
3436		68.359375
3437		52.734375
3438		64.453125
3439		50.781250
3440		60.546875
3441		44.921875
3442		54.687500
3443		41.015625
3444		48.828125
3445		37.109375
3446		42.968750
3447		29.296875
3448		39.062500
3449		23.437500
3450		35.156250
3451		19.531250
3452		29.296875
3453		13.671875
3454		23.437500
3455		7.812500
3456		19.531250
3457		3.906250
3458		13.671875
3459		0.000000
3460		7.812500
3461		-5.859375
3462		0.000000
3463		-13.671875
3464		-3.906250
3465		-17.578125
3466		-7.812500
3467		-23.437500
3468		-13.671875
3469		-29.296875
3470		-17.578125
3471		-35.156250
3472		-23.437500
3473		-39.062500
3474		-29.296875
3475		-42.968750
3476		-35.156250
3477		-46.875000
3478		-41.015625
3479		-52.734375
3480		-46.875000
3481		-58.593750
3482		-50.781250
3483		-62.500000
3484		-54.687500
3485		-68.359375
3486		-58.593750
3487		-72.265625
3488		-62.500000
3489		-76.171875
3490		-66.406250
3491		-80.078125
3492		-72.265625
3493		-82.031250
3494		-76.171875
3495		-85.937500
3496		-80.078125
3497		-89.843750
3498		-83.984375
3499		-95.703125
3500		-85.937500
3501		-97.656250
3502		-87.890625
3503		-99.609375
3504		-91.796875
3505		-103.515625
3506		-93.750000
3507		-105.468750
3508		-97.656250
3509		-105.468750
3510		-99.609375
3511		-107.421875
3512		-103.515625
3513		-107.421875
3514		-105.468750
3515		-111.328125
3516		-105.468750
3517		-113.281250
3518		-105.468750
3519		-113.281250
3520		-105.468750
3521		-113.281250
3522		-107.421875
3523		-113.281250
3524		-107.421875
3525		-113.281250
3526		-107.421875
3527		-111.328125
3528		-109.375000
3529		-111.328125
3530		-109.375000
3531		-113.281250
3532		-105.468750
3533		-111.328125
3534		-103.515625
3535		-109.375000
3536		-103.515625
3537		-109.375000
3538		-101.562500
3539		-107.421875
3540		-99.609375
3541		-105.468750
3542		-97.656250
3543		-103.515625
3544		-97.656250
3545		-99.609375
3546		-93.750000
3547		-95.703125
3548		-89.843750
3549		-95.703125
3550		-85.937500
3551		-91.796875
3552		-83.984375
3553		-89.843750
3554		-80.078125
3555		-83.984375
3556		-76.171875
3557		-82.031250
3558		-72.265625
3559		-76.171875
3560		-70.312500
3561		-72.265625
3562		-66.406250
3563		-66.406250
3564		-60.546875
3565		-64.453125
3566		-54.687500
3567		-58.593750
3568		-50.781250
3569		-54.687500
3570		-44.921875
3571		-48.828125
3572		-39.062500
3573		-46.875000
3574		-35.156250
3575		-39.062500
3576		-31.250000
3577		-35.156250
3578		-27.343750
3579		-27.343750
3580		-21.484375
3581		-23.437500
3582		-13.671875
3583		-19.531250
3584		-7.812500
3585		-13.671875
3586		-3.906250
3587		-7.812500
3588		1.953125
3589		-3.906250
3590		7.812500
3591		1.953125
3592		13.671875
3593		7.812500
3594		15.625000
3595		13.671875
3596		21.484375
3597		19.531250
3598		25.390625
3599		23.437500
3600		35.156250
3601		27.343750
3602		39.062500
3603		33.203125
3604		44.921875
3605		37.109375
3606		48.828125
3607		42.968750
3608		54.687500
3609		48.828125
3610		58.593750
3611		54.687500
3612		60.546875
3613		60.546875
3614		66.406250
3615		64.453125
3616		72.265625
3617		66.406250
3618		76.171875
3619		70.312500
3620		80.078125
3621		76.171875
3622		83.984375
3623		78.125000
3624		87.890625
3625		82.031250
3626		91.796875
3627		85.937500
3628		93.750000
3629		91.796875
3630		95.703125
3631		95.703125
3632		101.562500
3633		95.703125
3634		103.515625
3635		99.609375
3636		107.421875
3637		101.562500
3638		111.328125
3639		105.468750
3640		113.281250
3641		107.421875
3642		115.234375
3643		109.375000
3644		117.187500
3645		113.281250
3646		117.187500
3647		115.234375
3648		119.140625
3649		115.234375
3650		123.046875
3651		117.187500
3652		125.000000
3653		117.187500
3654		125.000000
3655		119.140625
3656		125.000000
3657		119.140625
3658		126.953125
3659		121.093750
3660		126.953125
3661		121.093750
3662		126.953125
3663		123.046875
3664		126.953125
3665		121.093750
3666		128.906250
3667		123.046875
3668		128.906250
3669		121.093750
3670		128.906250
3671		121.093750
3672		126.953125
3673		121.093750
3674		126.953125
3675		119.140625
3676		126.953125
3677		119.140625
3678		125.000000
3679		119.140625
3680		123.046875
3681		119.140625
3682		121.093750
3683		115.234375
3684		121.093750
3685		113.281250
3686		121.093750
3687		111.328125
3688		117.187500
3689		109.375000
3690		117.187500
3691		105.468750
3692		113.281250
3693		103.515625
3694		111.328125
3695		101.562500
3696		109.375000
3697		99.609375
3698		103.515625
3699		95.703125
3700		101.562500
3701		91.796875
3702		99.609375
3703		87.890625
3704		97.656250
3705		85.937500
3706		93.750000
3707		80.078125
3708		89.843750
3709		76.171875
3710		85.937500
3711		74.218750
3712		82.031250
3713		70.312500
3714		76.171875
3715		64.453125
3716		72.265625
3717		60.546875
3718		70.312500
3719		54.687500
3720		64.453125
3721		50.781250
3722		60.546875
3723		44.921875
3724		54.687500
3725		39.062500
3726		50.781250
3727		35.156250
3728		44.921875
3729		33.203125
3730		39.062500
3731		27.343750
3732		33.203125
3733		19.531250
3734		29.296875
3735		13.671875
3736		25.390625
3737		9.765625
3738		19.531250
3739		3.906250
3740		13.671875
3741		-1.953125
3742		7.812500
3743		-5.859375
3744		3.906250
3745		-9.765625
3746		-1.953125
3747		-15.625000
3748		-9.765625
3749		-23.437500
3750		-13.671875
3751		-27.343750
3752		-17.578125
3753		-35.156250
3754		-23.437500
3755		-39.062500
3756		-27.343750
3757		-44.921875
3758		-33.203125
3759		-48.828125
3760		-39.062500
3761		-52.734375
3762		-42.968750
3763		-56.640625
3764		-50.781250
3765		-60.546875
3766		-54.687500
3767		-66.406250
3768		-58.593750
3769		-72.265625
3770		-62.500000
3771		-76.171875
3772		-66.406250
3773		-80.078125
3774		-70.312500
3775		-82.031250
3776		-74.218750
3777		-87.890625
3778		-78.125000
3779		-87.890625
3780		-82.031250
3781		-91.796875
3782		-87.890625
3783		-95.703125
3784		-89.843750
3785		-99.609375
3786		-91.796875
3787		-101.562500
3788		-93.750000
3789		-103.515625
3790		-95.703125
3791		-105.468750
3792		-99.609375
3793		-107.421875
3794		-101.562500
3795		-109.375000
3796		-103.515625
3797		-109.375000
3798		-105.468750
3799		-111.328125
3800		-107.421875
3801		-113.281250
3802		-105.468750
3803		-113.281250
3804		-107.421875
3805		-113.281250
3806		-107.421875
3807		-113.281250
3808		-107.421875
3809		-113.281250
3810		-107.421875
3811		-113.281250
3812		-105.468750
3813		-109.375000
3814		-107.421875
3815		-109.375000
3816		-107.421875
3817		-109.375000
3818		-103.515625
3819		-109.375000
3820		-101.562500
3821		-107.421875
3822		-99.609375
3823		-105.468750
3824		-97.656250
3825		-103.515625
3826		-93.750000
3827		-101.562500
3828		-91.796875
3829		-97.656250
3830		-91.796875
3831		-93.750000
3832		-87.890625
3833		-89.843750
3834		-83.984375
3835		-89.843750
3836		-80.078125
3837		-83.984375
3838		-76.171875
3839		-82.031250
3840		-72.265625
3841		-78.125000
3842		-68.359375
3843		-74.218750
3844		-64.453125
3845		-68.359375
3846		-60.546875
3847		-62.500000
3848		-56.640625
3849		-58.593750
3850		-50.781250
3851		-54.687500
3852		-44.921875
3853		-48.828125
3854		-39.062500
3855		-44.921875
3856		-35.156250
3857		-41.015625
3858		-29.296875
3859		-35.156250
3860		-25.390625
3861		-29.296875
3862		-19.531250
3863		-23.437500
3864		-15.625000
3865		-17.578125
3866		-11.718750
3867		-11.718750
3868		-3.906250
3869		-7.812500
3870		1.953125
3871		-3.906250
3872		5.859375
3873		1.953125
3874		11.718750
3875		7.812500
3876		17.578125
3877		11.718750
3878		23.437500
3879		17.578125
3880		27.343750
3881		25.390625
3882		31.250000
3883		31.250000
3884		39.062500
3885		33.203125
3886		42.968750
3887		39.062500
3888		48.828125
3889		42.968750
3890		52.734375
3891		48.828125
3892		58.593750
3893		52.734375
3894		62.500000
3895		58.593750
3896		66.406250
3897		64.453125
3898		70.312500
3899		68.359375
3900		74.218750
3901		72.265625
3902		80.078125
3903		74.218750
3904		83.984375
3905		78.125000
3906		87.890625
3907		82.031250
3908		91.796875
3909		85.937500
3910		95.703125
3911		89.843750
3912		99.609375
3913		93.750000
3914		99.609375
3915		97.656250
3916		103.515625
3917		101.562500
3918		107.421875
3919		101.562500
3920		111.328125
3921		105.468750
3922		113.281250
3923		107.421875
3924		115.234375
3925		109.375000
3926		117.187500
3927		111.328125
3928		119.140625
3929		113.281250
3930		121.093750
3931		117.187500
3932		121.093750
3933		119.140625
3934		121.093750
3935		119.140625
3936		125.000000
3937		119.140625
3938		126.953125
3939		121.093750
3940		126.953125
3941		121.093750
3942		128.906250
3943		121.093750
3944		128.906250
3945		123.046875
3946		128.906250
3947		125.000000
3948		126.953125
3949		125.000000
3950		126.953125
3951		121.093750
3952		128.906250
3953		121.093750
3954		128.906250
3955		121.093750
3956		128.906250
3957		119.140625
3958		128.906250
3959		119.140625
3960		126.953125
3961		117.187500
3962		125.000000
3963		117.187500
3964		125.000000
3965		117.187500
3966		121.093750
3967		115.234375
3968		119.140625
3969		111.328125
3970		119.140625
3971		109.375000
3972		117.187500
3973		107.421875
3974		115.234375
3975		105.468750
3976		113.281250
3977		101.562500
3978		111.328125
3979		99.609375
3980		107.421875
3981		97.656250
3982		101.562500
3983		93.750000
3984		99.609375
3985		87.890625
3986		97.656250
3987		85.937500
3988		95.703125
3989		82.031250
3990		91.796875
3991		76.171875
3992		87.890625
3993		74.218750
3994		83.984375
3995		68.359375
3996		80.078125
3997		66.406250
3998		74.218750
3999		62.500000
4000		68.359375
4001		56.640625
4002		64.453125
4003		50.781250
4004		60.546875
4005		46.875000
4006		56.640625
4007		41.015625
4008		50.781250
4009		37.109375
4010		46.875000
4011		31.250000
4012		41.015625
4013		27.343750
4014		35.156250
4015		23.437500
4016		29.296875
4017		17.578125
4018		23.437500
4019		9.765625
4020		19.531250
4021		3.906250
4022		15.625000
4023		0.000000
4024		9.765625
4025		-5.859375
4026		3.906250
4027		-11.718750
4028		0.000000
4029		-15.625000
4030		-5.859375
4031		-19.531250
4032		-11.718750
4033		-25.390625
4034		-19.531250
4035		-33.203125
4036		-23.437500
4037		-39.062500
4038		-27.343750
4039		-42.968750
4040		-31.250000
4041		-48.828125
4042		-37.109375
4043		-52.734375
4044		-42.968750
4045		-58.593750
4046		-46.875000
4047		-60.546875
4048		-52.734375
4049		-64.453125
4050		-58.593750
4051		-70.312500
4052		-62.500000
4053		-76.171875
4054		-66.406250
4055		-78.125000
4056		-70.312500
4057		-83.984375
4058		-74.218750
4059		-85.937500
4060		-78.125000
4061		-89.843750
4062		-82.031250
4063		-93.750000
4064		-83.984375
4065		-93.750000
4066		-89.843750
4067		-97.656250
4068		-93.750000
4069		-101.562500
4070		-95.703125
4071		-103.515625
4072		-95.703125
4073		-105.468750
4074		-97.656250
4075		-107.421875
4076		-99.609375
4077		-109.375000
4078		-101.562500
4079		-111.328125
4080		-103.515625
4081		-111.328125
4082		-105.468750
4083		-111.328125
4084		-107.421875
4085		-113.281250
4086		-107.421875
4087		-113.281250
4088		-107.421875
4089		-113.281250
4090		-107.421875
4091		-113.281250
4092		-107.421875
4093		-113.281250
4094		-107.421875
4095		-113.281250
4096		-105.468750
4097		-111.328125
4098		-105.468750
4099		-107.421875
4100		-105.468750
4101		-107.421875
4102		-103.515625
4103		-107.421875
4104		-99.609375
4105		-105.468750
4106		-97.656250
4107		-103.515625
4108		-95.703125
4109		-101.562500
4110		-93.750000
4111		-99.609375
4112		-89.843750
4113		-93.750000
4114		-87.890625
4115		-91.796875
4116		-85.937500
4117		-87.890625
4118		-82.031250
4119		-83.984375
4120		-76.171875
4121		-80.078125
4122		-72.265625
4123		-78.125000
4124		-68.359375
4125		-74.218750
4126		-64.453125
4127		-70.312500
4128		-60.546875
4129		-66.406250
4130		-54.687500
4131		-62.500000
4132		-52.734375
4133		-54.687500
4134		-46.875000
4135		-48.828125
4136		-42.968750
4137		-46.875000
4138		-35.156250
4139		-41.015625
4140		-31.250000
4141		-37.109375
4142		-25.390625
4143		-31.250000
4144		-21.484375
4145		-25.390625
4146		-15.625000
4147		-19.531250
4148		-9.765625
4149		-13.671875
4150		-5.859375
4151		-7.812500
4152		-1.953125
4153		-1.953125
4154		5.859375
4155		1.953125
4156		11.718750
4157		5.859375
4158		15.625000
4159		11.718750
4160		21.484375
4161		15.625000
4162		27.343750
4163		23.437500
4164		33.203125
4165		27.343750
4166		35.156250
4167		35.156250
4168		41.015625
4169		39.062500
4170		46.875000
4171		42.968750
4172		52.734375
4173		46.875000
4174		56.640625
4175		52.734375
4176		62.500000
4177		58.593750
4178		66.406250
4179		62.500000
4180		72.265625
4181		66.406250
4182		74.218750
4183		72.265625
4184		78.125000
4185		76.171875
4186		82.031250
4187		80.078125
4188		87.890625
4189		83.984375
4190		89.843750
4191		85.937500
4192		93.750000
4193		91.796875
4194		97.656250
4195		93.750000
4196		101.562500
4197		97.656250
4198		103.515625
4199		99.609375
4200		105.468750
4201		103.515625
4202		107.421875
4203		105.468750
4204		113.281250
4205		107.421875
4206		113.281250
4207		109.375000
4208		117.187500
4209		111.328125
4210		119.140625
4211		113.281250
4212		121.093750
4213		115.234375
4214		123.046875
4215		117.187500
4216		123.046875
4217		119.140625
4218		123.046875
4219		121.093750
4220		125.000000
4221		119.140625
4222		126.953125
4223		121.093750
4224		126.953125
4225		121.093750
4226		128.906250
4227		121.093750
4228		128.906250
4229		123.046875
4230		128.906250
4231		123.046875
4232		128.906250
4233		123.046875
4234		126.953125
4235		125.000000
4236		126.953125
4237		121.093750
4238		126.953125
4239		121.093750
4240		126.953125
4241		119.140625
4242		126.953125
4243		119.140625
4244		125.000000
4245		117.187500
4246		125.000000
4247		115.234375
4248		123.046875
4249		113.281250
4250		121.093750
4251		113.281250
4252		117.187500
4253		109.375000
4254		117.187500
4255		107.421875
4256		115.234375
4257		105.468750
4258		113.281250
4259		101.562500
4260		111.328125
4261		97.656250
4262		107.421875
4263		95.703125
4264		105.468750
4265		93.750000
4266		103.515625
4267		91.796875
4268		95.703125
4269		87.890625
4270		93.750000
4271		82.031250
4272		89.843750
4273		78.125000
4274		87.890625
4275		74.218750
4276		83.984375
4277		68.359375
4278		80.078125
4279		66.406250
4280		76.171875
4281		60.546875
4282		70.312500
4283		58.593750
4284		66.406250
4285		54.687500
4286		60.546875
4287		46.875000
4288		54.687500
4289		42.968750
4290		50.781250
4291		37.109375
4292		48.828125
4293		31.250000
4294		41.015625
4295		27.343750
4296		37.109375
4297		21.484375
4298		33.203125
4299		17.578125
4300		27.343750
4301		13.671875
4302		19.531250
4303		7.812500
4304		13.671875
4305		0.000000
4306		9.765625
4307		-5.859375
4308		5.859375
4309		-9.765625
4310		0.000000
4311		-15.625000
4312		-3.906250
4313		-21.484375
4314		-9.765625
4315		-27.343750
4316		-15.625000
4317		-29.296875
4318		-21.484375
4319		-35.156250
4320		-29.296875
4321		-41.015625
4322		-33.203125
4323		-46.875000
4324		-37.109375
4325		-50.781250
4326		-41.015625
4327		-56.640625
4328		-46.875000
4329		-60.546875
4330		-50.781250
4331		-66.406250
4332		-56.640625
4333		-68.359375
4334		-60.546875
4335		-72.265625
4336		-66.406250
4337		-78.125000
4338		-70.312500
4339		-82.031250
4340		-74.218750
4341		-85.937500
4342		-76.171875
4343		-89.843750
4344		-80.078125
4345		-91.796875
4346		-83.984375
4347		-95.703125
4348		-85.937500
4349		-97.656250
4350		-89.843750
4351		-99.609375
4352		-95.703125
4353		-101.562500
4354		-97.656250
4355		-105.468750
4356		-97.656250
4357		-107.421875
4358		-99.609375
4359		-107.421875
4360		-101.562500
4361		-111.328125
4362		-101.562500
4363		-111.328125
4364		-103.515625
4365		-113.281250
4366		-103.515625
4367		-111.328125
4368		-105.468750
4369		-111.328125
4370		-109.375000
4371		-113.281250
4372		-105.468750
4373		-113.281250
4374		-105.468750
4375		-111.328125
4376		-105.468750
4377		-111.328125
4378		-105.468750
4379		-111.328125
4380		-103.515625
4381		-109.375000
4382		-103.515625
4383		-107.421875
4384		-101.562500
4385		-105.468750
4386		-101.562500
4387		-103.515625
4388		-99.609375
4389		-103.515625
4390		-95.703125
4391		-101.562500
4392		-93.750000
4393		-97.656250
4394		-89.843750
4395		-93.750000
4396		-87.890625
4397		-91.796875
4398		-83.984375
4399		-87.890625
4400		-80.078125
4401		-83.984375
4402		-78.125000
4403		-80.078125
4404		-74.218750
4405		-76.171875
4406		-68.359375
4407		-72.265625
4408		-64.453125
4409		-70.312500
4410		-60.546875
4411		-64.453125
4412		-56.640625
4413		-60.546875
4414		-50.781250
4415		-56.640625
4416		-46.875000
4417		-48.828125
4418		-42.968750
4419		-44.921875
4420		-39.062500
4421		-39.062500
4422		-33.203125
4423		-35.156250
4424		-27.343750
4425		-29.296875
4426		-23.437500
4427		-23.437500
4428		-17.578125
4429		-19.531250
4430		-11.718750
4431		-13.671875
4432		-5.859375
4433		-9.765625
4434		0.000000
4435		-1.953125
4436		3.906250
4437		1.953125
4438		9.765625
4439		7.812500
4440		15.625000
4441		13.671875
4442		19.531250
4443		19.531250
4444		25.390625
4445		23.437500
4446		29.296875
4447		27.343750
4448		35.156250
4449		35.156250
4450		41.015625
4451		39.062500
4452		44.921875
4453		44.921875
4454		50.781250
4455		48.828125
4456		56.640625
4457		52.734375
4458		60.546875
4459		58.593750
4460		64.453125
4461		62.500000
4462		68.359375
4463		68.359375
4464		74.218750
4465		72.265625
4466		78.125000
4467		76.171875
4468		82.031250
4469		80.078125
4470		85.937500
4471		83.984375
4472		89.843750
4473		85.937500
4474		91.796875
4475		91.796875
4476		95.703125
4477		93.750000
4478		99.609375
4479		97.656250
4480		103.515625
4481		101.562500
4482		105.468750
4483		103.515625
4484		107.421875
4485		105.468750
4486		111.328125
4487		109.375000
4488		113.281250
4489		111.328125
4490		115.234375
4491		113.281250
4492		117.187500
4493		115.234375
4494		119.140625
4495		117.187500
4496		121.093750
4497		119.140625
4498		121.093750
4499		119.140625
4500		123.046875
4501		121.093750
4502		125.000000
4503		123.046875
4504		125.000000
4505		123.046875
4506		126.953125
4507		123.046875
4508		126.953125
4509		125.000000
4510		126.953125
4511		125.000000
4512		126.953125
4513		125.000000
4514		126.953125
4515		123.046875
4516		126.953125
4517		123.046875
4518		126.953125
4519		123.046875
4520		126.953125
4521		123.046875
4522		125.000000
4523		121.093750
4524		125.000000
4525		121.093750
4526		123.046875
4527		119.140625
4528		123.046875
4529		117.187500
4530		121.093750
4531		115.234375
4532		119.140625
4533		113.281250
4534		117.187500
4535		111.328125
4536		115.234375
4537		109.375000
4538		113.281250
4539		107.421875
4540		111.328125
4541		103.515625
4542		109.375000
4543		101.562500
4544		105.468750
4545		97.656250
4546		103.515625
4547		95.703125
4548		101.562500
4549		91.796875
4550		97.656250
4551		87.890625
4552		93.750000
4553		83.984375
4554		89.843750
4555		80.078125
4556		85.937500
4557		76.171875
4558		82.031250
4559		72.265625
4560		78.125000
4561		68.359375
4562		74.218750
4563		64.453125
4564		68.359375
4565		58.593750
4566		64.453125
4567		52.734375
4568		60.546875
4569		48.828125
4570		56.640625
4571		44.921875
4572		50.781250
4573		39.062500
4574		44.921875
4575		35.156250
4576		41.015625
4577		29.296875
4578		37.109375
4579		23.437500
4580		31.250000
4581		19.531250
4582		25.390625
4583		13.671875
4584		21.484375
4585		7.812500
4586		15.625000
4587		1.953125
4588		9.765625
4589		-3.906250
4590		3.906250
4591		-7.812500
4592		-1.953125
4593		-13.671875
4594		-5.859375
4595		-19.531250
4596		-11.718750
4597		-23.437500
4598		-17.578125
4599		-29.296875
4600		-23.437500
4601		-35.156250
4602		-27.343750
4603		-39.062500
4604		-33.203125
4605		-44.921875
4606		-39.062500
4607		-50.781250
4608		-42.968750
4609		-54.687500
4610		-46.875000
4611		-58.593750
4612		-52.734375
4613		-62.500000
4614		-58.593750
4615		-68.359375
4616		-62.500000
4617		-72.265625
4618		-66.406250
4619		-76.171875
4620		-70.312500
4621		-80.078125
4622		-74.218750
4623		-83.984375
4624		-78.125000
4625		-87.890625
4626		-82.031250
4627		-89.843750
4628		-85.937500
4629		-93.750000
4630		-89.843750
4631		-97.656250
4632		-91.796875
4633		-99.609375
4634		-95.703125
4635		-101.562500
4636		-97.656250
4637		-103.515625
4638		-99.609375
4639		-105.468750
4640		-101.562500
4641		-107.421875
4642		-103.515625
4643		-109.375000
4644		-105.468750
4645		-109.375000
4646		-105.468750
4647		-111.328125
4648		-107.421875
4649		-111.328125
4650		-107.421875
4651		-111.328125
4652		-109.375000
4653		-113.281250
4654		-109.375000
4655		-111.328125
4656		-109.375000
4657		-111.328125
4658		-107.421875
4659		-111.328125
4660		-107.421875
4661		-109.375000
4662		-107.421875
4663		-109.375000
4664		-105.468750
4665		-107.421875
4666		-103.515625
4667		-107.421875
4668		-101.562500
4669		-105.468750
4670		-99.609375
4671		-103.515625
4672		-97.656250
4673		-99.609375
4674		-95.703125
4675		-97.656250
4676		-93.750000
4677		-95.703125
4678		-89.843750
4679		-91.796875
4680		-85.937500
4681		-87.890625
4682		-83.984375
4683		-83.984375
4684		-78.125000
4685		-80.078125
4686		-74.218750
4687		-78.125000
4688		-72.265625
4689		-74.218750
4690		-68.359375
4691		-68.359375
4692		-64.453125
4693		-64.453125
4694		-58.593750
4695		-60.546875
4696		-54.687500
4697		-56.640625
4698		-48.828125
4699		-50.781250
4700		-44.921875
4701		-44.921875
4702		-39.062500
4703		-41.015625
4704		-33.203125
4705		-35.156250
4706		-29.296875
4707		-29.296875
4708		-23.437500
4709		-25.390625
4710		-19.531250
4711		-19.531250
4712		-13.671875
4713		-15.625000
4714		-7.812500
4715		-9.765625
4716		-1.953125
4717		-3.906250
4718		1.953125
4719		1.953125
4720		7.812500
4721		5.859375
4722		13.671875
4723		11.718750
4724		19.531250
4725		17.578125
4726		23.437500
4727		23.437500
4728		29.296875
4729		27.343750
4730		35.156250
4731		33.203125
4732		41.015625
4733		39.062500
4734		44.921875
4735		42.968750
4736		50.781250
4737		46.875000
4738		54.687500
4739		52.734375
4740		58.593750
4741		56.640625
4742		64.453125
4743		62.500000
4744		68.359375
4745		66.406250
4746		72.265625
4747		70.312500
4748		76.171875
4749		74.218750
4750		80.078125
4751		78.125000
4752		85.937500
4753		83.984375
4754		87.890625
4755		85.937500
4756		91.796875
4757		89.843750
4758		95.703125
4759		91.796875
4760		97.656250
4761		97.656250
4762		101.562500
4763		99.609375
4764		105.468750
4765		103.515625
4766		107.421875
4767		105.468750
4768		111.328125
4769		109.375000
4770		113.281250
4771		111.328125
4772		113.281250
4773		113.281250
4774		117.187500
4775		115.234375
4776		119.140625
4777		115.234375
4778		121.093750
4779		117.187500
4780		121.093750
4781		119.140625
4782		123.046875
4783		121.093750
4784		125.000000
4785		123.046875
4786		125.000000
4787		123.046875
4788		125.000000
4789		123.046875
4790		126.953125
4791		123.046875
4792		126.953125
4793		125.000000
4794		126.953125
4795		123.046875
4796		126.953125
4797		125.000000
4798		126.953125
4799		123.046875
4800		126.953125
4801		123.046875
4802		126.953125
4803		123.046875
4804		126.953125
4805		123.046875
4806		125.000000
4807		121.093750
4808		123.046875
4809		119.140625
4810		123.046875
4811		119.140625
4812		121.093750
4813		115.234375
4814		119.140625
4815		115.234375
4816		119.140625
4817		113.281250
4818		117.187500
4819		111.328125
4820		115.234375
4821		107.421875
4822		113.281250
4823		105.468750
4824		109.375000
4825		101.562500
4826		107.421875
4827		99.609375
4828		103.515625
4829		95.703125
4830		101.562500
4831		91.796875
4832		97.656250
4833		87.890625
4834		95.703125
4835		83.984375
4836		89.843750
4837		82.031250
4838		87.890625
4839		78.125000
4840		82.031250
4841		74.218750
4842		78.125000
4843		68.359375
4844		76.171875
4845		64.453125
4846		70.312500
4847		60.546875
4848		66.406250
4849		54.687500
4850		62.500000
4851		50.781250
4852		56.640625
4853		44.921875
4854		52.734375
4855		41.015625
4856		48.828125
4857		35.156250
4858		42.968750
4859		31.250000
4860		37.109375
4861		25.390625
4862		33.203125
4863		19.531250
4864		27.343750
4865		15.625000
4866		21.484375
4867		9.765625
4868		17.578125
4869		3.906250
4870		11.718750
4871		-1.953125
4872		5.859375
4873		-5.859375
4874		0.000000
4875		-11.718750
4876		-5.859375
4877		-17.578125
4878		-9.765625
4879		-23.437500
4880		-15.625000
4881		-27.343750
4882		-21.484375
4883		-33.203125
4884		-27.343750
4885		-37.109375
4886		-31.250000
4887		-42.968750
4888		-37.109375
4889		-48.828125
4890		-41.015625
4891		-52.734375
4892		-46.875000
4893		-58.593750
4894		-50.781250
4895		-62.500000
4896		-56.640625
4897		-66.406250
4898		-60.546875
4899		-70.312500
4900		-64.453125
4901		-74.218750
4902		-68.359375
4903		-78.125000
4904		-72.265625
4905		-82.031250
4906		-76.171875
4907		-85.937500
4908		-80.078125
4909		-89.843750
4910		-83.984375
4911		-91.796875
4912		-87.890625
4913		-95.703125
4914		-89.843750
4915		-97.656250
4916		-93.750000
4917		-99.609375
4918		-95.703125
4919		-101.562500
4920		-97.656250
4921		-105.468750
4922		-99.609375
4923		-105.468750
4924		-103.515625
4925		-107.421875
4926		-105.468750
4927		-109.375000
4928		-105.468750
4929		-109.375000
4930		-105.468750
4931		-111.328125
4932		-107.421875
4933		-111.328125
4934		-107.421875
4935		-111.328125
4936		-107.421875
4937		-111.328125
4938		-107.421875
4939		-111.328125
4940		-107.421875
4941		-109.375000
4942		-107.421875
4943		-109.375000
4944		-107.421875
4945		-109.375000
4946		-105.468750
4947		-107.421875
4948		-103.515625
4949		-105.468750
4950		-101.562500
4951		-103.515625
4952		-99.609375
4953		-101.562500
4954		-97.656250
4955		-99.609375
4956		-95.703125
4957		-95.703125
4958		-91.796875
4959		-93.750000
4960		-89.843750
4961		-91.796875
4962		-85.937500
4963		-87.890625
4964		-83.984375
4965		-83.984375
4966		-80.078125
4967		-82.031250
4968		-76.171875
4969		-78.125000
4970		-72.265625
4971		-72.265625
4972		-66.406250
4973		-68.359375
4974		-62.500000
4975		-64.453125
4976		-58.593750
4977		-60.546875
4978		-52.734375
4979		-54.687500
4980		-48.828125
4981		-50.781250
4982		-42.968750
4983		-46.875000
4984		-39.062500
4985		-41.015625
4986		-33.203125
4987		-35.156250
4988		-29.296875
4989		-31.250000
4990		-23.437500
4991		-25.390625
4992		-19.531250
4993		-19.531250
4994		-13.671875
4995		-13.671875
4996		-7.812500
4997		-9.765625
4998		-1.953125
4999		-3.906250
5000		1.953125
5001		1.953125
5002		7.812500
5003		7.812500
5004		13.671875
5005		11.718750
5006		19.531250
5007		17.578125
5008		23.437500
5009		23.437500
5010		29.296875
5011		27.343750
5012		35.156250
5013		33.203125
5014		39.062500
5015		39.062500
5016		44.921875
5017		42.968750
5018		48.828125
5019		46.875000
5020		54.687500
5021		52.734375
5022		58.593750
5023		56.640625
5024		62.500000
5025		62.500000
5026		68.359375
5027		66.406250
5028		72.265625
5029		70.312500
5030		76.171875
5031		74.218750
5032		80.078125
5033		78.125000
5034		83.984375
5035		83.984375
5036		87.890625
5037		85.937500
5038		91.796875
5039		89.843750
5040		95.703125
5041		93.750000
5042		97.656250
5043		97.656250
5044		101.562500
5045		99.609375
5046		105.468750
5047		103.515625
5048		107.421875
5049		105.468750
5050		109.375000
5051		107.421875
5052		113.281250
5053		109.375000
5054		115.234375
5055		113.281250
5056		117.187500
5057		115.234375
5058		119.140625
5059		117.187500
5060		119.140625
5061		117.187500
5062		121.093750
5063		119.140625
5064		123.046875
5065		121.093750
5066		125.000000
5067		123.046875
5068		125.000000
5069		123.046875
5070		126.953125
5071		123.046875
5072		126.953125
5073		123.046875
5074		126.953125
5075		125.000000
5076		126.953125
5077		125.000000
5078		126.953125
5079		123.046875
5080		126.953125
5081		123.046875
5082		126.953125
5083		123.046875
5084		126.953125
5085		123.046875
5086		126.953125
5087		121.093750
5088		125.000000
5089		121.093750
5090		125.000000
5091		119.140625
5092		123.046875
5093		117.187500
5094		121.093750
5095		117.187500
5096		121.093750
5097		115.234375
5098		119.140625
5099		113.281250
5100		117.187500
5101		109.375000
5102		115.234375
5103		107.421875
5104		111.328125
5105		105.468750
5106		109.375000
5107		101.562500
5108		107.421875
5109		99.609375
5110		103.515625
5111		95.703125
5112		101.562500
5113		91.796875
5114		97.656250
5115		89.843750
5116		93.750000
5117		85.937500
5118		91.796875
5119		82.031250
5120		87.890625
5121		78.125000
5122		83.984375
5123		74.218750
5124		80.078125
5125		70.312500
5126		76.171875
5127		64.453125
5128		70.312500
5129		60.546875
5130		66.406250
5131		56.640625
5132		62.500000
5133		50.781250
5134		56.640625
5135		46.875000
5136		52.734375
5137		41.015625
5138		46.875000
5139		35.156250
5140		42.968750
5141		31.250000
5142		37.109375
5143		25.390625
5144		31.250000
5145		19.531250
5146		27.343750
5147		15.625000
5148		21.484375
5149		9.765625
5150		15.625000
5151		3.906250
5152		11.718750
5153		-1.953125
5154		5.859375
5155		-5.859375
5156		0.000000
5157		-11.718750
5158		-5.859375
5159		-17.578125
5160		-11.718750
5161		-23.437500
5162		-15.625000
5163		-27.343750
5164		-19.531250
5165		-33.203125
5166		-27.343750
5167		-39.062500
5168		-31.250000
5169		-42.968750
5170		-35.156250
5171		-48.828125
5172		-41.015625
5173		-52.734375
5174		-46.875000
5175		-56.640625
5176		-50.781250
5177		-62.500000
5178		-56.640625
5179		-66.406250
5180		-60.546875
5181		-70.312500
5182		-64.453125
5183		-74.218750
5184		-68.359375
5185		-78.125000
5186		-74.218750
5187		-82.031250
5188		-78.125000
5189		-85.937500
5190		-80.078125
5191		-89.843750
5192		-83.984375
5193		-91.796875
5194		-87.890625
5195		-95.703125
5196		-89.843750
5197		-97.656250
5198		-93.750000
5199		-99.609375
5200		-95.703125
5201		-103.515625
5202		-99.609375
5203		-105.468750
5204		-101.562500
5205		-107.421875
5206		-101.562500
5207		-109.375000
5208		-103.515625
5209		-109.375000
5210		-105.468750
5211		-109.375000
5212		-107.421875
5213		-111.328125
5214		-107.421875
5215		-111.328125
5216		-107.421875
5217		-111.328125
5218		-107.421875
5219		-111.328125
5220		-109.375000
5221		-111.328125
5222		-107.421875
5223		-111.328125
5224		-107.421875
5225		-109.375000
5226		-107.421875
5227		-109.375000
5228		-105.468750
5229		-107.421875
5230		-103.515625
5231		-105.468750
5232		-101.562500
5233		-103.515625
5234		-99.609375
5235		-101.562500
5236		-97.656250
5237		-99.609375
5238		-95.703125
5239		-97.656250
5240		-93.750000
5241		-93.750000
5242		-89.843750
5243		-91.796875
5244		-87.890625
5245		-87.890625
5246		-82.031250
5247		-85.937500
5248		-80.078125
5249		-80.078125
5250		-74.218750
5251		-78.125000
5252		-72.265625
5253		-74.218750
5254		-68.359375
5255		-68.359375
5256		-64.453125
5257		-64.453125
5258		-58.593750
5259		-60.546875
5260		-54.687500
5261		-56.640625
5262		-48.828125
5263		-50.781250
5264		-44.921875
5265		-46.875000
5266		-39.062500
5267		-41.015625
5268		-35.156250
5269		-35.156250
5270		-29.296875
5271		-31.250000
5272		-25.390625
5273		-25.390625
5274		-19.531250
5275		-21.484375
5276		-13.671875
5277		-15.625000
5278		-7.812500
5279		-9.765625
5280		-3.906250
5281		-3.906250
5282		1.953125
5283		0.000000
5284		7.812500
5285		5.859375
5286		13.671875
5287		11.718750
5288		17.578125
5289		17.578125
5290		23.437500
5291		21.484375
5292		29.296875
5293		27.343750
5294		35.156250
5295		33.203125
5296		39.062500
5297		37.109375
5298		44.921875
5299		42.968750
5300		48.828125
5301		46.875000
5302		54.687500
5303		52.734375
5304		58.593750
5305		56.640625
5306		64.453125
5307		62.500000
5308		68.359375
5309		66.406250
5310		72.265625
5311		70.312500
5312		76.171875
5313		74.218750
5314		80.078125
5315		78.125000
5316		83.984375
5317		82.031250
5318		87.890625
5319		85.937500
5320		91.796875
5321		89.843750
5322		95.703125
5323		93.750000
5324		97.656250
5325		97.656250
5326		101.562500
5327		99.609375
5328		103.515625
5329		103.515625
5330		107.421875
5331		105.468750
5332		109.375000
5333		107.421875
5334		113.281250
5335		111.328125
5336		115.234375
5337		113.281250
5338		117.187500
5339		115.234375
5340		119.140625
5341		117.187500
5342		121.093750
5343		119.140625
5344		121.093750
5345		119.140625
5346		123.046875
5347		121.093750
5348		125.000000
5349		123.046875
5350		125.000000
5351		123.046875
5352		126.953125
5353		125.000000
5354		126.953125
5355		125.000000
5356		128.906250
5357		125.000000
5358		128.906250
5359		125.000000
5360		128.906250
5361		125.000000
5362		126.953125
5363		123.046875
5364		128.906250
5365		123.046875
5366		126.953125
5367		123.046875
5368		126.953125
5369		123.046875
5370		125.000000
5371		121.093750
5372		125.000000
5373		119.140625
5374		123.046875
5375		119.140625
5376		123.046875
5377		117.187500
5378		121.093750
5379		115.234375
5380		119.140625
5381		113.281250
5382		117.187500
5383		111.328125
5384		115.234375
5385		109.375000
5386		113.281250
5387		105.468750
5388		111.328125
5389		103.515625
5390		107.421875
5391		99.609375
5392		105.468750
5393		97.656250
5394		103.515625
5395		93.750000
5396		99.609375
5397		91.796875
5398		95.703125
5399		87.890625
5400		91.796875
5401		82.031250
5402		87.890625
5403		80.078125
5404		85.937500
5405		74.218750
5406		80.078125
5407		70.312500
5408		76.171875
5409		66.406250
5410		72.265625
5411		62.500000
5412		68.359375
5413		56.640625
5414		62.500000
5415		52.734375
5416		58.593750
5417		46.875000
5418		54.687500
5419		42.968750
5420		48.828125
5421		37.109375
5422		44.921875
5423		33.203125
5424		41.015625
5425		27.343750
5426		33.203125
5427		21.484375
5428		29.296875
5429		17.578125
5430		23.437500
5431		11.718750
5432		17.578125
5433		5.859375
5434		11.718750
5435		0.000000
5436		7.812500
5437		-3.906250
5438		1.953125
5439		-9.765625
5440		-1.953125
5441		-15.625000
5442		-9.765625
5443		-21.484375
5444		-13.671875
5445		-25.390625
5446		-19.531250
5447		-31.250000
5448		-25.390625
5449		-37.109375
5450		-29.296875
5451		-41.015625
5452		-35.156250
5453		-46.875000
5454		-39.062500
5455		-50.781250
5456		-44.921875
5457		-56.640625
5458		-48.828125
5459		-60.546875
5460		-54.687500
5461		-64.453125
5462		-58.593750
5463		-68.359375
5464		-64.453125
5465		-74.218750
5466		-66.406250
5467		-78.125000
5468		-72.265625
5469		-80.078125
5470		-76.171875
5471		-83.984375
5472		-80.078125
5473		-87.890625
5474		-82.031250
5475		-91.796875
5476		-85.937500
5477		-93.750000
5478		-87.890625
5479		-95.703125
5480		-91.796875
5481		-99.609375
5482		-93.750000
5483		-101.562500
5484		-97.656250
5485		-103.515625
5486		-99.609375
5487		-105.468750
5488		-101.562500
5489		-107.421875
5490		-103.515625
5491		-107.421875
5492		-103.515625
5493		-109.375000
5494		-105.468750
5495		-109.375000
5496		-105.468750
5497		-109.375000
5498		-107.421875
5499		-111.328125
5500		-107.421875
5501		-111.328125
5502		-107.421875
5503		-111.328125
5504		-107.421875
5505		-109.375000
5506		-105.468750
5507		-109.375000
5508		-105.468750
5509		-107.421875
5510		-103.515625
5511		-105.468750
5512		-103.515625
5513		-105.468750
5514		-101.562500
5515		-103.515625
5516		-99.609375
5517		-101.562500
5518		-97.656250
5519		-99.609375
5520		-93.750000
5521		-95.703125
5522		-91.796875
5523		-93.750000
5524		-89.843750
5525		-91.796875
5526		-85.937500
5527		-87.890625
5528		-83.984375
5529		-83.984375
5530		-80.078125
5531		-82.031250
5532		-76.171875
5533		-78.125000
5534		-72.265625
5535		-74.218750
5536		-68.359375
5537		-68.359375
5538		-62.500000
5539		-64.453125
5540		-58.593750
5541		-60.546875
5542		-54.687500
5543		-56.640625
5544		-50.781250
5545		-50.781250
5546		-44.921875
5547		-46.875000
5548		-39.062500
5549		-42.968750
5550		-35.156250
5551		-37.109375
5552		-29.296875
5553		-31.250000
5554		-25.390625
5555		-25.390625
5556		-19.531250
5557		-21.484375
5558		-13.671875
5559		-15.625000
5560		-9.765625
5561		-11.718750
5562		-3.906250
5563		-3.906250
5564		1.953125
5565		0.000000
5566		7.812500
5567		5.859375
5568		13.671875
5569		11.718750
5570		17.578125
5571		15.625000
5572		23.437500
5573		21.484375
5574		27.343750
5575		27.343750
5576		33.203125
5577		33.203125
5578		39.062500
5579		37.109375
5580		44.921875
5581		41.015625
5582		48.828125
5583		46.875000
5584		54.687500
5585		52.734375
5586		58.593750
5587		56.640625
5588		62.500000
5589		60.546875
5590		66.406250
5591		64.453125
5592		72.265625
5593		70.312500
5594		76.171875
5595		74.218750
5596		80.078125
5597		78.125000
5598		83.984375
5599		82.031250
5600		87.890625
5601		85.937500
5602		91.796875
5603		89.843750
5604		95.703125
5605		93.750000
5606		97.656250
5607		95.703125
5608		101.562500
5609		99.609375
5610		103.515625
5611		101.562500
5612		107.421875
5613		105.468750
5614		109.375000
5615		107.421875
5616		113.281250
5617		109.375000
5618		113.281250
5619		111.328125
5620		117.187500
5621		115.234375
5622		119.140625
5623		115.234375
5624		121.093750
5625		117.187500
5626		121.093750
5627		119.140625
5628		123.046875
5629		121.093750
5630		123.046875
5631		123.046875
5632		125.000000
5633		121.093750
5634		126.953125
5635		123.046875
5636		126.953125
5637		123.046875
5638		126.953125
5639		125.000000
5640		128.906250
5641		125.000000
5642		126.953125
5643		125.000000
5644		128.906250
5645		123.046875
5646		128.906250
5647		125.000000
5648		126.953125
5649		123.046875
5650		126.953125
5651		123.046875
5652		126.953125
5653		121.093750
5654		125.000000
5655		119.140625
5656		125.000000
5657		119.140625
5658		123.046875
5659		117.187500
5660		121.093750
5661		115.234375
5662		119.140625
5663		113.281250
5664		117.187500
5665		109.375000
5666		115.234375
5667		109.375000
5668		113.281250
5669		107.421875
5670		111.328125
5671		103.515625
5672		107.421875
5673		101.562500
5674		105.468750
5675		97.656250
5676		103.515625
5677		93.750000
5678		99.609375
5679		91.796875
5680		95.703125
5681		87.890625
5682		91.796875
5683		82.031250
5684		87.890625
5685		80.078125
5686		83.984375
5687		76.171875
5688		82.031250
5689		70.312500
5690		76.171875
5691		66.406250
5692		72.265625
5693		62.500000
5694		68.359375
5695		56.640625
5696		64.453125
5697		52.734375
5698		58.593750
5699		46.875000
5700		54.687500
5701		42.968750
5702		48.828125
5703		37.109375
5704		44.921875
5705		33.203125
5706		39.062500
5707		27.343750
5708		35.156250
5709		21.484375
5710		29.296875
5711		17.578125
5712		23.437500
5713		11.718750
5714		17.578125
5715		5.859375
5716		13.671875
5717		1.953125
5718		7.812500
5719		-3.906250
5720		1.953125
5721		-9.765625
5722		-1.953125
5723		-15.625000
5724		-7.812500
5725		-19.531250
5726		-13.671875
5727		-25.390625
5728		-17.578125
5729		-31.250000
5730		-23.437500
5731		-35.156250
5732		-29.296875
5733		-41.015625
5734		-35.156250
5735		-46.875000
5736		-39.062500
5737		-50.781250
5738		-44.921875
5739		-56.640625
5740		-48.828125
5741		-60.546875
5742		-54.687500
5743		-64.453125
5744		-58.593750
5745		-68.359375
5746		-62.500000
5747		-72.265625
5748		-68.359375
5749		-78.125000
5750		-72.265625
5751		-80.078125
5752		-74.218750
5753		-83.984375
5754		-80.078125
5755		-87.890625
5756		-82.031250
5757		-89.843750
5758		-85.937500
5759		-95.703125
5760		-87.890625
5761		-97.656250
5762		-91.796875
5763		-99.609375
5764		-93.750000
5765		-101.562500
5766		-97.656250
5767		-103.515625
5768		-99.609375
5769		-105.468750
5770		-99.609375
5771		-107.421875
5772		-101.562500
5773		-109.375000
5774		-103.515625
5775		-109.375000
5776		-105.468750
5777		-109.375000
5778		-105.468750
5779		-111.328125
5780		-107.421875
5781		-109.375000
5782		-107.421875
5783		-111.328125
5784		-107.421875
5785		-111.328125
5786		-107.421875
5787		-109.375000
5788		-105.468750
5789		-109.375000
5790		-105.468750
5791		-109.375000
5792		-103.515625
5793		-107.421875
5794		-103.515625
5795		-105.468750
5796		-101.562500
5797		-103.515625
5798		-99.609375
5799		-101.562500
5800		-97.656250
5801		-99.609375
5802		-93.750000
5803		-97.656250
5804		-91.796875
5805		-93.750000
5806		-87.890625
5807		-91.796875
5808		-85.937500
5809		-89.843750
5810		-82.031250
5811		-85.937500
5812		-80.078125
5813		-82.031250
5814		-76.171875
5815		-78.125000
5816		-72.265625
5817		-74.218750
5818		-66.406250
5819		-70.312500
5820		-62.500000
5821		-66.406250
5822		-58.593750
5823		-60.546875
5824		-54.687500
5825		-56.640625
5826		-48.828125
5827		-52.734375
5828		-42.968750
5829		-46.875000
5830		-41.015625
5831		-41.015625
5832		-35.156250
5833		-37.109375
5834		-29.296875
5835		-31.250000
5836		-23.437500
5837		-27.343750
5838		-17.578125
5839		-21.484375
5840		-13.671875
5841		-17.578125
5842		-7.812500
5843		-11.718750
5844		-3.906250
5845		-5.859375
5846		1.953125
5847		0.000000
5848		5.859375
5849		5.859375
5850		11.718750
5851		11.718750
5852		19.531250
5853		15.625000
5854		23.437500
5855		21.484375
5856		29.296875
5857		25.390625
5858		35.156250
5859		31.250000
5860		39.062500
5861		35.156250
5862		42.968750
5863		41.015625
5864		48.828125
5865		46.875000
5866		52.734375
5867		52.734375
5868		58.593750
5869		56.640625
5870		62.500000
5871		60.546875
5872		66.406250
5873		66.406250
5874		70.312500
5875		70.312500
5876		76.171875
5877		74.218750
5878		80.078125
5879		78.125000
5880		83.984375
5881		82.031250
5882		87.890625
5883		85.937500
5884		91.796875
5885		89.843750
5886		93.750000
5887		93.750000
5888		99.609375
5889		95.703125
5890		101.562500
5891		99.609375
5892		103.515625
5893		103.515625
5894		107.421875
5895		105.468750
5896		109.375000
5897		107.421875
5898		111.328125
5899		109.375000
5900		115.234375
5901		113.281250
5902		117.187500
5903		115.234375
5904		119.140625
5905		117.187500
5906		121.093750
5907		119.140625
5908		121.093750
5909		121.093750
5910		123.046875
5911		121.093750
5912		125.000000
5913		123.046875
5914		125.000000
5915		123.046875
5916		126.953125
5917		125.000000
5918		126.953125
5919		125.000000
5920		126.953125
5921		125.000000
5922		128.906250
5923		125.000000
5924		128.906250
5925		125.000000
5926		126.953125
5927		125.000000
5928		126.953125
5929		125.000000
5930		126.953125
5931		123.046875
5932		126.953125
5933		123.046875
5934		126.953125
5935		123.046875
5936		125.000000
5937		121.093750
5938		125.000000
5939		119.140625
5940		123.046875
5941		117.187500
5942		121.093750
5943		117.187500
5944		119.140625
5945		115.234375
5946		117.187500
5947		111.328125
5948		117.187500
5949		109.375000
5950		113.281250
5951		107.421875
5952		111.328125
5953		103.515625
5954		109.375000
5955		101.562500
5956		105.468750
5957		99.609375
5958		103.515625
5959		95.703125
5960		99.609375
5961		91.796875
5962		97.656250
5963		87.890625
5964		93.750000
5965		83.984375
5966		89.843750
5967		80.078125
5968		85.937500
5969		76.171875
5970		83.984375
5971		70.312500
5972		80.078125
5973		66.406250
5974		76.171875
5975		62.500000
5976		68.359375
5977		58.593750
5978		64.453125
5979		54.687500
5980		60.546875
5981		48.828125
5982		54.687500
5983		44.921875
5984		50.781250
5985		37.109375
5986		44.921875
5987		31.250000
5988		41.015625
5989		25.390625
5990		39.062500
5991		23.437500
5992		33.203125
5993		19.531250
5994		25.390625
5995		13.671875
5996		19.531250
5997		7.812500
5998		15.625000
5999		1.953125
6000		9.765625
6001		-3.906250
6002		3.906250
6003		-9.765625
6004		0.000000
6005		-15.625000
6006		-3.906250
6007		-19.531250
6008		-9.765625
6009		-23.437500
6010		-17.578125
6011		-29.296875
6012		-23.437500
6013		-35.156250
6014		-27.343750
6015		-39.062500
6016		-33.203125
6017		-44.921875
6018		-39.062500
6019		-52.734375
6020		-41.015625
6021		-56.640625
6022		-46.875000
6023		-60.546875
6024		-50.781250
6025		-62.500000
6026		-58.593750
6027		-68.359375
6028		-62.500000
6029		-72.265625
6030		-66.406250
6031		-76.171875
6032		-70.312500
6033		-80.078125
6034		-74.218750
6035		-85.937500
6036		-78.125000
6037		-89.843750
6038		-78.125000
6039		-95.703125
6040		-82.031250
6041		-93.750000
6042		-83.984375
6043		-95.703125
6044		-91.796875
6045		-97.656250
6046		-93.750000
6047		-99.609375
6048		-95.703125
6049		-103.515625
6050		-99.609375
6051		-103.515625
6052		-101.562500
6053		-109.375000
6054		-99.609375
6055		-109.375000
6056		-101.562500
6057		-111.328125
6058		-101.562500
6059		-109.375000
6060		-105.468750
6061		-109.375000
6062		-107.421875
6063		-109.375000
6064		-107.421875
6065		-109.375000
6066		-107.421875
6067		-109.375000
6068		-107.421875
6069		-113.281250
6070		-103.515625
6071		-111.328125
6072		-101.562500
6073		-111.328125
6074		-101.562500
6075		-109.375000
6076		-101.562500
6077		-105.468750
6078		-101.562500
6079		-103.515625
6080		-99.609375
6081		-101.562500
6082		-97.656250
6083		-99.609375
6084		-95.703125
6085		-97.656250
6086		-93.750000
6087		-97.656250
6088		-87.890625
6089		-93.750000
6090		-85.937500
6091		-91.796875
6092		-82.031250
6093		-85.937500
6094		-80.078125
6095		-82.031250
6096		-76.171875
6097		-78.125000
6098		-72.265625
6099		-74.218750
6100		-68.359375
6101		-70.312500
6102		-64.453125
6103		-68.359375
6104		-56.640625
6105		-62.500000
6106		-50.781250
6107		-58.593750
6108		-48.828125
6109		-52.734375
6110		-46.875000
6111		-46.875000
6112		-41.015625
6113		-42.968750
6114		-37.109375
6115		-37.109375
6116		-31.250000
6117		-31.250000
6118		-25.390625
6119		-27.343750
6120		-17.578125
6121		-25.390625
6122		-11.718750
6123		-19.531250
6124		-5.859375
6125		-13.671875
6126		-3.906250
6127		-5.859375
6128		0.000000
6129		0.000000
6130		5.859375
6131		3.906250
6132		11.718750
6133		9.765625
6134		15.625000
6135		15.625000
6136		21.484375
6137		19.531250
6138		29.296875
6139		23.437500
6140		33.203125
6141		29.296875
6142		39.062500
6143		37.109375
6144		42.968750
6145		41.015625
6146		46.875000
6147		46.875000
6148		52.734375
6149		50.781250
6150		56.640625
6151		54.687500
6152		60.546875
6153		60.546875
6154		66.406250
6155		64.453125
6156		72.265625
6157		68.359375
6158		76.171875
6159		74.218750
6160		78.125000
6161		78.125000
6162		82.031250
6163		82.031250
6164		85.937500
6165		85.937500
6166		89.843750
6167		89.843750
6168		93.750000
6169		91.796875
6170		97.656250
6171		95.703125
6172		101.562500
6173		97.656250
6174		105.468750
6175		99.609375
6176		105.468750
6177		105.468750
6178		109.375000
6179		107.421875
6180		111.328125
6181		109.375000
6182		113.281250
6183		111.328125
6184		115.234375
6185		115.234375
6186		117.187500
6187		117.187500
6188		119.140625
6189		117.187500
6190		123.046875
6191		117.187500
6192		125.000000
6193		121.093750
6194		125.000000
6195		123.046875
6196		125.000000
6197		123.046875
6198		125.000000
6199		123.046875
6200		126.953125
6201		125.000000
6202		126.953125
6203		125.000000
6204		126.953125
6205		125.000000
6206		126.953125
6207		125.000000
6208		126.953125
6209		125.000000
6210		126.953125
6211		125.000000
6212		126.953125
6213		123.046875
6214		126.953125
6215		123.046875
6216		125.000000
6217		123.046875
6218		125.000000
6219		121.093750
6220		123.046875
6221		119.140625
6222		123.046875
6223		117.187500
6224		121.093750
6225		117.187500
6226		119.140625
6227		115.234375
6228		117.187500
6229		111.328125
6230		115.234375
6231		109.375000
6232		113.281250
6233		107.421875
6234		111.328125
6235		105.468750
6236		109.375000
6237		101.562500
6238		107.421875
6239		97.656250
6240		103.515625
6241		95.703125
6242		99.609375
6243		91.796875
6244		97.656250
6245		87.890625
6246		93.750000
6247		83.984375
6248		89.843750
6249		82.031250
6250		85.937500
6251		76.171875
6252		82.031250
6253		72.265625
6254		78.125000
6255		68.359375
6256		74.218750
6257		64.453125
6258		70.312500
6259		58.593750
6260		64.453125
6261		54.687500
6262		60.546875
6263		48.828125
6264		56.640625
6265		44.921875
6266		50.781250
6267		39.062500
6268		44.921875
6269		35.156250
6270		41.015625
6271		29.296875
6272		35.156250
6273		23.437500
6274		31.250000
6275		19.531250
6276		25.390625
6277		13.671875
6278		19.531250
6279		7.812500
6280		15.625000
6281		1.953125
6282		9.765625
6283		-1.953125
6284		3.906250
6285		-7.812500
6286		-1.953125
6287		-13.671875
6288		-5.859375
6289		-19.531250
6290		-11.718750
6291		-23.437500
6292		-17.578125
6293		-29.296875
6294		-23.437500
6295		-35.156250
6296		-27.343750
6297		-39.062500
6298		-33.203125
6299		-44.921875
6300		-37.109375
6301		-48.828125
6302		-42.968750
6303		-54.687500
6304		-46.875000
6305		-58.593750
6306		-50.781250
6307		-62.500000
6308		-56.640625
6309		-66.406250
6310		-62.500000
6311		-72.265625
6312		-66.406250
6313		-76.171875
6314		-70.312500
6315		-80.078125
6316		-74.218750
6317		-82.031250
6318		-78.125000
6319		-85.937500
6320		-82.031250
6321		-91.796875
6322		-85.937500
6323		-93.750000
6324		-87.890625
6325		-95.703125
6326		-91.796875
6327		-99.609375
6328		-93.750000
6329		-101.562500
6330		-95.703125
6331		-101.562500
6332		-99.609375
6333		-103.515625
6334		-101.562500
6335		-105.468750
6336		-103.515625
6337		-107.421875
6338		-103.515625
6339		-109.375000
6340		-103.515625
6341		-109.375000
6342		-105.468750
6343		-109.375000
6344		-107.421875
6345		-109.375000
6346		-107.421875
6347		-111.328125
6348		-107.421875
6349		-109.375000
6350		-107.421875
6351		-109.375000
6352		-107.421875
6353		-109.375000
6354		-105.468750
6355		-109.375000
6356		-103.515625
6357		-107.421875
6358		-103.515625
6359		-105.468750
6360		-101.562500
6361		-103.515625
6362		-99.609375
6363		-101.562500
6364		-97.656250
6365		-99.609375
6366		-95.703125
6367		-97.656250
6368		-93.750000
6369		-95.703125
6370		-89.843750
6371		-91.796875
6372		-85.937500
6373		-89.843750
6374		-83.984375
6375		-85.937500
6376		-80.078125
6377		-82.031250
6378		-76.171875
6379		-80.078125
6380		-72.265625
6381		-76.171875
6382		-70.312500
6383		-70.312500
6384		-64.453125
6385		-66.406250
6386		-60.546875
6387		-62.500000
6388		-56.640625
6389		-58.593750
6390		-50.781250
6391		-52.734375
6392		-46.875000
6393		-46.875000
6394		-41.015625
6395		-42.968750
6396		-37.109375
6397		-39.062500
6398		-31.250000
6399		-33.203125
6400		-25.390625
6401		-27.343750
6402		-21.484375
6403		-21.484375
6404		-15.625000
6405		-17.578125
6406		-9.765625
6407		-11.718750
6408		-5.859375
6409		-5.859375
6410		0.000000
6411		0.000000
6412		5.859375
6413		3.906250
6414		11.718750
6415		9.765625
6416		15.625000
6417		13.671875
6418		21.484375
6419		19.531250
6420		27.343750
6421		25.390625
6422		31.250000
6423		31.250000
6424		37.109375
6425		35.156250
6426		42.968750
6427		41.015625
6428		46.875000
6429		46.875000
6430		52.734375
6431		48.828125
6432		56.640625
6433		54.687500
6434		60.546875
6435		60.546875
6436		66.406250
6437		64.453125
6438		70.312500
6439		68.359375
6440		74.218750
6441		74.218750
6442		78.125000
6443		78.125000
6444		82.031250
6445		82.031250
6446		85.937500
6447		83.984375
6448		89.843750
6449		89.843750
6450		93.750000
6451		91.796875
6452		97.656250
6453		95.703125
6454		99.609375
6455		99.609375
6456		103.515625
6457		101.562500
6458		107.421875
6459		105.468750
6460		109.375000
6461		107.421875
6462		111.328125
6463		109.375000
6464		113.281250
6465		111.328125
6466		115.234375
6467		115.234375
6468		117.187500
6469		117.187500
6470		119.140625
6471		117.187500
6472		121.093750
6473		119.140625
6474		123.046875
6475		121.093750
6476		125.000000
6477		123.046875
6478		125.000000
6479		123.046875
6480		125.000000
6481		125.000000
6482		126.953125
6483		125.000000
6484		126.953125
6485		125.000000
6486		128.906250
6487		125.000000
6488		126.953125
6489		125.000000
6490		128.906250
6491		125.000000
6492		126.953125
6493		125.000000
6494		126.953125
6495		125.000000
6496		126.953125
6497		123.046875
6498		126.953125
6499		123.046875
6500		125.000000
6501		121.093750
6502		125.000000
6503		121.093750
6504		123.046875
6505		119.140625
6506		121.093750
6507		117.187500
6508		121.093750
6509		115.234375
6510		119.140625
6511		113.281250
6512		117.187500
6513		111.328125
6514		115.234375
6515		107.421875
6516		111.328125
6517		105.468750
6518		109.375000
6519		103.515625
6520		107.421875
6521		99.609375
6522		103.515625
6523		95.703125
6524		101.562500
6525		91.796875
6526		97.656250
6527		89.843750
6528		93.750000
6529		85.937500
6530		89.843750
6531		82.031250
6532		87.890625
6533		78.125000
6534		82.031250
6535		74.218750
6536		80.078125
6537		68.359375
6538		74.218750
6539		64.453125
6540		70.312500
6541		60.546875
6542		66.406250
6543		54.687500
6544		60.546875
6545		50.781250
6546		56.640625
6547		44.921875
6548		52.734375
6549		41.015625
6550		46.875000
6551		35.156250
6552		42.968750
6553		29.296875
6554		37.109375
6555		25.390625
6556		31.250000
6557		19.531250
6558		27.343750
6559		13.671875
6560		21.484375
6561		9.765625
6562		15.625000
6563		3.906250
6564		9.765625
6565		-1.953125
6566		5.859375
6567		-7.812500
6568		0.000000
6569		-11.718750
6570		-5.859375
6571		-17.578125
6572		-11.718750
6573		-23.437500
6574		-15.625000
6575		-27.343750
6576		-21.484375
6577		-33.203125
6578		-27.343750
6579		-39.062500
6580		-31.250000
6581		-42.968750
6582		-37.109375
6583		-48.828125
6584		-42.968750
6585		-54.687500
6586		-46.875000
6587		-58.593750
6588		-52.734375
6589		-62.500000
6590		-56.640625
6591		-66.406250
6592		-60.546875
6593		-70.312500
6594		-64.453125
6595		-74.218750
6596		-70.312500
6597		-78.125000
6598		-74.218750
6599		-82.031250
6600		-78.125000
6601		-85.937500
6602		-82.031250
6603		-89.843750
6604		-83.984375
6605		-91.796875
6606		-87.890625
6607		-95.703125
6608		-91.796875
6609		-99.609375
6610		-91.796875
6611		-99.609375
6612		-95.703125
6613		-101.562500
6614		-99.609375
6615		-105.468750
6616		-101.562500
6617		-105.468750
6618		-103.515625
6619		-107.421875
6620		-103.515625
6621		-107.421875
6622		-105.468750
6623		-111.328125
6624		-105.468750
6625		-111.328125
6626		-105.468750
6627		-111.328125
6628		-107.421875
6629		-109.375000
6630		-107.421875
6631		-111.328125
6632		-107.421875
6633		-109.375000
6634		-107.421875
6635		-109.375000
6636		-107.421875
6637		-109.375000
6638		-105.468750
6639		-107.421875
6640		-105.468750
6641		-107.421875
6642		-101.562500
6643		-105.468750
6644		-99.609375
6645		-101.562500
6646		-99.609375
6647		-101.562500
6648		-97.656250
6649		-97.656250
6650		-93.750000
6651		-95.703125
6652		-91.796875
6653		-93.750000
6654		-87.890625
6655		-89.843750
6656		-85.937500
6657		-85.937500
6658		-80.078125
6659		-83.984375
6660		-76.171875
6661		-80.078125
6662		-74.218750
6663		-76.171875
6664		-70.312500
6665		-72.265625
6666		-66.406250
6667		-68.359375
6668		-62.500000
6669		-62.500000
6670		-56.640625
6671		-58.593750
6672		-52.734375
6673		-54.687500
6674		-46.875000
6675		-50.781250
6676		-42.968750
6677		-44.921875
6678		-37.109375
6679		-39.062500
6680		-33.203125
6681		-35.156250
6682		-27.343750
6683		-29.296875
6684		-21.484375
6685		-23.437500
6686		-17.578125
6687		-19.531250
6688		-11.718750
6689		-13.671875
6690		-5.859375
6691		-7.812500
6692		0.000000
6693		-3.906250
6694		3.906250
6695		1.953125
6696		9.765625
6697		7.812500
6698		15.625000
6699		13.671875
6700		19.531250
6701		19.531250
6702		25.390625
6703		23.437500
6704		31.250000
6705		29.296875
6706		35.156250
6707		35.156250
6708		42.968750
6709		39.062500
6710		46.875000
6711		42.968750
6712		50.781250
6713		48.828125
6714		54.687500
6715		54.687500
6716		60.546875
6717		58.593750
6718		64.453125
6719		62.500000
6720		70.312500
6721		66.406250
6722		74.218750
6723		72.265625
6724		78.125000
6725		74.218750
6726		82.031250
6727		80.078125
6728		85.937500
6729		83.984375
6730		89.843750
6731		87.890625
6732		91.796875
6733		91.796875
6734		95.703125
6735		95.703125
6736		99.609375
6737		97.656250
6738		101.562500
6739		101.562500
6740		105.468750
6741		103.515625
6742		109.375000
6743		105.468750
6744		111.328125
6745		109.375000
6746		113.281250
6747		111.328125
6748		115.234375
6749		113.281250
6750		117.187500
6751		115.234375
6752		119.140625
6753		117.187500
6754		121.093750
6755		119.140625
6756		123.046875
6757		121.093750
6758		125.000000
6759		121.093750
6760		126.953125
6761		121.093750
6762		126.953125
6763		123.046875
6764		126.953125
6765		125.000000
6766		126.953125
6767		125.000000
6768		126.953125
6769		125.000000
6770		128.906250
6771		125.000000
6772		126.953125
6773		125.000000
6774		126.953125
6775		125.000000
6776		128.906250
6777		125.000000
6778		126.953125
6779		123.046875
6780		126.953125
6781		123.046875
6782		125.000000
6783		121.093750
6784		125.000000
6785		119.140625
6786		123.046875
6787		119.140625
6788		121.093750
6789		117.187500
6790		119.140625
6791		113.281250
6792		119.140625
6793		113.281250
6794		117.187500
6795		111.328125
6796		115.234375
6797		109.375000
6798		111.328125
6799		105.468750
6800		109.375000
6801		103.515625
6802		107.421875
6803		99.609375
6804		103.515625
6805		95.703125
6806		101.562500
6807		93.750000
6808		97.656250
6809		89.843750
6810		93.750000
6811		85.937500
6812		91.796875
6813		82.031250
6814		87.890625
6815		76.171875
6816		83.984375
6817		74.218750
6818		80.078125
6819		70.312500
6820		76.171875
6821		64.453125
6822		70.312500
6823		60.546875
6824		66.406250
6825		56.640625
6826		62.500000
6827		50.781250
6828		56.640625
6829		46.875000
6830		52.734375
6831		41.015625
6832		46.875000
6833		35.156250
6834		42.968750
6835		31.250000
6836		37.109375
6837		25.390625
6838		31.250000
6839		19.531250
6840		27.343750
6841		15.625000
6842		21.484375
6843		9.765625
6844		15.625000
6845		3.906250
6846		11.718750
6847		-1.953125
6848		5.859375
6849		-5.859375
6850		0.000000
6851		-11.718750
6852		-5.859375
6853		-17.578125
6854		-9.765625
6855		-21.484375
6856		-15.625000
6857		-27.343750
6858		-21.484375
6859		-33.203125
6860		-25.390625
6861		-37.109375
6862		-31.250000
6863		-42.968750
6864		-37.109375
6865		-46.875000
6866		-41.015625
6867		-52.734375
6868		-46.875000
6869		-56.640625
6870		-50.781250
6871		-60.546875
6872		-56.640625
6873		-66.406250
6874		-60.546875
6875		-70.312500
6876		-64.453125
6877		-74.218750
6878		-68.359375
6879		-78.125000
6880		-72.265625
6881		-82.031250
6882		-76.171875
6883		-85.937500
6884		-80.078125
6885		-87.890625
6886		-83.984375
6887		-91.796875
6888		-87.890625
6889		-93.750000
6890		-89.843750
6891		-97.656250
6892		-93.750000
6893		-99.609375
6894		-95.703125
6895		-101.562500
6896		-97.656250
6897		-103.515625
6898		-99.609375
6899		-105.468750
6900		-101.562500
6901		-105.468750
6902		-103.515625
6903		-107.421875
6904		-105.468750
6905		-109.375000
6906		-105.468750
6907		-109.375000
6908		-107.421875
6909		-109.375000
6910		-107.421875
6911		-109.375000
6912		-107.421875
6913		-109.375000
6914		-107.421875
6915		-109.375000
6916		-107.421875
6917		-109.375000
6918		-105.468750
6919		-107.421875
6920		-105.468750
6921		-107.421875
6922		-103.515625
6923		-105.468750
6924		-103.515625
6925		-103.515625
6926		-99.609375
6927		-101.562500
6928		-97.656250
6929		-99.609375
6930		-95.703125
6931		-97.656250
6932		-93.750000
6933		-95.703125
6934		-91.796875
6935		-91.796875
6936		-87.890625
6937		-89.843750
6938		-83.984375
6939		-85.937500
6940		-82.031250
6941		-82.031250
6942		-78.125000
6943		-80.078125
6944		-74.218750
6945		-76.171875
6946		-70.312500
6947		-72.265625
6948		-66.406250
6949		-66.406250
6950		-62.500000
6951		-62.500000
6952		-56.640625
6953		-58.593750
6954		-52.734375
6955		-52.734375
6956		-46.875000
6957		-48.828125
6958		-42.968750
6959		-44.921875
6960		-37.109375
6961		-39.062500
6962		-33.203125
6963		-33.203125
6964		-27.343750
6965		-29.296875
6966		-21.484375
6967		-23.437500
6968		-17.578125
6969		-17.578125
6970		-11.718750
6971		-13.671875
6972		-5.859375
6973		-7.812500
6974		-1.953125
6975		-1.953125
6976		3.906250
6977		1.953125
6978		9.765625
6979		7.812500
6980		15.625000
6981		13.671875
6982		21.484375
6983		17.578125
6984		25.390625
6985		23.437500
6986		31.250000
6987		29.296875
6988		35.156250
6989		35.156250
6990		41.015625
6991		39.062500
6992		44.921875
6993		44.921875
6994		50.781250
6995		48.828125
6996		54.687500
6997		54.687500
6998		60.546875
6999		58.593750
7000		64.453125
7001		62.500000
7002		68.359375
7003		68.359375
7004		74.218750
7005		72.265625
7006		78.125000
7007		76.171875
7008		82.031250
7009		80.078125
7010		85.937500
7011		83.984375
7012		89.843750
7013		87.890625
7014		91.796875
7015		91.796875
7016		95.703125
7017		95.703125
7018		99.609375
7019		97.656250
7020		101.562500
7021		101.562500
7022		105.468750
7023		103.515625
7024		107.421875
7025		107.421875
7026		111.328125
7027		109.375000
7028		113.281250
7029		111.328125
7030		115.234375
7031		113.281250
7032		117.187500
7033		115.234375
7034		119.140625
7035		117.187500
7036		121.093750
7037		119.140625
7038		123.046875
7039		121.093750
7040		123.046875
7041		121.093750
7042		125.000000
7043		123.046875
7044		125.000000
7045		125.000000
7046		126.953125
7047		125.000000
7048		126.953125
7049		125.000000
7050		126.953125
7051		125.000000
7052		128.906250
7053		125.000000
7054		128.906250
7055		125.000000
7056		126.953125
7057		125.000000
7058		126.953125
7059		125.000000
7060		126.953125
7061		123.046875
7062		126.953125
7063		123.046875
7064		125.000000
7065		121.093750
7066		125.000000
7067		121.093750
7068		123.046875
7069		119.140625
7070		121.093750
7071		117.187500
7072		121.093750
7073		115.234375
7074		119.140625
7075		113.281250
7076		117.187500
7077		111.328125
7078		115.234375
7079		109.375000
7080		113.281250
7081		105.468750
7082		109.375000
7083		103.515625
7084		107.421875
7085		99.609375
7086		105.468750
7087		97.656250
7088		101.562500
7089		93.750000
7090		97.656250
7091		89.843750
7092		95.703125
7093		85.937500
7094		91.796875
7095		83.984375
7096		87.890625
7097		78.125000
7098		83.984375
7099		74.218750
7100		80.078125
7101		70.312500
7102		76.171875
7103		66.406250
7104		72.265625
7105		62.500000
7106		66.406250
7107		56.640625
7108		62.500000
7109		52.734375
7110		58.593750
7111		46.875000
7112		52.734375
7113		42.968750
7114		48.828125
7115		37.109375
7116		42.968750
7117		31.250000
7118		39.062500
7119		27.343750
7120		33.203125
7121		21.484375
7122		27.343750
7123		15.625000
7124		21.484375
7125		9.765625
7126		17.578125
7127		5.859375
7128		11.718750
7129		0.000000
7130		5.859375
7131		-5.859375
7132		0.000000
7133		-11.718750
7134		-3.906250
7135		-15.625000
7136		-9.765625
7137		-21.484375
7138		-15.625000
7139		-27.343750
7140		-19.531250
7141		-31.250000
7142		-25.390625
7143		-37.109375
7144		-31.250000
7145		-42.968750
7146		-35.156250
7147		-46.875000
7148		-41.015625
7149		-52.734375
7150		-44.921875
7151		-56.640625
7152		-50.781250
7153		-60.546875
7154		-54.687500
7155		-64.453125
7156		-58.593750
7157		-70.312500
7158		-64.453125
7159		-74.218750
7160		-68.359375
7161		-78.125000
7162		-72.265625
7163		-82.031250
7164		-76.171875
7165		-83.984375
7166		-80.078125
7167		-87.890625
7168		-83.984375
7169		-91.796875
7170		-87.890625
7171		-93.750000
7172		-89.843750
7173		-95.703125
7174		-91.796875
7175		-99.609375
7176		-95.703125
7177		-101.562500
7178		-97.656250
7179		-103.515625
7180		-99.609375
7181		-105.468750
7182		-101.562500
7183		-107.421875
7184		-103.515625
7185		-107.421875
7186		-105.468750
7187		-109.375000
7188		-105.468750
7189		-109.375000
7190		-107.421875
7191		-109.375000
7192		-107.421875
7193		-109.375000
7194		-107.421875
7195		-109.375000
7196		-107.421875
7197		-109.375000
7198		-107.421875
7199		-109.375000
7200		-107.421875
7201		-107.421875
7202		-105.468750
7203		-107.421875
7204		-105.468750
7205		-105.468750
7206		-103.515625
7207		-105.468750
7208		-101.562500
7209		-103.515625
7210		-99.609375
7211		-101.562500
7212		-97.656250
7213		-99.609375
7214		-93.750000
7215		-95.703125
7216		-91.796875
7217		-93.750000
7218		-89.843750
7219		-89.843750
7220		-85.937500
7221		-87.890625
7222		-82.031250
7223		-83.984375
7224		-78.125000
7225		-80.078125
7226		-74.218750
7227		-78.125000
7228		-72.265625
7229		-72.265625
7230		-66.406250
7231		-68.359375
7232		-62.500000
7233		-64.453125
7234		-58.593750
7235		-58.593750
7236		-52.734375
7237		-54.687500
7238		-48.828125
7239		-50.781250
7240		-42.968750
7241		-44.921875
7242		-39.062500
7243		-41.015625
7244		-33.203125
7245		-35.156250
7246		-27.343750
7247		-29.296875
7248		-23.437500
7249		-25.390625
7250		-17.578125
7251		-19.531250
7252		-13.671875
7253		-13.671875
7254		-7.812500
7255		-7.812500
7256		-1.953125
7257		-3.906250
7258		1.953125
7259		1.953125
7260		7.812500
7261		7.812500
7262		13.671875
7263		11.718750
7264		19.531250
7265		17.578125
7266		23.437500
7267		23.437500
7268		29.296875
7269		29.296875
7270		35.156250
7271		33.203125
7272		39.062500
7273		39.062500
7274		44.921875
7275		42.968750
7276		48.828125
7277		48.828125
7278		54.687500
7279		52.734375
7280		58.593750
7281		58.593750
7282		64.453125
7283		62.500000
7284		68.359375
7285		66.406250
7286		72.265625
7287		72.265625
7288		76.171875
7289		76.171875
7290		82.031250
7291		80.078125
7292		85.937500
7293		83.984375
7294		87.890625
7295		87.890625
7296		91.796875
7297		89.843750
7298		95.703125
7299		93.750000
7300		99.609375
7301		97.656250
7302		101.562500
7303		99.609375
7304		105.468750
7305		103.515625
7306		107.421875
7307		105.468750
7308		109.375000
7309		109.375000
7310		113.281250
7311		111.328125
7312		115.234375
7313		113.281250
7314		117.187500
7315		115.234375
7316		119.140625
7317		117.187500
7318		121.093750
7319		119.140625
7320		123.046875
7321		121.093750
7322		123.046875
7323		121.093750
7324		125.000000
7325		123.046875
7326		125.000000
7327		125.000000
7328		126.953125
7329		125.000000
7330		126.953125
7331		125.000000
7332		126.953125
7333		125.000000
7334		126.953125
7335		125.000000
7336		128.906250
7337		125.000000
7338		128.906250
7339		125.000000
7340		128.906250
7341		125.000000
7342		126.953125
7343		125.000000
7344		126.953125
7345		123.046875
7346		126.953125
7347		121.093750
7348		125.000000
7349		121.093750
7350		125.000000
7351		119.140625
7352		123.046875
7353		117.187500
7354		121.093750
7355		115.234375
7356		119.140625
7357		113.281250
7358		117.187500
7359		111.328125
7360		115.234375
7361		109.375000
7362		113.281250
7363		107.421875
7364		111.328125
7365		103.515625
7366		107.421875
7367		101.562500
7368		105.468750
7369		97.656250
7370		101.562500
7371		93.750000
7372		99.609375
7373		91.796875
7374		95.703125
7375		87.890625
7376		91.796875
7377		83.984375
7378		87.890625
7379		80.078125
7380		83.984375
7381		76.171875
7382		82.031250
7383		72.265625
7384		76.171875
7385		66.406250
7386		72.265625
7387		62.500000
7388		68.359375
7389		56.640625
7390		64.453125
7391		52.734375
7392		58.593750
7393		48.828125
7394		54.687500
7395		42.968750
7396		48.828125
7397		39.062500
7398		44.921875
7399		33.203125
7400		39.062500
7401		27.343750
7402		35.156250
7403		23.437500
7404		29.296875
7405		15.625000
7406		23.437500
7407		11.718750
7408		17.578125
7409		5.859375
7410		13.671875
7411		1.953125
7412		7.812500
7413		-3.906250
7414		1.953125
7415		-9.765625
7416		-3.906250
7417		-15.625000
7418		-7.812500
7419		-19.531250
7420		-13.671875
7421		-25.390625
7422		-17.578125
7423		-31.250000
7424		-23.437500
7425		-35.156250
7426		-29.296875
7427		-41.015625
7428		-35.156250
7429		-44.921875
7430		-39.062500
7431		-50.781250
7432		-44.921875
7433		-54.687500
7434		-48.828125
7435		-60.546875
7436		-54.687500
7437		-64.453125
7438		-58.593750
7439		-68.359375
7440		-62.500000
7441		-72.265625
7442		-66.406250
7443		-76.171875
7444		-70.312500
7445		-80.078125
7446		-74.218750
7447		-83.984375
7448		-78.125000
7449		-87.890625
7450		-82.031250
7451		-89.843750
7452		-85.937500
7453		-93.750000
7454		-89.843750
7455		-95.703125
7456		-91.796875
7457		-97.656250
7458		-93.750000
7459		-101.562500
7460		-97.656250
7461		-101.562500
7462		-99.609375
7463		-105.468750
7464		-101.562500
7465		-105.468750
7466		-101.562500
7467		-107.421875
7468		-103.515625
7469		-107.421875
7470		-105.468750
7471		-109.375000
7472		-105.468750
7473		-109.375000
7474		-107.421875
7475		-109.375000
7476		-107.421875
7477		-109.375000
7478		-107.421875
7479		-109.375000
7480		-107.421875
7481		-109.375000
7482		-105.468750
7483		-107.421875
7484		-105.468750
7485		-107.421875
7486		-103.515625
7487		-105.468750
7488		-101.562500
7489		-103.515625
7490		-99.609375
7491		-101.562500
7492		-99.609375
7493		-99.609375
7494		-97.656250
7495		-97.656250
7496		-93.750000
7497		-95.703125
7498		-91.796875
7499		-93.750000
7500		-87.890625
7501		-89.843750
7502		-85.937500
7503		-87.890625
7504		-82.031250
7505		-83.984375
7506		-78.125000
7507		-80.078125
7508		-74.218750
7509		-76.171875
7510		-70.312500
7511		-72.265625
7512		-66.406250
7513		-68.359375
7514		-62.500000
7515		-64.453125
7516		-58.593750
7517		-58.593750
7518		-54.687500
7519		-54.687500
7520		-48.828125
7521		-50.781250
7522		-44.921875
7523		-44.921875
7524		-39.062500
7525		-41.015625
7526		-33.203125
7527		-35.156250
7528		-29.296875
7529		-29.296875
7530		-23.437500
7531		-25.390625
7532		-17.578125
7533		-19.531250
7534		-13.671875
7535		-15.625000
7536		-7.812500
7537		-9.765625
7538		-1.953125
7539		-3.906250
7540		1.953125
7541		1.953125
7542		7.812500
7543		5.859375
7544		13.671875
7545		11.718750
7546		19.531250
7547		17.578125
7548		23.437500
7549		21.484375
7550		29.296875
7551		27.343750
7552		35.156250
7553		33.203125
7554		39.062500
7555		37.109375
7556		44.921875
7557		42.968750
7558		48.828125
7559		48.828125
7560		54.687500
7561		52.734375
7562		58.593750
7563		58.593750
7564		64.453125
7565		62.500000
7566		68.359375
7567		66.406250
7568		72.265625
7569		70.312500
7570		76.171875
7571		76.171875
7572		80.078125
7573		80.078125
7574		83.984375
7575		82.031250
7576		87.890625
7577		85.937500
7578		91.796875
7579		89.843750
7580		95.703125
7581		93.750000
7582		99.609375
7583		97.656250
7584		101.562500
7585		99.609375
7586		105.468750
7587		103.515625
7588		107.421875
7589		105.468750
7590		109.375000
7591		109.375000
7592		113.281250
7593		111.328125
7594		115.234375
7595		113.281250
7596		117.187500
7597		115.234375
7598		119.140625
7599		117.187500
7600		121.093750
7601		119.140625
7602		121.093750
7603		121.093750
7604		123.046875
7605		121.093750
7606		125.000000
7607		123.046875
7608		125.000000
7609		123.046875
7610		126.953125
7611		125.000000
7612		126.953125
7613		125.000000
7614		126.953125
7615		123.046875
7616		128.906250
7617		125.000000
7618		126.953125
7619		123.046875
7620		128.906250
7621		125.000000
7622		128.906250
7623		125.000000
7624		126.953125
7625		123.046875
7626		126.953125
7627		123.046875
7628		125.000000
7629		121.093750
7630		125.000000
7631		121.093750
7632		123.046875
7633		119.140625
7634		123.046875
7635		117.187500
7636		121.093750
7637		115.234375
7638		121.093750
7639		113.281250
7640		117.187500
7641		111.328125
7642		117.187500
7643		109.375000
7644		113.281250
7645		107.421875
7646		113.281250
7647		103.515625
7648		109.375000
7649		99.609375
7650		105.468750
7651		97.656250
7652		103.515625
7653		93.750000
7654		99.609375
7655		89.843750
7656		95.703125
7657		85.937500
7658		91.796875
7659		83.984375
7660		87.890625
7661		78.125000
7662		85.937500
7663		76.171875
7664		82.031250
7665		72.265625
7666		78.125000
7667		66.406250
7668		72.265625
7669		60.546875
7670		68.359375
7671		56.640625
7672		64.453125
7673		52.734375
7674		60.546875
7675		48.828125
7676		54.687500
7677		41.015625
7678		48.828125
7679		39.062500
7680		44.921875
7681		33.203125
7682		39.062500
7683		27.343750
7684		35.156250
7685		21.484375
7686		31.250000
7687		17.578125
7688		23.437500
7689		11.718750
7690		19.531250
7691		5.859375
7692		13.671875
7693		0.000000
7694		7.812500
7695		-3.906250
7696		3.906250
7697		-9.765625
7698		-1.953125
7699		-15.625000
7700		-7.812500
7701		-21.484375
7702		-13.671875
7703		-27.343750
7704		-17.578125
7705		-31.250000
7706		-23.437500
7707		-35.156250
7708		-29.296875
7709		-41.015625
7710		-33.203125
7711		-48.828125
7712		-39.062500
7713		-50.781250
7714		-44.921875
7715		-56.640625
7716		-48.828125
7717		-60.546875
7718		-54.687500
7719		-64.453125
7720		-56.640625
7721		-68.359375
7722		-60.546875
7723		-72.265625
7724		-66.406250
7725		-80.078125
7726		-70.312500
7727		-80.078125
7728		-72.265625
7729		-83.984375
7730		-76.171875
7731		-87.890625
7732		-82.031250
7733		-91.796875
7734		-85.937500
7735		-97.656250
7736		-87.890625
7737		-95.703125
7738		-87.890625
7739		-97.656250
7740		-93.750000
7741		-101.562500
7742		-97.656250
7743		-105.468750
7744		-95.703125
7745		-107.421875
7746		-99.609375
7747		-105.468750
7748		-103.515625
7749		-107.421875
7750		-103.515625
7751		-109.375000
7752		-103.515625
7753		-111.328125
7754		-103.515625
7755		-111.328125
7756		-105.468750
7757		-109.375000
7758		-107.421875
7759		-113.281250
7760		-103.515625
7761		-109.375000
7762		-105.468750
7763		-113.281250
7764		-103.515625
7765		-109.375000
7766		-105.468750
7767		-107.421875
7768		-103.515625
7769		-109.375000
7770		-99.609375
7771		-107.421875
7772		-99.609375
7773		-103.515625
7774		-99.609375
7775		-103.515625
7776		-93.750000
7777		-101.562500
7778		-91.796875
7779		-97.656250
7780		-89.843750
7781		-93.750000
7782		-89.843750
7783		-89.843750
7784		-85.937500
7785		-87.890625
7786		-82.031250
7787		-87.890625
7788		-78.125000
7789		-80.078125
7790		-76.171875
7791		-78.125000
7792		-72.265625
7793		-74.218750
7794		-64.453125
7795		-68.359375
7796		-60.546875
7797		-64.453125
7798		-58.593750
7799		-60.546875
7800		-54.687500
7801		-54.687500
7802		-48.828125
7803		-52.734375
7804		-42.968750
7805		-46.875000
7806		-39.062500
7807		-41.015625
7808		-35.156250
7809		-37.109375
7810		-27.343750
7811		-33.203125
7812		-23.437500
7813		-27.343750
7814		-19.531250
7815		-19.531250
7816		-13.671875
7817		-15.625000
7818		-7.812500
7819		-11.718750
7820		0.000000
7821		-7.812500
7822		3.906250
7823		0.000000
7824		7.812500
7825		5.859375
7826		13.671875
7827		9.765625
7828		19.531250
7829		17.578125
7830		23.437500
7831		21.484375
7832		29.296875
7833		27.343750
7834		33.203125
7835		33.203125
7836		39.062500
7837		37.109375
7838		44.921875
7839		41.015625
7840		48.828125
7841		46.875000
7842		52.734375
7843		50.781250
7844		62.500000
7845		56.640625
7846		62.500000
7847		58.593750
7848		68.359375
7849		66.406250
7850		72.265625
7851		70.312500
7852		78.125000
7853		74.218750
7854		83.984375
7855		80.078125
7856		85.937500
7857		82.031250
7858		87.890625
7859		85.937500
7860		95.703125
7861		87.890625
7862		97.656250
7863		91.796875
7864		99.609375
7865		97.656250
7866		101.562500
7867		99.609375
7868		105.468750
7869		103.515625
7870		109.375000
7871		103.515625
7872		111.328125
7873		107.421875
7874		113.281250
7875		111.328125
7876		115.234375
7877		111.328125
7878		119.140625
7879		115.234375
7880		121.093750
7881		117.187500
7882		121.093750
7883		119.140625
7884		123.046875
7885		121.093750
7886		125.000000
7887		119.140625
7888		128.906250
7889		121.093750
7890		126.953125
7891		125.000000
7892		126.953125
7893		123.046875
7894		128.906250
7895		125.000000
7896		128.906250
7897		125.000000
7898		130.859375
7899		125.000000
7900		128.906250
7901		126.953125
7902		128.906250
7903		125.000000
7904		128.906250
7905		123.046875
7906		130.859375
7907		125.000000
7908		128.906250
7909		123.046875
7910		126.953125
7911		123.046875
7912		126.953125
7913		121.093750
7914		125.000000
7915		121.093750
7916		123.046875
7917		119.140625
7918		123.046875
7919		117.187500
7920		121.093750
7921		115.234375
7922		119.140625
7923		113.281250
7924		119.140625
7925		109.375000
7926		113.281250
7927		107.421875
7928		113.281250
7929		105.468750
7930		109.375000
7931		103.515625
7932		107.421875
7933		99.609375
7934		103.515625
7935		95.703125
7936		101.562500
7937		93.750000
7938		97.656250
7939		89.843750
7940		93.750000
7941		85.937500
7942		89.843750
7943		82.031250
7944		87.890625
7945		78.125000
7946		82.031250
7947		74.218750
7948		78.125000
7949		68.359375
7950		74.218750
7951		64.453125
7952		70.312500
7953		58.593750
7954		66.406250
7955		54.687500
7956		60.546875
7957		50.781250
7958		56.640625
7959		44.921875
7960		52.734375
7961		39.062500
7962		46.875000
7963		35.156250
7964		41.015625
7965		29.296875
7966		37.109375
7967		23.437500
7968		31.250000
7969		17.578125
7970		25.390625
7971		11.718750
7972		21.484375
7973		7.812500
7974		15.625000
7975		1.953125
7976		11.718750
7977		-3.906250
7978		5.859375
7979		-9.765625
7980		0.000000
7981		-13.671875
7982		-5.859375
7983		-17.578125
7984		-11.718750
7985		-23.437500
7986		-17.578125
7987		-29.296875
7988		-21.484375
7989		-35.156250
7990		-27.343750
7991		-41.015625
7992		-31.250000
7993		-44.921875
7994		-37.109375
7995		-48.828125
7996		-41.015625
7997		-54.687500
7998		-46.875000
7999		-58.593750
8000		-52.734375
8001		-62.500000
8002		-56.640625
8003		-68.359375
8004		-60.546875
8005		-72.265625
8006		-64.453125
8007		-76.171875
8008		-68.359375
8009		-80.078125
8010		-72.265625
8011		-83.984375
8012		-76.171875
8013		-85.937500
8014		-80.078125
8015		-87.890625
8016		-82.031250
8017		-91.796875
8018		-87.890625
8019		-95.703125
8020		-89.843750
8021		-99.609375
8022		-91.796875
8023		-99.609375
8024		-93.750000
8025		-103.515625
8026		-95.703125
8027		-103.515625
8028		-99.609375
8029		-105.468750
8030		-101.562500
8031		-107.421875
8032		-101.562500
8033		-107.421875
8034		-103.515625
8035		-107.421875
8036		-105.468750
8037		-109.375000
8038		-105.468750
8039		-109.375000
8040		-105.468750
8041		-109.375000
8042		-105.468750
8043		-111.328125
8044		-105.468750
8045		-109.375000
8046		-105.468750
8047		-107.421875
8048		-103.515625
8049		-107.421875
8050		-103.515625
8051		-105.468750
8052		-103.515625
8053		-105.468750
8054		-99.609375
8055		-103.515625
8056		-97.656250
8057		-101.562500
8058		-95.703125
8059		-99.609375
8060		-93.750000
8061		-95.703125
8062		-91.796875
8063		-93.750000
8064		-89.843750
8065		-91.796875
8066		-85.937500
8067		-87.890625
8068		-83.984375
8069		-83.984375
8070		-78.125000
8071		-80.078125
8072		-74.218750
8073		-78.125000
8074		-72.265625
8075		-74.218750
8076		-66.406250
8077		-68.359375
8078		-62.500000
8079		-66.406250
8080		-58.593750
8081		-60.546875
8082		-54.687500
8083		-56.640625
8084		-48.828125
8085		-50.781250
8086		-44.921875
8087		-46.875000
8088		-39.062500
8089		-41.015625
8090		-35.156250
8091		-37.109375
8092		-29.296875
8093		-33.203125
8094		-25.390625
8095		-25.390625
8096		-19.531250
8097		-21.484375
8098		-13.671875
8099		-17.578125
8100		-9.765625
8101		-9.765625
8102		-3.906250
8103		-5.859375
8104		1.953125
8105		0.000000
8106		5.859375
8107		5.859375
8108		11.718750
8109		11.718750
8110		17.578125
8111		15.625000
8112		23.437500
8113		21.484375
8114		27.343750
8115		25.390625
8116		33.203125
8117		31.250000
8118		37.109375
8119		37.109375
8120		42.968750
8121		41.015625
8122		48.828125
8123		46.875000
8124		52.734375
8125		50.781250
8126		58.593750
8127		54.687500
8128		62.500000
8129		60.546875
8130		66.406250
8131		64.453125
8132		72.265625
8133		68.359375
8134		76.171875
8135		74.218750
8136		80.078125
8137		78.125000
8138		83.984375
8139		82.031250
8140		87.890625
8141		85.937500
8142		91.796875
8143		89.843750
8144		95.703125
8145		93.750000
8146		97.656250
8147		95.703125
8148		101.562500
8149		99.609375
8150		103.515625
8151		103.515625
8152		107.421875
8153		105.468750
8154		111.328125
8155		107.421875
8156		113.281250
8157		111.328125
8158		115.234375
8159		113.281250
8160		117.187500
8161		115.234375
8162		119.140625
8163		117.187500
8164		121.093750
8165		119.140625
8166		123.046875
8167		119.140625
8168		123.046875
8169		121.093750
8170		125.000000
8171		121.093750
8172		126.953125
8173		123.046875
8174		126.953125
8175		123.046875
8176		126.953125
8177		123.046875
8178		128.906250
8179		125.000000
8180		128.906250
8181		125.000000
8182		128.906250
8183		125.000000
8184		128.906250
8185		125.000000
8186		126.953125
8187		125.000000
8188		128.906250
8189		125.000000
8190		128.906250
8191		123.046875
8192		126.953125
8193		123.046875
8194		125.000000
8195		121.093750
8196		125.000000
8197		121.093750
8198		123.046875
8199		117.187500
8200		123.046875
8201		117.187500
8202		121.093750
8203		115.234375
8204		119.140625
8205		113.281250
8206		117.187500
8207		109.375000
8208		115.234375
8209		107.421875
8210		111.328125
8211		105.468750
8212		111.328125
8213		101.562500
8214		107.421875
8215		99.609375
8216		105.468750
8217		95.703125
8218		101.562500
8219		91.796875
8220		97.656250
8221		87.890625
8222		93.750000
8223		83.984375
8224		91.796875
8225		82.031250
8226		85.937500
8227		78.125000
8228		83.984375
8229		72.265625
8230		78.125000
8231		68.359375
8232		74.218750
8233		64.453125
8234		70.312500
8235		60.546875
8236		66.406250
8237		54.687500
8238		60.546875
8239		50.781250
8240		56.640625
8241		44.921875
8242		52.734375
8243		41.015625
8244		46.875000
8245		35.156250
8246		41.015625
8247		29.296875
8248		37.109375
8249		23.437500
8250		31.250000
8251		19.531250
8252		25.390625
8253		13.671875
8254		21.484375
8255		9.765625
8256		15.625000
8257		3.906250
8258		9.765625
8259		-1.953125
8260		3.906250
8261		-7.812500
8262		0.000000
8263		-13.671875
8264		-5.859375
8265		-17.578125
8266		-11.718750
8267		-23.437500
8268		-15.625000
8269		-29.296875
8270		-21.484375
8271		-33.203125
8272		-27.343750
8273		-39.062500
8274		-33.203125
8275		-44.921875
8276		-37.109375
8277		-48.828125
8278		-42.968750
8279		-52.734375
8280		-46.875000
8281		-58.593750
8282		-52.734375
8283		-62.500000
8284		-56.640625
8285		-66.406250
8286		-60.546875
8287		-70.312500
8288		-64.453125
8289		-76.171875
8290		-70.312500
8291		-78.125000
8292		-72.265625
8293		-82.031250
8294		-76.171875
8295		-85.937500
8296		-80.078125
8297		-89.843750
8298		-83.984375
8299		-91.796875
8300		-87.890625
8301		-95.703125
8302		-89.843750
8303		-97.656250
8304		-93.750000
8305		-99.609375
8306		-95.703125
8307		-101.562500
8308		-97.656250
8309		-103.515625
8310		-99.609375
8311		-105.468750
8312		-101.562500
8313		-107.421875
8314		-103.515625
8315		-107.421875
8316		-105.468750
8317		-109.375000
8318		-105.468750
8319		-109.375000
8320		-105.468750
8321		-109.375000
8322		-107.421875
8323		-109.375000
8324		-105.468750
8325		-109.375000
8326		-105.468750
8327		-109.375000
8328		-105.468750
8329		-107.421875
8330		-105.468750
8331		-107.421875
8332		-103.515625
8333		-105.468750
8334		-101.562500
8335		-105.468750
8336		-101.562500
8337		-103.515625
8338		-99.609375
8339		-101.562500
8340		-97.656250
8341		-99.609375
8342		-95.703125
8343		-97.656250
8344		-91.796875
8345		-93.750000
8346		-89.843750
8347		-91.796875
8348		-85.937500
8349		-87.890625
8350		-83.984375
8351		-85.937500
8352		-80.078125
8353		-82.031250
8354		-76.171875
8355		-78.125000
8356		-72.265625
8357		-74.218750
8358		-68.359375
8359		-70.312500
8360		-64.453125
8361		-66.406250
8362		-60.546875
8363		-60.546875
8364		-54.687500
8365		-56.640625
8366		-50.781250
8367		-52.734375
8368		-44.921875
8369		-46.875000
8370		-41.015625
8371		-42.968750
8372		-37.109375
8373		-37.109375
8374		-31.250000
8375		-31.250000
8376		-25.390625
8377		-27.343750
8378		-19.531250
8379		-21.484375
8380		-13.671875
8381		-17.578125
8382		-9.765625
8383		-11.718750
8384		-3.906250
8385		-5.859375
8386		1.953125
8387		0.000000
8388		5.859375
8389		5.859375
8390		11.718750
8391		9.765625
8392		17.578125
8393		15.625000
8394		21.484375
8395		21.484375
8396		29.296875
8397		25.390625
8398		33.203125
8399		31.250000
8400		39.062500
8401		37.109375
8402		42.968750
8403		41.015625
8404		46.875000
8405		46.875000
8406		52.734375
8407		50.781250
8408		56.640625
8409		54.687500
8410		62.500000
8411		60.546875
8412		66.406250
8413		64.453125
8414		70.312500
8415		70.312500
8416		76.171875
8417		74.218750
8418		80.078125
8419		78.125000
8420		83.984375
8421		82.031250
8422		87.890625
8423		85.937500
8424		89.843750
8425		89.843750
8426		95.703125
8427		93.750000
8428		97.656250
8429		95.703125
8430		101.562500
8431		99.609375
8432		103.515625
8433		101.562500
8434		107.421875
8435		105.468750
8436		109.375000
8437		107.421875
8438		111.328125
8439		111.328125
8440		115.234375
8441		113.281250
8442		117.187500
8443		115.234375
8444		119.140625
8445		117.187500
8446		119.140625
8447		119.140625
8448		123.046875
8449		119.140625
8450		123.046875
8451		121.093750
8452		125.000000
8453		123.046875
8454		125.000000
8455		123.046875
8456		126.953125
8457		123.046875
8458		128.906250
8459		125.000000
8460		128.906250
8461		125.000000
8462		128.906250
8463		126.953125
8464		128.906250
8465		125.000000
8466		128.906250
8467		125.000000
8468		128.906250
8469		125.000000
8470		128.906250
8471		125.000000
8472		126.953125
8473		123.046875
8474		126.953125
8475		123.046875
8476		126.953125
8477		121.093750
8478		125.000000
8479		121.093750
8480		123.046875
8481		119.140625
8482		123.046875
8483		117.187500
8484		121.093750
8485		115.234375
8486		119.140625
8487		113.281250
8488		117.187500
8489		111.328125
8490		115.234375
8491		109.375000
8492		113.281250
8493		105.468750
8494		109.375000
8495		103.515625
8496		107.421875
8497		99.609375
8498		103.515625
8499		95.703125
8500		101.562500
8501		93.750000
8502		97.656250
8503		89.843750
8504		95.703125
8505		85.937500
8506		91.796875
8507		82.031250
8508		87.890625
8509		78.125000
8510		83.984375
8511		74.218750
8512		80.078125
8513		70.312500
8514		76.171875
8515		64.453125
8516		70.312500
8517		60.546875
8518		66.406250
8519		56.640625
8520		62.500000
8521		50.781250
8522		56.640625
8523		44.921875
8524		52.734375
8525		41.015625
8526		48.828125
8527		35.156250
8528		42.968750
8529		31.250000
8530		37.109375
8531		25.390625
8532		31.250000
8533		19.531250
8534		27.343750
8535		13.671875
8536		21.484375
8537		9.765625
8538		15.625000
8539		3.906250
8540		11.718750
8541		-1.953125
8542		5.859375
8543		-5.859375
8544		0.000000
8545		-11.718750
8546		-5.859375
8547		-17.578125
8548		-11.718750
8549		-23.437500
8550		-15.625000
8551		-27.343750
8552		-21.484375
8553		-33.203125
8554		-25.390625
8555		-37.109375
8556		-31.250000
8557		-42.968750
8558		-37.109375
8559		-48.828125
8560		-41.015625
8561		-52.734375
8562		-46.875000
8563		-56.640625
8564		-50.781250
8565		-62.500000
8566		-56.640625
8567		-66.406250
8568		-60.546875
8569		-70.312500
8570		-64.453125
8571		-74.218750
8572		-68.359375
8573		-78.125000
8574		-72.265625
8575		-82.031250
8576		-76.171875
8577		-85.937500
8578		-80.078125
8579		-87.890625
8580		-83.984375
8581		-91.796875
8582		-87.890625
8583		-93.750000
8584		-89.843750
8585		-97.656250
8586		-91.796875
8587		-99.609375
8588		-93.750000
8589		-101.562500
8590		-97.656250
8591		-103.515625
8592		-99.609375
8593		-105.468750
8594		-101.562500
8595		-107.421875
8596		-103.515625
8597		-107.421875
8598		-103.515625
8599		-109.375000
8600		-105.468750
8601		-109.375000
8602		-105.468750
8603		-111.328125
8604		-105.468750
8605		-109.375000
8606		-107.421875
8607		-109.375000
8608		-105.468750
8609		-109.375000
8610		-105.468750
8611		-107.421875
8612		-105.468750
8613		-107.421875
8614		-105.468750
8615		-107.421875
8616		-103.515625
8617		-105.468750
8618		-101.562500
8619		-103.515625
8620		-99.609375
8621		-101.562500
8622		-97.656250
8623		-99.609375
8624		-95.703125
8625		-97.656250
8626		-91.796875
8627		-95.703125
8628		-89.843750
8629		-91.796875
8630		-85.937500
8631		-87.890625
8632		-83.984375
8633		-85.937500
8634		-80.078125
8635		-82.031250
8636		-76.171875
8637		-78.125000
8638		-72.265625
8639		-74.218750
8640		-68.359375
8641		-70.312500
8642		-64.453125
8643		-66.406250
8644		-60.546875
8645		-62.500000
8646		-56.640625
8647		-56.640625
8648		-50.781250
8649		-52.734375
8650		-46.875000
8651		-48.828125
8652		-41.015625
8653		-42.968750
8654		-37.109375
8655		-37.109375
8656		-31.250000
8657		-33.203125
8658		-25.390625
8659		-29.296875
8660		-21.484375
8661		-23.437500
8662		-15.625000
8663		-17.578125
8664		-9.765625
8665		-11.718750
8666		-5.859375
8667		-5.859375
8668		0.000000
8669		-1.953125
8670		5.859375
8671		1.953125
8672		11.718750
8673		9.765625
8674		15.625000
8675		15.625000
8676		21.484375
8677		19.531250
8678		27.343750
8679		25.390625
8680		31.250000
8681		31.250000
8682		37.109375
8683		35.156250
8684		41.015625
8685		39.062500
8686		46.875000
8687		44.921875
8688		52.734375
8689		50.781250
8690		56.640625
8691		54.687500
8692		62.500000
8693		60.546875
8694		66.406250
8695		64.453125
8696		70.312500
8697		68.359375
8698		74.218750
8699		72.265625
8700		78.125000
8701		76.171875
8702		83.984375
8703		82.031250
8704		87.890625
8705		83.984375
8706		89.843750
8707		87.890625
8708		93.750000
8709		91.796875
8710		97.656250
8711		95.703125
8712		99.609375
8713		97.656250
8714		103.515625
8715		101.562500
8716		105.468750
8717		103.515625
8718		109.375000
8719		107.421875
8720		111.328125
8721		109.375000
8722		113.281250
8723		113.281250
8724		115.234375
8725		113.281250
8726		119.140625
8727		115.234375
8728		119.140625
8729		117.187500
8730		123.046875
8731		119.140625
8732		123.046875
8733		121.093750
8734		125.000000
8735		123.046875
8736		125.000000
8737		123.046875
8738		126.953125
8739		125.000000
8740		126.953125
8741		125.000000
8742		126.953125
8743		125.000000
8744		128.906250
8745		125.000000
8746		128.906250
8747		125.000000
8748		128.906250
8749		125.000000
8750		128.906250
8751		125.000000
8752		126.953125
8753		125.000000
8754		126.953125
8755		123.046875
8756		126.953125
8757		123.046875
8758		125.000000
8759		121.093750
8760		125.000000
8761		119.140625
8762		125.000000
8763		119.140625
8764		121.093750
8765		117.187500
8766		121.093750
8767		115.234375
8768		119.140625
8769		113.281250
8770		117.187500
8771		109.375000
8772		115.234375
8773		107.421875
8774		113.281250
8775		103.515625
8776		109.375000
8777		101.562500
8778		107.421875
8779		99.609375
8780		105.468750
8781		97.656250
8782		101.562500
8783		93.750000
8784		97.656250
8785		89.843750
8786		95.703125
8787		85.937500
8788		91.796875
8789		82.031250
8790		87.890625
8791		78.125000
8792		83.984375
8793		74.218750
8794		80.078125
8795		70.312500
8796		76.171875
8797		64.453125
8798		70.312500
8799		60.546875
8800		66.406250
8801		54.687500
8802		62.500000
8803		50.781250
8804		56.640625
8805		46.875000
8806		52.734375
8807		41.015625
8808		46.875000
8809		37.109375
8810		42.968750
8811		31.250000
8812		37.109375
8813		25.390625
8814		33.203125
8815		19.531250
8816		27.343750
8817		15.625000
8818		21.484375
8819		9.765625
8820		15.625000
8821		3.906250
8822		11.718750
8823		0.000000
8824		5.859375
8825		-5.859375
8826		0.000000
8827		-11.718750
8828		-5.859375
8829		-17.578125
8830		-9.765625
8831		-21.484375
8832		-15.625000
8833		-27.343750
8834		-21.484375
8835		-33.203125
8836		-25.390625
8837		-37.109375
8838		-31.250000
8839		-42.968750
8840		-35.156250
8841		-46.875000
8842		-41.015625
8843		-52.734375
8844		-46.875000
8845		-58.593750
8846		-50.781250
8847		-60.546875
8848		-54.687500
8849		-66.406250
8850		-60.546875
8851		-70.312500
8852		-64.453125
8853		-74.218750
8854		-68.359375
8855		-78.125000
8856		-72.265625
8857		-82.031250
8858		-76.171875
8859		-85.937500
8860		-80.078125
8861		-87.890625
8862		-83.984375
8863		-91.796875
8864		-85.937500
8865		-93.750000
8866		-89.843750
8867		-95.703125
8868		-91.796875
8869		-99.609375
8870		-93.750000
8871		-101.562500
8872		-97.656250
8873		-103.515625
8874		-99.609375
8875		-105.468750
8876		-101.562500
8877		-105.468750
8878		-101.562500
8879		-107.421875
8880		-103.515625
8881		-107.421875
8882		-105.468750
8883		-109.375000
8884		-105.468750
8885		-109.375000
8886		-105.468750
8887		-109.375000
8888		-107.421875
8889		-109.375000
8890		-105.468750
8891		-109.375000
8892		-107.421875
8893		-109.375000
8894		-105.468750
8895		-107.421875
8896		-103.515625
8897		-105.468750
8898		-103.515625
8899		-105.468750
8900		-101.562500
8901		-103.515625
8902		-99.609375
8903		-101.562500
8904		-97.656250
8905		-99.609375
8906		-95.703125
8907		-97.656250
8908		-93.750000
8909		-93.750000
8910		-89.843750
8911		-91.796875
8912		-87.890625
8913		-89.843750
8914		-83.984375
8915		-85.937500
8916		-80.078125
8917		-82.031250
8918		-76.171875
8919		-78.125000
8920		-74.218750
8921		-76.171875
8922		-70.312500
8923		-70.312500
8924		-64.453125
8925		-66.406250
8926		-60.546875
8927		-62.500000
8928		-56.640625
8929		-58.593750
8930		-50.781250
8931		-54.687500
8932		-46.875000
8933		-48.828125
8934		-42.968750
8935		-42.968750
8936		-37.109375
8937		-39.062500
8938		-31.250000
8939		-33.203125
8940		-27.343750
8941		-27.343750
8942		-21.484375
8943		-23.437500
8944		-15.625000
8945		-17.578125
8946		-11.718750
8947		-13.671875
8948		-5.859375
8949		-7.812500
8950		0.000000
8951		-1.953125
8952		3.906250
8953		3.906250
8954		9.765625
8955		9.765625
8956		17.578125
8957		13.671875
8958		21.484375
8959		19.531250
8960		25.390625
8961		25.390625
8962		31.250000
8963		29.296875
8964		37.109375
8965		35.156250
8966		41.015625
8967		39.062500
8968		46.875000
8969		44.921875
8970		52.734375
8971		48.828125
8972		56.640625
8973		54.687500
8974		60.546875
8975		60.546875
8976		64.453125
8977		64.453125
8978		70.312500
8979		68.359375
8980		74.218750
8981		72.265625
8982		78.125000
8983		76.171875
8984		83.984375
8985		80.078125
8986		85.937500
8987		83.984375
8988		89.843750
8989		87.890625
8990		93.750000
8991		91.796875
8992		97.656250
8993		95.703125
8994		99.609375
8995		97.656250
8996		103.515625
8997		101.562500
8998		105.468750
8999		103.515625
9000		109.375000
9001		107.421875
9002		111.328125
9003		109.375000
9004		113.281250
9005		111.328125
9006		117.187500
9007		113.281250
9008		117.187500
9009		117.187500
9010		119.140625
9011		119.140625
9012		123.046875
9013		119.140625
9014		123.046875
9015		121.093750
9016		125.000000
9017		123.046875
9018		125.000000
9019		123.046875
9020		126.953125
9021		125.000000
9022		126.953125
9023		125.000000
9024		128.906250
9025		125.000000
9026		128.906250
9027		125.000000
9028		128.906250
9029		125.000000
9030		128.906250
9031		125.000000
9032		128.906250
9033		125.000000
9034		128.906250
9035		125.000000
9036		126.953125
9037		123.046875
9038		126.953125
9039		123.046875
9040		126.953125
9041		123.046875
9042		125.000000
9043		121.093750
9044		123.046875
9045		119.140625
9046		123.046875
9047		117.187500
9048		121.093750
9049		115.234375
9050		119.140625
9051		113.281250
9052		119.140625
9053		111.328125
9054		115.234375
9055		109.375000
9056		113.281250
9057		105.468750
9058		111.328125
9059		103.515625
9060		107.421875
9061		99.609375
9062		105.468750
9063		97.656250
9064		103.515625
9065		93.750000
9066		99.609375
9067		89.843750
9068		95.703125
9069		85.937500
9070		91.796875
9071		82.031250
9072		87.890625
9073		78.125000
9074		85.937500
9075		74.218750
9076		80.078125
9077		70.312500
9078		76.171875
9079		66.406250
9080		72.265625
9081		60.546875
9082		66.406250
9083		56.640625
9084		64.453125
9085		52.734375
9086		58.593750
9087		46.875000
9088		52.734375
9089		41.015625
9090		48.828125
9091		37.109375
9092		42.968750
9093		31.250000
9094		39.062500
9095		25.390625
9096		33.203125
9097		21.484375
9098		27.343750
9099		15.625000
9100		23.437500
9101		9.765625
9102		17.578125
9103		5.859375
9104		11.718750
9105		0.000000
9106		5.859375
9107		-5.859375
9108		1.953125
9109		-11.718750
9110		-3.906250
9111		-15.625000
9112		-9.765625
9113		-21.484375
9114		-13.671875
9115		-27.343750
9116		-19.531250
9117		-33.203125
9118		-25.390625
9119		-37.109375
9120		-31.250000
9121		-42.968750
9122		-35.156250
9123		-46.875000
9124		-41.015625
9125		-52.734375
9126		-44.921875
9127		-56.640625
9128		-50.781250
9129		-62.500000
9130		-54.687500
9131		-66.406250
9132		-58.593750
9133		-70.312500
9134		-64.453125
9135		-74.218750
9136		-68.359375
9137		-78.125000
9138		-72.265625
9139		-82.031250
9140		-76.171875
9141		-85.937500
9142		-80.078125
9143		-87.890625
9144		-83.984375
9145		-91.796875
9146		-87.890625
9147		-93.750000
9148		-87.890625
9149		-97.656250
9150		-91.796875
9151		-99.609375
9152		-95.703125
9153		-101.562500
9154		-97.656250
9155		-103.515625
9156		-99.609375
9157		-105.468750
9158		-101.562500
9159		-107.421875
9160		-103.515625
9161		-107.421875
9162		-105.468750
9163		-111.328125
9164		-103.515625
9165		-111.328125
9166		-103.515625
9167		-111.328125
9168		-105.468750
9169		-111.328125
9170		-105.468750
9171		-111.328125
9172		-107.421875
9173		-111.328125
9174		-105.468750
9175		-109.375000
9176		-105.468750
9177		-107.421875
9178		-105.468750
9179		-107.421875
9180		-103.515625
9181		-107.421875
9182		-99.609375
9183		-105.468750
9184		-99.609375
9185		-105.468750
9186		-97.656250
9187		-101.562500
9188		-95.703125
9189		-97.656250
9190		-93.750000
9191		-95.703125
9192		-91.796875
9193		-93.750000
9194		-87.890625
9195		-89.843750
9196		-85.937500
9197		-89.843750
9198		-80.078125
9199		-83.984375
9200		-76.171875
9201		-82.031250
9202		-72.265625
9203		-78.125000
9204		-68.359375
9205		-74.218750
9206		-64.453125
9207		-68.359375
9208		-60.546875
9209		-66.406250
9210		-58.593750
9211		-58.593750
9212		-52.734375
9213		-54.687500
9214		-46.875000
9215		-50.781250
9216		-41.015625
9217		-46.875000
9218		-37.109375
9219		-42.968750
9220		-31.250000
9221		-35.156250
9222		-27.343750
9223		-31.250000
9224		-21.484375
9225		-25.390625
9226		-17.578125
9227		-19.531250
9228		-11.718750
9229		-13.671875
9230		-5.859375
9231		-9.765625
9232		0.000000
9233		-3.906250
9234		3.906250
9235		0.000000
9236		11.718750
9237		5.859375
9238		15.625000
9239		9.765625
9240		21.484375
9241		17.578125
9242		25.390625
9243		23.437500
9244		29.296875
9245		29.296875
9246		35.156250
9247		33.203125
9248		42.968750
9249		37.109375
9250		46.875000
9251		41.015625
9252		52.734375
9253		46.875000
9254		56.640625
9255		50.781250
9256		60.546875
9257		56.640625
9258		64.453125
9259		60.546875
9260		68.359375
9261		66.406250
9262		72.265625
9263		72.265625
9264		78.125000
9265		74.218750
9266		82.031250
9267		78.125000
9268		85.937500
9269		82.031250
9270		89.843750
9271		85.937500
9272		93.750000
9273		87.890625
9274		97.656250
9275		91.796875
9276		99.609375
9277		97.656250
9278		101.562500
9279		101.562500
9280		105.468750
9281		101.562500
9282		109.375000
9283		103.515625
9284		111.328125
9285		107.421875
9286		115.234375
9287		109.375000
9288		117.187500
9289		111.328125
9290		119.140625
9291		113.281250
9292		121.093750
9293		115.234375
9294		121.093750
9295		119.140625
9296		123.046875
9297		119.140625
9298		125.000000
9299		119.140625
9300		126.953125
9301		119.140625
9302		128.906250
9303		121.093750
9304		128.906250
9305		121.093750
9306		128.906250
9307		123.046875
9308		130.859375
9309		123.046875
9310		130.859375
9311		125.000000
9312		126.953125
9313		125.000000
9314		128.906250
9315		123.046875
9316		128.906250
9317		121.093750
9318		128.906250
9319		121.093750
9320		128.906250
9321		119.140625
9322		126.953125
9323		119.140625
9324		126.953125
9325		119.140625
9326		125.000000
9327		119.140625
9328		121.093750
9329		117.187500
9330		121.093750
9331		113.281250
9332		119.140625
9333		111.328125
9334		119.140625
9335		107.421875
9336		117.187500
9337		105.468750
9338		113.281250
9339		103.515625
9340		113.281250
9341		101.562500
9342		109.375000
9343		99.609375
9344		107.421875
9345		97.656250
9346		101.562500
9347		91.796875
9348		97.656250
9349		87.890625
9350		97.656250
9351		83.984375
9352		93.750000
9353		80.078125
9354		89.843750
9355		76.171875
9356		85.937500
9357		72.265625
9358		82.031250
9359		70.312500
9360		78.125000
9361		66.406250
9362		72.265625
9363		60.546875
9364		66.406250
9365		54.687500
9366		64.453125
9367		48.828125
9368		60.546875
9369		44.921875
9370		54.687500
9371		39.062500
9372		48.828125
9373		35.156250
9374		44.921875
9375		29.296875
9376		39.062500
9377		25.390625
9378		35.156250
9379		21.484375
9380		27.343750
9381		13.671875
9382		23.437500
9383		9.765625
9384		19.531250
9385		3.906250
9386		13.671875
9387		-1.953125
9388		7.812500
9389		-7.812500
9390		3.906250
9391		-13.671875
9392		-1.953125
9393		-15.625000
9394		-7.812500
9395		-21.484375
9396		-13.671875
9397		-27.343750
9398		-19.531250
9399		-33.203125
9400		-23.437500
9401		-39.062500
9402		-29.296875
9403		-44.921875
9404		-33.203125
9405		-48.828125
9406		-39.062500
9407		-54.687500
9408		-44.921875
9409		-58.593750
9410		-48.828125
9411		-60.546875
9412		-54.687500
9413		-64.453125
9414		-58.593750
9415		-72.265625
9416		-64.453125
9417		-76.171875
9418		-66.406250
9419		-80.078125
9420		-70.312500
9421		-83.984375
9422		-74.218750
9423		-87.890625
9424		-78.125000
9425		-89.843750
9426		-82.031250
9427		-91.796875
9428		-83.984375
9429		-93.750000
9430		-89.843750
9431		-99.609375
9432		-91.796875
9433		-101.562500
9434		-93.750000
9435		-103.515625
9436		-95.703125
9437		-105.468750
9438		-97.656250
9439		-107.421875
9440		-99.609375
9441		-107.421875
9442		-101.562500
9443		-109.375000
9444		-103.515625
9445		-107.421875
9446		-105.468750
9447		-109.375000
9448		-107.421875
9449		-111.328125
9450		-105.468750
9451		-111.328125
9452		-105.468750
9453		-111.328125
9454		-105.468750
9455		-111.328125
9456		-105.468750
9457		-111.328125
9458		-103.515625
9459		-109.375000
9460		-103.515625
9461		-109.375000
9462		-103.515625
9463		-105.468750
9464		-103.515625
9465		-105.468750
9466		-99.609375
9467		-105.468750
9468		-97.656250
9469		-101.562500
9470		-95.703125
9471		-101.562500
9472		-91.796875
9473		-97.656250
9474		-89.843750
9475		-95.703125
9476		-87.890625
9477		-91.796875
9478		-85.937500
9479		-85.937500
9480		-82.031250
9481		-83.984375
9482		-78.125000
9483		-82.031250
9484		-74.218750
9485		-78.125000
9486		-70.312500
9487		-74.218750
9488		-64.453125
9489		-70.312500
9490		-60.546875
9491		-66.406250
9492		-54.687500
9493		-60.546875
9494		-52.734375
9495		-54.687500
9496		-48.828125
9497		-50.781250
9498		-44.921875
9499		-44.921875
9500		-37.109375
9501		-42.968750
9502		-33.203125
9503		-37.109375
9504		-27.343750
9505		-31.250000
9506		-21.484375
9507		-27.343750
9508		-15.625000
9509		-21.484375
9510		-11.718750
9511		-15.625000
9512		-7.812500
9513		-9.765625
9514		-1.953125
9515		-3.906250
9516		5.859375
9517		0.000000
9518		9.765625
9519		5.859375
9520		15.625000
9521		9.765625
9522		19.531250
9523		15.625000
9524		25.390625
9525		21.484375
9526		31.250000
9527		25.390625
9528		35.156250
9529		33.203125
9530		39.062500
9531		39.062500
9532		44.921875
9533		42.968750
9534		50.781250
9535		46.875000
9536		56.640625
9537		50.781250
9538		62.500000
9539		54.687500
9540		64.453125
9541		60.546875
9542		70.312500
9543		64.453125
9544		74.218750
9545		68.359375
9546		76.171875
9547		76.171875
9548		80.078125
9549		80.078125
9550		85.937500
9551		80.078125
9552		89.843750
9553		83.984375
9554		93.750000
9555		87.890625
9556		97.656250
9557		91.796875
9558		101.562500
9559		95.703125
9560		103.515625
9561		97.656250
9562		105.468750
9563		103.515625
9564		107.421875
9565		105.468750
9566		109.375000
9567		107.421875
9568		115.234375
9569		109.375000
9570		117.187500
9571		111.328125
9572		119.140625
9573		113.281250
9574		121.093750
9575		115.234375
9576		123.046875
9577		117.187500
9578		123.046875
9579		121.093750
9580		123.046875
9581		121.093750
9582		125.000000
9583		121.093750
9584		126.953125
9585		121.093750
9586		128.906250
9587		123.046875
9588		128.906250
9589		123.046875
9590		128.906250
9591		123.046875
9592		128.906250
9593		123.046875
9594		128.906250
9595		123.046875
9596		128.906250
9597		125.000000
9598		126.953125
9599		123.046875
9600		128.906250
9601		121.093750
9602		128.906250
9603		121.093750
9604		126.953125
9605		119.140625
9606		126.953125
9607		117.187500
9608		126.953125
9609		117.187500
9610		125.000000
9611		115.234375
9612		123.046875
9613		115.234375
9614		119.140625
9615		113.281250
9616		117.187500
9617		109.375000
9618		117.187500
9619		105.468750
9620		115.234375
9621		103.515625
9622		111.328125
9623		101.562500
9624		109.375000
9625		99.609375
9626		107.421875
9627		95.703125
9628		103.515625
9629		93.750000
9630		99.609375
9631		91.796875
9632		95.703125
9633		85.937500
9634		91.796875
9635		80.078125
9636		91.796875
9637		76.171875
9638		85.937500
9639		72.265625
9640		82.031250
9641		68.359375
9642		78.125000
9643		64.453125
9644		74.218750
9645		62.500000
9646		70.312500
9647		56.640625
9648		62.500000
9649		52.734375
9650		58.593750
9651		46.875000
9652		54.687500
9653		41.015625
9654		48.828125
9655		37.109375
9656		44.921875
9657		31.250000
9658		39.062500
9659		25.390625
9660		35.156250
9661		21.484375
9662		29.296875
9663		15.625000
9664		23.437500
9665		11.718750
9666		17.578125
9667		3.906250
9668		11.718750
9669		-1.953125
9670		7.812500
9671		-5.859375
9672		3.906250
9673		-11.718750
9674		-1.953125
9675		-17.578125
9676		-7.812500
9677		-23.437500
9678		-11.718750
9679		-25.390625
9680		-17.578125
9681		-31.250000
9682		-25.390625
9683		-37.109375
9684		-31.250000
9685		-42.968750
9686		-33.203125
9687		-48.828125
9688		-39.062500
9689		-52.734375
9690		-42.968750
9691		-58.593750
9692		-48.828125
9693		-62.500000
9694		-52.734375
9695		-66.406250
9696		-56.640625
9697		-70.312500
9698		-64.453125
9699		-74.218750
9700		-68.359375
9701		-80.078125
9702		-72.265625
9703		-83.984375
9704		-74.218750
9705		-85.937500
9706		-78.125000
9707		-89.843750
9708		-82.031250
9709		-93.750000
9710		-85.937500
9711		-95.703125
9712		-87.890625
9713		-97.656250
9714		-91.796875
9715		-99.609375
9716		-95.703125
9717		-103.515625
9718		-97.656250
9719		-105.468750
9720		-97.656250
9721		-107.421875
9722		-99.609375
9723		-109.375000
9724		-101.562500
9725		-111.328125
9726		-103.515625
9727		-111.328125
9728		-105.468750
9729		-111.328125
9730		-105.468750
9731		-109.375000
9732		-107.421875
9733		-111.328125
9734		-107.421875
9735		-113.281250
9736		-105.468750
9737		-113.281250
9738		-105.468750
9739		-113.281250
9740		-105.468750
9741		-111.328125
9742		-105.468750
9743		-111.328125
9744		-103.515625
9745		-109.375000
9746		-101.562500
9747		-107.421875
9748		-101.562500
9749		-103.515625
9750		-101.562500
9751		-103.515625
9752		-95.703125
9753		-101.562500
9754		-93.750000
9755		-99.609375
9756		-91.796875
9757		-97.656250
9758		-87.890625
9759		-93.750000
9760		-83.984375
9761		-91.796875
9762		-82.031250
9763		-87.890625
9764		-80.078125
9765		-82.031250
9766		-76.171875
9767		-78.125000
9768		-72.265625
9769		-76.171875
9770		-66.406250
9771		-72.265625
9772		-62.500000
9773		-68.359375
9774		-56.640625
9775		-62.500000
9776		-52.734375
9777		-58.593750
9778		-48.828125
9779		-54.687500
9780		-44.921875
9781		-46.875000
9782		-41.015625
9783		-41.015625
9784		-35.156250
9785		-37.109375
9786		-29.296875
9787		-33.203125
9788		-23.437500
9789		-27.343750
9790		-17.578125
9791		-23.437500
9792		-13.671875
9793		-17.578125
9794		-7.812500
9795		-13.671875
9796		-1.953125
9797		-7.812500
9798		1.953125
9799		0.000000
9800		5.859375
9801		5.859375
9802		13.671875
9803		7.812500
9804		19.531250
9805		15.625000
9806		25.390625
9807		19.531250
9808		29.296875
9809		25.390625
9810		35.156250
9811		29.296875
9812		41.015625
9813		35.156250
9814		42.968750
9815		41.015625
9816		48.828125
9817		46.875000
9818		52.734375
9819		50.781250
9820		60.546875
9821		54.687500
9822		64.453125
9823		58.593750
9824		68.359375
9825		62.500000
9826		72.265625
9827		68.359375
9828		78.125000
9829		72.265625
9830		82.031250
9831		78.125000
9832		83.984375
9833		82.031250
9834		87.890625
9835		85.937500
9836		91.796875
9837		87.890625
9838		95.703125
9839		91.796875
9840		99.609375
9841		93.750000
9842		103.515625
9843		97.656250
9844		105.468750
9845		99.609375
9846		109.375000
9847		103.515625
9848		109.375000
9849		107.421875
9850		111.328125
9851		109.375000
9852		115.234375
9853		109.375000
9854		117.187500
9855		113.281250
9856		119.140625
9857		113.281250
9858		121.093750
9859		115.234375
9860		123.046875
9861		117.187500
9862		125.000000
9863		119.140625
9864		126.953125
9865		123.046875
9866		125.000000
9867		123.046875
9868		125.000000
9869		123.046875
9870		128.906250
9871		121.093750
9872		128.906250
9873		123.046875
9874		128.906250
9875		123.046875
9876		128.906250
9877		123.046875
9878		128.906250
9879		123.046875
9880		128.906250
9881		123.046875
9882		128.906250
9883		123.046875
9884		126.953125
9885		121.093750
9886		126.953125
9887		119.140625
9888		126.953125
9889		119.140625
9890		125.000000
9891		117.187500
9892		125.000000
9893		115.234375
9894		123.046875
9895		113.281250
9896		121.093750
9897		113.281250
9898		119.140625
9899		111.328125
9900		115.234375
9901		109.375000
9902		113.281250
9903		105.468750
9904		111.328125
9905		101.562500
9906		109.375000
9907		99.609375
9908		107.421875
9909		95.703125
9910		103.515625
9911		91.796875
9912		101.562500
9913		89.843750
9914		97.656250
9915		87.890625
9916		93.750000
9917		83.984375
9918		87.890625
9919		78.125000
9920		85.937500
9921		72.265625
9922		82.031250
9923		70.312500
9924		80.078125
9925		64.453125
9926		74.218750
9927		60.546875
9928		70.312500
9929		54.687500
9930		66.406250
9931		52.734375
9932		60.546875
9933		48.828125
9934		54.687500
9935		42.968750
9936		48.828125
9937		35.156250
9938		46.875000
9939		31.250000
9940		41.015625
9941		25.390625
9942		37.109375
9943		21.484375
9944		31.250000
9945		15.625000
9946		25.390625
9947		9.765625
9948		19.531250
9949		5.859375
9950		13.671875
9951		1.953125
9952		7.812500
9953		-5.859375
9954		1.953125
9955		-11.718750
9956		-1.953125
9957		-15.625000
9958		-5.859375
9959		-21.484375
9960		-11.718750
9961		-27.343750
9962		-17.578125
9963		-33.203125
9964		-23.437500
9965		-35.156250
9966		-27.343750
9967		-41.015625
9968		-33.203125
9969		-46.875000
9970		-39.062500
9971		-52.734375
9972		-42.968750
9973		-56.640625
9974		-46.875000
9975		-62.500000
9976		-52.734375
9977		-66.406250
9978		-56.640625
9979		-70.312500
9980		-60.546875
9981		-74.218750
9982		-66.406250
9983		-76.171875
9984		-72.265625
9985		-80.078125
9986		-76.171875
9987		-85.937500
9988		-78.125000
9989		-89.843750
9990		-80.078125
9991		-93.750000
9992		-83.984375
9993		-95.703125
9994		-87.890625
9995		-97.656250
9996		-89.843750
9997		-101.562500
9998		-93.750000
9999		-101.562500
10000		-95.703125
