Channel              :		CH1
Frequency            :		1.771kHz
Period               :		0.565ms
PK-PK                :		72.27mV
Probe attenuation    :		1X
Voltage per ADC value:		0.122070mV
Time interval        :		2.00000us

index		CH1_Voltage(mV)
1		46.875000
2		46.875000
3		42.968750
4		44.921875
5		42.968750
6		44.921875
7		41.015625
8		44.921875
9		41.015625
10		44.921875
11		41.015625
12		42.968750
13		41.015625
14		42.968750
15		39.062500
16		42.968750
17		39.062500
18		42.968750
19		37.109375
20		41.015625
21		37.109375
22		39.062500
23		35.156250
24		39.062500
25		35.156250
26		39.062500
27		33.203125
28		39.062500
29		33.203125
30		37.109375
31		33.203125
32		37.109375
33		31.250000
34		35.156250
35		31.250000
36		33.203125
37		29.296875
38		33.203125
39		27.343750
40		31.250000
41		27.343750
42		31.250000
43		25.390625
44		29.296875
45		25.390625
46		27.343750
47		23.437500
48		27.343750
49		21.484375
50		25.390625
51		21.484375
52		25.390625
53		19.531250
54		23.437500
55		17.578125
56		21.484375
57		15.625000
58		19.531250
59		13.671875
60		19.531250
61		13.671875
62		17.578125
63		11.718750
64		15.625000
65		11.718750
66		15.625000
67		9.765625
68		13.671875
69		7.812500
70		11.718750
71		7.812500
72		9.765625
73		5.859375
74		9.765625
75		3.906250
76		7.812500
77		3.906250
78		7.812500
79		1.953125
80		5.859375
81		0.000000
82		3.906250
83		0.000000
84		1.953125
85		-1.953125
86		1.953125
87		-1.953125
88		0.000000
89		-3.906250
90		0.000000
91		-5.859375
92		-1.953125
93		-5.859375
94		-1.953125
95		-7.812500
96		-3.906250
97		-7.812500
98		-5.859375
99		-9.765625
100		-5.859375
101		-11.718750
102		-7.812500
103		-11.718750
104		-7.812500
105		-11.718750
106		-7.812500
107		-13.671875
108		-9.765625
109		-13.671875
110		-9.765625
111		-13.671875
112		-9.765625
113		-15.625000
114		-11.718750
115		-15.625000
116		-11.718750
117		-15.625000
118		-11.718750
119		-15.625000
120		-13.671875
121		-15.625000
122		-13.671875
123		-15.625000
124		-13.671875
125		-17.578125
126		-13.671875
127		-17.578125
128		-13.671875
129		-17.578125
130		-15.625000
131		-17.578125
132		-13.671875
133		-17.578125
134		-13.671875
135		-17.578125
136		-13.671875
137		-17.578125
138		-13.671875
139		-15.625000
140		-13.671875
141		-15.625000
142		-13.671875
143		-15.625000
144		-11.718750
145		-15.625000
146		-13.671875
147		-15.625000
148		-11.718750
149		-15.625000
150		-9.765625
151		-15.625000
152		-9.765625
153		-13.671875
154		-9.765625
155		-13.671875
156		-9.765625
157		-13.671875
158		-7.812500
159		-11.718750
160		-7.812500
161		-9.765625
162		-7.812500
163		-9.765625
164		-5.859375
165		-7.812500
166		-3.906250
167		-7.812500
168		-3.906250
169		-7.812500
170		-3.906250
171		-3.906250
172		-1.953125
173		-3.906250
174		0.000000
175		-1.953125
176		0.000000
177		-1.953125
178		1.953125
179		0.000000
180		1.953125
181		1.953125
182		3.906250
183		0.000000
184		7.812500
185		1.953125
186		7.812500
187		3.906250
188		9.765625
189		5.859375
190		11.718750
191		5.859375
192		11.718750
193		7.812500
194		13.671875
195		9.765625
196		13.671875
197		11.718750
198		15.625000
199		11.718750
200		17.578125
201		11.718750
202		19.531250
203		13.671875
204		21.484375
205		15.625000
206		21.484375
207		15.625000
208		23.437500
209		19.531250
210		25.390625
211		19.531250
212		25.390625
213		23.437500
214		25.390625
215		23.437500
216		27.343750
217		23.437500
218		31.250000
219		23.437500
220		31.250000
221		25.390625
222		31.250000
223		27.343750
224		33.203125
225		27.343750
226		35.156250
227		29.296875
228		35.156250
229		31.250000
230		35.156250
231		33.203125
232		35.156250
233		31.250000
234		39.062500
235		33.203125
236		39.062500
237		33.203125
238		41.015625
239		35.156250
240		41.015625
241		35.156250
242		42.968750
243		35.156250
244		42.968750
245		37.109375
246		42.968750
247		41.015625
248		42.968750
249		39.062500
250		44.921875
251		39.062500
252		44.921875
253		39.062500
254		44.921875
255		39.062500
256		46.875000
257		41.015625
258		46.875000
259		41.015625
260		46.875000
261		41.015625
262		46.875000
263		42.968750
264		46.875000
265		42.968750
266		46.875000
267		41.015625
268		48.828125
269		41.015625
270		48.828125
271		41.015625
272		48.828125
273		41.015625
274		48.828125
275		41.015625
276		48.828125
277		41.015625
278		48.828125
279		41.015625
280		46.875000
281		42.968750
282		44.921875
283		41.015625
284		46.875000
285		39.062500
286		46.875000
287		41.015625
288		46.875000
289		39.062500
290		46.875000
291		39.062500
292		46.875000
293		39.062500
294		44.921875
295		39.062500
296		44.921875
297		39.062500
298		42.968750
299		37.109375
300		42.968750
301		35.156250
302		42.968750
303		35.156250
304		42.968750
305		33.203125
306		41.015625
307		33.203125
308		41.015625
309		33.203125
310		39.062500
311		31.250000
312		39.062500
313		33.203125
314		35.156250
315		31.250000
316		33.203125
317		27.343750
318		35.156250
319		27.343750
320		35.156250
321		25.390625
322		33.203125
323		23.437500
324		31.250000
325		23.437500
326		31.250000
327		21.484375
328		29.296875
329		21.484375
330		29.296875
331		21.484375
332		25.390625
333		19.531250
334		25.390625
335		17.578125
336		25.390625
337		15.625000
338		23.437500
339		13.671875
340		21.484375
341		11.718750
342		19.531250
343		11.718750
344		19.531250
345		9.765625
346		17.578125
347		11.718750
348		13.671875
349		9.765625
350		13.671875
351		5.859375
352		13.671875
353		3.906250
354		11.718750
355		3.906250
356		11.718750
357		1.953125
358		9.765625
359		0.000000
360		9.765625
361		0.000000
362		7.812500
363		-1.953125
364		5.859375
365		0.000000
366		1.953125
367		-3.906250
368		1.953125
369		-5.859375
370		1.953125
371		-5.859375
372		0.000000
373		-7.812500
374		0.000000
375		-9.765625
376		-1.953125
377		-9.765625
378		-1.953125
379		-9.765625
380		-3.906250
381		-9.765625
382		-7.812500
383		-9.765625
384		-7.812500
385		-13.671875
386		-5.859375
387		-13.671875
388		-7.812500
389		-15.625000
390		-7.812500
391		-15.625000
392		-9.765625
393		-15.625000
394		-9.765625
395		-17.578125
396		-9.765625
397		-15.625000
398		-13.671875
399		-15.625000
400		-13.671875
401		-17.578125
402		-11.718750
403		-17.578125
404		-11.718750
405		-19.531250
406		-11.718750
407		-19.531250
408		-11.718750
409		-19.531250
410		-11.718750
411		-19.531250
412		-11.718750
413		-19.531250
414		-13.671875
415		-17.578125
416		-15.625000
417		-17.578125
418		-13.671875
419		-19.531250
420		-11.718750
421		-19.531250
422		-11.718750
423		-19.531250
424		-11.718750
425		-17.578125
426		-11.718750
427		-17.578125
428		-11.718750
429		-17.578125
430		-9.765625
431		-15.625000
432		-11.718750
433		-13.671875
434		-11.718750
435		-15.625000
436		-7.812500
437		-13.671875
438		-7.812500
439		-13.671875
440		-5.859375
441		-13.671875
442		-5.859375
443		-11.718750
444		-5.859375
445		-11.718750
446		-3.906250
447		-9.765625
448		-3.906250
449		-7.812500
450		-3.906250
451		-5.859375
452		-1.953125
453		-7.812500
454		0.000000
455		-5.859375
456		1.953125
457		-3.906250
458		1.953125
459		-3.906250
460		3.906250
461		-3.906250
462		3.906250
463		0.000000
464		5.859375
465		1.953125
466		5.859375
467		3.906250
468		5.859375
469		1.953125
470		9.765625
471		3.906250
472		11.718750
473		5.859375
474		11.718750
475		5.859375
476		13.671875
477		7.812500
478		15.625000
479		9.765625
480		15.625000
481		11.718750
482		15.625000
483		13.671875
484		17.578125
485		13.671875
486		19.531250
487		15.625000
488		21.484375
489		15.625000
490		23.437500
491		17.578125
492		25.390625
493		19.531250
494		25.390625
495		19.531250
496		27.343750
497		21.484375
498		27.343750
499		25.390625
500		27.343750
501		23.437500
502		31.250000
503		25.390625
504		33.203125
505		27.343750
506		33.203125
507		27.343750
508		35.156250
509		29.296875
510		35.156250
511		29.296875
512		37.109375
513		31.250000
514		37.109375
515		35.156250
516		37.109375
517		35.156250
518		37.109375
519		33.203125
520		41.015625
521		35.156250
522		41.015625
523		35.156250
524		42.968750
525		37.109375
526		42.968750
527		37.109375
528		42.968750
529		37.109375
530		44.921875
531		39.062500
532		44.921875
533		41.015625
534		42.968750
535		41.015625
536		46.875000
537		39.062500
538		46.875000
539		41.015625
540		46.875000
541		41.015625
542		46.875000
543		41.015625
544		48.828125
545		41.015625
546		48.828125
547		41.015625
548		48.828125
549		44.921875
550		46.875000
551		44.921875
552		46.875000
553		42.968750
554		48.828125
555		41.015625
556		48.828125
557		41.015625
558		48.828125
559		41.015625
560		48.828125
561		41.015625
562		48.828125
563		41.015625
564		48.828125
565		42.968750
566		48.828125
567		42.968750
568		44.921875
569		39.062500
570		46.875000
571		41.015625
572		46.875000
573		39.062500
574		46.875000
575		39.062500
576		44.921875
577		39.062500
578		44.921875
579		37.109375
580		44.921875
581		37.109375
582		42.968750
583		39.062500
584		41.015625
585		37.109375
586		41.015625
587		35.156250
588		41.015625
589		33.203125
590		41.015625
591		33.203125
592		39.062500
593		31.250000
594		39.062500
595		29.296875
596		37.109375
597		29.296875
598		37.109375
599		31.250000
600		33.203125
601		29.296875
602		33.203125
603		27.343750
604		33.203125
605		25.390625
606		33.203125
607		23.437500
608		31.250000
609		23.437500
610		29.296875
611		21.484375
612		29.296875
613		19.531250
614		27.343750
615		19.531250
616		25.390625
617		19.531250
618		23.437500
619		15.625000
620		21.484375
621		15.625000
622		21.484375
623		13.671875
624		21.484375
625		11.718750
626		19.531250
627		9.765625
628		17.578125
629		9.765625
630		17.578125
631		7.812500
632		15.625000
633		9.765625
634		11.718750
635		7.812500
636		9.765625
637		3.906250
638		9.765625
639		1.953125
640		9.765625
641		1.953125
642		7.812500
643		0.000000
644		7.812500
645		-1.953125
646		5.859375
647		-1.953125
648		3.906250
649		-1.953125
650		3.906250
651		-1.953125
652		0.000000
653		-5.859375
654		0.000000
655		-7.812500
656		0.000000
657		-7.812500
658		0.000000
659		-9.765625
660		-1.953125
661		-9.765625
662		-3.906250
663		-11.718750
664		-3.906250
665		-11.718750
666		-5.859375
667		-11.718750
668		-7.812500
669		-13.671875
670		-7.812500
671		-15.625000
672		-7.812500
673		-15.625000
674		-7.812500
675		-15.625000
676		-7.812500
677		-17.578125
678		-9.765625
679		-17.578125
680		-9.765625
681		-17.578125
682		-11.718750
683		-15.625000
684		-13.671875
685		-15.625000
686		-13.671875
687		-19.531250
688		-11.718750
689		-19.531250
690		-11.718750
691		-19.531250
692		-11.718750
693		-19.531250
694		-13.671875
695		-19.531250
696		-11.718750
697		-19.531250
698		-11.718750
699		-19.531250
700		-13.671875
701		-15.625000
702		-15.625000
703		-19.531250
704		-11.718750
705		-17.578125
706		-11.718750
707		-17.578125
708		-11.718750
709		-17.578125
710		-9.765625
711		-17.578125
712		-11.718750
713		-17.578125
714		-9.765625
715		-15.625000
716		-9.765625
717		-13.671875
718		-9.765625
719		-13.671875
720		-9.765625
721		-13.671875
722		-7.812500
723		-13.671875
724		-5.859375
725		-11.718750
726		-5.859375
727		-11.718750
728		-3.906250
729		-11.718750
730		-3.906250
731		-9.765625
732		-1.953125
733		-7.812500
734		-3.906250
735		-5.859375
736		-1.953125
737		-5.859375
738		0.000000
739		-5.859375
740		1.953125
741		-3.906250
742		3.906250
743		-1.953125
744		3.906250
745		-1.953125
746		5.859375
747		0.000000
748		7.812500
749		0.000000
750		7.812500
751		3.906250
752		7.812500
753		5.859375
754		9.765625
755		3.906250
756		11.718750
757		5.859375
758		13.671875
759		7.812500
760		15.625000
761		9.765625
762		17.578125
763		11.718750
764		17.578125
765		11.718750
766		19.531250
767		15.625000
768		17.578125
769		17.578125
770		19.531250
771		15.625000
772		23.437500
773		17.578125
774		25.390625
775		17.578125
776		25.390625
777		19.531250
778		27.343750
779		21.484375
780		29.296875
781		21.484375
782		29.296875
783		23.437500
784		29.296875
785		27.343750
786		29.296875
787		27.343750
788		33.203125
789		27.343750
790		35.156250
791		27.343750
792		35.156250
793		29.296875
794		37.109375
795		29.296875
796		37.109375
797		31.250000
798		39.062500
799		31.250000
800		39.062500
801		35.156250
802		39.062500
803		37.109375
804		39.062500
805		35.156250
806		42.968750
807		35.156250
808		42.968750
809		37.109375
810		42.968750
811		37.109375
812		44.921875
813		37.109375
814		44.921875
815		39.062500
816		44.921875
817		39.062500
818		44.921875
819		41.015625
820		44.921875
821		41.015625
822		46.875000
823		41.015625
824		46.875000
825		41.015625
826		46.875000
827		41.015625
828		46.875000
829		41.015625
830		48.828125
831		41.015625
832		48.828125
833		41.015625
834		46.875000
835		42.968750
836		46.875000
837		42.968750
838		46.875000
839		41.015625
840		48.828125
841		41.015625
842		48.828125
843		41.015625
844		48.828125
845		41.015625
846		46.875000
847		41.015625
848		46.875000
849		41.015625
850		46.875000
851		42.968750
852		44.921875
853		42.968750
854		44.921875
855		39.062500
856		44.921875
857		39.062500
858		44.921875
859		37.109375
860		44.921875
861		37.109375
862		44.921875
863		37.109375
864		42.968750
865		35.156250
866		42.968750
867		35.156250
868		42.968750
869		37.109375
870		39.062500
871		35.156250
872		39.062500
873		33.203125
874		39.062500
875		31.250000
876		39.062500
877		31.250000
878		37.109375
879		29.296875
880		37.109375
881		27.343750
882		35.156250
883		27.343750
884		35.156250
885		29.296875
886		31.250000
887		27.343750
888		29.296875
889		23.437500
890		31.250000
891		23.437500
892		29.296875
893		21.484375
894		29.296875
895		19.531250
896		27.343750
897		19.531250
898		25.390625
899		17.578125
900		25.390625
901		17.578125
902		23.437500
903		17.578125
904		19.531250
905		13.671875
906		19.531250
907		11.718750
908		19.531250
909		11.718750
910		17.578125
911		9.765625
912		17.578125
913		7.812500
914		15.625000
915		5.859375
916		13.671875
917		5.859375
918		13.671875
919		5.859375
920		9.765625
921		3.906250
922		7.812500
923		0.000000
924		7.812500
925		0.000000
926		7.812500
927		-1.953125
928		5.859375
929		-1.953125
930		3.906250
931		-3.906250
932		3.906250
933		-3.906250
934		1.953125
935		-3.906250
936		-1.953125
937		-5.859375
938		-1.953125
939		-7.812500
940		-1.953125
941		-9.765625
942		-1.953125
943		-9.765625
944		-1.953125
945		-11.718750
946		-3.906250
947		-11.718750
948		-5.859375
949		-13.671875
950		-5.859375
951		-13.671875
952		-7.812500
953		-11.718750
954		-9.765625
955		-15.625000
956		-9.765625
957		-15.625000
958		-9.765625
959		-17.578125
960		-9.765625
961		-17.578125
962		-9.765625
963		-17.578125
964		-11.718750
965		-17.578125
966		-11.718750
967		-17.578125
968		-11.718750
969		-15.625000
970		-13.671875
971		-15.625000
972		-13.671875
973		-19.531250
974		-11.718750
975		-19.531250
976		-11.718750
977		-19.531250
978		-11.718750
979		-19.531250
980		-11.718750
981		-19.531250
982		-11.718750
983		-19.531250
984		-11.718750
985		-19.531250
986		-11.718750
987		-15.625000
988		-13.671875
989		-17.578125
990		-11.718750
991		-17.578125
992		-11.718750
993		-17.578125
994		-9.765625
995		-17.578125
996		-9.765625
997		-15.625000
998		-9.765625
999		-15.625000
1000		-7.812500
1001		-13.671875
1002		-7.812500
1003		-11.718750
1004		-9.765625
1005		-11.718750
1006		-7.812500
1007		-11.718750
1008		-5.859375
1009		-11.718750
1010		-3.906250
1011		-9.765625
1012		-3.906250
1013		-9.765625
1014		-1.953125
1015		-7.812500
1016		-1.953125
1017		-7.812500
1018		0.000000
1019		-3.906250
1020		-1.953125
1021		-3.906250
1022		0.000000
1023		-3.906250
1024		3.906250
1025		-3.906250
1026		3.906250
1027		-1.953125
1028		5.859375
1029		0.000000
1030		7.812500
1031		1.953125
1032		7.812500
1033		1.953125
1034		9.765625
1035		3.906250
1036		9.765625
1037		7.812500
1038		9.765625
1039		7.812500
1040		13.671875
1041		7.812500
1042		15.625000
1043		7.812500
1044		15.625000
1045		11.718750
1046		17.578125
1047		11.718750
1048		19.531250
1049		13.671875
1050		21.484375
1051		15.625000
1052		21.484375
1053		17.578125
1054		21.484375
1055		19.531250
1056		23.437500
1057		19.531250
1058		25.390625
1059		19.531250
1060		27.343750
1061		21.484375
1062		29.296875
1063		23.437500
1064		29.296875
1065		23.437500
1066		31.250000
1067		25.390625
1068		33.203125
1069		27.343750
1070		33.203125
1071		29.296875
1072		33.203125
1073		29.296875
1074		35.156250
1075		29.296875
1076		37.109375
1077		31.250000
1078		37.109375
1079		31.250000
1080		39.062500
1081		33.203125
1082		39.062500
1083		33.203125
1084		41.015625
1085		35.156250
1086		41.015625
1087		37.109375
1088		41.015625
1089		39.062500
1090		41.015625
1091		37.109375
1092		44.921875
1093		37.109375
1094		44.921875
1095		39.062500
1096		44.921875
1097		39.062500
1098		44.921875
1099		39.062500
1100		46.875000
1101		39.062500
1102		46.875000
1103		41.015625
1104		44.921875
1105		42.968750
1106		44.921875
1107		41.015625
1108		48.828125
1109		41.015625
1110		48.828125
1111		41.015625
1112		48.828125
1113		41.015625
1114		48.828125
1115		42.968750
1116		48.828125
1117		41.015625
1118		48.828125
1119		41.015625
1120		48.828125
1121		44.921875
1122		46.875000
1123		42.968750
1124		48.828125
1125		41.015625
1126		48.828125
1127		41.015625
1128		48.828125
1129		41.015625
1130		48.828125
1131		41.015625
1132		46.875000
1133		41.015625
1134		46.875000
1135		39.062500
1136		46.875000
1137		41.015625
1138		44.921875
1139		41.015625
1140		42.968750
1141		37.109375
1142		44.921875
1143		37.109375
1144		44.921875
1145		37.109375
1146		44.921875
1147		37.109375
1148		42.968750
1149		35.156250
1150		42.968750
1151		35.156250
1152		42.968750
1153		35.156250
1154		41.015625
1155		35.156250
1156		37.109375
1157		33.203125
1158		39.062500
1159		31.250000
1160		39.062500
1161		29.296875
1162		37.109375
1163		29.296875
1164		35.156250
1165		27.343750
1166		35.156250
1167		27.343750
1168		33.203125
1169		25.390625
1170		33.203125
1171		27.343750
1172		29.296875
1173		25.390625
1174		27.343750
1175		21.484375
1176		29.296875
1177		19.531250
1178		27.343750
1179		19.531250
1180		27.343750
1181		17.578125
1182		25.390625
1183		15.625000
1184		23.437500
1185		15.625000
1186		21.484375
1187		15.625000
1188		19.531250
1189		15.625000
1190		17.578125
1191		11.718750
1192		17.578125
1193		9.765625
1194		17.578125
1195		7.812500
1196		15.625000
1197		5.859375
1198		13.671875
1199		5.859375
1200		13.671875
1201		3.906250
1202		11.718750
1203		3.906250
1204		9.765625
1205		3.906250
1206		5.859375
1207		0.000000
1208		5.859375
1209		0.000000
1210		5.859375
1211		-1.953125
1212		5.859375
1213		-3.906250
1214		3.906250
1215		-3.906250
1216		3.906250
1217		-5.859375
1218		1.953125
1219		-5.859375
1220		0.000000
1221		-5.859375
1222		-1.953125
1223		-7.812500
1224		-3.906250
1225		-9.765625
1226		-1.953125
1227		-11.718750
1228		-3.906250
1229		-11.718750
1230		-5.859375
1231		-13.671875
1232		-5.859375
1233		-13.671875
1234		-5.859375
1235		-13.671875
1236		-7.812500
1237		-15.625000
1238		-7.812500
1239		-13.671875
1240		-11.718750
1241		-17.578125
1242		-9.765625
1243		-17.578125
1244		-9.765625
1245		-17.578125
1246		-9.765625
1247		-17.578125
1248		-11.718750
1249		-17.578125
1250		-11.718750
1251		-17.578125
1252		-11.718750
1253		-17.578125
1254		-11.718750
1255		-17.578125
1256		-13.671875
1257		-17.578125
1258		-15.625000
1259		-19.531250
1260		-11.718750
1261		-19.531250
1262		-13.671875
1263		-19.531250
1264		-11.718750
1265		-19.531250
1266		-11.718750
1267		-19.531250
1268		-11.718750
1269		-19.531250
1270		-11.718750
1271		-17.578125
1272		-13.671875
1273		-15.625000
1274		-13.671875
1275		-17.578125
1276		-9.765625
1277		-17.578125
1278		-9.765625
1279		-15.625000
1280		-9.765625
1281		-15.625000
1282		-7.812500
1283		-15.625000
1284		-7.812500
1285		-13.671875
1286		-7.812500
1287		-13.671875
1288		-7.812500
1289		-9.765625
1290		-7.812500
1291		-9.765625
1292		-5.859375
1293		-9.765625
1294		-3.906250
1295		-9.765625
1296		-3.906250
1297		-7.812500
1298		-1.953125
1299		-7.812500
1300		0.000000
1301		-5.859375
1302		0.000000
1303		-5.859375
1304		1.953125
1305		-1.953125
1306		1.953125
1307		-1.953125
1308		1.953125
1309		-1.953125
1310		3.906250
1311		1.953125
1312		5.859375
1313		1.953125
1314		5.859375
1315		3.906250
1316		7.812500
1317		3.906250
1318		9.765625
1319		5.859375
1320		11.718750
1321		7.812500
1322		11.718750
1323		9.765625
1324		13.671875
1325		9.765625
1326		13.671875
1327		11.718750
1328		15.625000
1329		13.671875
1330		17.578125
1331		13.671875
1332		17.578125
1333		15.625000
1334		21.484375
1335		17.578125
1336		21.484375
1337		15.625000
1338		23.437500
1339		21.484375
1340		23.437500
1341		21.484375
1342		25.390625
1343		21.484375
1344		27.343750
1345		23.437500
1346		27.343750
1347		25.390625
1348		29.296875
1349		25.390625
1350		29.296875
1351		27.343750
1352		31.250000
1353		29.296875
1354		33.203125
1355		29.296875
1356		33.203125
1357		31.250000
1358		33.203125
1359		33.203125
1360		35.156250
1361		33.203125
1362		37.109375
1363		35.156250
1364		37.109375
1365		35.156250
1366		39.062500
1367		37.109375
1368		39.062500
1369		37.109375
1370		41.015625
1371		37.109375
1372		41.015625
1373		37.109375
1374		41.015625
1375		39.062500
1376		42.968750
1377		41.015625
1378		42.968750
1379		41.015625
1380		42.968750
1381		41.015625
1382		44.921875
1383		41.015625
1384		44.921875
1385		41.015625
1386		44.921875
1387		42.968750
1388		46.875000
1389		42.968750
1390		44.921875
1391		42.968750
1392		44.921875
1393		42.968750
1394		46.875000
1395		42.968750
1396		46.875000
1397		42.968750
1398		46.875000
1399		44.921875
1400		46.875000
1401		42.968750
1402		46.875000
1403		42.968750
1404		46.875000
1405		42.968750
1406		46.875000
1407		44.921875
1408		46.875000
1409		41.015625
1410		46.875000
1411		42.968750
1412		46.875000
1413		42.968750
1414		44.921875
1415		42.968750
1416		44.921875
1417		41.015625
1418		44.921875
1419		41.015625
1420		44.921875
1421		41.015625
1422		44.921875
1423		41.015625
1424		42.968750
1425		39.062500
1426		42.968750
1427		39.062500
1428		42.968750
1429		39.062500
1430		41.015625
1431		37.109375
1432		41.015625
1433		37.109375
1434		39.062500
1435		35.156250
1436		39.062500
1437		35.156250
1438		39.062500
1439		33.203125
1440		37.109375
1441		33.203125
1442		35.156250
1443		31.250000
1444		35.156250
1445		31.250000
1446		35.156250
1447		29.296875
1448		33.203125
1449		27.343750
1450		31.250000
1451		27.343750
1452		31.250000
1453		25.390625
1454		29.296875
1455		25.390625
1456		29.296875
1457		23.437500
1458		27.343750
1459		21.484375
1460		25.390625
1461		21.484375
1462		25.390625
1463		19.531250
1464		23.437500
1465		19.531250
1466		21.484375
1467		17.578125
1468		21.484375
1469		15.625000
1470		19.531250
1471		13.671875
1472		17.578125
1473		13.671875
1474		15.625000
1475		11.718750
1476		15.625000
1477		11.718750
1478		13.671875
1479		7.812500
1480		13.671875
1481		7.812500
1482		11.718750
1483		5.859375
1484		9.765625
1485		3.906250
1486		7.812500
1487		3.906250
1488		7.812500
1489		1.953125
1490		5.859375
1491		1.953125
1492		3.906250
1493		0.000000
1494		3.906250
1495		0.000000
1496		1.953125
1497		-1.953125
1498		0.000000
1499		-3.906250
1500		0.000000
1501		-5.859375
1502		0.000000
1503		-5.859375
1504		-1.953125
1505		-7.812500
1506		-3.906250
1507		-7.812500
1508		-3.906250
1509		-7.812500
1510		-5.859375
1511		-9.765625
1512		-5.859375
1513		-9.765625
1514		-7.812500
1515		-11.718750
1516		-7.812500
1517		-11.718750
1518		-7.812500
1519		-13.671875
1520		-9.765625
1521		-13.671875
1522		-9.765625
1523		-13.671875
1524		-9.765625
1525		-13.671875
1526		-11.718750
1527		-15.625000
1528		-11.718750
1529		-15.625000
1530		-11.718750
1531		-15.625000
1532		-13.671875
1533		-15.625000
1534		-13.671875
1535		-17.578125
1536		-13.671875
1537		-17.578125
1538		-13.671875
1539		-17.578125
1540		-13.671875
1541		-17.578125
1542		-13.671875
1543		-17.578125
1544		-13.671875
1545		-17.578125
1546		-13.671875
1547		-17.578125
1548		-13.671875
1549		-15.625000
1550		-13.671875
1551		-15.625000
1552		-11.718750
1553		-15.625000
1554		-13.671875
1555		-15.625000
1556		-11.718750
1557		-15.625000
1558		-11.718750
1559		-13.671875
1560		-11.718750
1561		-13.671875
1562		-9.765625
1563		-13.671875
1564		-9.765625
1565		-11.718750
1566		-9.765625
1567		-11.718750
1568		-9.765625
1569		-11.718750
1570		-7.812500
1571		-9.765625
1572		-7.812500
1573		-9.765625
1574		-5.859375
1575		-9.765625
1576		-5.859375
1577		-7.812500
1578		-3.906250
1579		-7.812500
1580		-3.906250
1581		-5.859375
1582		-1.953125
1583		-3.906250
1584		-1.953125
1585		-3.906250
1586		0.000000
1587		-1.953125
1588		1.953125
1589		-1.953125
1590		3.906250
1591		0.000000
1592		3.906250
1593		1.953125
1594		5.859375
1595		1.953125
1596		5.859375
1597		3.906250
1598		7.812500
1599		5.859375
1600		9.765625
1601		5.859375
1602		9.765625
1603		7.812500
1604		11.718750
1605		9.765625
1606		13.671875
1607		11.718750
1608		13.671875
1609		11.718750
1610		15.625000
1611		11.718750
1612		19.531250
1613		15.625000
1614		19.531250
1615		15.625000
1616		19.531250
1617		17.578125
1618		21.484375
1619		19.531250
1620		23.437500
1621		21.484375
1622		23.437500
1623		21.484375
1624		25.390625
1625		23.437500
1626		25.390625
1627		23.437500
1628		27.343750
1629		25.390625
1630		29.296875
1631		27.343750
1632		31.250000
1633		27.343750
1634		31.250000
1635		29.296875
1636		33.203125
1637		31.250000
1638		33.203125
1639		31.250000
1640		35.156250
1641		33.203125
1642		35.156250
1643		33.203125
1644		37.109375
1645		33.203125
1646		39.062500
1647		35.156250
1648		39.062500
1649		37.109375
1650		39.062500
1651		37.109375
1652		41.015625
1653		37.109375
1654		41.015625
1655		39.062500
1656		41.015625
1657		39.062500
1658		42.968750
1659		41.015625
1660		42.968750
1661		41.015625
1662		44.921875
1663		41.015625
1664		44.921875
1665		42.968750
1666		44.921875
1667		42.968750
1668		46.875000
1669		42.968750
1670		44.921875
1671		42.968750
1672		46.875000
1673		42.968750
1674		46.875000
1675		44.921875
1676		46.875000
1677		44.921875
1678		46.875000
1679		42.968750
1680		48.828125
1681		42.968750
1682		46.875000
1683		44.921875
1684		46.875000
1685		42.968750
1686		48.828125
1687		44.921875
1688		46.875000
1689		42.968750
1690		46.875000
1691		42.968750
1692		46.875000
1693		44.921875
1694		46.875000
1695		42.968750
1696		46.875000
1697		42.968750
1698		46.875000
1699		42.968750
1700		44.921875
1701		41.015625
1702		44.921875
1703		41.015625
1704		44.921875
1705		41.015625
1706		44.921875
1707		39.062500
1708		42.968750
1709		39.062500
1710		42.968750
1711		39.062500
1712		41.015625
1713		37.109375
1714		41.015625
1715		37.109375
1716		41.015625
1717		37.109375
1718		39.062500
1719		35.156250
1720		39.062500
1721		33.203125
1722		37.109375
1723		33.203125
1724		37.109375
1725		33.203125
1726		35.156250
1727		31.250000
1728		35.156250
1729		29.296875
1730		33.203125
1731		29.296875
1732		33.203125
1733		27.343750
1734		31.250000
1735		27.343750
1736		31.250000
1737		25.390625
1738		29.296875
1739		23.437500
1740		27.343750
1741		23.437500
1742		27.343750
1743		21.484375
1744		25.390625
1745		19.531250
1746		23.437500
1747		19.531250
1748		23.437500
1749		17.578125
1750		21.484375
1751		15.625000
1752		19.531250
1753		15.625000
1754		19.531250
1755		13.671875
1756		17.578125
1757		11.718750
1758		15.625000
1759		11.718750
1760		13.671875
1761		9.765625
1762		13.671875
1763		7.812500
1764		11.718750
1765		5.859375
1766		9.765625
1767		5.859375
1768		9.765625
1769		3.906250
1770		7.812500
1771		1.953125
1772		7.812500
1773		1.953125
1774		3.906250
1775		0.000000
1776		3.906250
1777		-1.953125
1778		1.953125
1779		-1.953125
1780		1.953125
1781		-3.906250
1782		0.000000
1783		-3.906250
1784		-1.953125
1785		-5.859375
1786		-1.953125
1787		-5.859375
1788		-1.953125
1789		-7.812500
1790		-3.906250
1791		-9.765625
1792		-5.859375
1793		-9.765625
1794		-5.859375
1795		-9.765625
1796		-7.812500
1797		-11.718750
1798		-7.812500
1799		-11.718750
1800		-7.812500
1801		-13.671875
1802		-9.765625
1803		-13.671875
1804		-9.765625
1805		-13.671875
1806		-11.718750
1807		-15.625000
1808		-11.718750
1809		-15.625000
1810		-11.718750
1811		-15.625000
1812		-11.718750
1813		-17.578125
1814		-11.718750
1815		-15.625000
1816		-13.671875
1817		-17.578125
1818		-13.671875
1819		-17.578125
1820		-13.671875
1821		-17.578125
1822		-13.671875
1823		-17.578125
1824		-13.671875
1825		-17.578125
1826		-13.671875
1827		-17.578125
1828		-13.671875
1829		-17.578125
1830		-13.671875
1831		-17.578125
1832		-13.671875
1833		-15.625000
1834		-13.671875
1835		-15.625000
1836		-13.671875
1837		-15.625000
1838		-11.718750
1839		-15.625000
1840		-11.718750
1841		-15.625000
1842		-11.718750
1843		-13.671875
1844		-11.718750
1845		-13.671875
1846		-11.718750
1847		-13.671875
1848		-9.765625
1849		-11.718750
1850		-9.765625
1851		-11.718750
1852		-9.765625
1853		-9.765625
1854		-7.812500
1855		-9.765625
1856		-7.812500
1857		-7.812500
1858		-5.859375
1859		-9.765625
1860		-3.906250
1861		-5.859375
1862		-3.906250
1863		-5.859375
1864		-1.953125
1865		-3.906250
1866		-1.953125
1867		-3.906250
1868		0.000000
1869		-1.953125
1870		0.000000
1871		-1.953125
1872		1.953125
1873		0.000000
1874		3.906250
1875		1.953125
1876		5.859375
1877		1.953125
1878		5.859375
1879		3.906250
1880		7.812500
1881		3.906250
1882		9.765625
1883		5.859375
1884		9.765625
1885		7.812500
1886		11.718750
1887		9.765625
1888		13.671875
1889		9.765625
1890		13.671875
1891		11.718750
1892		15.625000
1893		11.718750
1894		15.625000
1895		15.625000
1896		17.578125
1897		15.625000
1898		19.531250
1899		17.578125
1900		21.484375
1901		19.531250
1902		21.484375
1903		19.531250
1904		23.437500
1905		21.484375
1906		25.390625
1907		21.484375
1908		27.343750
1909		23.437500
1910		27.343750
1911		25.390625
1912		29.296875
1913		27.343750
1914		31.250000
1915		27.343750
1916		31.250000
1917		29.296875
1918		31.250000
1919		29.296875
1920		33.203125
1921		31.250000
1922		35.156250
1923		33.203125
1924		35.156250
1925		33.203125
1926		37.109375
1927		35.156250
1928		37.109375
1929		35.156250
1930		39.062500
1931		35.156250
1932		39.062500
1933		37.109375
1934		41.015625
1935		37.109375
1936		41.015625
1937		39.062500
1938		41.015625
1939		39.062500
1940		42.968750
1941		41.015625
1942		42.968750
1943		41.015625
1944		44.921875
1945		41.015625
1946		42.968750
1947		41.015625
1948		44.921875
1949		42.968750
1950		44.921875
1951		42.968750
1952		44.921875
1953		42.968750
1954		46.875000
1955		42.968750
1956		46.875000
1957		42.968750
1958		46.875000
1959		42.968750
1960		46.875000
1961		44.921875
1962		46.875000
1963		44.921875
1964		46.875000
1965		42.968750
1966		46.875000
1967		44.921875
1968		46.875000
1969		44.921875
1970		46.875000
1971		42.968750
1972		46.875000
1973		42.968750
1974		46.875000
1975		42.968750
1976		46.875000
1977		42.968750
1978		46.875000
1979		42.968750
1980		44.921875
1981		42.968750
1982		44.921875
1983		41.015625
1984		44.921875
1985		41.015625
1986		44.921875
1987		41.015625
1988		44.921875
1989		41.015625
1990		42.968750
1991		39.062500
1992		42.968750
1993		39.062500
1994		42.968750
1995		39.062500
1996		41.015625
1997		37.109375
1998		41.015625
1999		35.156250
2000		39.062500
2001		35.156250
2002		39.062500
2003		33.203125
2004		39.062500
2005		33.203125
2006		37.109375
2007		33.203125
2008		35.156250
2009		31.250000
2010		35.156250
2011		31.250000
2012		33.203125
2013		29.296875
2014		33.203125
2015		27.343750
2016		31.250000
2017		27.343750
2018		31.250000
2019		25.390625
2020		29.296875
2021		23.437500
2022		29.296875
2023		23.437500
2024		27.343750
2025		21.484375
2026		25.390625
2027		21.484375
2028		25.390625
2029		19.531250
2030		23.437500
2031		17.578125
2032		21.484375
2033		17.578125
2034		19.531250
2035		15.625000
2036		19.531250
2037		13.671875
2038		17.578125
2039		11.718750
2040		15.625000
2041		11.718750
2042		13.671875
2043		9.765625
2044		13.671875
2045		9.765625
2046		11.718750
2047		7.812500
2048		9.765625
2049		5.859375
2050		9.765625
2051		3.906250
2052		7.812500
2053		3.906250
2054		5.859375
2055		1.953125
2056		5.859375
2057		0.000000
2058		3.906250
2059		0.000000
2060		3.906250
2061		-1.953125
2062		3.906250
2063		-1.953125
2064		0.000000
2065		-3.906250
2066		0.000000
2067		-5.859375
2068		-1.953125
2069		-5.859375
2070		-1.953125
2071		-7.812500
2072		-3.906250
2073		-7.812500
2074		-5.859375
2075		-9.765625
2076		-5.859375
2077		-9.765625
2078		-5.859375
2079		-9.765625
2080		-7.812500
2081		-13.671875
2082		-7.812500
2083		-11.718750
2084		-9.765625
2085		-13.671875
2086		-9.765625
2087		-13.671875
2088		-11.718750
2089		-13.671875
2090		-11.718750
2091		-15.625000
2092		-11.718750
2093		-15.625000
2094		-11.718750
2095		-15.625000
2096		-13.671875
2097		-15.625000
2098		-13.671875
2099		-17.578125
2100		-13.671875
2101		-15.625000
2102		-13.671875
2103		-15.625000
2104		-13.671875
2105		-17.578125
2106		-13.671875
2107		-17.578125
2108		-13.671875
2109		-15.625000
2110		-13.671875
2111		-17.578125
2112		-13.671875
2113		-15.625000
2114		-13.671875
2115		-15.625000
2116		-13.671875
2117		-15.625000
2118		-11.718750
2119		-15.625000
2120		-11.718750
2121		-15.625000
2122		-11.718750
2123		-15.625000
2124		-11.718750
2125		-13.671875
2126		-9.765625
2127		-13.671875
2128		-9.765625
2129		-11.718750
2130		-9.765625
2131		-11.718750
2132		-9.765625
2133		-11.718750
2134		-7.812500
2135		-9.765625
2136		-7.812500
2137		-9.765625
2138		-5.859375
2139		-7.812500
2140		-3.906250
2141		-7.812500
2142		-3.906250
2143		-5.859375
2144		-3.906250
2145		-5.859375
2146		-1.953125
2147		-3.906250
2148		-1.953125
2149		-3.906250
2150		0.000000
2151		-1.953125
2152		1.953125
2153		-1.953125
2154		1.953125
2155		0.000000
2156		3.906250
2157		1.953125
2158		5.859375
2159		3.906250
2160		7.812500
2161		3.906250
2162		7.812500
2163		5.859375
2164		9.765625
2165		7.812500
2166		11.718750
2167		7.812500
2168		11.718750
2169		9.765625
2170		13.671875
2171		9.765625
2172		13.671875
2173		11.718750
2174		15.625000
2175		13.671875
2176		17.578125
2177		15.625000
2178		19.531250
2179		17.578125
2180		19.531250
2181		17.578125
2182		21.484375
2183		19.531250
2184		23.437500
2185		19.531250
2186		23.437500
2187		21.484375
2188		25.390625
2189		23.437500
2190		27.343750
2191		23.437500
2192		27.343750
2193		25.390625
2194		29.296875
2195		25.390625
2196		29.296875
2197		29.296875
2198		31.250000
2199		29.296875
2200		33.203125
2201		31.250000
2202		33.203125
2203		31.250000
2204		35.156250
2205		33.203125
2206		35.156250
2207		33.203125
2208		37.109375
2209		35.156250
2210		39.062500
2211		35.156250
2212		39.062500
2213		37.109375
2214		39.062500
2215		37.109375
2216		41.015625
2217		37.109375
2218		41.015625
2219		39.062500
2220		42.968750
2221		39.062500
2222		42.968750
2223		41.015625
2224		42.968750
2225		41.015625
2226		42.968750
2227		41.015625
2228		44.921875
2229		41.015625
2230		44.921875
2231		42.968750
2232		44.921875
2233		42.968750
2234		46.875000
2235		42.968750
2236		46.875000
2237		42.968750
2238		46.875000
2239		42.968750
2240		46.875000
2241		44.921875
2242		46.875000
2243		42.968750
2244		46.875000
2245		42.968750
2246		46.875000
2247		44.921875
2248		46.875000
2249		44.921875
2250		46.875000
2251		42.968750
2252		46.875000
2253		42.968750
2254		46.875000
2255		42.968750
2256		46.875000
2257		42.968750
2258		46.875000
2259		42.968750
2260		46.875000
2261		42.968750
2262		46.875000
2263		42.968750
2264		44.921875
2265		42.968750
2266		44.921875
2267		41.015625
2268		44.921875
2269		41.015625
2270		44.921875
2271		41.015625
2272		42.968750
2273		39.062500
2274		42.968750
2275		39.062500
2276		42.968750
2277		37.109375
2278		41.015625
2279		37.109375
2280		41.015625
2281		37.109375
2282		39.062500
2283		35.156250
2284		39.062500
2285		35.156250
2286		37.109375
2287		33.203125
2288		37.109375
2289		33.203125
2290		37.109375
2291		31.250000
2292		35.156250
2293		31.250000
2294		33.203125
2295		29.296875
2296		33.203125
2297		29.296875
2298		31.250000
2299		27.343750
2300		31.250000
2301		25.390625
2302		29.296875
2303		25.390625
2304		29.296875
2305		23.437500
2306		27.343750
2307		21.484375
2308		25.390625
2309		21.484375
2310		25.390625
2311		19.531250
2312		23.437500
2313		17.578125
2314		21.484375
2315		17.578125
2316		19.531250
2317		15.625000
2318		19.531250
2319		13.671875
2320		17.578125
2321		13.671875
2322		15.625000
2323		11.718750
2324		15.625000
2325		9.765625
2326		13.671875
2327		7.812500
2328		11.718750
2329		5.859375
2330		11.718750
2331		5.859375
2332		9.765625
2333		5.859375
2334		7.812500
2335		3.906250
2336		7.812500
2337		1.953125
2338		5.859375
2339		0.000000
2340		3.906250
2341		0.000000
2342		1.953125
2343		-1.953125
2344		1.953125
2345		-1.953125
2346		0.000000
2347		-3.906250
2348		0.000000
2349		-3.906250
2350		-1.953125
2351		-5.859375
2352		-1.953125
2353		-7.812500
2354		-3.906250
2355		-7.812500
2356		-5.859375
2357		-9.765625
2358		-5.859375
2359		-9.765625
2360		-5.859375
2361		-11.718750
2362		-7.812500
2363		-11.718750
2364		-7.812500
2365		-11.718750
2366		-9.765625
2367		-13.671875
2368		-9.765625
2369		-13.671875
2370		-9.765625
2371		-15.625000
2372		-11.718750
2373		-15.625000
2374		-11.718750
2375		-15.625000
2376		-11.718750
2377		-15.625000
2378		-11.718750
2379		-17.578125
2380		-11.718750
2381		-15.625000
2382		-13.671875
2383		-15.625000
2384		-13.671875
2385		-17.578125
2386		-13.671875
2387		-17.578125
2388		-13.671875
2389		-17.578125
2390		-13.671875
2391		-15.625000
2392		-13.671875
2393		-17.578125
2394		-13.671875
2395		-17.578125
2396		-13.671875
2397		-17.578125
2398		-13.671875
2399		-15.625000
2400		-13.671875
2401		-15.625000
2402		-11.718750
2403		-15.625000
2404		-11.718750
2405		-13.671875
2406		-11.718750
2407		-13.671875
2408		-11.718750
2409		-13.671875
2410		-9.765625
2411		-13.671875
2412		-9.765625
2413		-11.718750
2414		-7.812500
2415		-11.718750
2416		-7.812500
2417		-9.765625
2418		-7.812500
2419		-11.718750
2420		-5.859375
2421		-9.765625
2422		-5.859375
2423		-7.812500
2424		-3.906250
2425		-5.859375
2426		-3.906250
2427		-5.859375
2428		-1.953125
2429		-3.906250
2430		-1.953125
2431		-3.906250
2432		0.000000
2433		-1.953125
2434		0.000000
2435		-1.953125
2436		1.953125
2437		0.000000
2438		3.906250
2439		1.953125
2440		3.906250
2441		1.953125
2442		5.859375
2443		3.906250
2444		7.812500
2445		5.859375
2446		9.765625
2447		5.859375
2448		9.765625
2449		7.812500
2450		11.718750
2451		9.765625
2452		13.671875
2453		9.765625
2454		13.671875
2455		11.718750
2456		15.625000
2457		13.671875
2458		17.578125
2459		15.625000
2460		17.578125
2461		15.625000
2462		19.531250
2463		17.578125
2464		21.484375
2465		19.531250
2466		23.437500
2467		21.484375
2468		23.437500
2469		21.484375
2470		25.390625
2471		23.437500
2472		25.390625
2473		23.437500
2474		27.343750
2475		25.390625
2476		29.296875
2477		25.390625
2478		31.250000
2479		27.343750
2480		31.250000
2481		29.296875
2482		33.203125
2483		31.250000
2484		33.203125
2485		31.250000
2486		35.156250
2487		33.203125
2488		35.156250
2489		33.203125
2490		37.109375
2491		33.203125
2492		37.109375
2493		35.156250
2494		39.062500
2495		37.109375
2496		41.015625
2497		37.109375
2498		41.015625
2499		39.062500
2500		41.015625
2501		39.062500
2502		41.015625
2503		39.062500
2504		42.968750
2505		41.015625
2506		42.968750
2507		41.015625
2508		44.921875
2509		41.015625
2510		44.921875
2511		42.968750
2512		44.921875
2513		42.968750
2514		44.921875
2515		42.968750
2516		46.875000
2517		42.968750
2518		46.875000
2519		42.968750
2520		46.875000
2521		44.921875
2522		46.875000
2523		44.921875
2524		46.875000
2525		42.968750
2526		46.875000
2527		44.921875
2528		46.875000
2529		44.921875
2530		46.875000
2531		44.921875
2532		48.828125
2533		44.921875
2534		46.875000
2535		44.921875
2536		46.875000
2537		44.921875
2538		46.875000
2539		44.921875
2540		46.875000
2541		42.968750
2542		46.875000
2543		42.968750
2544		46.875000
2545		42.968750
2546		46.875000
2547		41.015625
2548		46.875000
2549		42.968750
2550		44.921875
2551		42.968750
2552		44.921875
2553		41.015625
2554		44.921875
2555		41.015625
2556		42.968750
2557		39.062500
2558		42.968750
2559		39.062500
2560		41.015625
2561		39.062500
2562		41.015625
2563		37.109375
2564		41.015625
2565		37.109375
2566		39.062500
2567		35.156250
2568		39.062500
2569		33.203125
2570		37.109375
2571		33.203125
2572		37.109375
2573		33.203125
2574		35.156250
2575		31.250000
2576		35.156250
2577		29.296875
2578		33.203125
2579		29.296875
2580		33.203125
2581		27.343750
2582		31.250000
2583		27.343750
2584		29.296875
2585		25.390625
2586		29.296875
2587		23.437500
2588		27.343750
2589		23.437500
2590		25.390625
2591		21.484375
2592		25.390625
2593		19.531250
2594		23.437500
2595		19.531250
2596		23.437500
2597		17.578125
2598		21.484375
2599		15.625000
2600		19.531250
2601		15.625000
2602		17.578125
2603		13.671875
2604		17.578125
2605		11.718750
2606		15.625000
2607		11.718750
2608		13.671875
2609		9.765625
2610		11.718750
2611		7.812500
2612		11.718750
2613		5.859375
2614		9.765625
2615		3.906250
2616		9.765625
2617		3.906250
2618		7.812500
2619		1.953125
2620		5.859375
2621		1.953125
2622		5.859375
2623		0.000000
2624		3.906250
2625		0.000000
2626		1.953125
2627		-1.953125
2628		1.953125
2629		-3.906250
2630		0.000000
2631		-3.906250
2632		-1.953125
2633		-5.859375
2634		-1.953125
2635		-5.859375
2636		-3.906250
2637		-7.812500
2638		-3.906250
2639		-7.812500
2640		-5.859375
2641		-9.765625
2642		-5.859375
2643		-9.765625
2644		-7.812500
2645		-11.718750
2646		-7.812500
2647		-11.718750
2648		-7.812500
2649		-11.718750
2650		-9.765625
2651		-11.718750
2652		-9.765625
2653		-15.625000
2654		-9.765625
2655		-13.671875
2656		-11.718750
2657		-13.671875
2658		-11.718750
2659		-15.625000
2660		-11.718750
2661		-15.625000
2662		-11.718750
2663		-15.625000
2664		-13.671875
2665		-15.625000
2666		-11.718750
2667		-15.625000
2668		-13.671875
2669		-15.625000
2670		-13.671875
2671		-15.625000
2672		-13.671875
2673		-15.625000
2674		-13.671875
2675		-15.625000
2676		-13.671875
2677		-15.625000
2678		-11.718750
2679		-15.625000
2680		-11.718750
2681		-15.625000
2682		-11.718750
2683		-15.625000
2684		-11.718750
2685		-13.671875
2686		-11.718750
2687		-13.671875
2688		-11.718750
2689		-13.671875
2690		-11.718750
2691		-13.671875
2692		-9.765625
2693		-11.718750
2694		-9.765625
2695		-11.718750
2696		-7.812500
2697		-9.765625
2698		-7.812500
2699		-9.765625
2700		-5.859375
2701		-9.765625
2702		-5.859375
2703		-7.812500
2704		-3.906250
2705		-7.812500
2706		-3.906250
2707		-7.812500
2708		-1.953125
2709		-5.859375
2710		-1.953125
2711		-3.906250
2712		0.000000
2713		-3.906250
2714		0.000000
2715		-1.953125
2716		1.953125
2717		0.000000
2718		1.953125
2719		0.000000
2720		3.906250
2721		1.953125
2722		5.859375
2723		1.953125
2724		7.812500
2725		3.906250
2726		7.812500
2727		5.859375
2728		9.765625
2729		7.812500
2730		11.718750
2731		7.812500
2732		11.718750
2733		9.765625
2734		13.671875
2735		11.718750
2736		13.671875
2737		11.718750
2738		17.578125
2739		13.671875
2740		17.578125
2741		15.625000
2742		19.531250
2743		15.625000
2744		19.531250
2745		17.578125
2746		21.484375
2747		19.531250
2748		23.437500
2749		19.531250
2750		25.390625
2751		21.484375
2752		25.390625
2753		23.437500
2754		25.390625
2755		23.437500
2756		27.343750
2757		25.390625
2758		29.296875
2759		27.343750
2760		29.296875
2761		29.296875
2762		31.250000
2763		29.296875
2764		33.203125
2765		29.296875
2766		33.203125
2767		31.250000
2768		35.156250
2769		33.203125
2770		35.156250
2771		33.203125
2772		37.109375
2773		35.156250
2774		37.109375
2775		35.156250
2776		39.062500
2777		37.109375
2778		41.015625
2779		37.109375
2780		41.015625
2781		39.062500
2782		41.015625
2783		39.062500
2784		42.968750
2785		41.015625
2786		42.968750
2787		41.015625
2788		44.921875
2789		41.015625
2790		42.968750
2791		41.015625
2792		44.921875
2793		42.968750
2794		44.921875
2795		42.968750
2796		46.875000
2797		42.968750
2798		46.875000
2799		42.968750
2800		46.875000
2801		44.921875
2802		46.875000
2803		44.921875
2804		46.875000
2805		44.921875
2806		46.875000
2807		44.921875
2808		46.875000
2809		44.921875
2810		46.875000
2811		44.921875
2812		46.875000
2813		44.921875
2814		48.828125
2815		44.921875
2816		46.875000
2817		42.968750
2818		46.875000
2819		44.921875
2820		46.875000
2821		44.921875
2822		46.875000
2823		42.968750
2824		46.875000
2825		42.968750
2826		46.875000
2827		42.968750
2828		46.875000
2829		42.968750
2830		46.875000
2831		42.968750
2832		44.921875
2833		41.015625
2834		44.921875
2835		41.015625
2836		42.968750
2837		41.015625
2838		42.968750
2839		39.062500
2840		42.968750
2841		39.062500
2842		42.968750
2843		37.109375
2844		41.015625
2845		37.109375
2846		41.015625
2847		37.109375
2848		39.062500
2849		35.156250
2850		39.062500
2851		35.156250
2852		39.062500
2853		33.203125
2854		37.109375
2855		31.250000
2856		35.156250
2857		31.250000
2858		35.156250
2859		29.296875
2860		33.203125
2861		29.296875
2862		33.203125
2863		27.343750
2864		31.250000
2865		27.343750
2866		29.296875
2867		25.390625
2868		29.296875
2869		23.437500
2870		27.343750
2871		23.437500
2872		25.390625
2873		21.484375
2874		25.390625
2875		19.531250
2876		23.437500
2877		19.531250
2878		21.484375
2879		17.578125
2880		21.484375
2881		15.625000
2882		19.531250
2883		13.671875
2884		17.578125
2885		13.671875
2886		17.578125
2887		11.718750
2888		15.625000
2889		9.765625
2890		13.671875
2891		9.765625
2892		13.671875
2893		7.812500
2894		11.718750
2895		5.859375
2896		9.765625
2897		3.906250
2898		9.765625
2899		3.906250
2900		7.812500
2901		1.953125
2902		7.812500
2903		1.953125
2904		3.906250
2905		0.000000
2906		3.906250
2907		-1.953125
2908		1.953125
2909		-1.953125
2910		1.953125
2911		-3.906250
2912		0.000000
2913		-3.906250
2914		-1.953125
2915		-5.859375
2916		-1.953125
2917		-7.812500
2918		-1.953125
2919		-7.812500
2920		-3.906250
2921		-7.812500
2922		-3.906250
2923		-9.765625
2924		-5.859375
2925		-9.765625
2926		-7.812500
2927		-11.718750
2928		-7.812500
2929		-11.718750
2930		-9.765625
2931		-11.718750
2932		-9.765625
2933		-13.671875
2934		-9.765625
2935		-13.671875
2936		-9.765625
2937		-13.671875
2938		-11.718750
2939		-15.625000
2940		-11.718750
2941		-15.625000
2942		-11.718750
2943		-15.625000
2944		-11.718750
2945		-15.625000
2946		-13.671875
2947		-15.625000
2948		-13.671875
2949		-15.625000
2950		-13.671875
2951		-17.578125
2952		-13.671875
2953		-15.625000
2954		-13.671875
2955		-15.625000
2956		-13.671875
2957		-15.625000
2958		-13.671875
2959		-15.625000
2960		-13.671875
2961		-15.625000
2962		-13.671875
2963		-15.625000
2964		-11.718750
2965		-15.625000
2966		-11.718750
2967		-15.625000
2968		-11.718750
2969		-15.625000
2970		-11.718750
2971		-13.671875
2972		-11.718750
2973		-13.671875
2974		-9.765625
2975		-11.718750
2976		-9.765625
2977		-11.718750
2978		-7.812500
2979		-11.718750
2980		-7.812500
2981		-9.765625
2982		-7.812500
2983		-9.765625
2984		-5.859375
2985		-7.812500
2986		-3.906250
2987		-7.812500
2988		-3.906250
2989		-5.859375
2990		-1.953125
2991		-5.859375
2992		-1.953125
2993		-3.906250
2994		-1.953125
2995		-3.906250
2996		0.000000
2997		-1.953125
2998		0.000000
2999		-1.953125
3000		1.953125
3001		0.000000
3002		3.906250
3003		1.953125
3004		3.906250
3005		3.906250
3006		5.859375
3007		3.906250
3008		7.812500
3009		5.859375
3010		9.765625
3011		5.859375
3012		9.765625
3013		7.812500
3014		11.718750
3015		9.765625
3016		13.671875
3017		11.718750
3018		15.625000
3019		9.765625
3020		15.625000
3021		13.671875
3022		17.578125
3023		15.625000
3024		19.531250
3025		17.578125
3026		19.531250
3027		17.578125
3028		21.484375
3029		19.531250
3030		23.437500
3031		19.531250
3032		23.437500
3033		21.484375
3034		25.390625
3035		23.437500
3036		25.390625
3037		25.390625
3038		27.343750
3039		25.390625
3040		29.296875
3041		25.390625
3042		29.296875
3043		27.343750
3044		31.250000
3045		29.296875
3046		33.203125
3047		31.250000
3048		35.156250
3049		31.250000
3050		35.156250
3051		31.250000
3052		35.156250
3053		33.203125
3054		37.109375
3055		35.156250
3056		37.109375
3057		35.156250
3058		39.062500
3059		37.109375
3060		39.062500
3061		37.109375
3062		41.015625
3063		39.062500
3064		41.015625
3065		39.062500
3066		42.968750
3067		39.062500
3068		42.968750
3069		41.015625
3070		42.968750
3071		41.015625
3072		42.968750
3073		41.015625
3074		44.921875
3075		42.968750
3076		44.921875
3077		42.968750
3078		44.921875
3079		42.968750
3080		46.875000
3081		42.968750
3082		46.875000
3083		42.968750
3084		46.875000
3085		42.968750
3086		46.875000
3087		44.921875
3088		46.875000
3089		44.921875
3090		46.875000
3091		44.921875
3092		48.828125
3093		44.921875
3094		48.828125
3095		44.921875
3096		48.828125
3097		44.921875
3098		48.828125
3099		44.921875
3100		46.875000
3101		44.921875
3102		46.875000
3103		42.968750
3104		48.828125
3105		44.921875
3106		46.875000
3107		42.968750
3108		46.875000
3109		42.968750
3110		46.875000
3111		42.968750
3112		46.875000
3113		42.968750
3114		44.921875
3115		41.015625
3116		44.921875
3117		41.015625
3118		44.921875
3119		41.015625
3120		42.968750
3121		41.015625
3122		42.968750
3123		39.062500
3124		41.015625
3125		37.109375
3126		42.968750
3127		37.109375
3128		41.015625
3129		37.109375
3130		39.062500
3131		35.156250
3132		39.062500
3133		35.156250
3134		37.109375
3135		33.203125
3136		37.109375
3137		33.203125
3138		37.109375
3139		31.250000
3140		35.156250
3141		29.296875
3142		35.156250
3143		29.296875
3144		33.203125
3145		27.343750
3146		31.250000
3147		27.343750
3148		31.250000
3149		25.390625
3150		29.296875
3151		25.390625
3152		29.296875
3153		23.437500
3154		27.343750
3155		21.484375
3156		25.390625
3157		21.484375
3158		23.437500
3159		19.531250
3160		23.437500
3161		17.578125
3162		21.484375
3163		17.578125
3164		21.484375
3165		15.625000
3166		19.531250
3167		13.671875
3168		17.578125
3169		11.718750
3170		15.625000
3171		11.718750
3172		15.625000
3173		9.765625
3174		13.671875
3175		7.812500
3176		11.718750
3177		7.812500
3178		11.718750
3179		5.859375
3180		9.765625
3181		5.859375
3182		7.812500
3183		3.906250
3184		7.812500
3185		1.953125
3186		5.859375
3187		0.000000
3188		5.859375
3189		0.000000
3190		3.906250
3191		-1.953125
3192		1.953125
3193		-1.953125
3194		0.000000
3195		-3.906250
3196		0.000000
3197		-5.859375
3198		-1.953125
3199		-5.859375
3200		-1.953125
3201		-7.812500
3202		-3.906250
3203		-7.812500
3204		-3.906250
3205		-9.765625
3206		-5.859375
3207		-9.765625
3208		-7.812500
3209		-11.718750
3210		-5.859375
3211		-11.718750
3212		-7.812500
3213		-11.718750
3214		-9.765625
3215		-11.718750
3216		-9.765625
3217		-13.671875
3218		-9.765625
3219		-13.671875
3220		-9.765625
3221		-15.625000
3222		-11.718750
3223		-13.671875
3224		-11.718750
3225		-15.625000
3226		-11.718750
3227		-15.625000
3228		-11.718750
3229		-15.625000
3230		-13.671875
3231		-17.578125
3232		-11.718750
3233		-15.625000
3234		-13.671875
3235		-15.625000
3236		-13.671875
3237		-17.578125
3238		-11.718750
3239		-15.625000
3240		-13.671875
3241		-17.578125
3242		-13.671875
3243		-15.625000
3244		-11.718750
3245		-15.625000
3246		-11.718750
3247		-15.625000
3248		-11.718750
3249		-13.671875
3250		-11.718750
3251		-13.671875
3252		-11.718750
3253		-13.671875
3254		-9.765625
3255		-13.671875
3256		-9.765625
3257		-11.718750
3258		-9.765625
3259		-13.671875
3260		-7.812500
3261		-9.765625
3262		-7.812500
3263		-9.765625
3264		-7.812500
3265		-9.765625
3266		-5.859375
3267		-9.765625
3268		-5.859375
3269		-7.812500
3270		-3.906250
3271		-7.812500
3272		-3.906250
3273		-5.859375
3274		-1.953125
3275		-3.906250
3276		0.000000
3277		-3.906250
3278		0.000000
3279		-1.953125
3280		1.953125
3281		0.000000
3282		1.953125
3283		0.000000
3284		3.906250
3285		1.953125
3286		3.906250
3287		1.953125
3288		5.859375
3289		3.906250
3290		7.812500
3291		5.859375
3292		9.765625
3293		5.859375
3294		9.765625
3295		7.812500
3296		11.718750
3297		9.765625
3298		11.718750
3299		9.765625
3300		13.671875
3301		11.718750
3302		15.625000
3303		13.671875
3304		17.578125
3305		13.671875
3306		17.578125
3307		15.625000
3308		19.531250
3309		17.578125
3310		21.484375
3311		19.531250
3312		23.437500
3313		19.531250
3314		23.437500
3315		21.484375
3316		25.390625
3317		23.437500
3318		25.390625
3319		23.437500
3320		27.343750
3321		25.390625
3322		29.296875
3323		27.343750
3324		29.296875
3325		27.343750
3326		31.250000
3327		29.296875
3328		31.250000
3329		29.296875
3330		33.203125
3331		31.250000
3332		35.156250
3333		33.203125
3334		35.156250
3335		33.203125
3336		37.109375
3337		35.156250
3338		37.109375
3339		35.156250
3340		39.062500
3341		37.109375
3342		39.062500
3343		37.109375
3344		41.015625
3345		37.109375
3346		41.015625
3347		37.109375
3348		42.968750
3349		39.062500
3350		42.968750
3351		41.015625
3352		42.968750
3353		41.015625
3354		44.921875
3355		41.015625
3356		44.921875
3357		42.968750
3358		44.921875
3359		42.968750
3360		46.875000
3361		42.968750
3362		46.875000
3363		42.968750
3364		46.875000
3365		44.921875
3366		46.875000
3367		44.921875
3368		46.875000
3369		44.921875
3370		46.875000
3371		42.968750
3372		46.875000
3373		44.921875
3374		46.875000
3375		44.921875
3376		46.875000
3377		44.921875
3378		46.875000
3379		44.921875
3380		46.875000
3381		44.921875
3382		46.875000
3383		44.921875
3384		46.875000
3385		42.968750
3386		46.875000
3387		42.968750
3388		46.875000
3389		42.968750
3390		46.875000
3391		42.968750
3392		44.921875
3393		42.968750
3394		46.875000
3395		42.968750
3396		44.921875
3397		41.015625
3398		44.921875
3399		41.015625
3400		44.921875
3401		41.015625
3402		42.968750
3403		39.062500
3404		42.968750
3405		39.062500
3406		42.968750
3407		37.109375
3408		41.015625
3409		37.109375
3410		41.015625
3411		37.109375
3412		41.015625
3413		35.156250
3414		39.062500
3415		35.156250
3416		39.062500
3417		33.203125
3418		37.109375
3419		33.203125
3420		37.109375
3421		31.250000
3422		35.156250
3423		31.250000
3424		33.203125
3425		29.296875
3426		33.203125
3427		27.343750
3428		31.250000
3429		27.343750
3430		31.250000
3431		25.390625
3432		29.296875
3433		25.390625
3434		29.296875
3435		23.437500
3436		27.343750
3437		21.484375
3438		25.390625
3439		21.484375
3440		23.437500
3441		19.531250
3442		23.437500
3443		17.578125
3444		21.484375
3445		15.625000
3446		21.484375
3447		15.625000
3448		17.578125
3449		13.671875
3450		17.578125
3451		11.718750
3452		15.625000
3453		11.718750
3454		15.625000
3455		9.765625
3456		13.671875
3457		9.765625
3458		11.718750
3459		7.812500
3460		9.765625
3461		5.859375
3462		9.765625
3463		3.906250
3464		7.812500
3465		3.906250
3466		5.859375
3467		1.953125
3468		5.859375
3469		1.953125
3470		3.906250
3471		0.000000
3472		1.953125
3473		-1.953125
3474		1.953125
3475		-1.953125
3476		0.000000
3477		-3.906250
3478		0.000000
3479		-5.859375
3480		-1.953125
3481		-5.859375
3482		-1.953125
3483		-7.812500
3484		-3.906250
3485		-7.812500
3486		-3.906250
3487		-9.765625
3488		-5.859375
3489		-11.718750
3490		-5.859375
3491		-9.765625
3492		-7.812500
3493		-11.718750
3494		-7.812500
3495		-11.718750
3496		-7.812500
3497		-13.671875
3498		-9.765625
3499		-13.671875
3500		-9.765625
3501		-13.671875
3502		-11.718750
3503		-15.625000
3504		-11.718750
3505		-15.625000
3506		-11.718750
3507		-15.625000
3508		-11.718750
3509		-15.625000
3510		-11.718750
3511		-15.625000
3512		-13.671875
3513		-15.625000
3514		-13.671875
3515		-15.625000
3516		-13.671875
3517		-15.625000
3518		-13.671875
3519		-15.625000
3520		-11.718750
3521		-15.625000
3522		-13.671875
3523		-15.625000
3524		-11.718750
3525		-15.625000
3526		-13.671875
3527		-15.625000
3528		-11.718750
3529		-13.671875
3530		-11.718750
3531		-13.671875
3532		-11.718750
3533		-13.671875
3534		-11.718750
3535		-13.671875
3536		-9.765625
3537		-13.671875
3538		-9.765625
3539		-11.718750
3540		-9.765625
3541		-11.718750
3542		-7.812500
3543		-9.765625
3544		-7.812500
3545		-11.718750
3546		-5.859375
3547		-9.765625
3548		-5.859375
3549		-7.812500
3550		-5.859375
3551		-7.812500
3552		-3.906250
3553		-5.859375
3554		-3.906250
3555		-5.859375
3556		-1.953125
3557		-5.859375
3558		-1.953125
3559		-3.906250
3560		0.000000
3561		-1.953125
3562		1.953125
3563		0.000000
3564		1.953125
3565		0.000000
3566		3.906250
3567		1.953125
3568		3.906250
3569		1.953125
3570		5.859375
3571		3.906250
3572		7.812500
3573		5.859375
3574		9.765625
3575		7.812500
3576		9.765625
3577		7.812500
3578		11.718750
3579		7.812500
3580		13.671875
3581		9.765625
3582		15.625000
3583		11.718750
3584		15.625000
3585		13.671875
3586		17.578125
3587		15.625000
3588		19.531250
3589		15.625000
3590		19.531250
3591		17.578125
3592		21.484375
3593		19.531250
3594		21.484375
3595		19.531250
3596		23.437500
3597		21.484375
3598		25.390625
3599		23.437500
3600		27.343750
3601		23.437500
3602		27.343750
3603		25.390625
3604		29.296875
3605		27.343750
3606		31.250000
3607		29.296875
3608		31.250000
3609		29.296875
3610		33.203125
3611		31.250000
3612		35.156250
3613		31.250000
3614		35.156250
3615		33.203125
3616		37.109375
3617		33.203125
3618		37.109375
3619		35.156250
3620		37.109375
3621		35.156250
3622		39.062500
3623		35.156250
3624		41.015625
3625		37.109375
3626		41.015625
3627		39.062500
3628		41.015625
3629		39.062500
3630		42.968750
3631		41.015625
3632		42.968750
3633		41.015625
3634		42.968750
3635		41.015625
3636		44.921875
3637		41.015625
3638		44.921875
3639		42.968750
3640		46.875000
3641		42.968750
3642		46.875000
3643		44.921875
3644		46.875000
3645		44.921875
3646		48.828125
3647		44.921875
3648		46.875000
3649		44.921875
3650		48.828125
3651		44.921875
3652		46.875000
3653		44.921875
3654		48.828125
3655		44.921875
3656		48.828125
3657		44.921875
3658		48.828125
3659		44.921875
3660		46.875000
3661		44.921875
3662		46.875000
3663		44.921875
3664		48.828125
3665		44.921875
3666		48.828125
3667		44.921875
3668		48.828125
3669		44.921875
3670		46.875000
3671		44.921875
3672		46.875000
3673		42.968750
3674		46.875000
3675		42.968750
3676		46.875000
3677		42.968750
3678		46.875000
3679		41.015625
3680		44.921875
3681		41.015625
3682		44.921875
3683		41.015625
3684		42.968750
3685		41.015625
3686		42.968750
3687		39.062500
3688		42.968750
3689		39.062500
3690		42.968750
3691		37.109375
3692		41.015625
3693		37.109375
3694		41.015625
3695		35.156250
3696		39.062500
3697		35.156250
3698		39.062500
3699		33.203125
3700		37.109375
3701		33.203125
3702		37.109375
3703		33.203125
3704		35.156250
3705		31.250000
3706		35.156250
3707		29.296875
3708		33.203125
3709		29.296875
3710		31.250000
3711		27.343750
3712		31.250000
3713		25.390625
3714		29.296875
3715		25.390625
3716		29.296875
3717		23.437500
3718		27.343750
3719		21.484375
3720		25.390625
3721		21.484375
3722		25.390625
3723		19.531250
3724		23.437500
3725		17.578125
3726		21.484375
3727		17.578125
3728		21.484375
3729		15.625000
3730		19.531250
3731		13.671875
3732		17.578125
3733		13.671875
3734		17.578125
3735		11.718750
3736		15.625000
3737		9.765625
3738		13.671875
3739		9.765625
3740		13.671875
3741		7.812500
3742		11.718750
3743		7.812500
3744		9.765625
3745		5.859375
3746		7.812500
3747		3.906250
3748		7.812500
3749		1.953125
3750		5.859375
3751		1.953125
3752		3.906250
3753		0.000000
3754		3.906250
3755		0.000000
3756		1.953125
3757		-1.953125
3758		1.953125
3759		-3.906250
3760		0.000000
3761		-3.906250
3762		-1.953125
3763		-5.859375
3764		-1.953125
3765		-5.859375
3766		-3.906250
3767		-7.812500
3768		-3.906250
3769		-7.812500
3770		-5.859375
3771		-9.765625
3772		-5.859375
3773		-9.765625
3774		-5.859375
3775		-11.718750
3776		-7.812500
3777		-11.718750
3778		-9.765625
3779		-13.671875
3780		-9.765625
3781		-13.671875
3782		-9.765625
3783		-13.671875
3784		-9.765625
3785		-15.625000
3786		-11.718750
3787		-15.625000
3788		-11.718750
3789		-15.625000
3790		-11.718750
3791		-15.625000
3792		-11.718750
3793		-15.625000
3794		-11.718750
3795		-15.625000
3796		-11.718750
3797		-15.625000
3798		-13.671875
3799		-15.625000
3800		-13.671875
3801		-15.625000
3802		-13.671875
3803		-15.625000
3804		-13.671875
3805		-15.625000
3806		-11.718750
3807		-15.625000
3808		-11.718750
3809		-15.625000
3810		-11.718750
3811		-13.671875
3812		-13.671875
3813		-15.625000
3814		-11.718750
3815		-13.671875
3816		-11.718750
3817		-13.671875
3818		-9.765625
3819		-13.671875
3820		-9.765625
3821		-13.671875
3822		-9.765625
3823		-11.718750
3824		-9.765625
3825		-11.718750
3826		-7.812500
3827		-9.765625
3828		-7.812500
3829		-9.765625
3830		-5.859375
3831		-9.765625
3832		-3.906250
3833		-7.812500
3834		-3.906250
3835		-5.859375
3836		-3.906250
3837		-5.859375
3838		-1.953125
3839		-5.859375
3840		-1.953125
3841		-3.906250
3842		0.000000
3843		-3.906250
3844		0.000000
3845		0.000000
3846		1.953125
3847		0.000000
3848		3.906250
3849		1.953125
3850		3.906250
3851		1.953125
3852		5.859375
3853		3.906250
3854		7.812500
3855		5.859375
3856		7.812500
3857		5.859375
3858		9.765625
3859		7.812500
3860		11.718750
3861		9.765625
3862		11.718750
3863		9.765625
3864		13.671875
3865		11.718750
3866		15.625000
3867		13.671875
3868		15.625000
3869		13.671875
3870		19.531250
3871		15.625000
3872		19.531250
3873		15.625000
3874		21.484375
3875		17.578125
3876		23.437500
3877		19.531250
3878		23.437500
3879		21.484375
3880		25.390625
3881		21.484375
3882		25.390625
3883		23.437500
3884		27.343750
3885		25.390625
3886		29.296875
3887		27.343750
3888		29.296875
3889		27.343750
3890		31.250000
3891		29.296875
3892		33.203125
3893		29.296875
3894		33.203125
3895		31.250000
3896		33.203125
3897		33.203125
3898		35.156250
3899		33.203125
3900		37.109375
3901		35.156250
3902		37.109375
3903		35.156250
3904		39.062500
3905		35.156250
3906		39.062500
3907		37.109375
3908		41.015625
3909		37.109375
3910		41.015625
3911		39.062500
3912		41.015625
3913		39.062500
3914		42.968750
3915		41.015625
3916		42.968750
3917		41.015625
3918		44.921875
3919		41.015625
3920		44.921875
3921		41.015625
3922		44.921875
3923		42.968750
3924		44.921875
3925		42.968750
3926		46.875000
3927		42.968750
3928		46.875000
3929		44.921875
3930		46.875000
3931		44.921875
3932		46.875000
3933		44.921875
3934		46.875000
3935		44.921875
3936		46.875000
3937		44.921875
3938		46.875000
3939		44.921875
3940		46.875000
3941		44.921875
3942		48.828125
3943		44.921875
3944		48.828125
3945		44.921875
3946		46.875000
3947		42.968750
3948		46.875000
3949		44.921875
3950		46.875000
3951		44.921875
3952		46.875000
3953		42.968750
3954		46.875000
3955		42.968750
3956		46.875000
3957		42.968750
3958		46.875000
3959		42.968750
3960		46.875000
3961		42.968750
3962		44.921875
3963		41.015625
3964		44.921875
3965		41.015625
3966		44.921875
3967		41.015625
3968		42.968750
3969		39.062500
3970		42.968750
3971		39.062500
3972		41.015625
3973		37.109375
3974		41.015625
3975		37.109375
3976		41.015625
3977		35.156250
3978		39.062500
3979		35.156250
3980		39.062500
3981		33.203125
3982		37.109375
3983		33.203125
3984		37.109375
3985		31.250000
3986		35.156250
3987		31.250000
3988		35.156250
3989		29.296875
3990		33.203125
3991		29.296875
3992		31.250000
3993		27.343750
3994		31.250000
3995		25.390625
3996		29.296875
3997		25.390625
3998		29.296875
3999		23.437500
4000		27.343750
4001		23.437500
4002		25.390625
4003		21.484375
4004		25.390625
4005		19.531250
4006		23.437500
4007		19.531250
4008		21.484375
4009		17.578125
4010		21.484375
4011		15.625000
4012		19.531250
4013		15.625000
4014		17.578125
4015		11.718750
4016		17.578125
4017		11.718750
4018		15.625000
4019		9.765625
4020		13.671875
4021		9.765625
4022		13.671875
4023		7.812500
4024		11.718750
4025		5.859375
4026		9.765625
4027		5.859375
4028		9.765625
4029		3.906250
4030		7.812500
4031		1.953125
4032		5.859375
4033		1.953125
4034		5.859375
4035		0.000000
4036		3.906250
4037		-1.953125
4038		1.953125
4039		-1.953125
4040		1.953125
4041		-3.906250
4042		0.000000
4043		-5.859375
4044		-1.953125
4045		-5.859375
4046		-1.953125
4047		-5.859375
4048		-3.906250
4049		-7.812500
4050		-3.906250
4051		-7.812500
4052		-5.859375
4053		-9.765625
4054		-5.859375
4055		-9.765625
4056		-5.859375
4057		-11.718750
4058		-7.812500
4059		-11.718750
4060		-7.812500
4061		-11.718750
4062		-7.812500
4063		-11.718750
4064		-9.765625
4065		-13.671875
4066		-9.765625
4067		-13.671875
4068		-11.718750
4069		-13.671875
4070		-9.765625
4071		-15.625000
4072		-11.718750
4073		-15.625000
4074		-11.718750
4075		-15.625000
4076		-11.718750
4077		-15.625000
4078		-11.718750
4079		-15.625000
4080		-13.671875
4081		-15.625000
4082		-11.718750
4083		-15.625000
4084		-11.718750
4085		-15.625000
4086		-13.671875
4087		-15.625000
4088		-11.718750
4089		-15.625000
4090		-11.718750
4091		-15.625000
4092		-11.718750
4093		-13.671875
4094		-11.718750
4095		-15.625000
4096		-11.718750
4097		-13.671875
4098		-11.718750
4099		-13.671875
4100		-9.765625
4101		-11.718750
4102		-9.765625
4103		-11.718750
4104		-9.765625
4105		-11.718750
4106		-7.812500
4107		-11.718750
4108		-7.812500
4109		-9.765625
4110		-5.859375
4111		-9.765625
4112		-5.859375
4113		-7.812500
4114		-5.859375
4115		-5.859375
4116		-3.906250
4117		-7.812500
4118		-1.953125
4119		-5.859375
4120		-1.953125
4121		-3.906250
4122		-1.953125
4123		-3.906250
4124		0.000000
4125		-1.953125
4126		1.953125
4127		0.000000
4128		3.906250
4129		0.000000
4130		3.906250
4131		1.953125
4132		3.906250
4133		3.906250
4134		5.859375
4135		3.906250
4136		7.812500
4137		5.859375
4138		9.765625
4139		5.859375
4140		9.765625
4141		7.812500
4142		11.718750
4143		9.765625
4144		13.671875
4145		11.718750
4146		13.671875
4147		11.718750
4148		15.625000
4149		13.671875
4150		17.578125
4151		15.625000
4152		17.578125
4153		15.625000
4154		19.531250
4155		17.578125
4156		21.484375
4157		19.531250
4158		21.484375
4159		19.531250
4160		23.437500
4161		21.484375
4162		27.343750
4163		23.437500
4164		25.390625
4165		25.390625
4166		27.343750
4167		25.390625
4168		29.296875
4169		27.343750
4170		31.250000
4171		27.343750
4172		31.250000
4173		29.296875
4174		33.203125
4175		29.296875
4176		35.156250
4177		31.250000
4178		35.156250
4179		31.250000
4180		35.156250
4181		35.156250
4182		37.109375
4183		35.156250
4184		39.062500
4185		35.156250
4186		39.062500
4187		37.109375
4188		41.015625
4189		37.109375
4190		41.015625
4191		37.109375
4192		41.015625
4193		39.062500
4194		42.968750
4195		39.062500
4196		42.968750
4197		41.015625
4198		42.968750
4199		41.015625
4200		44.921875
4201		41.015625
4202		44.921875
4203		42.968750
4204		44.921875
4205		42.968750
4206		46.875000
4207		42.968750
4208		46.875000
4209		44.921875
4210		46.875000
4211		44.921875
4212		46.875000
4213		44.921875
4214		46.875000
4215		44.921875
4216		46.875000
4217		44.921875
4218		48.828125
4219		44.921875
4220		48.828125
4221		44.921875
4222		48.828125
4223		44.921875
4224		48.828125
4225		44.921875
4226		48.828125
4227		44.921875
4228		48.828125
4229		44.921875
4230		48.828125
4231		44.921875
4232		46.875000
4233		44.921875
4234		48.828125
4235		44.921875
4236		46.875000
4237		42.968750
4238		46.875000
4239		44.921875
4240		46.875000
4241		42.968750
4242		46.875000
4243		42.968750
4244		46.875000
4245		41.015625
4246		44.921875
4247		41.015625
4248		44.921875
4249		41.015625
4250		44.921875
4251		39.062500
4252		42.968750
4253		39.062500
4254		42.968750
4255		37.109375
4256		42.968750
4257		37.109375
4258		41.015625
4259		37.109375
4260		41.015625
4261		35.156250
4262		39.062500
4263		35.156250
4264		39.062500
4265		33.203125
4266		37.109375
4267		33.203125
4268		35.156250
4269		31.250000
4270		35.156250
4271		29.296875
4272		35.156250
4273		29.296875
4274		33.203125
4275		27.343750
4276		33.203125
4277		27.343750
4278		31.250000
4279		25.390625
4280		29.296875
4281		23.437500
4282		27.343750
4283		23.437500
4284		25.390625
4285		21.484375
4286		25.390625
4287		19.531250
4288		25.390625
4289		19.531250
4290		23.437500
4291		17.578125
4292		21.484375
4293		17.578125
4294		19.531250
4295		15.625000
4296		19.531250
4297		13.671875
4298		17.578125
4299		11.718750
4300		15.625000
4301		9.765625
4302		15.625000
4303		7.812500
4304		13.671875
4305		7.812500
4306		13.671875
4307		5.859375
4308		11.718750
4309		3.906250
4310		9.765625
4311		3.906250
4312		7.812500
4313		1.953125
4314		7.812500
4315		1.953125
4316		3.906250
4317		0.000000
4318		3.906250
4319		-1.953125
4320		3.906250
4321		-1.953125
4322		1.953125
4323		-3.906250
4324		1.953125
4325		-5.859375
4326		0.000000
4327		-5.859375
4328		-1.953125
4329		-7.812500
4330		-1.953125
4331		-7.812500
4332		-3.906250
4333		-7.812500
4334		-5.859375
4335		-9.765625
4336		-5.859375
4337		-9.765625
4338		-5.859375
4339		-11.718750
4340		-5.859375
4341		-11.718750
4342		-7.812500
4343		-13.671875
4344		-7.812500
4345		-13.671875
4346		-9.765625
4347		-13.671875
4348		-9.765625
4349		-13.671875
4350		-11.718750
4351		-15.625000
4352		-11.718750
4353		-15.625000
4354		-9.765625
4355		-15.625000
4356		-11.718750
4357		-15.625000
4358		-11.718750
4359		-15.625000
4360		-11.718750
4361		-15.625000
4362		-11.718750
4363		-15.625000
4364		-11.718750
4365		-15.625000
4366		-13.671875
4367		-15.625000
4368		-13.671875
4369		-15.625000
4370		-11.718750
4371		-15.625000
4372		-13.671875
4373		-15.625000
4374		-11.718750
4375		-15.625000
4376		-11.718750
4377		-13.671875
4378		-11.718750
4379		-13.671875
4380		-11.718750
4381		-13.671875
4382		-9.765625
4383		-11.718750
4384		-9.765625
4385		-11.718750
4386		-7.812500
4387		-11.718750
4388		-7.812500
4389		-9.765625
4390		-7.812500
4391		-9.765625
4392		-7.812500
4393		-9.765625
4394		-5.859375
4395		-7.812500
4396		-5.859375
4397		-7.812500
4398		-3.906250
4399		-5.859375
4400		-3.906250
4401		-5.859375
4402		-1.953125
4403		-3.906250
4404		-1.953125
4405		-3.906250
4406		0.000000
4407		-1.953125
4408		0.000000
4409		0.000000
4410		1.953125
4411		0.000000
4412		3.906250
4413		1.953125
4414		3.906250
4415		1.953125
4416		5.859375
4417		3.906250
4418		7.812500
4419		5.859375
4420		9.765625
4421		5.859375
4422		9.765625
4423		7.812500
4424		11.718750
4425		9.765625
4426		11.718750
4427		9.765625
4428		13.671875
4429		11.718750
4430		15.625000
4431		13.671875
4432		15.625000
4433		15.625000
4434		17.578125
4435		15.625000
4436		19.531250
4437		17.578125
4438		19.531250
4439		19.531250
4440		21.484375
4441		19.531250
4442		23.437500
4443		21.484375
4444		23.437500
4445		23.437500
4446		25.390625
4447		23.437500
4448		27.343750
4449		25.390625
4450		29.296875
4451		27.343750
4452		29.296875
4453		27.343750
4454		31.250000
4455		29.296875
4456		31.250000
4457		29.296875
4458		33.203125
4459		31.250000
4460		35.156250
4461		33.203125
4462		35.156250
4463		33.203125
4464		37.109375
4465		35.156250
4466		37.109375
4467		35.156250
4468		39.062500
4469		35.156250
4470		41.015625
4471		35.156250
4472		42.968750
4473		35.156250
4474		44.921875
4475		39.062500
4476		41.015625
4477		41.015625
4478		42.968750
4479		41.015625
4480		42.968750
4481		41.015625
4482		44.921875
4483		41.015625
4484		44.921875
4485		39.062500
4486		46.875000
4487		39.062500
4488		48.828125
4489		41.015625
4490		48.828125
4491		41.015625
4492		48.828125
4493		44.921875
4494		46.875000
4495		44.921875
4496		46.875000
4497		44.921875
4498		46.875000
4499		44.921875
4500		46.875000
4501		44.921875
4502		46.875000
4503		42.968750
4504		50.781250
4505		42.968750
4506		50.781250
4507		42.968750
4508		52.734375
4509		44.921875
4510		46.875000
4511		44.921875
4512		46.875000
4513		44.921875
4514		46.875000
4515		44.921875
4516		46.875000
4517		42.968750
4518		46.875000
4519		41.015625
4520		50.781250
4521		41.015625
4522		50.781250
4523		39.062500
4524		48.828125
4525		41.015625
4526		48.828125
4527		42.968750
4528		44.921875
4529		41.015625
4530		44.921875
4531		41.015625
4532		44.921875
4533		39.062500
4534		42.968750
4535		39.062500
4536		42.968750
4537		35.156250
4538		44.921875
4539		35.156250
4540		42.968750
4541		33.203125
4542		42.968750
4543		35.156250
4544		39.062500
4545		35.156250
4546		37.109375
4547		33.203125
4548		37.109375
4549		33.203125
4550		35.156250
4551		31.250000
4552		35.156250
4553		27.343750
4554		37.109375
4555		25.390625
4556		35.156250
4557		25.390625
4558		35.156250
4559		27.343750
4560		31.250000
4561		25.390625
4562		29.296875
4563		25.390625
4564		27.343750
4565		23.437500
4566		27.343750
4567		21.484375
4568		25.390625
4569		17.578125
4570		25.390625
4571		15.625000
4572		27.343750
4573		15.625000
4574		23.437500
4575		13.671875
4576		23.437500
4577		15.625000
4578		17.578125
4579		13.671875
4580		17.578125
4581		13.671875
4582		15.625000
4583		11.718750
4584		13.671875
4585		9.765625
4586		13.671875
4587		5.859375
4588		15.625000
4589		5.859375
4590		13.671875
4591		3.906250
4592		11.718750
4593		3.906250
4594		7.812500
4595		3.906250
4596		5.859375
4597		1.953125
4598		5.859375
4599		1.953125
4600		3.906250
4601		0.000000
4602		1.953125
4603		-5.859375
4604		5.859375
4605		-5.859375
4606		3.906250
4607		-5.859375
4608		3.906250
4609		-7.812500
4610		1.953125
4611		-5.859375
4612		-3.906250
4613		-5.859375
4614		-3.906250
4615		-7.812500
4616		-5.859375
4617		-7.812500
4618		-5.859375
4619		-9.765625
4620		-7.812500
4621		-13.671875
4622		-3.906250
4623		-13.671875
4624		-3.906250
4625		-13.671875
4626		-5.859375
4627		-11.718750
4628		-9.765625
4629		-13.671875
4630		-9.765625
4631		-13.671875
4632		-11.718750
4633		-13.671875
4634		-11.718750
4635		-13.671875
4636		-11.718750
4637		-17.578125
4638		-9.765625
4639		-17.578125
4640		-9.765625
4641		-19.531250
4642		-9.765625
4643		-17.578125
4644		-9.765625
4645		-15.625000
4646		-13.671875
4647		-15.625000
4648		-13.671875
4649		-15.625000
4650		-13.671875
4651		-15.625000
4652		-13.671875
4653		-15.625000
4654		-11.718750
4655		-15.625000
4656		-9.765625
4657		-17.578125
4658		-9.765625
4659		-15.625000
4660		-9.765625
4661		-13.671875
4662		-11.718750
4663		-13.671875
4664		-9.765625
4665		-11.718750
4666		-9.765625
4667		-11.718750
4668		-9.765625
4669		-11.718750
4670		-7.812500
4671		-9.765625
4672		-7.812500
4673		-11.718750
4674		-3.906250
4675		-11.718750
4676		-3.906250
4677		-7.812500
4678		-5.859375
4679		-7.812500
4680		-3.906250
4681		-5.859375
4682		-3.906250
4683		-5.859375
4684		-1.953125
4685		-3.906250
4686		-1.953125
4687		-3.906250
4688		0.000000
4689		-3.906250
4690		1.953125
4691		-1.953125
4692		3.906250
4693		0.000000
4694		3.906250
4695		1.953125
4696		3.906250
4697		1.953125
4698		5.859375
4699		3.906250
4700		7.812500
4701		5.859375
4702		7.812500
4703		7.812500
4704		9.765625
4705		7.812500
4706		11.718750
4707		9.765625
4708		11.718750
4709		9.765625
4710		13.671875
4711		11.718750
4712		15.625000
4713		13.671875
4714		15.625000
4715		15.625000
4716		17.578125
4717		15.625000
4718		19.531250
4719		17.578125
4720		21.484375
4721		19.531250
4722		21.484375
4723		19.531250
4724		23.437500
4725		21.484375
4726		25.390625
4727		21.484375
4728		25.390625
4729		23.437500
4730		27.343750
4731		25.390625
4732		27.343750
4733		27.343750
4734		29.296875
4735		27.343750
4736		31.250000
4737		29.296875
4738		31.250000
4739		31.250000
4740		33.203125
4741		31.250000
4742		35.156250
4743		33.203125
4744		35.156250
4745		33.203125
4746		37.109375
4747		35.156250
4748		37.109375
4749		35.156250
4750		39.062500
4751		37.109375
4752		39.062500
4753		37.109375
4754		41.015625
4755		39.062500
4756		41.015625
4757		39.062500
4758		42.968750
4759		41.015625
4760		42.968750
4761		41.015625
4762		44.921875
4763		41.015625
4764		44.921875
4765		42.968750
4766		44.921875
4767		42.968750
4768		44.921875
4769		42.968750
4770		44.921875
4771		42.968750
4772		46.875000
4773		42.968750
4774		46.875000
4775		44.921875
4776		46.875000
4777		44.921875
4778		46.875000
4779		42.968750
4780		48.828125
4781		44.921875
4782		48.828125
4783		44.921875
4784		46.875000
4785		44.921875
4786		48.828125
4787		44.921875
4788		46.875000
4789		44.921875
4790		48.828125
4791		44.921875
4792		48.828125
4793		44.921875
4794		46.875000
4795		44.921875
4796		48.828125
4797		44.921875
4798		46.875000
4799		44.921875
4800		46.875000
4801		44.921875
4802		46.875000
4803		44.921875
4804		46.875000
4805		42.968750
4806		46.875000
4807		42.968750
4808		46.875000
4809		42.968750
4810		44.921875
4811		41.015625
4812		44.921875
4813		41.015625
4814		44.921875
4815		41.015625
4816		42.968750
4817		39.062500
4818		42.968750
4819		39.062500
4820		42.968750
4821		35.156250
4822		41.015625
4823		37.109375
4824		41.015625
4825		35.156250
4826		39.062500
4827		35.156250
4828		37.109375
4829		33.203125
4830		37.109375
4831		33.203125
4832		37.109375
4833		31.250000
4834		35.156250
4835		31.250000
4836		33.203125
4837		29.296875
4838		33.203125
4839		27.343750
4840		31.250000
4841		27.343750
4842		31.250000
4843		25.390625
4844		29.296875
4845		23.437500
4846		27.343750
4847		23.437500
4848		27.343750
4849		21.484375
4850		25.390625
4851		21.484375
4852		23.437500
4853		19.531250
4854		23.437500
4855		15.625000
4856		21.484375
4857		15.625000
4858		19.531250
4859		15.625000
4860		19.531250
4861		13.671875
4862		17.578125
4863		11.718750
4864		15.625000
4865		11.718750
4866		15.625000
4867		9.765625
4868		13.671875
4869		7.812500
4870		11.718750
4871		5.859375
4872		9.765625
4873		3.906250
4874		9.765625
4875		3.906250
4876		7.812500
4877		3.906250
4878		5.859375
4879		1.953125
4880		5.859375
4881		0.000000
4882		3.906250
4883		0.000000
4884		1.953125
4885		-1.953125
4886		1.953125
4887		-3.906250
4888		0.000000
4889		-5.859375
4890		0.000000
4891		-5.859375
4892		-1.953125
4893		-5.859375
4894		-1.953125
4895		-7.812500
4896		-3.906250
4897		-9.765625
4898		-3.906250
4899		-9.765625
4900		-5.859375
4901		-9.765625
4902		-5.859375
4903		-9.765625
4904		-7.812500
4905		-11.718750
4906		-7.812500
4907		-11.718750
4908		-7.812500
4909		-11.718750
4910		-9.765625
4911		-13.671875
4912		-9.765625
4913		-13.671875
4914		-9.765625
4915		-13.671875
4916		-9.765625
4917		-13.671875
4918		-11.718750
4919		-15.625000
4920		-11.718750
4921		-15.625000
4922		-13.671875
4923		-15.625000
4924		-11.718750
4925		-15.625000
4926		-11.718750
4927		-15.625000
4928		-13.671875
4929		-17.578125
4930		-11.718750
4931		-15.625000
4932		-13.671875
4933		-15.625000
4934		-13.671875
4935		-15.625000
4936		-13.671875
4937		-15.625000
4938		-13.671875
4939		-15.625000
4940		-11.718750
4941		-13.671875
4942		-11.718750
4943		-13.671875
4944		-11.718750
4945		-13.671875
4946		-11.718750
4947		-13.671875
4948		-9.765625
4949		-13.671875
4950		-9.765625
4951		-11.718750
4952		-9.765625
4953		-11.718750
4954		-7.812500
4955		-9.765625
4956		-7.812500
4957		-9.765625
4958		-7.812500
4959		-7.812500
4960		-5.859375
4961		-7.812500
4962		-5.859375
4963		-7.812500
4964		-3.906250
4965		-5.859375
4966		-3.906250
4967		-5.859375
4968		-1.953125
4969		-3.906250
4970		0.000000
4971		-1.953125
4972		0.000000
4973		-1.953125
4974		1.953125
4975		0.000000
4976		3.906250
4977		1.953125
4978		3.906250
4979		1.953125
4980		5.859375
4981		3.906250
4982		5.859375
4983		5.859375
4984		7.812500
4985		5.859375
4986		9.765625
4987		7.812500
4988		9.765625
4989		9.765625
4990		11.718750
4991		9.765625
4992		13.671875
4993		11.718750
4994		15.625000
4995		13.671875
4996		15.625000
4997		13.671875
4998		17.578125
4999		15.625000
5000		19.531250
5001		17.578125
5002		19.531250
5003		17.578125
5004		21.484375
5005		19.531250
5006		23.437500
5007		21.484375
5008		23.437500
5009		23.437500
5010		25.390625
5011		23.437500
5012		27.343750
5013		25.390625
5014		27.343750
5015		25.390625
5016		29.296875
5017		27.343750
5018		31.250000
5019		29.296875
5020		31.250000
5021		29.296875
5022		33.203125
5023		31.250000
5024		33.203125
5025		33.203125
5026		35.156250
5027		33.203125
5028		37.109375
5029		35.156250
5030		37.109375
5031		35.156250
5032		39.062500
5033		37.109375
5034		39.062500
5035		37.109375
5036		41.015625
5037		39.062500
5038		41.015625
5039		39.062500
5040		41.015625
5041		39.062500
5042		42.968750
5043		41.015625
5044		42.968750
5045		41.015625
5046		42.968750
5047		42.968750
5048		44.921875
5049		42.968750
5050		44.921875
5051		42.968750
5052		44.921875
5053		42.968750
5054		44.921875
5055		44.921875
5056		46.875000
5057		44.921875
5058		48.828125
5059		44.921875
5060		46.875000
5061		44.921875
5062		46.875000
5063		44.921875
5064		46.875000
5065		44.921875
5066		46.875000
5067		44.921875
5068		48.828125
5069		44.921875
5070		48.828125
5071		44.921875
5072		48.828125
5073		44.921875
5074		48.828125
5075		42.968750
5076		48.828125
5077		44.921875
5078		48.828125
5079		44.921875
5080		46.875000
5081		44.921875
5082		46.875000
5083		44.921875
5084		46.875000
5085		42.968750
5086		46.875000
5087		42.968750
5088		46.875000
5089		42.968750
5090		44.921875
5091		41.015625
5092		46.875000
5093		41.015625
5094		44.921875
5095		41.015625
5096		42.968750
5097		41.015625
5098		42.968750
5099		41.015625
5100		42.968750
5101		39.062500
5102		41.015625
5103		37.109375
5104		41.015625
5105		37.109375
5106		39.062500
5107		35.156250
5108		39.062500
5109		35.156250
5110		39.062500
5111		33.203125
5112		39.062500
5113		33.203125
5114		37.109375
5115		33.203125
5116		35.156250
5117		31.250000
5118		33.203125
5119		29.296875
5120		33.203125
5121		29.296875
5122		31.250000
5123		27.343750
5124		31.250000
5125		25.390625
5126		31.250000
5127		23.437500
5128		29.296875
5129		23.437500
5130		27.343750
5131		23.437500
5132		25.390625
5133		21.484375
5134		23.437500
5135		19.531250
5136		23.437500
5137		17.578125
5138		21.484375
5139		17.578125
5140		19.531250
5141		13.671875
5142		21.484375
5143		13.671875
5144		19.531250
5145		13.671875
5146		15.625000
5147		11.718750
5148		15.625000
5149		9.765625
5150		13.671875
5151		9.765625
5152		11.718750
5153		7.812500
5154		11.718750
5155		5.859375
5156		9.765625
5157		5.859375
5158		7.812500
5159		1.953125
5160		7.812500
5161		1.953125
5162		7.812500
5163		1.953125
5164		3.906250
5165		0.000000
5166		3.906250
5167		-1.953125
5168		1.953125
5169		-1.953125
5170		0.000000
5171		-3.906250
5172		0.000000
5173		-3.906250
5174		-1.953125
5175		-5.859375
5176		-1.953125
5177		-7.812500
5178		-1.953125
5179		-7.812500
5180		-3.906250
5181		-7.812500
5182		-5.859375
5183		-9.765625
5184		-5.859375
5185		-9.765625
5186		-7.812500
5187		-9.765625
5188		-7.812500
5189		-11.718750
5190		-9.765625
5191		-13.671875
5192		-7.812500
5193		-13.671875
5194		-7.812500
5195		-13.671875
5196		-9.765625
5197		-13.671875
5198		-11.718750
5199		-13.671875
5200		-11.718750
5201		-13.671875
5202		-11.718750
5203		-15.625000
5204		-11.718750
5205		-13.671875
5206		-11.718750
5207		-15.625000
5208		-13.671875
5209		-17.578125
5210		-11.718750
5211		-15.625000
5212		-11.718750
5213		-15.625000
5214		-13.671875
5215		-15.625000
5216		-13.671875
5217		-15.625000
5218		-11.718750
5219		-13.671875
5220		-11.718750
5221		-13.671875
5222		-11.718750
5223		-13.671875
5224		-11.718750
5225		-15.625000
5226		-9.765625
5227		-15.625000
5228		-9.765625
5229		-11.718750
5230		-9.765625
5231		-11.718750
5232		-9.765625
5233		-11.718750
5234		-9.765625
5235		-9.765625
5236		-7.812500
5237		-9.765625
5238		-7.812500
5239		-9.765625
5240		-5.859375
5241		-7.812500
5242		-5.859375
5243		-9.765625
5244		-3.906250
5245		-7.812500
5246		-1.953125
5247		-5.859375
5248		-1.953125
5249		-3.906250
5250		-1.953125
5251		-3.906250
5252		0.000000
5253		-1.953125
5254		0.000000
5255		0.000000
5256		1.953125
5257		0.000000
5258		3.906250
5259		0.000000
5260		5.859375
5261		0.000000
5262		7.812500
5263		3.906250
5264		7.812500
5265		5.859375
5266		7.812500
5267		5.859375
5268		9.765625
5269		7.812500
5270		11.718750
5271		9.765625
5272		11.718750
5273		9.765625
5274		13.671875
5275		11.718750
5276		15.625000
5277		13.671875
5278		15.625000
5279		15.625000
5280		17.578125
5281		15.625000
5282		19.531250
5283		17.578125
5284		19.531250
5285		19.531250
5286		21.484375
5287		19.531250
5288		23.437500
5289		21.484375
5290		23.437500
5291		23.437500
5292		25.390625
5293		23.437500
5294		27.343750
5295		25.390625
5296		29.296875
5297		27.343750
5298		29.296875
5299		27.343750
5300		31.250000
5301		29.296875
5302		31.250000
5303		29.296875
5304		33.203125
5305		31.250000
5306		35.156250
5307		33.203125
5308		35.156250
5309		33.203125
5310		37.109375
5311		35.156250
5312		37.109375
5313		35.156250
5314		39.062500
5315		37.109375
5316		39.062500
5317		37.109375
5318		39.062500
5319		39.062500
5320		41.015625
5321		39.062500
5322		41.015625
5323		39.062500
5324		42.968750
5325		41.015625
5326		42.968750
5327		41.015625
5328		42.968750
5329		42.968750
5330		44.921875
5331		42.968750
5332		44.921875
5333		42.968750
5334		44.921875
5335		42.968750
5336		44.921875
5337		42.968750
5338		46.875000
5339		44.921875
5340		46.875000
5341		44.921875
5342		46.875000
5343		44.921875
5344		46.875000
5345		44.921875
5346		46.875000
5347		44.921875
5348		46.875000
5349		44.921875
5350		48.828125
5351		44.921875
5352		46.875000
5353		44.921875
5354		48.828125
5355		44.921875
5356		46.875000
5357		44.921875
5358		46.875000
5359		44.921875
5360		46.875000
5361		44.921875
5362		46.875000
5363		44.921875
5364		46.875000
5365		44.921875
5366		46.875000
5367		44.921875
5368		46.875000
5369		42.968750
5370		46.875000
5371		42.968750
5372		44.921875
5373		42.968750
5374		44.921875
5375		41.015625
5376		44.921875
5377		41.015625
5378		42.968750
5379		41.015625
5380		42.968750
5381		39.062500
5382		42.968750
5383		39.062500
5384		41.015625
5385		37.109375
5386		41.015625
5387		37.109375
5388		39.062500
5389		37.109375
5390		39.062500
5391		35.156250
5392		39.062500
5393		35.156250
5394		37.109375
5395		33.203125
5396		35.156250
5397		31.250000
5398		35.156250
5399		31.250000
5400		33.203125
5401		29.296875
5402		33.203125
5403		29.296875
5404		31.250000
5405		27.343750
5406		31.250000
5407		25.390625
5408		29.296875
5409		25.390625
5410		29.296875
5411		23.437500
5412		27.343750
5413		21.484375
5414		25.390625
5415		21.484375
5416		23.437500
5417		19.531250
5418		23.437500
5419		17.578125
5420		21.484375
5421		17.578125
5422		19.531250
5423		15.625000
5424		19.531250
5425		13.671875
5426		17.578125
5427		13.671875
5428		15.625000
5429		11.718750
5430		15.625000
5431		9.765625
5432		13.671875
5433		9.765625
5434		11.718750
5435		7.812500
5436		11.718750
5437		5.859375
5438		9.765625
5439		5.859375
5440		7.812500
5441		3.906250
5442		5.859375
5443		1.953125
5444		5.859375
5445		0.000000
5446		3.906250
5447		0.000000
5448		3.906250
5449		-1.953125
5450		1.953125
5451		-3.906250
5452		0.000000
5453		-3.906250
5454		0.000000
5455		-3.906250
5456		-1.953125
5457		-5.859375
5458		-3.906250
5459		-5.859375
5460		-3.906250
5461		-7.812500
5462		-5.859375
5463		-7.812500
5464		-5.859375
5465		-9.765625
5466		-7.812500
5467		-9.765625
5468		-7.812500
5469		-11.718750
5470		-7.812500
5471		-11.718750
5472		-9.765625
5473		-11.718750
5474		-9.765625
5475		-13.671875
5476		-9.765625
5477		-13.671875
5478		-11.718750
5479		-13.671875
5480		-11.718750
5481		-13.671875
5482		-11.718750
5483		-13.671875
5484		-11.718750
5485		-15.625000
5486		-13.671875
5487		-15.625000
5488		-13.671875
5489		-15.625000
5490		-13.671875
5491		-15.625000
5492		-13.671875
5493		-15.625000
5494		-13.671875
5495		-15.625000
5496		-13.671875
5497		-15.625000
5498		-13.671875
5499		-15.625000
5500		-13.671875
5501		-15.625000
5502		-13.671875
5503		-15.625000
5504		-11.718750
5505		-13.671875
5506		-11.718750
5507		-13.671875
5508		-11.718750
5509		-13.671875
5510		-11.718750
5511		-13.671875
5512		-9.765625
5513		-11.718750
5514		-9.765625
5515		-11.718750
5516		-9.765625
5517		-11.718750
5518		-7.812500
5519		-9.765625
5520		-7.812500
5521		-9.765625
5522		-5.859375
5523		-7.812500
5524		-5.859375
5525		-7.812500
5526		-5.859375
5527		-7.812500
5528		-3.906250
5529		-5.859375
5530		-3.906250
5531		-3.906250
5532		-1.953125
5533		-3.906250
5534		-1.953125
5535		-1.953125
5536		0.000000
5537		-1.953125
5538		1.953125
5539		0.000000
5540		1.953125
5541		1.953125
5542		3.906250
5543		1.953125
5544		5.859375
5545		3.906250
5546		5.859375
5547		5.859375
5548		7.812500
5549		5.859375
5550		9.765625
5551		7.812500
5552		11.718750
5553		9.765625
5554		11.718750
5555		9.765625
5556		13.671875
5557		11.718750
5558		13.671875
5559		13.671875
5560		15.625000
5561		13.671875
5562		17.578125
5563		15.625000
5564		19.531250
5565		17.578125
5566		19.531250
5567		19.531250
5568		21.484375
5569		19.531250
5570		23.437500
5571		21.484375
5572		23.437500
5573		21.484375
5574		25.390625
5575		23.437500
5576		27.343750
5577		25.390625
5578		29.296875
5579		25.390625
5580		29.296875
5581		27.343750
5582		31.250000
5583		29.296875
5584		31.250000
5585		29.296875
5586		33.203125
5587		31.250000
5588		33.203125
5589		31.250000
5590		35.156250
5591		33.203125
5592		37.109375
5593		35.156250
5594		37.109375
5595		35.156250
5596		39.062500
5597		35.156250
5598		39.062500
5599		37.109375
5600		41.015625
5601		37.109375
5602		41.015625
5603		39.062500
5604		41.015625
5605		39.062500
5606		42.968750
5607		41.015625
5608		42.968750
5609		41.015625
5610		42.968750
5611		41.015625
5612		44.921875
5613		42.968750
5614		44.921875
5615		42.968750
5616		44.921875
5617		42.968750
5618		46.875000
5619		44.921875
5620		46.875000
5621		44.921875
5622		46.875000
5623		44.921875
5624		46.875000
5625		44.921875
5626		46.875000
5627		44.921875
5628		46.875000
5629		44.921875
5630		48.828125
5631		44.921875
5632		48.828125
5633		44.921875
5634		48.828125
5635		44.921875
5636		48.828125
5637		44.921875
5638		48.828125
5639		44.921875
5640		46.875000
5641		44.921875
5642		48.828125
5643		44.921875
5644		46.875000
5645		44.921875
5646		46.875000
5647		44.921875
5648		46.875000
5649		44.921875
5650		46.875000
5651		44.921875
5652		46.875000
5653		42.968750
5654		44.921875
5655		42.968750
5656		44.921875
5657		41.015625
5658		44.921875
5659		41.015625
5660		44.921875
5661		41.015625
5662		42.968750
5663		39.062500
5664		42.968750
5665		39.062500
5666		41.015625
5667		39.062500
5668		41.015625
5669		37.109375
5670		41.015625
5671		37.109375
5672		39.062500
5673		35.156250
5674		39.062500
5675		35.156250
5676		37.109375
5677		33.203125
5678		37.109375
5679		31.250000
5680		35.156250
5681		31.250000
5682		35.156250
5683		31.250000
5684		33.203125
5685		29.296875
5686		31.250000
5687		27.343750
5688		31.250000
5689		27.343750
5690		29.296875
5691		25.390625
5692		29.296875
5693		23.437500
5694		27.343750
5695		23.437500
5696		25.390625
5697		21.484375
5698		25.390625
5699		19.531250
5700		23.437500
5701		19.531250
5702		21.484375
5703		17.578125
5704		21.484375
5705		15.625000
5706		19.531250
5707		13.671875
5708		17.578125
5709		13.671875
5710		15.625000
5711		11.718750
5712		15.625000
5713		11.718750
5714		13.671875
5715		9.765625
5716		11.718750
5717		7.812500
5718		11.718750
5719		7.812500
5720		9.765625
5721		5.859375
5722		7.812500
5723		3.906250
5724		7.812500
5725		3.906250
5726		5.859375
5727		1.953125
5728		3.906250
5729		0.000000
5730		3.906250
5731		0.000000
5732		1.953125
5733		-1.953125
5734		1.953125
5735		-3.906250
5736		0.000000
5737		-3.906250
5738		-1.953125
5739		-5.859375
5740		-1.953125
5741		-5.859375
5742		-3.906250
5743		-7.812500
5744		-3.906250
5745		-7.812500
5746		-5.859375
5747		-7.812500
5748		-5.859375
5749		-9.765625
5750		-7.812500
5751		-9.765625
5752		-7.812500
5753		-11.718750
5754		-9.765625
5755		-11.718750
5756		-9.765625
5757		-13.671875
5758		-9.765625
5759		-13.671875
5760		-11.718750
5761		-13.671875
5762		-11.718750
5763		-13.671875
5764		-11.718750
5765		-13.671875
5766		-11.718750
5767		-13.671875
5768		-11.718750
5769		-15.625000
5770		-13.671875
5771		-15.625000
5772		-13.671875
5773		-15.625000
5774		-13.671875
5775		-15.625000
5776		-13.671875
5777		-15.625000
5778		-13.671875
5779		-15.625000
5780		-11.718750
5781		-15.625000
5782		-13.671875
5783		-13.671875
5784		-11.718750
5785		-13.671875
5786		-11.718750
5787		-13.671875
5788		-11.718750
5789		-13.671875
5790		-11.718750
5791		-13.671875
5792		-11.718750
5793		-13.671875
5794		-9.765625
5795		-11.718750
5796		-9.765625
5797		-11.718750
5798		-9.765625
5799		-11.718750
5800		-7.812500
5801		-9.765625
5802		-7.812500
5803		-9.765625
5804		-5.859375
5805		-7.812500
5806		-5.859375
5807		-7.812500
5808		-3.906250
5809		-5.859375
5810		-3.906250
5811		-5.859375
5812		-1.953125
5813		-3.906250
5814		-1.953125
5815		-3.906250
5816		0.000000
5817		-1.953125
5818		0.000000
5819		-1.953125
5820		1.953125
5821		0.000000
5822		1.953125
5823		1.953125
5824		3.906250
5825		1.953125
5826		5.859375
5827		3.906250
5828		5.859375
5829		5.859375
5830		7.812500
5831		5.859375
5832		9.765625
5833		7.812500
5834		9.765625
5835		9.765625
5836		11.718750
5837		9.765625
5838		13.671875
5839		11.718750
5840		13.671875
5841		13.671875
5842		15.625000
5843		13.671875
5844		17.578125
5845		15.625000
5846		19.531250
5847		17.578125
5848		19.531250
5849		17.578125
5850		21.484375
5851		19.531250
5852		23.437500
5853		21.484375
5854		23.437500
5855		23.437500
5856		25.390625
5857		23.437500
5858		27.343750
5859		25.390625
5860		27.343750
5861		25.390625
5862		29.296875
5863		27.343750
5864		31.250000
5865		29.296875
5866		31.250000
5867		29.296875
5868		33.203125
5869		31.250000
5870		33.203125
5871		33.203125
5872		35.156250
5873		33.203125
5874		35.156250
5875		33.203125
5876		37.109375
5877		35.156250
5878		37.109375
5879		37.109375
5880		39.062500
5881		37.109375
5882		39.062500
5883		37.109375
5884		41.015625
5885		39.062500
5886		41.015625
5887		39.062500
5888		42.968750
5889		41.015625
5890		42.968750
5891		41.015625
5892		44.921875
5893		41.015625
5894		44.921875
5895		42.968750
5896		44.921875
5897		42.968750
5898		44.921875
5899		42.968750
5900		44.921875
5901		44.921875
5902		46.875000
5903		44.921875
5904		46.875000
5905		44.921875
5906		46.875000
5907		44.921875
5908		46.875000
5909		44.921875
5910		46.875000
5911		44.921875
5912		46.875000
5913		44.921875
5914		46.875000
5915		44.921875
5916		48.828125
5917		44.921875
5918		46.875000
5919		44.921875
5920		46.875000
5921		44.921875
5922		46.875000
5923		44.921875
5924		46.875000
5925		44.921875
5926		46.875000
5927		44.921875
5928		46.875000
5929		44.921875
5930		46.875000
5931		44.921875
5932		46.875000
5933		42.968750
5934		46.875000
5935		42.968750
5936		44.921875
5937		42.968750
5938		44.921875
5939		42.968750
5940		44.921875
5941		41.015625
5942		44.921875
5943		41.015625
5944		42.968750
5945		41.015625
5946		42.968750
5947		39.062500
5948		41.015625
5949		39.062500
5950		41.015625
5951		37.109375
5952		39.062500
5953		37.109375
5954		39.062500
5955		35.156250
5956		39.062500
5957		35.156250
5958		37.109375
5959		33.203125
5960		37.109375
5961		33.203125
5962		35.156250
5963		31.250000
5964		35.156250
5965		31.250000
5966		33.203125
5967		29.296875
5968		31.250000
5969		27.343750
5970		31.250000
5971		27.343750
5972		29.296875
5973		25.390625
5974		29.296875
5975		23.437500
5976		27.343750
5977		23.437500
5978		25.390625
5979		21.484375
5980		23.437500
5981		19.531250
5982		23.437500
5983		17.578125
5984		21.484375
5985		17.578125
5986		19.531250
5987		15.625000
5988		19.531250
5989		13.671875
5990		17.578125
5991		13.671875
5992		15.625000
5993		11.718750
5994		15.625000
5995		11.718750
5996		13.671875
5997		9.765625
5998		11.718750
5999		7.812500
6000		11.718750
6001		5.859375
6002		9.765625
6003		5.859375
6004		7.812500
6005		3.906250
6006		7.812500
6007		3.906250
6008		5.859375
6009		1.953125
6010		3.906250
6011		0.000000
6012		3.906250
6013		0.000000
6014		1.953125
6015		-1.953125
6016		0.000000
6017		-3.906250
6018		0.000000
6019		-3.906250
6020		-1.953125
6021		-5.859375
6022		-1.953125
6023		-5.859375
6024		-3.906250
6025		-7.812500
6026		-3.906250
6027		-7.812500
6028		-5.859375
6029		-9.765625
6030		-5.859375
6031		-9.765625
6032		-7.812500
6033		-9.765625
6034		-7.812500
6035		-11.718750
6036		-9.765625
6037		-11.718750
6038		-9.765625
6039		-13.671875
6040		-9.765625
6041		-13.671875
6042		-11.718750
6043		-13.671875
6044		-11.718750
6045		-13.671875
6046		-11.718750
6047		-13.671875
6048		-11.718750
6049		-15.625000
6050		-11.718750
6051		-15.625000
6052		-13.671875
6053		-15.625000
6054		-11.718750
6055		-15.625000
6056		-13.671875
6057		-15.625000
6058		-13.671875
6059		-15.625000
6060		-13.671875
6061		-15.625000
6062		-13.671875
6063		-15.625000
6064		-13.671875
6065		-15.625000
6066		-13.671875
6067		-13.671875
6068		-11.718750
6069		-13.671875
6070		-11.718750
6071		-13.671875
6072		-11.718750
6073		-13.671875
6074		-11.718750
6075		-13.671875
6076		-9.765625
6077		-11.718750
6078		-9.765625
6079		-11.718750
6080		-9.765625
6081		-11.718750
6082		-7.812500
6083		-9.765625
6084		-7.812500
6085		-9.765625
6086		-5.859375
6087		-7.812500
6088		-5.859375
6089		-7.812500
6090		-5.859375
6091		-7.812500
6092		-3.906250
6093		-5.859375
6094		-1.953125
6095		-5.859375
6096		-1.953125
6097		-3.906250
6098		-1.953125
6099		-1.953125
6100		0.000000
6101		-1.953125
6102		1.953125
6103		0.000000
6104		1.953125
6105		1.953125
6106		3.906250
6107		1.953125
6108		5.859375
6109		3.906250
6110		5.859375
6111		3.906250
6112		7.812500
6113		5.859375
6114		9.765625
6115		7.812500
6116		9.765625
6117		7.812500
6118		11.718750
6119		9.765625
6120		13.671875
6121		9.765625
6122		15.625000
6123		13.671875
6124		15.625000
6125		11.718750
6126		17.578125
6127		15.625000
6128		19.531250
6129		17.578125
6130		19.531250
6131		17.578125
6132		21.484375
6133		19.531250
6134		23.437500
6135		21.484375
6136		23.437500
6137		21.484375
6138		27.343750
6139		23.437500
6140		27.343750
6141		23.437500
6142		31.250000
6143		25.390625
6144		29.296875
6145		25.390625
6146		33.203125
6147		29.296875
6148		31.250000
6149		29.296875
6150		33.203125
6151		31.250000
6152		33.203125
6153		31.250000
6154		37.109375
6155		33.203125
6156		37.109375
6157		33.203125
6158		39.062500
6159		35.156250
6160		39.062500
6161		35.156250
6162		41.015625
6163		37.109375
6164		41.015625
6165		39.062500
6166		41.015625
6167		39.062500
6168		42.968750
6169		39.062500
6170		42.968750
6171		39.062500
6172		44.921875
6173		41.015625
6174		42.968750
6175		41.015625
6176		46.875000
6177		42.968750
6178		44.921875
6179		41.015625
6180		48.828125
6181		42.968750
6182		46.875000
6183		44.921875
6184		46.875000
6185		41.015625
6186		50.781250
6187		42.968750
6188		48.828125
6189		44.921875
6190		48.828125
6191		44.921875
6192		48.828125
6193		42.968750
6194		50.781250
6195		42.968750
6196		50.781250
6197		44.921875
6198		48.828125
6199		46.875000
6200		48.828125
6201		44.921875
6202		48.828125
6203		42.968750
6204		50.781250
6205		42.968750
6206		48.828125
6207		44.921875
6208		48.828125
6209		42.968750
6210		50.781250
6211		44.921875
6212		46.875000
6213		42.968750
6214		48.828125
6215		42.968750
6216		46.875000
6217		42.968750
6218		46.875000
6219		41.015625
6220		48.828125
6221		41.015625
6222		46.875000
6223		41.015625
6224		44.921875
6225		39.062500
6226		44.921875
6227		39.062500
6228		46.875000
6229		35.156250
6230		42.968750
6231		39.062500
6232		41.015625
6233		37.109375
6234		41.015625
6235		35.156250
6236		41.015625
6237		33.203125
6238		42.968750
6239		35.156250
6240		39.062500
6241		33.203125
6242		37.109375
6243		29.296875
6244		39.062500
6245		27.343750
6246		39.062500
6247		31.250000
6248		33.203125
6249		29.296875
6250		33.203125
6251		27.343750
6252		31.250000
6253		23.437500
6254		33.203125
6255		25.390625
6256		31.250000
6257		25.390625
6258		27.343750
6259		19.531250
6260		29.296875
6261		19.531250
6262		29.296875
6263		17.578125
6264		27.343750
6265		19.531250
6266		21.484375
6267		17.578125
6268		21.484375
6269		15.625000
6270		19.531250
6271		11.718750
6272		21.484375
6273		13.671875
6274		17.578125
6275		11.718750
6276		15.625000
6277		7.812500
6278		17.578125
6279		7.812500
6280		15.625000
6281		7.812500
6282		11.718750
6283		7.812500
6284		9.765625
6285		3.906250
6286		9.765625
6287		1.953125
6288		11.718750
6289		3.906250
6290		7.812500
6291		1.953125
6292		5.859375
6293		-1.953125
6294		5.859375
6295		-1.953125
6296		5.859375
6297		-3.906250
6298		3.906250
6299		-1.953125
6300		0.000000
6301		-5.859375
6302		0.000000
6303		-7.812500
6304		1.953125
6305		-7.812500
6306		-1.953125
6307		-5.859375
6308		-3.906250
6309		-9.765625
6310		-1.953125
6311		-11.718750
6312		-1.953125
6313		-11.718750
6314		-3.906250
6315		-9.765625
6316		-7.812500
6317		-11.718750
6318		-7.812500
6319		-11.718750
6320		-7.812500
6321		-15.625000
6322		-5.859375
6323		-13.671875
6324		-9.765625
6325		-13.671875
6326		-9.765625
6327		-17.578125
6328		-7.812500
6329		-17.578125
6330		-9.765625
6331		-13.671875
6332		-11.718750
6333		-15.625000
6334		-11.718750
6335		-15.625000
6336		-11.718750
6337		-17.578125
6338		-9.765625
6339		-17.578125
6340		-11.718750
6341		-15.625000
6342		-13.671875
6343		-17.578125
6344		-9.765625
6345		-17.578125
6346		-9.765625
6347		-17.578125
6348		-9.765625
6349		-15.625000
6350		-11.718750
6351		-15.625000
6352		-11.718750
6353		-15.625000
6354		-9.765625
6355		-15.625000
6356		-7.812500
6357		-13.671875
6358		-9.765625
6359		-13.671875
6360		-9.765625
6361		-15.625000
6362		-5.859375
6363		-11.718750
6364		-5.859375
6365		-9.765625
6366		-7.812500
6367		-9.765625
6368		-7.812500
6369		-9.765625
6370		-5.859375
6371		-9.765625
6372		-1.953125
6373		-7.812500
6374		-3.906250
6375		-5.859375
6376		-3.906250
6377		-7.812500
6378		1.953125
6379		-7.812500
6380		1.953125
6381		-5.859375
6382		1.953125
6383		-1.953125
6384		1.953125
6385		0.000000
6386		1.953125
6387		-1.953125
6388		7.812500
6389		0.000000
6390		5.859375
6391		3.906250
6392		5.859375
6393		1.953125
6394		9.765625
6395		5.859375
6396		7.812500
6397		5.859375
6398		13.671875
6399		7.812500
6400		11.718750
6401		9.765625
6402		13.671875
6403		11.718750
6404		13.671875
6405		9.765625
6406		17.578125
6407		11.718750
6408		17.578125
6409		15.625000
6410		17.578125
6411		15.625000
6412		21.484375
6413		17.578125
6414		21.484375
6415		19.531250
6416		21.484375
6417		19.531250
6418		23.437500
6419		21.484375
6420		25.390625
6421		23.437500
6422		25.390625
6423		23.437500
6424		29.296875
6425		25.390625
6426		29.296875
6427		25.390625
6428		31.250000
6429		27.343750
6430		31.250000
6431		29.296875
6432		33.203125
6433		31.250000
6434		33.203125
6435		31.250000
6436		35.156250
6437		33.203125
6438		35.156250
6439		33.203125
6440		37.109375
6441		35.156250
6442		37.109375
6443		35.156250
6444		39.062500
6445		37.109375
6446		39.062500
6447		37.109375
6448		41.015625
6449		39.062500
6450		41.015625
6451		39.062500
6452		42.968750
6453		39.062500
6454		42.968750
6455		41.015625
6456		42.968750
6457		41.015625
6458		42.968750
6459		41.015625
6460		44.921875
6461		42.968750
6462		44.921875
6463		42.968750
6464		44.921875
6465		42.968750
6466		46.875000
6467		42.968750
6468		46.875000
6469		44.921875
6470		48.828125
6471		42.968750
6472		48.828125
6473		44.921875
6474		48.828125
6475		42.968750
6476		48.828125
6477		44.921875
6478		48.828125
6479		44.921875
6480		48.828125
6481		44.921875
6482		48.828125
6483		44.921875
6484		46.875000
6485		44.921875
6486		46.875000
6487		44.921875
6488		48.828125
6489		44.921875
6490		48.828125
6491		42.968750
6492		48.828125
6493		42.968750
6494		48.828125
6495		42.968750
6496		46.875000
6497		42.968750
6498		46.875000
6499		42.968750
6500		46.875000
6501		42.968750
6502		44.921875
6503		41.015625
6504		44.921875
6505		41.015625
6506		44.921875
6507		41.015625
6508		44.921875
6509		39.062500
6510		44.921875
6511		39.062500
6512		42.968750
6513		37.109375
6514		42.968750
6515		37.109375
6516		41.015625
6517		37.109375
6518		39.062500
6519		35.156250
6520		39.062500
6521		33.203125
6522		39.062500
6523		31.250000
6524		37.109375
6525		31.250000
6526		37.109375
6527		31.250000
6528		35.156250
6529		29.296875
6530		35.156250
6531		27.343750
6532		33.203125
6533		27.343750
6534		31.250000
6535		27.343750
6536		29.296875
6537		25.390625
6538		29.296875
6539		25.390625
6540		29.296875
6541		23.437500
6542		27.343750
6543		19.531250
6544		27.343750
6545		19.531250
6546		23.437500
6547		19.531250
6548		23.437500
6549		17.578125
6550		21.484375
6551		17.578125
6552		19.531250
6553		15.625000
6554		17.578125
6555		13.671875
6556		17.578125
6557		11.718750
6558		17.578125
6559		9.765625
6560		15.625000
6561		9.765625
6562		13.671875
6563		7.812500
6564		11.718750
6565		7.812500
6566		11.718750
6567		5.859375
6568		7.812500
6569		3.906250
6570		7.812500
6571		1.953125
6572		7.812500
6573		1.953125
6574		5.859375
6575		0.000000
6576		5.859375
6577		-1.953125
6578		3.906250
6579		-1.953125
6580		1.953125
6581		-3.906250
6582		1.953125
6583		-3.906250
6584		0.000000
6585		-3.906250
6586		-1.953125
6587		-7.812500
6588		-3.906250
6589		-7.812500
6590		-3.906250
6591		-7.812500
6592		-3.906250
6593		-11.718750
6594		-3.906250
6595		-9.765625
6596		-5.859375
6597		-11.718750
6598		-7.812500
6599		-11.718750
6600		-7.812500
6601		-11.718750
6602		-9.765625
6603		-11.718750
6604		-9.765625
6605		-13.671875
6606		-9.765625
6607		-13.671875
6608		-9.765625
6609		-13.671875
6610		-11.718750
6611		-15.625000
6612		-9.765625
6613		-15.625000
6614		-11.718750
6615		-15.625000
6616		-11.718750
6617		-15.625000
6618		-11.718750
6619		-15.625000
6620		-13.671875
6621		-15.625000
6622		-11.718750
6623		-15.625000
6624		-11.718750
6625		-15.625000
6626		-11.718750
6627		-17.578125
6628		-9.765625
6629		-15.625000
6630		-11.718750
6631		-15.625000
6632		-11.718750
6633		-13.671875
6634		-11.718750
6635		-13.671875
6636		-11.718750
6637		-13.671875
6638		-9.765625
6639		-13.671875
6640		-9.765625
6641		-11.718750
6642		-9.765625
6643		-13.671875
6644		-7.812500
6645		-11.718750
6646		-7.812500
6647		-9.765625
6648		-7.812500
6649		-9.765625
6650		-5.859375
6651		-7.812500
6652		-5.859375
6653		-7.812500
6654		-5.859375
6655		-7.812500
6656		-3.906250
6657		-5.859375
6658		-1.953125
6659		-5.859375
6660		-1.953125
6661		-5.859375
6662		0.000000
6663		-1.953125
6664		0.000000
6665		-1.953125
6666		1.953125
6667		-1.953125
6668		1.953125
6669		0.000000
6670		3.906250
6671		1.953125
6672		5.859375
6673		1.953125
6674		5.859375
6675		3.906250
6676		7.812500
6677		3.906250
6678		11.718750
6679		5.859375
6680		9.765625
6681		7.812500
6682		11.718750
6683		9.765625
6684		13.671875
6685		11.718750
6686		13.671875
6687		13.671875
6688		15.625000
6689		13.671875
6690		17.578125
6691		15.625000
6692		17.578125
6693		15.625000
6694		19.531250
6695		17.578125
6696		21.484375
6697		19.531250
6698		21.484375
6699		19.531250
6700		23.437500
6701		21.484375
6702		25.390625
6703		23.437500
6704		27.343750
6705		23.437500
6706		27.343750
6707		25.390625
6708		29.296875
6709		27.343750
6710		29.296875
6711		27.343750
6712		31.250000
6713		29.296875
6714		33.203125
6715		31.250000
6716		35.156250
6717		31.250000
6718		35.156250
6719		33.203125
6720		35.156250
6721		33.203125
6722		37.109375
6723		35.156250
6724		39.062500
6725		37.109375
6726		39.062500
6727		37.109375
6728		39.062500
6729		37.109375
6730		41.015625
6731		37.109375
6732		41.015625
6733		39.062500
6734		42.968750
6735		41.015625
6736		42.968750
6737		41.015625
6738		42.968750
6739		41.015625
6740		44.921875
6741		42.968750
6742		44.921875
6743		42.968750
6744		46.875000
6745		42.968750
6746		46.875000
6747		42.968750
6748		46.875000
6749		44.921875
6750		46.875000
6751		42.968750
6752		48.828125
6753		44.921875
6754		46.875000
6755		44.921875
6756		46.875000
6757		44.921875
6758		48.828125
6759		44.921875
6760		48.828125
6761		44.921875
6762		48.828125
6763		44.921875
6764		48.828125
6765		44.921875
6766		48.828125
6767		44.921875
6768		48.828125
6769		44.921875
6770		46.875000
6771		44.921875
6772		46.875000
6773		44.921875
6774		48.828125
6775		44.921875
6776		46.875000
6777		42.968750
6778		46.875000
6779		42.968750
6780		46.875000
6781		42.968750
6782		46.875000
6783		42.968750
6784		46.875000
6785		42.968750
6786		44.921875
6787		41.015625
6788		44.921875
6789		39.062500
6790		44.921875
6791		39.062500
6792		42.968750
6793		39.062500
6794		42.968750
6795		39.062500
6796		42.968750
6797		37.109375
6798		41.015625
6799		37.109375
6800		41.015625
6801		35.156250
6802		39.062500
6803		35.156250
6804		37.109375
6805		33.203125
6806		37.109375
6807		33.203125
6808		37.109375
6809		31.250000
6810		35.156250
6811		29.296875
6812		35.156250
6813		29.296875
6814		33.203125
6815		27.343750
6816		33.203125
6817		27.343750
6818		31.250000
6819		25.390625
6820		29.296875
6821		25.390625
6822		27.343750
6823		23.437500
6824		27.343750
6825		21.484375
6826		25.390625
6827		19.531250
6828		25.390625
6829		19.531250
6830		21.484375
6831		17.578125
6832		21.484375
6833		17.578125
6834		19.531250
6835		15.625000
6836		19.531250
6837		13.671875
6838		17.578125
6839		11.718750
6840		15.625000
6841		11.718750
6842		13.671875
6843		9.765625
6844		13.671875
6845		7.812500
6846		11.718750
6847		7.812500
6848		11.718750
6849		5.859375
6850		9.765625
6851		3.906250
6852		7.812500
6853		3.906250
6854		5.859375
6855		1.953125
6856		5.859375
6857		0.000000
6858		5.859375
6859		0.000000
6860		1.953125
6861		-1.953125
6862		1.953125
6863		-3.906250
6864		0.000000
6865		-3.906250
6866		0.000000
6867		-5.859375
6868		-1.953125
6869		-5.859375
6870		-1.953125
6871		-5.859375
6872		-3.906250
6873		-9.765625
6874		-3.906250
6875		-9.765625
6876		-5.859375
6877		-9.765625
6878		-5.859375
6879		-11.718750
6880		-7.812500
6881		-11.718750
6882		-7.812500
6883		-11.718750
6884		-7.812500
6885		-13.671875
6886		-9.765625
6887		-13.671875
6888		-9.765625
6889		-13.671875
6890		-9.765625
6891		-15.625000
6892		-11.718750
6893		-13.671875
6894		-11.718750
6895		-15.625000
6896		-11.718750
6897		-15.625000
6898		-11.718750
6899		-15.625000
6900		-13.671875
6901		-15.625000
6902		-11.718750
6903		-15.625000
6904		-13.671875
6905		-15.625000
6906		-13.671875
6907		-15.625000
6908		-13.671875
6909		-15.625000
6910		-11.718750
6911		-15.625000
6912		-11.718750
6913		-15.625000
6914		-11.718750
6915		-15.625000
6916		-11.718750
6917		-13.671875
6918		-11.718750
6919		-13.671875
6920		-11.718750
6921		-13.671875
6922		-9.765625
6923		-13.671875
6924		-9.765625
6925		-13.671875
6926		-9.765625
6927		-11.718750
6928		-7.812500
6929		-11.718750
6930		-7.812500
6931		-9.765625
6932		-7.812500
6933		-9.765625
6934		-5.859375
6935		-9.765625
6936		-5.859375
6937		-7.812500
6938		-3.906250
6939		-5.859375
6940		-3.906250
6941		-5.859375
6942		-1.953125
6943		-3.906250
6944		-1.953125
6945		-3.906250
6946		0.000000
6947		-1.953125
6948		0.000000
6949		-1.953125
6950		1.953125
6951		0.000000
6952		3.906250
6953		0.000000
6954		3.906250
6955		1.953125
6956		5.859375
6957		3.906250
6958		7.812500
6959		5.859375
6960		9.765625
6961		5.859375
6962		9.765625
6963		7.812500
6964		11.718750
6965		9.765625
6966		11.718750
6967		9.765625
6968		13.671875
6969		11.718750
6970		15.625000
6971		13.671875
6972		15.625000
6973		15.625000
6974		17.578125
6975		15.625000
6976		19.531250
6977		17.578125
6978		21.484375
6979		17.578125
6980		23.437500
6981		19.531250
6982		23.437500
6983		21.484375
6984		25.390625
6985		21.484375
6986		27.343750
6987		23.437500
6988		27.343750
6989		25.390625
6990		27.343750
6991		25.390625
6992		29.296875
6993		27.343750
6994		31.250000
6995		29.296875
6996		33.203125
6997		29.296875
6998		33.203125
6999		31.250000
7000		35.156250
7001		33.203125
7002		35.156250
7003		33.203125
7004		37.109375
7005		35.156250
7006		37.109375
7007		35.156250
7008		39.062500
7009		35.156250
7010		39.062500
7011		37.109375
7012		41.015625
7013		39.062500
7014		41.015625
7015		39.062500
7016		42.968750
7017		39.062500
7018		42.968750
7019		41.015625
7020		42.968750
7021		41.015625
7022		42.968750
7023		41.015625
7024		44.921875
7025		42.968750
7026		46.875000
7027		42.968750
7028		46.875000
7029		42.968750
7030		46.875000
7031		42.968750
7032		46.875000
7033		44.921875
7034		46.875000
7035		44.921875
7036		46.875000
7037		44.921875
7038		48.828125
7039		44.921875
7040		48.828125
7041		44.921875
7042		46.875000
7043		44.921875
7044		48.828125
7045		44.921875
7046		48.828125
7047		44.921875
7048		48.828125
7049		44.921875
7050		48.828125
7051		44.921875
7052		48.828125
7053		44.921875
7054		48.828125
7055		44.921875
7056		46.875000
7057		42.968750
7058		48.828125
7059		42.968750
7060		46.875000
7061		42.968750
7062		46.875000
7063		42.968750
7064		46.875000
7065		42.968750
7066		44.921875
7067		42.968750
7068		44.921875
7069		41.015625
7070		44.921875
7071		41.015625
7072		42.968750
7073		41.015625
7074		42.968750
7075		39.062500
7076		42.968750
7077		39.062500
7078		41.015625
7079		37.109375
7080		41.015625
7081		37.109375
7082		39.062500
7083		35.156250
7084		39.062500
7085		35.156250
7086		37.109375
7087		33.203125
7088		37.109375
7089		33.203125
7090		35.156250
7091		31.250000
7092		35.156250
7093		29.296875
7094		33.203125
7095		29.296875
7096		33.203125
7097		29.296875
7098		33.203125
7099		27.343750
7100		31.250000
7101		25.390625
7102		29.296875
7103		23.437500
7104		29.296875
7105		23.437500
7106		27.343750
7107		21.484375
7108		25.390625
7109		21.484375
7110		23.437500
7111		19.531250
7112		23.437500
7113		17.578125
7114		21.484375
7115		15.625000
7116		19.531250
7117		15.625000
7118		17.578125
7119		13.671875
7120		17.578125
7121		11.718750
7122		17.578125
7123		11.718750
7124		13.671875
7125		9.765625
7126		13.671875
7127		7.812500
7128		11.718750
7129		7.812500
7130		11.718750
7131		5.859375
7132		9.765625
7133		3.906250
7134		7.812500
7135		1.953125
7136		5.859375
7137		1.953125
7138		5.859375
7139		0.000000
7140		3.906250
7141		0.000000
7142		1.953125
7143		-1.953125
7144		1.953125
7145		-3.906250
7146		0.000000
7147		-3.906250
7148		0.000000
7149		-5.859375
7150		-1.953125
7151		-5.859375
7152		-1.953125
7153		-7.812500
7154		-3.906250
7155		-7.812500
7156		-3.906250
7157		-7.812500
7158		-5.859375
7159		-9.765625
7160		-5.859375
7161		-9.765625
7162		-7.812500
7163		-11.718750
7164		-7.812500
7165		-11.718750
7166		-9.765625
7167		-13.671875
7168		-9.765625
7169		-13.671875
7170		-9.765625
7171		-15.625000
7172		-9.765625
7173		-13.671875
7174		-11.718750
7175		-15.625000
7176		-11.718750
7177		-15.625000
7178		-11.718750
7179		-15.625000
7180		-11.718750
7181		-15.625000
7182		-11.718750
7183		-15.625000
7184		-11.718750
7185		-15.625000
7186		-11.718750
7187		-15.625000
7188		-11.718750
7189		-15.625000
7190		-11.718750
7191		-15.625000
7192		-13.671875
7193		-15.625000
7194		-11.718750
7195		-15.625000
7196		-11.718750
7197		-15.625000
7198		-11.718750
7199		-13.671875
7200		-11.718750
7201		-13.671875
7202		-11.718750
7203		-13.671875
7204		-9.765625
7205		-11.718750
7206		-9.765625
7207		-11.718750
7208		-9.765625
7209		-11.718750
7210		-7.812500
7211		-11.718750
7212		-7.812500
7213		-9.765625
7214		-5.859375
7215		-9.765625
7216		-5.859375
7217		-9.765625
7218		-5.859375
7219		-7.812500
7220		-3.906250
7221		-7.812500
7222		-3.906250
7223		-5.859375
7224		-1.953125
7225		-3.906250
7226		-1.953125
7227		-3.906250
7228		0.000000
7229		-3.906250
7230		1.953125
7231		-1.953125
7232		1.953125
7233		0.000000
7234		3.906250
7235		1.953125
7236		3.906250
7237		1.953125
7238		5.859375
7239		1.953125
7240		7.812500
7241		5.859375
7242		7.812500
7243		5.859375
7244		9.765625
7245		7.812500
7246		11.718750
7247		9.765625
7248		13.671875
7249		9.765625
7250		13.671875
7251		11.718750
7252		15.625000
7253		11.718750
7254		15.625000
7255		13.671875
7256		17.578125
7257		15.625000
7258		19.531250
7259		17.578125
7260		21.484375
7261		17.578125
7262		21.484375
7263		19.531250
7264		23.437500
7265		21.484375
7266		23.437500
7267		23.437500
7268		25.390625
7269		23.437500
7270		27.343750
7271		25.390625
7272		29.296875
7273		27.343750
7274		29.296875
7275		27.343750
7276		31.250000
7277		27.343750
7278		31.250000
7279		29.296875
7280		33.203125
7281		31.250000
7282		35.156250
7283		33.203125
7284		35.156250
7285		33.203125
7286		37.109375
7287		35.156250
7288		37.109375
7289		35.156250
7290		39.062500
7291		37.109375
7292		39.062500
7293		37.109375
7294		41.015625
7295		37.109375
7296		41.015625
7297		39.062500
7298		41.015625
7299		39.062500
7300		42.968750
7301		41.015625
7302		42.968750
7303		41.015625
7304		44.921875
7305		41.015625
7306		44.921875
7307		42.968750
7308		44.921875
7309		42.968750
7310		44.921875
7311		42.968750
7312		46.875000
7313		42.968750
7314		46.875000
7315		44.921875
7316		46.875000
7317		44.921875
7318		46.875000
7319		44.921875
7320		46.875000
7321		44.921875
7322		46.875000
7323		44.921875
7324		48.828125
7325		44.921875
7326		46.875000
7327		44.921875
7328		48.828125
7329		44.921875
7330		48.828125
7331		44.921875
7332		48.828125
7333		44.921875
7334		48.828125
7335		44.921875
7336		48.828125
7337		44.921875
7338		46.875000
7339		42.968750
7340		48.828125
7341		44.921875
7342		46.875000
7343		42.968750
7344		46.875000
7345		42.968750
7346		46.875000
7347		42.968750
7348		44.921875
7349		42.968750
7350		44.921875
7351		41.015625
7352		44.921875
7353		41.015625
7354		42.968750
7355		39.062500
7356		42.968750
7357		39.062500
7358		41.015625
7359		39.062500
7360		41.015625
7361		37.109375
7362		41.015625
7363		37.109375
7364		41.015625
7365		35.156250
7366		39.062500
7367		35.156250
7368		39.062500
7369		33.203125
7370		37.109375
7371		33.203125
7372		35.156250
7373		31.250000
7374		35.156250
7375		31.250000
7376		33.203125
7377		29.296875
7378		33.203125
7379		27.343750
7380		31.250000
7381		27.343750
7382		29.296875
7383		25.390625
7384		29.296875
7385		23.437500
7386		27.343750
7387		23.437500
7388		27.343750
7389		21.484375
7390		25.390625
7391		21.484375
7392		23.437500
7393		19.531250
7394		21.484375
7395		17.578125
7396		21.484375
7397		15.625000
7398		19.531250
7399		15.625000
7400		17.578125
7401		13.671875
7402		17.578125
7403		13.671875
7404		15.625000
7405		9.765625
7406		13.671875
7407		9.765625
7408		13.671875
7409		7.812500
7410		11.718750
7411		5.859375
7412		9.765625
7413		5.859375
7414		9.765625
7415		3.906250
7416		7.812500
7417		1.953125
7418		5.859375
7419		1.953125
7420		5.859375
7421		0.000000
7422		3.906250
7423		-1.953125
7424		1.953125
7425		-1.953125
7426		1.953125
7427		-3.906250
7428		0.000000
7429		-3.906250
7430		-1.953125
7431		-5.859375
7432		-1.953125
7433		-5.859375
7434		-3.906250
7435		-7.812500
7436		-3.906250
7437		-7.812500
7438		-5.859375
7439		-9.765625
7440		-5.859375
7441		-9.765625
7442		-7.812500
7443		-11.718750
7444		-7.812500
7445		-11.718750
7446		-7.812500
7447		-11.718750
7448		-9.765625
7449		-13.671875
7450		-9.765625
7451		-13.671875
7452		-11.718750
7453		-13.671875
7454		-11.718750
7455		-15.625000
7456		-11.718750
7457		-15.625000
7458		-11.718750
7459		-15.625000
7460		-13.671875
7461		-15.625000
7462		-13.671875
7463		-15.625000
7464		-13.671875
7465		-15.625000
7466		-13.671875
7467		-17.578125
7468		-13.671875
7469		-15.625000
7470		-13.671875
7471		-15.625000
7472		-13.671875
7473		-15.625000
7474		-13.671875
7475		-15.625000
7476		-13.671875
7477		-15.625000
7478		-13.671875
7479		-15.625000
7480		-11.718750
7481		-15.625000
7482		-11.718750
7483		-15.625000
7484		-11.718750
7485		-15.625000
7486		-11.718750
7487		-13.671875
7488		-11.718750
7489		-13.671875
7490		-9.765625
7491		-13.671875
7492		-9.765625
7493		-11.718750
7494		-9.765625
7495		-11.718750
7496		-7.812500
7497		-11.718750
7498		-5.859375
7499		-9.765625
7500		-5.859375
7501		-7.812500
7502		-5.859375
7503		-7.812500
7504		-3.906250
7505		-7.812500
7506		-3.906250
7507		-5.859375
7508		-1.953125
7509		-3.906250
7510		-1.953125
7511		-3.906250
7512		0.000000
7513		-1.953125
7514		1.953125
7515		0.000000
7516		1.953125
7517		0.000000
7518		3.906250
7519		1.953125
7520		5.859375
7521		3.906250
7522		5.859375
7523		3.906250
7524		7.812500
7525		5.859375
7526		9.765625
7527		5.859375
7528		9.765625
7529		7.812500
7530		11.718750
7531		9.765625
7532		13.671875
7533		9.765625
7534		13.671875
7535		11.718750
7536		15.625000
7537		13.671875
7538		17.578125
7539		15.625000
7540		19.531250
7541		15.625000
7542		19.531250
7543		17.578125
7544		21.484375
7545		19.531250
7546		23.437500
7547		19.531250
7548		23.437500
7549		21.484375
7550		25.390625
7551		23.437500
7552		25.390625
7553		23.437500
7554		27.343750
7555		25.390625
7556		29.296875
7557		25.390625
7558		29.296875
7559		29.296875
7560		31.250000
7561		29.296875
7562		33.203125
7563		29.296875
7564		33.203125
7565		31.250000
7566		35.156250
7567		33.203125
7568		35.156250
7569		33.203125
7570		37.109375
7571		35.156250
7572		39.062500
7573		35.156250
7574		39.062500
7575		35.156250
7576		39.062500
7577		37.109375
7578		41.015625
7579		39.062500
7580		41.015625
7581		39.062500
7582		42.968750
7583		39.062500
7584		42.968750
7585		41.015625
7586		42.968750
7587		41.015625
7588		42.968750
7589		41.015625
7590		44.921875
7591		41.015625
7592		46.875000
7593		42.968750
7594		44.921875
7595		42.968750
7596		46.875000
7597		42.968750
7598		46.875000
7599		42.968750
7600		46.875000
7601		44.921875
7602		46.875000
7603		44.921875
7604		46.875000
7605		44.921875
7606		46.875000
7607		44.921875
7608		48.828125
7609		44.921875
7610		46.875000
7611		44.921875
7612		46.875000
7613		44.921875
7614		46.875000
7615		44.921875
7616		46.875000
7617		44.921875
7618		46.875000
7619		44.921875
7620		46.875000
7621		42.968750
7622		46.875000
7623		42.968750
7624		46.875000
7625		42.968750
7626		46.875000
7627		42.968750
7628		44.921875
7629		41.015625
7630		44.921875
7631		41.015625
7632		44.921875
7633		41.015625
7634		44.921875
7635		41.015625
7636		42.968750
7637		39.062500
7638		42.968750
7639		39.062500
7640		41.015625
7641		37.109375
7642		41.015625
7643		37.109375
7644		41.015625
7645		37.109375
7646		39.062500
7647		35.156250
7648		39.062500
7649		35.156250
7650		37.109375
7651		33.203125
7652		37.109375
7653		33.203125
7654		37.109375
7655		31.250000
7656		35.156250
7657		29.296875
7658		33.203125
7659		29.296875
7660		33.203125
7661		27.343750
7662		31.250000
7663		27.343750
7664		31.250000
7665		25.390625
7666		29.296875
7667		25.390625
7668		29.296875
7669		23.437500
7670		27.343750
7671		21.484375
7672		25.390625
7673		19.531250
7674		23.437500
7675		19.531250
7676		23.437500
7677		17.578125
7678		21.484375
7679		17.578125
7680		19.531250
7681		15.625000
7682		19.531250
7683		13.671875
7684		17.578125
7685		13.671875
7686		15.625000
7687		11.718750
7688		13.671875
7689		9.765625
7690		13.671875
7691		7.812500
7692		11.718750
7693		7.812500
7694		9.765625
7695		5.859375
7696		7.812500
7697		3.906250
7698		7.812500
7699		1.953125
7700		7.812500
7701		1.953125
7702		5.859375
7703		0.000000
7704		3.906250
7705		0.000000
7706		3.906250
7707		-1.953125
7708		1.953125
7709		-3.906250
7710		0.000000
7711		-3.906250
7712		-1.953125
7713		-5.859375
7714		-1.953125
7715		-5.859375
7716		-1.953125
7717		-7.812500
7718		-3.906250
7719		-7.812500
7720		-3.906250
7721		-9.765625
7722		-5.859375
7723		-9.765625
7724		-5.859375
7725		-11.718750
7726		-7.812500
7727		-11.718750
7728		-9.765625
7729		-11.718750
7730		-9.765625
7731		-13.671875
7732		-9.765625
7733		-13.671875
7734		-9.765625
7735		-13.671875
7736		-11.718750
7737		-15.625000
7738		-11.718750
7739		-15.625000
7740		-11.718750
7741		-15.625000
7742		-11.718750
7743		-15.625000
7744		-11.718750
7745		-15.625000
7746		-13.671875
7747		-15.625000
7748		-13.671875
7749		-15.625000
7750		-13.671875
7751		-15.625000
7752		-13.671875
7753		-15.625000
7754		-13.671875
7755		-15.625000
7756		-13.671875
7757		-15.625000
7758		-13.671875
7759		-15.625000
7760		-11.718750
7761		-15.625000
7762		-13.671875
7763		-15.625000
7764		-11.718750
7765		-15.625000
7766		-11.718750
7767		-13.671875
7768		-11.718750
7769		-13.671875
7770		-9.765625
7771		-13.671875
7772		-9.765625
7773		-11.718750
7774		-9.765625
7775		-11.718750
7776		-7.812500
7777		-11.718750
7778		-7.812500
7779		-9.765625
7780		-7.812500
7781		-9.765625
7782		-5.859375
7783		-7.812500
7784		-5.859375
7785		-7.812500
7786		-3.906250
7787		-5.859375
7788		-1.953125
7789		-5.859375
7790		-1.953125
7791		-3.906250
7792		0.000000
7793		-3.906250
7794		1.953125
7795		-1.953125
7796		0.000000
7797		0.000000
7798		3.906250
7799		0.000000
7800		3.906250
7801		1.953125
7802		5.859375
7803		1.953125
7804		5.859375
7805		3.906250
7806		7.812500
7807		5.859375
7808		9.765625
7809		5.859375
7810		11.718750
7811		7.812500
7812		11.718750
7813		9.765625
7814		11.718750
7815		9.765625
7816		13.671875
7817		11.718750
7818		15.625000
7819		13.671875
7820		17.578125
7821		13.671875
7822		17.578125
7823		15.625000
7824		19.531250
7825		17.578125
7826		21.484375
7827		17.578125
7828		21.484375
7829		21.484375
7830		23.437500
7831		21.484375
7832		25.390625
7833		23.437500
7834		25.390625
7835		23.437500
7836		27.343750
7837		25.390625
7838		29.296875
7839		25.390625
7840		29.296875
7841		27.343750
7842		31.250000
7843		29.296875
7844		33.203125
7845		31.250000
7846		33.203125
7847		31.250000
7848		35.156250
7849		33.203125
7850		35.156250
7851		33.203125
7852		37.109375
7853		35.156250
7854		37.109375
7855		35.156250
7856		39.062500
7857		37.109375
7858		39.062500
7859		37.109375
7860		41.015625
7861		37.109375
7862		41.015625
7863		39.062500
7864		41.015625
7865		39.062500
7866		42.968750
7867		41.015625
7868		42.968750
7869		41.015625
7870		44.921875
7871		41.015625
7872		44.921875
7873		41.015625
7874		44.921875
7875		42.968750
7876		44.921875
7877		42.968750
7878		46.875000
7879		42.968750
7880		46.875000
7881		42.968750
7882		46.875000
7883		42.968750
7884		46.875000
7885		44.921875
7886		46.875000
7887		44.921875
7888		46.875000
7889		44.921875
7890		46.875000
7891		44.921875
7892		46.875000
7893		44.921875
7894		48.828125
7895		44.921875
7896		46.875000
7897		44.921875
7898		46.875000
7899		42.968750
7900		48.828125
7901		42.968750
7902		46.875000
7903		42.968750
7904		46.875000
7905		42.968750
7906		46.875000
7907		42.968750
7908		46.875000
7909		42.968750
7910		46.875000
7911		41.015625
7912		44.921875
7913		41.015625
7914		44.921875
7915		41.015625
7916		44.921875
7917		39.062500
7918		42.968750
7919		39.062500
7920		42.968750
7921		39.062500
7922		42.968750
7923		37.109375
7924		41.015625
7925		37.109375
7926		41.015625
7927		35.156250
7928		41.015625
7929		35.156250
7930		39.062500
7931		35.156250
7932		37.109375
7933		33.203125
7934		37.109375
7935		33.203125
7936		35.156250
7937		31.250000
7938		35.156250
7939		29.296875
7940		33.203125
7941		29.296875
7942		33.203125
7943		27.343750
7944		31.250000
7945		27.343750
7946		31.250000
7947		25.390625
7948		29.296875
7949		23.437500
7950		27.343750
7951		23.437500
7952		27.343750
7953		21.484375
7954		25.390625
7955		19.531250
7956		23.437500
7957		19.531250
7958		23.437500
7959		17.578125
7960		21.484375
7961		15.625000
7962		19.531250
7963		15.625000
7964		17.578125
7965		11.718750
7966		17.578125
7967		11.718750
7968		15.625000
7969		9.765625
7970		13.671875
7971		9.765625
7972		13.671875
7973		7.812500
7974		11.718750
7975		5.859375
7976		9.765625
7977		3.906250
7978		9.765625
7979		3.906250
7980		7.812500
7981		3.906250
7982		5.859375
7983		1.953125
7984		5.859375
7985		0.000000
7986		3.906250
7987		0.000000
7988		1.953125
7989		-1.953125
7990		1.953125
7991		-3.906250
7992		0.000000
7993		-3.906250
7994		-1.953125
7995		-5.859375
7996		-1.953125
7997		-5.859375
7998		-3.906250
7999		-7.812500
8000		-3.906250
8001		-9.765625
8002		-5.859375
8003		-9.765625
8004		-5.859375
8005		-9.765625
8006		-7.812500
8007		-11.718750
8008		-7.812500
8009		-11.718750
8010		-9.765625
8011		-13.671875
8012		-9.765625
8013		-13.671875
8014		-9.765625
8015		-13.671875
8016		-11.718750
8017		-15.625000
8018		-11.718750
8019		-15.625000
8020		-11.718750
8021		-15.625000
8022		-11.718750
8023		-15.625000
8024		-11.718750
8025		-15.625000
8026		-13.671875
8027		-15.625000
8028		-13.671875
8029		-15.625000
8030		-13.671875
8031		-15.625000
8032		-13.671875
8033		-17.578125
8034		-13.671875
8035		-17.578125
8036		-13.671875
8037		-15.625000
8038		-13.671875
8039		-15.625000
8040		-13.671875
8041		-15.625000
8042		-13.671875
8043		-15.625000
8044		-13.671875
8045		-15.625000
8046		-11.718750
8047		-15.625000
8048		-11.718750
8049		-15.625000
8050		-11.718750
8051		-13.671875
8052		-11.718750
8053		-13.671875
8054		-9.765625
8055		-13.671875
8056		-9.765625
8057		-11.718750
8058		-7.812500
8059		-11.718750
8060		-7.812500
8061		-9.765625
8062		-7.812500
8063		-9.765625
8064		-7.812500
8065		-7.812500
8066		-5.859375
8067		-7.812500
8068		-3.906250
8069		-7.812500
8070		-3.906250
8071		-5.859375
8072		-1.953125
8073		-3.906250
8074		-1.953125
8075		-3.906250
8076		0.000000
8077		-1.953125
8078		0.000000
8079		-1.953125
8080		1.953125
8081		0.000000
8082		3.906250
8083		0.000000
8084		3.906250
8085		1.953125
8086		5.859375
8087		3.906250
8088		7.812500
8089		5.859375
8090		7.812500
8091		5.859375
8092		9.765625
8093		7.812500
8094		11.718750
8095		9.765625
8096		13.671875
8097		9.765625
8098		13.671875
8099		11.718750
8100		15.625000
8101		11.718750
8102		17.578125
8103		13.671875
8104		17.578125
8105		15.625000
8106		19.531250
8107		17.578125
8108		19.531250
8109		17.578125
8110		21.484375
8111		19.531250
8112		23.437500
8113		19.531250
8114		25.390625
8115		23.437500
8116		25.390625
8117		23.437500
8118		27.343750
8119		25.390625
8120		29.296875
8121		27.343750
8122		29.296875
8123		27.343750
8124		31.250000
8125		29.296875
8126		31.250000
8127		29.296875
8128		33.203125
8129		31.250000
8130		35.156250
8131		33.203125
8132		35.156250
8133		33.203125
8134		37.109375
8135		35.156250
8136		37.109375
8137		35.156250
8138		39.062500
8139		35.156250
8140		39.062500
8141		37.109375
8142		41.015625
8143		37.109375
8144		41.015625
8145		39.062500
8146		42.968750
8147		39.062500
8148		42.968750
8149		41.015625
8150		42.968750
8151		41.015625
8152		42.968750
8153		41.015625
8154		44.921875
8155		42.968750
8156		44.921875
8157		42.968750
8158		44.921875
8159		42.968750
8160		44.921875
8161		42.968750
8162		46.875000
8163		44.921875
8164		46.875000
8165		42.968750
8166		46.875000
8167		42.968750
8168		46.875000
8169		44.921875
8170		46.875000
8171		44.921875
8172		46.875000
8173		44.921875
8174		46.875000
8175		42.968750
8176		46.875000
8177		44.921875
8178		46.875000
8179		44.921875
8180		46.875000
8181		44.921875
8182		46.875000
8183		44.921875
8184		46.875000
8185		42.968750
8186		46.875000
8187		42.968750
8188		46.875000
8189		42.968750
8190		46.875000
8191		42.968750
8192		46.875000
8193		41.015625
8194		44.921875
8195		41.015625
8196		44.921875
8197		41.015625
8198		44.921875
8199		41.015625
8200		42.968750
8201		39.062500
8202		42.968750
8203		39.062500
8204		42.968750
8205		37.109375
8206		41.015625
8207		37.109375
8208		41.015625
8209		37.109375
8210		39.062500
8211		35.156250
8212		39.062500
8213		35.156250
8214		39.062500
8215		33.203125
8216		37.109375
8217		31.250000
8218		35.156250
8219		31.250000
8220		35.156250
8221		31.250000
8222		33.203125
8223		29.296875
8224		33.203125
8225		27.343750
8226		31.250000
8227		27.343750
8228		31.250000
8229		25.390625
8230		29.296875
8231		25.390625
8232		27.343750
8233		23.437500
8234		27.343750
8235		21.484375
8236		25.390625
8237		19.531250
8238		25.390625
8239		19.531250
8240		23.437500
8241		17.578125
8242		21.484375
8243		15.625000
8244		19.531250
8245		15.625000
8246		19.531250
8247		13.671875
8248		17.578125
8249		13.671875
8250		15.625000
8251		9.765625
8252		15.625000
8253		9.765625
8254		13.671875
8255		7.812500
8256		11.718750
8257		7.812500
8258		9.765625
8259		5.859375
8260		9.765625
8261		3.906250
8262		7.812500
8263		1.953125
8264		5.859375
8265		1.953125
8266		5.859375
8267		1.953125
8268		3.906250
8269		0.000000
8270		3.906250
8271		-1.953125
8272		1.953125
8273		-3.906250
8274		1.953125
8275		-3.906250
8276		-1.953125
8277		-5.859375
8278		-1.953125
8279		-5.859375
8280		-1.953125
8281		-7.812500
8282		-3.906250
8283		-7.812500
8284		-5.859375
8285		-9.765625
8286		-5.859375
8287		-9.765625
8288		-7.812500
8289		-11.718750
8290		-7.812500
8291		-11.718750
8292		-7.812500
8293		-11.718750
8294		-9.765625
8295		-13.671875
8296		-9.765625
8297		-13.671875
8298		-9.765625
8299		-13.671875
8300		-11.718750
8301		-13.671875
8302		-11.718750
8303		-15.625000
8304		-11.718750
8305		-15.625000
8306		-11.718750
8307		-15.625000
8308		-13.671875
8309		-15.625000
8310		-13.671875
8311		-15.625000
8312		-13.671875
8313		-17.578125
8314		-13.671875
8315		-15.625000
8316		-13.671875
8317		-15.625000
8318		-13.671875
8319		-17.578125
8320		-13.671875
8321		-15.625000
8322		-13.671875
8323		-15.625000
8324		-13.671875
8325		-15.625000
8326		-11.718750
8327		-15.625000
8328		-11.718750
8329		-15.625000
8330		-11.718750
8331		-15.625000
8332		-11.718750
8333		-13.671875
8334		-11.718750
8335		-13.671875
8336		-9.765625
8337		-13.671875
8338		-9.765625
8339		-11.718750
8340		-9.765625
8341		-11.718750
8342		-7.812500
8343		-11.718750
8344		-7.812500
8345		-9.765625
8346		-5.859375
8347		-9.765625
8348		-3.906250
8349		-7.812500
8350		-5.859375
8351		-5.859375
8352		-3.906250
8353		-5.859375
8354		-1.953125
8355		-5.859375
8356		-1.953125
8357		-3.906250
8358		0.000000
8359		-1.953125
8360		1.953125
8361		-1.953125
8362		1.953125
8363		0.000000
8364		3.906250
8365		0.000000
8366		3.906250
8367		1.953125
8368		5.859375
8369		3.906250
8370		7.812500
8371		5.859375
8372		7.812500
8373		5.859375
8374		9.765625
8375		7.812500
8376		9.765625
8377		7.812500
8378		11.718750
8379		9.765625
8380		13.671875
8381		11.718750
8382		15.625000
8383		13.671875
8384		15.625000
8385		13.671875
8386		17.578125
8387		13.671875
8388		19.531250
8389		17.578125
8390		21.484375
8391		17.578125
8392		21.484375
8393		19.531250
8394		23.437500
8395		21.484375
8396		23.437500
8397		23.437500
8398		25.390625
8399		23.437500
8400		27.343750
8401		25.390625
8402		27.343750
8403		25.390625
8404		29.296875
8405		27.343750
8406		31.250000
8407		27.343750
8408		31.250000
8409		29.296875
8410		33.203125
8411		31.250000
8412		33.203125
8413		31.250000
8414		35.156250
8415		33.203125
8416		37.109375
8417		33.203125
8418		37.109375
8419		35.156250
8420		39.062500
8421		35.156250
8422		39.062500
8423		37.109375
8424		39.062500
8425		37.109375
8426		41.015625
8427		39.062500
8428		41.015625
8429		39.062500
8430		42.968750
8431		39.062500
8432		42.968750
8433		41.015625
8434		42.968750
8435		41.015625
8436		44.921875
8437		41.015625
8438		44.921875
8439		42.968750
8440		44.921875
8441		42.968750
8442		44.921875
8443		42.968750
8444		44.921875
8445		42.968750
8446		46.875000
8447		42.968750
8448		46.875000
8449		44.921875
8450		46.875000
8451		44.921875
8452		46.875000
8453		42.968750
8454		46.875000
8455		44.921875
8456		46.875000
8457		44.921875
8458		46.875000
8459		42.968750
8460		46.875000
8461		42.968750
8462		46.875000
8463		44.921875
8464		46.875000
8465		42.968750
8466		46.875000
8467		44.921875
8468		46.875000
8469		42.968750
8470		44.921875
8471		42.968750
8472		46.875000
8473		42.968750
8474		44.921875
8475		41.015625
8476		44.921875
8477		41.015625
8478		44.921875
8479		41.015625
8480		42.968750
8481		41.015625
8482		42.968750
8483		39.062500
8484		42.968750
8485		39.062500
8486		41.015625
8487		37.109375
8488		41.015625
8489		37.109375
8490		41.015625
8491		35.156250
8492		39.062500
8493		35.156250
8494		39.062500
8495		35.156250
8496		37.109375
8497		33.203125
8498		37.109375
8499		33.203125
8500		35.156250
8501		31.250000
8502		33.203125
8503		29.296875
8504		33.203125
8505		29.296875
8506		33.203125
8507		27.343750
8508		31.250000
8509		27.343750
8510		31.250000
8511		25.390625
8512		29.296875
8513		23.437500
8514		27.343750
8515		23.437500
8516		25.390625
8517		21.484375
8518		25.390625
8519		21.484375
8520		23.437500
8521		19.531250
8522		23.437500
8523		17.578125
8524		21.484375
8525		15.625000
8526		19.531250
8527		15.625000
8528		17.578125
8529		13.671875
8530		17.578125
8531		11.718750
8532		15.625000
8533		11.718750
8534		15.625000
8535		9.765625
8536		11.718750
8537		7.812500
8538		11.718750
8539		5.859375
8540		9.765625
8541		5.859375
8542		7.812500
8543		3.906250
8544		7.812500
8545		3.906250
8546		5.859375
8547		1.953125
8548		5.859375
8549		0.000000
8550		3.906250
8551		0.000000
8552		1.953125
8553		-1.953125
8554		0.000000
8555		-3.906250
8556		0.000000
8557		-3.906250
8558		0.000000
8559		-5.859375
8560		-1.953125
8561		-7.812500
8562		-3.906250
8563		-7.812500
8564		-3.906250
8565		-7.812500
8566		-3.906250
8567		-9.765625
8568		-5.859375
8569		-9.765625
8570		-7.812500
8571		-11.718750
8572		-7.812500
8573		-11.718750
8574		-7.812500
8575		-11.718750
8576		-9.765625
8577		-13.671875
8578		-9.765625
8579		-13.671875
8580		-11.718750
8581		-15.625000
8582		-11.718750
8583		-15.625000
8584		-11.718750
8585		-15.625000
8586		-13.671875
8587		-17.578125
8588		-13.671875
8589		-17.578125
8590		-13.671875
8591		-15.625000
8592		-13.671875
8593		-17.578125
8594		-13.671875
8595		-17.578125
8596		-13.671875
8597		-17.578125
8598		-13.671875
8599		-17.578125
8600		-13.671875
8601		-15.625000
8602		-13.671875
8603		-15.625000
8604		-13.671875
8605		-17.578125
8606		-13.671875
8607		-15.625000
8608		-13.671875
8609		-15.625000
8610		-13.671875
8611		-15.625000
8612		-11.718750
8613		-15.625000
8614		-11.718750
8615		-13.671875
8616		-11.718750
8617		-13.671875
8618		-11.718750
8619		-13.671875
8620		-9.765625
8621		-11.718750
8622		-9.765625
8623		-11.718750
8624		-7.812500
8625		-11.718750
8626		-7.812500
8627		-9.765625
8628		-7.812500
8629		-9.765625
8630		-5.859375
8631		-9.765625
8632		-5.859375
8633		-7.812500
8634		-3.906250
8635		-5.859375
8636		-3.906250
8637		-5.859375
8638		-1.953125
8639		-5.859375
8640		-1.953125
8641		-3.906250
8642		1.953125
8643		-1.953125
8644		1.953125
8645		0.000000
8646		3.906250
8647		0.000000
8648		3.906250
8649		1.953125
8650		5.859375
8651		3.906250
8652		5.859375
8653		3.906250
8654		7.812500
8655		5.859375
8656		9.765625
8657		7.812500
8658		11.718750
8659		7.812500
8660		11.718750
8661		9.765625
8662		13.671875
8663		11.718750
8664		15.625000
8665		11.718750
8666		15.625000
8667		13.671875
8668		17.578125
8669		15.625000
8670		17.578125
8671		17.578125
8672		21.484375
8673		17.578125
8674		21.484375
8675		19.531250
8676		23.437500
8677		21.484375
8678		23.437500
8679		21.484375
8680		25.390625
8681		23.437500
8682		27.343750
8683		25.390625
8684		29.296875
8685		25.390625
8686		29.296875
8687		27.343750
8688		31.250000
8689		29.296875
8690		31.250000
8691		29.296875
8692		33.203125
8693		29.296875
8694		35.156250
8695		31.250000
8696		35.156250
8697		33.203125
8698		35.156250
8699		33.203125
8700		37.109375
8701		35.156250
8702		39.062500
8703		35.156250
8704		39.062500
8705		35.156250
8706		41.015625
8707		37.109375
8708		41.015625
8709		37.109375
8710		41.015625
8711		39.062500
8712		42.968750
8713		39.062500
8714		42.968750
8715		41.015625
8716		42.968750
8717		41.015625
8718		44.921875
8719		42.968750
8720		44.921875
8721		41.015625
8722		44.921875
8723		41.015625
8724		44.921875
8725		42.968750
8726		46.875000
8727		42.968750
8728		46.875000
8729		42.968750
8730		46.875000
8731		42.968750
8732		46.875000
8733		42.968750
8734		46.875000
8735		44.921875
8736		46.875000
8737		44.921875
8738		46.875000
8739		42.968750
8740		48.828125
8741		44.921875
8742		48.828125
8743		44.921875
8744		46.875000
8745		42.968750
8746		46.875000
8747		44.921875
8748		46.875000
8749		42.968750
8750		46.875000
8751		42.968750
8752		46.875000
8753		42.968750
8754		44.921875
8755		42.968750
8756		46.875000
8757		41.015625
8758		44.921875
8759		41.015625
8760		44.921875
8761		41.015625
8762		44.921875
8763		41.015625
8764		42.968750
8765		39.062500
8766		42.968750
8767		37.109375
8768		42.968750
8769		39.062500
8770		41.015625
8771		37.109375
8772		41.015625
8773		35.156250
8774		39.062500
8775		35.156250
8776		39.062500
8777		33.203125
8778		39.062500
8779		33.203125
8780		37.109375
8781		33.203125
8782		35.156250
8783		31.250000
8784		35.156250
8785		31.250000
8786		35.156250
8787		29.296875
8788		33.203125
8789		27.343750
8790		31.250000
8791		27.343750
8792		31.250000
8793		25.390625
8794		29.296875
8795		25.390625
8796		27.343750
8797		23.437500
8798		27.343750
8799		21.484375
8800		25.390625
8801		19.531250
8802		23.437500
8803		19.531250
8804		23.437500
8805		17.578125
8806		21.484375
8807		17.578125
8808		21.484375
8809		13.671875
8810		19.531250
8811		13.671875
8812		17.578125
8813		13.671875
8814		15.625000
8815		11.718750
8816		15.625000
8817		9.765625
8818		13.671875
8819		7.812500
8820		11.718750
8821		7.812500
8822		9.765625
8823		3.906250
8824		9.765625
8825		3.906250
8826		7.812500
8827		1.953125
8828		5.859375
8829		1.953125
8830		5.859375
8831		0.000000
8832		3.906250
8833		-1.953125
8834		3.906250
8835		-1.953125
8836		1.953125
8837		-1.953125
8838		0.000000
8839		-5.859375
8840		-1.953125
8841		-5.859375
8842		-1.953125
8843		-5.859375
8844		-1.953125
8845		-7.812500
8846		-3.906250
8847		-7.812500
8848		-5.859375
8849		-9.765625
8850		-5.859375
8851		-9.765625
8852		-7.812500
8853		-11.718750
8854		-7.812500
8855		-11.718750
8856		-7.812500
8857		-13.671875
8858		-9.765625
8859		-13.671875
8860		-9.765625
8861		-13.671875
8862		-9.765625
8863		-13.671875
8864		-11.718750
8865		-15.625000
8866		-11.718750
8867		-15.625000
8868		-11.718750
8869		-15.625000
8870		-13.671875
8871		-15.625000
8872		-13.671875
8873		-17.578125
8874		-13.671875
8875		-15.625000
8876		-13.671875
8877		-17.578125
8878		-13.671875
8879		-15.625000
8880		-13.671875
8881		-17.578125
8882		-13.671875
8883		-17.578125
8884		-13.671875
8885		-17.578125
8886		-13.671875
8887		-15.625000
8888		-13.671875
8889		-17.578125
8890		-13.671875
8891		-15.625000
8892		-13.671875
8893		-15.625000
8894		-11.718750
8895		-15.625000
8896		-11.718750
8897		-13.671875
8898		-11.718750
8899		-13.671875
8900		-9.765625
8901		-13.671875
8902		-9.765625
8903		-13.671875
8904		-9.765625
8905		-11.718750
8906		-9.765625
8907		-11.718750
8908		-7.812500
8909		-9.765625
8910		-7.812500
8911		-9.765625
8912		-5.859375
8913		-9.765625
8914		-3.906250
8915		-7.812500
8916		-3.906250
8917		-7.812500
8918		-3.906250
8919		-5.859375
8920		-1.953125
8921		-3.906250
8922		-1.953125
8923		-3.906250
8924		0.000000
8925		-3.906250
8926		1.953125
8927		-1.953125
8928		1.953125
8929		0.000000
8930		3.906250
8931		1.953125
8932		5.859375
8933		1.953125
8934		5.859375
8935		3.906250
8936		7.812500
8937		5.859375
8938		7.812500
8939		7.812500
8940		9.765625
8941		7.812500
8942		11.718750
8943		9.765625
8944		13.671875
8945		9.765625
8946		13.671875
8947		11.718750
8948		15.625000
8949		13.671875
8950		17.578125
8951		15.625000
8952		19.531250
8953		15.625000
8954		19.531250
8955		17.578125
8956		21.484375
8957		19.531250
8958		23.437500
8959		19.531250
8960		23.437500
8961		21.484375
8962		25.390625
8963		21.484375
8964		27.343750
8965		23.437500
8966		27.343750
8967		25.390625
8968		29.296875
8969		25.390625
8970		31.250000
8971		27.343750
8972		31.250000
8973		29.296875
8974		31.250000
8975		29.296875
8976		35.156250
8977		29.296875
8978		37.109375
8979		31.250000
8980		35.156250
8981		33.203125
8982		37.109375
8983		33.203125
8984		39.062500
8985		35.156250
8986		39.062500
8987		35.156250
8988		39.062500
8989		37.109375
8990		41.015625
8991		37.109375
8992		41.015625
8993		37.109375
8994		42.968750
8995		39.062500
8996		42.968750
8997		41.015625
8998		42.968750
8999		39.062500
9000		44.921875
9001		41.015625
9002		44.921875
9003		41.015625
9004		44.921875
9005		42.968750
9006		44.921875
9007		42.968750
9008		44.921875
9009		41.015625
9010		46.875000
9011		41.015625
9012		46.875000
9013		41.015625
9014		48.828125
9015		41.015625
9016		48.828125
9017		42.968750
9018		48.828125
9019		41.015625
9020		48.828125
9021		42.968750
9022		46.875000
9023		42.968750
9024		46.875000
9025		41.015625
9026		48.828125
9027		41.015625
9028		48.828125
9029		41.015625
9030		48.828125
9031		41.015625
9032		46.875000
9033		41.015625
9034		46.875000
9035		41.015625
9036		46.875000
9037		41.015625
9038		44.921875
9039		41.015625
9040		44.921875
9041		41.015625
9042		44.921875
9043		39.062500
9044		44.921875
9045		39.062500
9046		44.921875
9047		37.109375
9048		42.968750
9049		37.109375
9050		42.968750
9051		35.156250
9052		42.968750
9053		35.156250
9054		41.015625
9055		35.156250
9056		39.062500
9057		35.156250
9058		37.109375
9059		33.203125
9060		39.062500
9061		31.250000
9062		39.062500
9063		29.296875
9064		37.109375
9065		29.296875
9066		35.156250
9067		27.343750
9068		35.156250
9069		27.343750
9070		33.203125
9071		27.343750
9072		33.203125
9073		27.343750
9074		29.296875
9075		23.437500
9076		29.296875
9077		21.484375
9078		29.296875
9079		21.484375
9080		27.343750
9081		19.531250
9082		27.343750
9083		17.578125
9084		25.390625
9085		17.578125
9086		23.437500
9087		15.625000
9088		21.484375
9089		15.625000
9090		19.531250
9091		15.625000
9092		17.578125
9093		11.718750
9094		19.531250
9095		9.765625
9096		17.578125
9097		7.812500
9098		15.625000
9099		7.812500
9100		13.671875
9101		5.859375
9102		13.671875
9103		3.906250
9104		11.718750
9105		5.859375
9106		9.765625
9107		3.906250
9108		7.812500
9109		0.000000
9110		7.812500
9111		0.000000
9112		7.812500
9113		-1.953125
9114		5.859375
9115		-1.953125
9116		3.906250
9117		-3.906250
9118		1.953125
9119		-5.859375
9120		1.953125
9121		-5.859375
9122		0.000000
9123		-5.859375
9124		-1.953125
9125		-7.812500
9126		-3.906250
9127		-9.765625
9128		-1.953125
9129		-11.718750
9130		-3.906250
9131		-11.718750
9132		-3.906250
9133		-13.671875
9134		-5.859375
9135		-13.671875
9136		-5.859375
9137		-13.671875
9138		-7.812500
9139		-13.671875
9140		-9.765625
9141		-13.671875
9142		-9.765625
9143		-15.625000
9144		-9.765625
9145		-17.578125
9146		-9.765625
9147		-17.578125
9148		-9.765625
9149		-17.578125
9150		-11.718750
9151		-19.531250
9152		-11.718750
9153		-17.578125
9154		-11.718750
9155		-17.578125
9156		-11.718750
9157		-17.578125
9158		-13.671875
9159		-17.578125
9160		-13.671875
9161		-19.531250
9162		-11.718750
9163		-19.531250
9164		-11.718750
9165		-19.531250
9166		-11.718750
9167		-19.531250
9168		-11.718750
9169		-19.531250
9170		-11.718750
9171		-19.531250
9172		-11.718750
9173		-15.625000
9174		-13.671875
9175		-15.625000
9176		-13.671875
9177		-17.578125
9178		-9.765625
9179		-17.578125
9180		-9.765625
9181		-15.625000
9182		-9.765625
9183		-15.625000
9184		-9.765625
9185		-15.625000
9186		-7.812500
9187		-13.671875
9188		-7.812500
9189		-13.671875
9190		-7.812500
9191		-9.765625
9192		-7.812500
9193		-11.718750
9194		-5.859375
9195		-11.718750
9196		-3.906250
9197		-9.765625
9198		-3.906250
9199		-9.765625
9200		-1.953125
9201		-7.812500
9202		0.000000
9203		-5.859375
9204		0.000000
9205		-5.859375
9206		1.953125
9207		-1.953125
9208		0.000000
9209		-1.953125
9210		1.953125
9211		-1.953125
9212		5.859375
9213		-1.953125
9214		5.859375
9215		0.000000
9216		7.812500
9217		1.953125
9218		9.765625
9219		3.906250
9220		9.765625
9221		3.906250
9222		11.718750
9223		7.812500
9224		11.718750
9225		9.765625
9226		11.718750
9227		9.765625
9228		15.625000
9229		9.765625
9230		17.578125
9231		11.718750
9232		17.578125
9233		11.718750
9234		19.531250
9235		13.671875
9236		21.484375
9237		15.625000
9238		23.437500
9239		17.578125
9240		23.437500
9241		19.531250
9242		23.437500
9243		19.531250
9244		27.343750
9245		21.484375
9246		27.343750
9247		21.484375
9248		29.296875
9249		23.437500
9250		31.250000
9251		25.390625
9252		31.250000
9253		25.390625
9254		33.203125
9255		27.343750
9256		33.203125
9257		31.250000
9258		33.203125
9259		31.250000
9260		33.203125
9261		29.296875
9262		37.109375
9263		31.250000
9264		39.062500
9265		33.203125
9266		39.062500
9267		33.203125
9268		41.015625
9269		33.203125
9270		41.015625
9271		35.156250
9272		41.015625
9273		35.156250
9274		41.015625
9275		39.062500
9276		41.015625
9277		37.109375
9278		44.921875
9279		37.109375
9280		44.921875
9281		39.062500
9282		44.921875
9283		39.062500
9284		46.875000
9285		39.062500
9286		46.875000
9287		41.015625
9288		46.875000
9289		41.015625
9290		46.875000
9291		42.968750
9292		44.921875
9293		42.968750
9294		46.875000
9295		41.015625
9296		48.828125
9297		41.015625
9298		48.828125
9299		41.015625
9300		48.828125
9301		41.015625
9302		48.828125
9303		42.968750
9304		48.828125
9305		41.015625
9306		48.828125
9307		42.968750
9308		46.875000
9309		44.921875
9310		46.875000
9311		41.015625
9312		48.828125
9313		41.015625
9314		48.828125
9315		41.015625
9316		46.875000
9317		41.015625
9318		46.875000
9319		41.015625
9320		46.875000
9321		39.062500
9322		46.875000
9323		39.062500
9324		46.875000
9325		41.015625
9326		42.968750
9327		37.109375
9328		44.921875
9329		37.109375
9330		42.968750
9331		37.109375
9332		44.921875
9333		35.156250
9334		42.968750
9335		35.156250
9336		41.015625
9337		33.203125
9338		41.015625
9339		33.203125
9340		41.015625
9341		35.156250
9342		37.109375
9343		31.250000
9344		37.109375
9345		31.250000
9346		37.109375
9347		29.296875
9348		37.109375
9349		29.296875
9350		35.156250
9351		27.343750
9352		33.203125
9353		25.390625
9354		33.203125
9355		25.390625
9356		31.250000
9357		25.390625
9358		29.296875
9359		23.437500
9360		27.343750
9361		21.484375
9362		27.343750
9363		19.531250
9364		27.343750
9365		17.578125
9366		25.390625
9367		17.578125
9368		23.437500
9369		15.625000
9370		23.437500
9371		13.671875
9372		21.484375
9373		13.671875
9374		19.531250
9375		13.671875
9376		17.578125
9377		11.718750
9378		15.625000
9379		7.812500
9380		15.625000
9381		7.812500
9382		15.625000
9383		5.859375
9384		13.671875
9385		5.859375
9386		11.718750
9387		3.906250
9388		9.765625
9389		1.953125
9390		9.765625
9391		3.906250
9392		7.812500
9393		1.953125
9394		3.906250
9395		-1.953125
9396		3.906250
9397		-3.906250
9398		3.906250
9399		-3.906250
9400		1.953125
9401		-5.859375
9402		1.953125
9403		-5.859375
9404		0.000000
9405		-7.812500
9406		0.000000
9407		-7.812500
9408		-1.953125
9409		-7.812500
9410		-5.859375
9411		-9.765625
9412		-3.906250
9413		-11.718750
9414		-5.859375
9415		-13.671875
9416		-5.859375
9417		-13.671875
9418		-5.859375
9419		-13.671875
9420		-7.812500
9421		-15.625000
9422		-7.812500
9423		-15.625000
9424		-9.765625
9425		-13.671875
9426		-11.718750
9427		-15.625000
9428		-11.718750
9429		-17.578125
9430		-11.718750
9431		-17.578125
9432		-11.718750
9433		-17.578125
9434		-11.718750
9435		-19.531250
9436		-11.718750
9437		-19.531250
9438		-11.718750
9439		-19.531250
9440		-13.671875
9441		-19.531250
9442		-13.671875
9443		-17.578125
9444		-15.625000
9445		-19.531250
9446		-13.671875
9447		-19.531250
9448		-13.671875
9449		-19.531250
9450		-13.671875
9451		-19.531250
9452		-11.718750
9453		-19.531250
9454		-11.718750
9455		-19.531250
9456		-11.718750
9457		-17.578125
9458		-11.718750
9459		-15.625000
9460		-13.671875
9461		-15.625000
9462		-11.718750
9463		-17.578125
9464		-9.765625
9465		-15.625000
9466		-9.765625
9467		-15.625000
9468		-7.812500
9469		-15.625000
9470		-7.812500
9471		-13.671875
9472		-7.812500
9473		-13.671875
9474		-5.859375
9475		-11.718750
9476		-7.812500
9477		-9.765625
9478		-5.859375
9479		-9.765625
9480		-3.906250
9481		-9.765625
9482		-3.906250
9483		-7.812500
9484		-1.953125
9485		-7.812500
9486		0.000000
9487		-5.859375
9488		1.953125
9489		-5.859375
9490		1.953125
9491		-3.906250
9492		1.953125
9493		0.000000
9494		1.953125
9495		0.000000
9496		5.859375
9497		0.000000
9498		7.812500
9499		1.953125
9500		7.812500
9501		1.953125
9502		9.765625
9503		3.906250
9504		9.765625
9505		5.859375
9506		11.718750
9507		5.859375
9508		13.671875
9509		9.765625
9510		13.671875
9511		11.718750
9512		13.671875
9513		9.765625
9514		17.578125
9515		11.718750
9516		19.531250
9517		13.671875
9518		21.484375
9519		13.671875
9520		21.484375
9521		15.625000
9522		23.437500
9523		17.578125
9524		25.390625
9525		19.531250
9526		25.390625
9527		21.484375
9528		25.390625
9529		21.484375
9530		29.296875
9531		21.484375
9532		29.296875
9533		23.437500
9534		31.250000
9535		25.390625
9536		31.250000
9537		25.390625
9538		33.203125
9539		27.343750
9540		35.156250
9541		29.296875
9542		35.156250
9543		31.250000
9544		35.156250
9545		31.250000
9546		35.156250
9547		31.250000
9548		39.062500
9549		31.250000
9550		39.062500
9551		33.203125
9552		41.015625
9553		35.156250
9554		41.015625
9555		35.156250
9556		41.015625
9557		37.109375
9558		42.968750
9559		39.062500
9560		41.015625
9561		39.062500
9562		42.968750
9563		39.062500
9564		44.921875
9565		37.109375
9566		44.921875
9567		39.062500
9568		44.921875
9569		39.062500
9570		46.875000
9571		39.062500
9572		46.875000
9573		41.015625
9574		46.875000
9575		41.015625
9576		46.875000
9577		42.968750
9578		44.921875
9579		42.968750
9580		46.875000
9581		41.015625
9582		48.828125
9583		41.015625
9584		48.828125
9585		41.015625
9586		48.828125
9587		41.015625
9588		48.828125
9589		41.015625
9590		48.828125
9591		41.015625
9592		48.828125
9593		42.968750
9594		44.921875
9595		42.968750
9596		44.921875
9597		41.015625
9598		46.875000
9599		41.015625
9600		46.875000
9601		39.062500
9602		46.875000
9603		39.062500
9604		46.875000
9605		39.062500
9606		46.875000
9607		39.062500
9608		44.921875
9609		37.109375
9610		44.921875
9611		39.062500
9612		41.015625
9613		37.109375
9614		42.968750
9615		35.156250
9616		42.968750
9617		35.156250
9618		41.015625
9619		33.203125
9620		41.015625
9621		33.203125
9622		41.015625
9623		31.250000
9624		39.062500
9625		31.250000
9626		39.062500
9627		33.203125
9628		35.156250
9629		31.250000
9630		35.156250
9631		27.343750
9632		35.156250
9633		27.343750
9634		33.203125
9635		25.390625
9636		33.203125
9637		23.437500
9638		31.250000
9639		23.437500
9640		31.250000
9641		21.484375
9642		29.296875
9643		23.437500
9644		27.343750
9645		21.484375
9646		25.390625
9647		17.578125
9648		25.390625
9649		17.578125
9650		25.390625
9651		15.625000
9652		23.437500
9653		13.671875
9654		21.484375
9655		11.718750
9656		21.484375
9657		11.718750
9658		19.531250
9659		11.718750
9660		17.578125
9661		11.718750
9662		13.671875
9663		7.812500
9664		13.671875
9665		5.859375
9666		13.671875
9667		3.906250
9668		11.718750
9669		3.906250
9670		9.765625
9671		1.953125
9672		9.765625
9673		0.000000
9674		7.812500
9675		0.000000
9676		5.859375
9677		0.000000
9678		3.906250
9679		0.000000
9680		1.953125
9681		-3.906250
9682		1.953125
9683		-5.859375
9684		1.953125
9685		-5.859375
9686		0.000000
9687		-7.812500
9688		0.000000
9689		-7.812500
9690		-1.953125
9691		-9.765625
9692		-3.906250
9693		-9.765625
9694		-3.906250
9695		-9.765625
9696		-5.859375
9697		-13.671875
9698		-5.859375
9699		-13.671875
9700		-5.859375
9701		-15.625000
9702		-7.812500
9703		-15.625000
9704		-7.812500
9705		-15.625000
9706		-9.765625
9707		-15.625000
9708		-9.765625
9709		-17.578125
9710		-9.765625
9711		-15.625000
9712		-11.718750
9713		-15.625000
9714		-13.671875
9715		-17.578125
9716		-11.718750
9717		-17.578125
9718		-11.718750
9719		-19.531250
9720		-11.718750
9721		-19.531250
9722		-11.718750
9723		-19.531250
9724		-11.718750
9725		-19.531250
9726		-11.718750
9727		-17.578125
9728		-13.671875
9729		-17.578125
9730		-15.625000
9731		-19.531250
9732		-11.718750
9733		-19.531250
9734		-11.718750
9735		-19.531250
9736		-11.718750
9737		-17.578125
9738		-11.718750
9739		-17.578125
9740		-11.718750
9741		-17.578125
9742		-9.765625
9743		-17.578125
9744		-11.718750
9745		-13.671875
9746		-11.718750
9747		-15.625000
9748		-9.765625
9749		-15.625000
9750		-7.812500
9751		-15.625000
9752		-7.812500
9753		-15.625000
9754		-5.859375
9755		-13.671875
9756		-5.859375
9757		-11.718750
9758		-5.859375
9759		-11.718750
9760		-3.906250
9761		-7.812500
9762		-5.859375
9763		-7.812500
9764		-3.906250
9765		-7.812500
9766		-1.953125
9767		-7.812500
9768		0.000000
9769		-5.859375
9770		1.953125
9771		-5.859375
9772		1.953125
9773		-3.906250
9774		3.906250
9775		-1.953125
9776		5.859375
9777		0.000000
9778		3.906250
9779		1.953125
9780		5.859375
9781		1.953125
9782		7.812500
9783		1.953125
9784		9.765625
9785		3.906250
9786		11.718750
9787		5.859375
9788		11.718750
9789		7.812500
9790		13.671875
9791		7.812500
9792		15.625000
9793		9.765625
9794		15.625000
9795		13.671875
9796		15.625000
9797		13.671875
9798		17.578125
9799		13.671875
9800		21.484375
9801		13.671875
9802		21.484375
9803		15.625000
9804		23.437500
9805		17.578125
9806		25.390625
9807		19.531250
9808		25.390625
9809		21.484375
9810		27.343750
9811		23.437500
9812		27.343750
9813		25.390625
9814		27.343750
9815		23.437500
9816		31.250000
9817		25.390625
9818		33.203125
9819		27.343750
9820		33.203125
9821		27.343750
9822		35.156250
9823		29.296875
9824		35.156250
9825		29.296875
9826		37.109375
9827		31.250000
9828		37.109375
9829		35.156250
9830		37.109375
9831		35.156250
9832		39.062500
9833		33.203125
9834		41.015625
9835		35.156250
9836		41.015625
9837		35.156250
9838		42.968750
9839		37.109375
9840		42.968750
9841		37.109375
9842		42.968750
9843		37.109375
9844		44.921875
9845		41.015625
9846		42.968750
9847		41.015625
9848		42.968750
9849		39.062500
9850		46.875000
9851		39.062500
9852		46.875000
9853		41.015625
9854		46.875000
9855		41.015625
9856		46.875000
9857		41.015625
9858		48.828125
9859		41.015625
9860		48.828125
9861		42.968750
9862		48.828125
9863		42.968750
9864		46.875000
9865		41.015625
9866		48.828125
9867		42.968750
9868		48.828125
9869		41.015625
9870		48.828125
9871		41.015625
9872		48.828125
9873		42.968750
9874		48.828125
9875		41.015625
9876		48.828125
9877		41.015625
9878		48.828125
9879		42.968750
9880		44.921875
9881		42.968750
9882		44.921875
9883		41.015625
9884		46.875000
9885		41.015625
9886		46.875000
9887		39.062500
9888		46.875000
9889		39.062500
9890		44.921875
9891		39.062500
9892		44.921875
9893		37.109375
9894		44.921875
9895		39.062500
9896		42.968750
9897		37.109375
9898		41.015625
9899		35.156250
9900		41.015625
9901		35.156250
9902		41.015625
9903		33.203125
9904		41.015625
9905		33.203125
9906		39.062500
9907		31.250000
9908		39.062500
9909		29.296875
9910		37.109375
9911		29.296875
9912		37.109375
9913		31.250000
9914		33.203125
9915		27.343750
9916		33.203125
9917		25.390625
9918		33.203125
9919		23.437500
9920		33.203125
9921		23.437500
9922		31.250000
9923		21.484375
9924		29.296875
9925		21.484375
9926		27.343750
9927		19.531250
9928		27.343750
9929		21.484375
9930		23.437500
9931		19.531250
9932		23.437500
9933		15.625000
9934		23.437500
9935		13.671875
9936		21.484375
9937		13.671875
9938		21.484375
9939		11.718750
9940		19.531250
9941		9.765625
9942		17.578125
9943		9.765625
9944		15.625000
9945		7.812500
9946		15.625000
9947		7.812500
9948		11.718750
9949		3.906250
9950		11.718750
9951		3.906250
9952		11.718750
9953		1.953125
9954		9.765625
9955		0.000000
9956		7.812500
9957		0.000000
9958		7.812500
9959		-1.953125
9960		5.859375
9961		-1.953125
9962		3.906250
9963		-1.953125
9964		1.953125
9965		-1.953125
9966		0.000000
9967		-5.859375
9968		0.000000
9969		-7.812500
9970		0.000000
9971		-9.765625
9972		-1.953125
9973		-9.765625
9974		-1.953125
9975		-11.718750
9976		-3.906250
9977		-11.718750
9978		-3.906250
9979		-11.718750
9980		-7.812500
9981		-11.718750
9982		-7.812500
9983		-13.671875
9984		-7.812500
9985		-13.671875
9986		-7.812500
9987		-15.625000
9988		-7.812500
9989		-15.625000
9990		-9.765625
9991		-17.578125
9992		-9.765625
9993		-17.578125
9994		-9.765625
9995		-17.578125
9996		-11.718750
9997		-15.625000
9998		-13.671875
9999		-17.578125
10000		-13.671875
