Channel              :		CH1
Frequency            :		1.769kHz
Period               :		0.565ms
PK-PK                :		35.16mV
Probe attenuation    :		1X
Voltage per ADC value:		0.122070mV
Time interval        :		2.00000us

index		CH1_Voltage(mV)
1		31.250000
2		31.250000
3		29.296875
4		31.250000
5		27.343750
6		31.250000
7		29.296875
8		31.250000
9		27.343750
10		31.250000
11		27.343750
12		29.296875
13		27.343750
14		29.296875
15		27.343750
16		29.296875
17		25.390625
18		29.296875
19		27.343750
20		29.296875
21		25.390625
22		29.296875
23		25.390625
24		29.296875
25		25.390625
26		27.343750
27		23.437500
28		27.343750
29		23.437500
30		27.343750
31		23.437500
32		27.343750
33		21.484375
34		27.343750
35		23.437500
36		25.390625
37		21.484375
38		25.390625
39		21.484375
40		25.390625
41		21.484375
42		25.390625
43		21.484375
44		23.437500
45		19.531250
46		23.437500
47		19.531250
48		23.437500
49		19.531250
50		23.437500
51		19.531250
52		21.484375
53		19.531250
54		21.484375
55		17.578125
56		21.484375
57		17.578125
58		19.531250
59		17.578125
60		19.531250
61		15.625000
62		19.531250
63		15.625000
64		19.531250
65		15.625000
66		17.578125
67		15.625000
68		17.578125
69		13.671875
70		17.578125
71		13.671875
72		17.578125
73		13.671875
74		17.578125
75		11.718750
76		15.625000
77		11.718750
78		15.625000
79		11.718750
80		13.671875
81		11.718750
82		13.671875
83		9.765625
84		13.671875
85		9.765625
86		13.671875
87		9.765625
88		11.718750
89		9.765625
90		13.671875
91		7.812500
92		11.718750
93		7.812500
94		11.718750
95		7.812500
96		9.765625
97		7.812500
98		11.718750
99		5.859375
100		9.765625
101		5.859375
102		9.765625
103		5.859375
104		7.812500
105		5.859375
106		9.765625
107		5.859375
108		7.812500
109		5.859375
110		7.812500
111		5.859375
112		7.812500
113		3.906250
114		7.812500
115		3.906250
116		7.812500
117		3.906250
118		7.812500
119		3.906250
120		7.812500
121		3.906250
122		7.812500
123		3.906250
124		7.812500
125		3.906250
126		7.812500
127		3.906250
128		7.812500
129		3.906250
130		7.812500
131		3.906250
132		7.812500
133		3.906250
134		7.812500
135		3.906250
136		5.859375
137		3.906250
138		5.859375
139		3.906250
140		7.812500
141		3.906250
142		7.812500
143		3.906250
144		7.812500
145		3.906250
146		7.812500
147		3.906250
148		7.812500
149		5.859375
150		7.812500
151		3.906250
152		7.812500
153		5.859375
154		7.812500
155		5.859375
156		9.765625
157		5.859375
158		9.765625
159		7.812500
160		9.765625
161		7.812500
162		9.765625
163		7.812500
164		9.765625
165		7.812500
166		9.765625
167		7.812500
168		11.718750
169		9.765625
170		11.718750
171		9.765625
172		11.718750
173		9.765625
174		13.671875
175		9.765625
176		13.671875
177		9.765625
178		13.671875
179		11.718750
180		15.625000
181		11.718750
182		15.625000
183		11.718750
184		15.625000
185		11.718750
186		15.625000
187		13.671875
188		17.578125
189		13.671875
190		17.578125
191		13.671875
192		17.578125
193		15.625000
194		17.578125
195		15.625000
196		19.531250
197		15.625000
198		19.531250
199		17.578125
200		19.531250
201		17.578125
202		21.484375
203		19.531250
204		21.484375
205		17.578125
206		23.437500
207		19.531250
208		23.437500
209		19.531250
210		23.437500
211		21.484375
212		23.437500
213		21.484375
214		25.390625
215		21.484375
216		25.390625
217		21.484375
218		25.390625
219		23.437500
220		25.390625
221		23.437500
222		27.343750
223		23.437500
224		27.343750
225		23.437500
226		27.343750
227		25.390625
228		27.343750
229		25.390625
230		29.296875
231		25.390625
232		29.296875
233		25.390625
234		29.296875
235		25.390625
236		29.296875
237		27.343750
238		29.296875
239		27.343750
240		29.296875
241		27.343750
242		31.250000
243		27.343750
244		31.250000
245		27.343750
246		31.250000
247		27.343750
248		31.250000
249		29.296875
250		31.250000
251		29.296875
252		33.203125
253		29.296875
254		31.250000
255		29.296875
256		33.203125
257		29.296875
258		33.203125
259		29.296875
260		33.203125
261		29.296875
262		33.203125
263		29.296875
264		31.250000
265		29.296875
266		33.203125
267		29.296875
268		33.203125
269		29.296875
270		33.203125
271		29.296875
272		33.203125
273		29.296875
274		33.203125
275		29.296875
276		31.250000
277		29.296875
278		31.250000
279		29.296875
280		33.203125
281		29.296875
282		33.203125
283		27.343750
284		31.250000
285		27.343750
286		31.250000
287		29.296875
288		31.250000
289		29.296875
290		31.250000
291		27.343750
292		31.250000
293		27.343750
294		31.250000
295		27.343750
296		29.296875
297		27.343750
298		29.296875
299		25.390625
300		29.296875
301		25.390625
302		29.296875
303		25.390625
304		29.296875
305		25.390625
306		27.343750
307		25.390625
308		29.296875
309		25.390625
310		27.343750
311		25.390625
312		27.343750
313		23.437500
314		27.343750
315		23.437500
316		27.343750
317		23.437500
318		25.390625
319		23.437500
320		27.343750
321		21.484375
322		25.390625
323		21.484375
324		23.437500
325		21.484375
326		25.390625
327		21.484375
328		23.437500
329		19.531250
330		23.437500
331		19.531250
332		23.437500
333		19.531250
334		21.484375
335		17.578125
336		21.484375
337		17.578125
338		21.484375
339		17.578125
340		19.531250
341		15.625000
342		19.531250
343		15.625000
344		19.531250
345		15.625000
346		19.531250
347		15.625000
348		19.531250
349		13.671875
350		17.578125
351		13.671875
352		17.578125
353		13.671875
354		17.578125
355		13.671875
356		15.625000
357		11.718750
358		15.625000
359		11.718750
360		15.625000
361		11.718750
362		15.625000
363		9.765625
364		13.671875
365		9.765625
366		13.671875
367		9.765625
368		13.671875
369		7.812500
370		11.718750
371		9.765625
372		11.718750
373		7.812500
374		11.718750
375		7.812500
376		11.718750
377		7.812500
378		9.765625
379		7.812500
380		9.765625
381		5.859375
382		9.765625
383		5.859375
384		9.765625
385		5.859375
386		9.765625
387		5.859375
388		7.812500
389		5.859375
390		7.812500
391		3.906250
392		7.812500
393		3.906250
394		7.812500
395		3.906250
396		7.812500
397		3.906250
398		7.812500
399		3.906250
400		7.812500
401		3.906250
402		7.812500
403		3.906250
404		7.812500
405		3.906250
406		5.859375
407		1.953125
408		7.812500
409		3.906250
410		5.859375
411		3.906250
412		5.859375
413		3.906250
414		5.859375
415		3.906250
416		5.859375
417		3.906250
418		5.859375
419		3.906250
420		7.812500
421		3.906250
422		5.859375
423		3.906250
424		7.812500
425		3.906250
426		7.812500
427		3.906250
428		7.812500
429		3.906250
430		7.812500
431		3.906250
432		7.812500
433		5.859375
434		7.812500
435		3.906250
436		7.812500
437		3.906250
438		7.812500
439		5.859375
440		7.812500
441		5.859375
442		9.765625
443		5.859375
444		9.765625
445		7.812500
446		11.718750
447		7.812500
448		9.765625
449		7.812500
450		11.718750
451		7.812500
452		11.718750
453		7.812500
454		11.718750
455		9.765625
456		11.718750
457		9.765625
458		13.671875
459		9.765625
460		13.671875
461		9.765625
462		13.671875
463		11.718750
464		15.625000
465		11.718750
466		15.625000
467		11.718750
468		15.625000
469		13.671875
470		15.625000
471		13.671875
472		17.578125
473		15.625000
474		17.578125
475		15.625000
476		17.578125
477		15.625000
478		19.531250
479		15.625000
480		19.531250
481		15.625000
482		19.531250
483		17.578125
484		21.484375
485		17.578125
486		21.484375
487		17.578125
488		21.484375
489		19.531250
490		21.484375
491		19.531250
492		23.437500
493		19.531250
494		23.437500
495		21.484375
496		23.437500
497		21.484375
498		23.437500
499		21.484375
500		25.390625
501		21.484375
502		25.390625
503		21.484375
504		27.343750
505		23.437500
506		25.390625
507		25.390625
508		27.343750
509		23.437500
510		27.343750
511		25.390625
512		27.343750
513		25.390625
514		29.296875
515		25.390625
516		29.296875
517		25.390625
518		29.296875
519		27.343750
520		29.296875
521		27.343750
522		29.296875
523		27.343750
524		29.296875
525		27.343750
526		31.250000
527		27.343750
528		31.250000
529		27.343750
530		31.250000
531		29.296875
532		31.250000
533		29.296875
534		31.250000
535		29.296875
536		31.250000
537		29.296875
538		33.203125
539		29.296875
540		31.250000
541		29.296875
542		31.250000
543		29.296875
544		33.203125
545		29.296875
546		33.203125
547		29.296875
548		33.203125
549		29.296875
550		33.203125
551		29.296875
552		33.203125
553		29.296875
554		33.203125
555		29.296875
556		31.250000
557		29.296875
558		31.250000
559		29.296875
560		33.203125
561		29.296875
562		33.203125
563		29.296875
564		33.203125
565		29.296875
566		31.250000
567		29.296875
568		31.250000
569		29.296875
570		31.250000
571		27.343750
572		31.250000
573		29.296875
574		31.250000
575		27.343750
576		31.250000
577		27.343750
578		31.250000
579		27.343750
580		29.296875
581		27.343750
582		29.296875
583		25.390625
584		29.296875
585		25.390625
586		29.296875
587		25.390625
588		29.296875
589		25.390625
590		27.343750
591		25.390625
592		27.343750
593		23.437500
594		29.296875
595		23.437500
596		27.343750
597		23.437500
598		27.343750
599		23.437500
600		25.390625
601		23.437500
602		25.390625
603		21.484375
604		25.390625
605		21.484375
606		25.390625
607		21.484375
608		23.437500
609		19.531250
610		25.390625
611		19.531250
612		23.437500
613		19.531250
614		23.437500
615		19.531250
616		23.437500
617		17.578125
618		21.484375
619		17.578125
620		21.484375
621		17.578125
622		21.484375
623		17.578125
624		19.531250
625		17.578125
626		19.531250
627		15.625000
628		19.531250
629		15.625000
630		19.531250
631		15.625000
632		17.578125
633		15.625000
634		17.578125
635		13.671875
636		17.578125
637		13.671875
638		15.625000
639		11.718750
640		15.625000
641		11.718750
642		15.625000
643		11.718750
644		15.625000
645		11.718750
646		15.625000
647		11.718750
648		13.671875
649		9.765625
650		13.671875
651		9.765625
652		11.718750
653		9.765625
654		13.671875
655		9.765625
656		11.718750
657		7.812500
658		11.718750
659		7.812500
660		11.718750
661		7.812500
662		11.718750
663		7.812500
664		9.765625
665		5.859375
666		9.765625
667		5.859375
668		9.765625
669		5.859375
670		9.765625
671		5.859375
672		9.765625
673		5.859375
674		7.812500
675		3.906250
676		7.812500
677		3.906250
678		7.812500
679		3.906250
680		7.812500
681		3.906250
682		7.812500
683		3.906250
684		7.812500
685		3.906250
686		7.812500
687		3.906250
688		7.812500
689		3.906250
690		7.812500
691		3.906250
692		5.859375
693		3.906250
694		7.812500
695		3.906250
696		7.812500
697		3.906250
698		7.812500
699		3.906250
700		7.812500
701		3.906250
702		7.812500
703		3.906250
704		7.812500
705		3.906250
706		7.812500
707		3.906250
708		7.812500
709		3.906250
710		7.812500
711		5.859375
712		7.812500
713		3.906250
714		7.812500
715		5.859375
716		7.812500
717		5.859375
718		7.812500
719		5.859375
720		9.765625
721		5.859375
722		9.765625
723		5.859375
724		9.765625
725		7.812500
726		9.765625
727		7.812500
728		9.765625
729		7.812500
730		11.718750
731		7.812500
732		11.718750
733		7.812500
734		11.718750
735		9.765625
736		11.718750
737		9.765625
738		13.671875
739		9.765625
740		13.671875
741		11.718750
742		13.671875
743		11.718750
744		15.625000
745		11.718750
746		15.625000
747		11.718750
748		15.625000
749		13.671875
750		15.625000
751		13.671875
752		17.578125
753		13.671875
754		17.578125
755		13.671875
756		17.578125
757		15.625000
758		17.578125
759		15.625000
760		19.531250
761		15.625000
762		19.531250
763		17.578125
764		19.531250
765		17.578125
766		21.484375
767		17.578125
768		21.484375
769		19.531250
770		21.484375
771		19.531250
772		23.437500
773		19.531250
774		23.437500
775		21.484375
776		23.437500
777		21.484375
778		25.390625
779		21.484375
780		25.390625
781		21.484375
782		25.390625
783		23.437500
784		25.390625
785		23.437500
786		27.343750
787		23.437500
788		27.343750
789		23.437500
790		27.343750
791		25.390625
792		27.343750
793		25.390625
794		27.343750
795		25.390625
796		29.296875
797		25.390625
798		29.296875
799		27.343750
800		29.296875
801		27.343750
802		29.296875
803		27.343750
804		29.296875
805		27.343750
806		31.250000
807		27.343750
808		31.250000
809		29.296875
810		31.250000
811		27.343750
812		31.250000
813		29.296875
814		31.250000
815		29.296875
816		31.250000
817		29.296875
818		31.250000
819		29.296875
820		31.250000
821		29.296875
822		33.203125
823		29.296875
824		33.203125
825		29.296875
826		31.250000
827		29.296875
828		33.203125
829		29.296875
830		33.203125
831		29.296875
832		33.203125
833		29.296875
834		33.203125
835		29.296875
836		33.203125
837		29.296875
838		33.203125
839		29.296875
840		33.203125
841		29.296875
842		31.250000
843		29.296875
844		31.250000
845		29.296875
846		33.203125
847		29.296875
848		31.250000
849		29.296875
850		31.250000
851		29.296875
852		31.250000
853		29.296875
854		31.250000
855		29.296875
856		31.250000
857		27.343750
858		31.250000
859		27.343750
860		29.296875
861		27.343750
862		29.296875
863		25.390625
864		29.296875
865		25.390625
866		29.296875
867		27.343750
868		29.296875
869		25.390625
870		29.296875
871		25.390625
872		29.296875
873		25.390625
874		29.296875
875		25.390625
876		27.343750
877		25.390625
878		27.343750
879		23.437500
880		27.343750
881		23.437500
882		25.390625
883		23.437500
884		25.390625
885		21.484375
886		25.390625
887		21.484375
888		25.390625
889		21.484375
890		25.390625
891		21.484375
892		23.437500
893		21.484375
894		23.437500
895		19.531250
896		23.437500
897		19.531250
898		23.437500
899		19.531250
900		21.484375
901		17.578125
902		21.484375
903		17.578125
904		21.484375
905		17.578125
906		19.531250
907		15.625000
908		19.531250
909		15.625000
910		19.531250
911		15.625000
912		17.578125
913		13.671875
914		19.531250
915		13.671875
916		17.578125
917		13.671875
918		17.578125
919		13.671875
920		15.625000
921		11.718750
922		15.625000
923		11.718750
924		15.625000
925		11.718750
926		15.625000
927		11.718750
928		13.671875
929		11.718750
930		13.671875
931		9.765625
932		13.671875
933		9.765625
934		11.718750
935		9.765625
936		11.718750
937		7.812500
938		11.718750
939		7.812500
940		11.718750
941		7.812500
942		11.718750
943		7.812500
944		9.765625
945		5.859375
946		9.765625
947		5.859375
948		9.765625
949		5.859375
950		9.765625
951		5.859375
952		9.765625
953		5.859375
954		7.812500
955		5.859375
956		7.812500
957		5.859375
958		7.812500
959		3.906250
960		7.812500
961		5.859375
962		7.812500
963		3.906250
964		7.812500
965		3.906250
966		7.812500
967		3.906250
968		7.812500
969		3.906250
970		7.812500
971		3.906250
972		5.859375
973		3.906250
974		7.812500
975		3.906250
976		7.812500
977		3.906250
978		5.859375
979		3.906250
980		7.812500
981		3.906250
982		7.812500
983		3.906250
984		7.812500
985		3.906250
986		7.812500
987		3.906250
988		7.812500
989		3.906250
990		7.812500
991		3.906250
992		7.812500
993		3.906250
994		7.812500
995		5.859375
996		7.812500
997		5.859375
998		7.812500
999		5.859375
1000		7.812500
1001		5.859375
1002		7.812500
1003		5.859375
1004		9.765625
1005		5.859375
1006		9.765625
1007		5.859375
1008		9.765625
1009		7.812500
1010		9.765625
1011		7.812500
1012		9.765625
1013		7.812500
1014		11.718750
1015		7.812500
1016		11.718750
1017		9.765625
1018		11.718750
1019		9.765625
1020		11.718750
1021		9.765625
1022		13.671875
1023		9.765625
1024		13.671875
1025		9.765625
1026		15.625000
1027		11.718750
1028		13.671875
1029		11.718750
1030		15.625000
1031		13.671875
1032		15.625000
1033		13.671875
1034		17.578125
1035		13.671875
1036		17.578125
1037		13.671875
1038		17.578125
1039		15.625000
1040		17.578125
1041		15.625000
1042		19.531250
1043		17.578125
1044		19.531250
1045		17.578125
1046		19.531250
1047		17.578125
1048		21.484375
1049		17.578125
1050		21.484375
1051		17.578125
1052		21.484375
1053		19.531250
1054		21.484375
1055		19.531250
1056		23.437500
1057		21.484375
1058		23.437500
1059		19.531250
1060		25.390625
1061		21.484375
1062		23.437500
1063		23.437500
1064		25.390625
1065		21.484375
1066		25.390625
1067		23.437500
1068		27.343750
1069		23.437500
1070		27.343750
1071		23.437500
1072		27.343750
1073		25.390625
1074		27.343750
1075		25.390625
1076		29.296875
1077		25.390625
1078		29.296875
1079		27.343750
1080		29.296875
1081		25.390625
1082		29.296875
1083		27.343750
1084		29.296875
1085		27.343750
1086		31.250000
1087		27.343750
1088		31.250000
1089		27.343750
1090		31.250000
1091		29.296875
1092		31.250000
1093		29.296875
1094		31.250000
1095		29.296875
1096		31.250000
1097		29.296875
1098		33.203125
1099		29.296875
1100		33.203125
1101		29.296875
1102		33.203125
1103		29.296875
1104		33.203125
1105		29.296875
1106		33.203125
1107		29.296875
1108		33.203125
1109		29.296875
1110		33.203125
1111		29.296875
1112		33.203125
1113		29.296875
1114		33.203125
1115		29.296875
1116		33.203125
1117		29.296875
1118		33.203125
1119		29.296875
1120		33.203125
1121		29.296875
1122		33.203125
1123		29.296875
1124		33.203125
1125		29.296875
1126		33.203125
1127		29.296875
1128		33.203125
1129		29.296875
1130		31.250000
1131		29.296875
1132		31.250000
1133		29.296875
1134		31.250000
1135		29.296875
1136		31.250000
1137		29.296875
1138		31.250000
1139		29.296875
1140		31.250000
1141		27.343750
1142		31.250000
1143		27.343750
1144		31.250000
1145		27.343750
1146		31.250000
1147		27.343750
1148		29.296875
1149		25.390625
1150		31.250000
1151		27.343750
1152		29.296875
1153		25.390625
1154		29.296875
1155		25.390625
1156		29.296875
1157		25.390625
1158		27.343750
1159		25.390625
1160		27.343750
1161		23.437500
1162		27.343750
1163		25.390625
1164		27.343750
1165		23.437500
1166		27.343750
1167		23.437500
1168		25.390625
1169		23.437500
1170		25.390625
1171		21.484375
1172		25.390625
1173		21.484375
1174		25.390625
1175		21.484375
1176		23.437500
1177		19.531250
1178		23.437500
1179		19.531250
1180		23.437500
1181		19.531250
1182		23.437500
1183		17.578125
1184		21.484375
1185		17.578125
1186		21.484375
1187		17.578125
1188		21.484375
1189		17.578125
1190		19.531250
1191		17.578125
1192		19.531250
1193		15.625000
1194		19.531250
1195		15.625000
1196		17.578125
1197		15.625000
1198		17.578125
1199		13.671875
1200		17.578125
1201		13.671875
1202		17.578125
1203		13.671875
1204		17.578125
1205		11.718750
1206		15.625000
1207		11.718750
1208		15.625000
1209		11.718750
1210		15.625000
1211		11.718750
1212		13.671875
1213		11.718750
1214		13.671875
1215		9.765625
1216		13.671875
1217		9.765625
1218		13.671875
1219		9.765625
1220		13.671875
1221		7.812500
1222		11.718750
1223		7.812500
1224		11.718750
1225		7.812500
1226		11.718750
1227		7.812500
1228		11.718750
1229		7.812500
1230		9.765625
1231		5.859375
1232		9.765625
1233		5.859375
1234		9.765625
1235		5.859375
1236		9.765625
1237		5.859375
1238		9.765625
1239		5.859375
1240		7.812500
1241		5.859375
1242		7.812500
1243		5.859375
1244		7.812500
1245		5.859375
1246		7.812500
1247		5.859375
1248		7.812500
1249		3.906250
1250		9.765625
1251		3.906250
1252		7.812500
1253		3.906250
1254		7.812500
1255		3.906250
1256		7.812500
1257		3.906250
1258		7.812500
1259		3.906250
1260		7.812500
1261		3.906250
1262		7.812500
1263		3.906250
1264		7.812500
1265		3.906250
1266		7.812500
1267		3.906250
1268		7.812500
1269		3.906250
1270		7.812500
1271		3.906250
1272		7.812500
1273		5.859375
1274		7.812500
1275		5.859375
1276		7.812500
1277		3.906250
1278		7.812500
1279		5.859375
1280		7.812500
1281		5.859375
1282		9.765625
1283		5.859375
1284		9.765625
1285		5.859375
1286		9.765625
1287		5.859375
1288		9.765625
1289		7.812500
1290		9.765625
1291		7.812500
1292		9.765625
1293		7.812500
1294		11.718750
1295		9.765625
1296		11.718750
1297		9.765625
1298		11.718750
1299		7.812500
1300		13.671875
1301		9.765625
1302		13.671875
1303		9.765625
1304		13.671875
1305		11.718750
1306		13.671875
1307		11.718750
1308		15.625000
1309		11.718750
1310		15.625000
1311		11.718750
1312		15.625000
1313		13.671875
1314		15.625000
1315		13.671875
1316		17.578125
1317		13.671875
1318		17.578125
1319		15.625000
1320		17.578125
1321		15.625000
1322		17.578125
1323		15.625000
1324		19.531250
1325		15.625000
1326		19.531250
1327		17.578125
1328		21.484375
1329		17.578125
1330		21.484375
1331		19.531250
1332		21.484375
1333		19.531250
1334		23.437500
1335		19.531250
1336		23.437500
1337		19.531250
1338		23.437500
1339		19.531250
1340		23.437500
1341		21.484375
1342		25.390625
1343		21.484375
1344		25.390625
1345		21.484375
1346		25.390625
1347		23.437500
1348		25.390625
1349		23.437500
1350		25.390625
1351		23.437500
1352		27.343750
1353		25.390625
1354		27.343750
1355		25.390625
1356		27.343750
1357		25.390625
1358		29.296875
1359		25.390625
1360		29.296875
1361		25.390625
1362		29.296875
1363		27.343750
1364		29.296875
1365		27.343750
1366		31.250000
1367		27.343750
1368		31.250000
1369		27.343750
1370		31.250000
1371		27.343750
1372		31.250000
1373		29.296875
1374		31.250000
1375		29.296875
1376		31.250000
1377		29.296875
1378		31.250000
1379		29.296875
1380		31.250000
1381		29.296875
1382		31.250000
1383		29.296875
1384		33.203125
1385		29.296875
1386		31.250000
1387		29.296875
1388		33.203125
1389		29.296875
1390		33.203125
1391		29.296875
1392		33.203125
1393		29.296875
1394		33.203125
1395		29.296875
1396		33.203125
1397		29.296875
1398		33.203125
1399		31.250000
1400		33.203125
1401		29.296875
1402		33.203125
1403		29.296875
1404		33.203125
1405		29.296875
1406		33.203125
1407		29.296875
1408		33.203125
1409		29.296875
1410		33.203125
1411		27.343750
1412		33.203125
1413		29.296875
1414		31.250000
1415		29.296875
1416		31.250000
1417		27.343750
1418		31.250000
1419		27.343750
1420		31.250000
1421		27.343750
1422		31.250000
1423		27.343750
1424		31.250000
1425		27.343750
1426		31.250000
1427		27.343750
1428		29.296875
1429		27.343750
1430		31.250000
1431		27.343750
1432		29.296875
1433		25.390625
1434		29.296875
1435		25.390625
1436		29.296875
1437		25.390625
1438		29.296875
1439		25.390625
1440		27.343750
1441		25.390625
1442		27.343750
1443		23.437500
1444		27.343750
1445		23.437500
1446		27.343750
1447		23.437500
1448		25.390625
1449		21.484375
1450		25.390625
1451		21.484375
1452		25.390625
1453		21.484375
1454		25.390625
1455		21.484375
1456		25.390625
1457		21.484375
1458		23.437500
1459		19.531250
1460		23.437500
1461		19.531250
1462		23.437500
1463		19.531250
1464		21.484375
1465		19.531250
1466		21.484375
1467		17.578125
1468		21.484375
1469		17.578125
1470		21.484375
1471		17.578125
1472		19.531250
1473		15.625000
1474		19.531250
1475		15.625000
1476		19.531250
1477		15.625000
1478		17.578125
1479		13.671875
1480		17.578125
1481		13.671875
1482		17.578125
1483		13.671875
1484		17.578125
1485		13.671875
1486		15.625000
1487		11.718750
1488		15.625000
1489		11.718750
1490		15.625000
1491		11.718750
1492		15.625000
1493		11.718750
1494		13.671875
1495		11.718750
1496		13.671875
1497		9.765625
1498		11.718750
1499		9.765625
1500		11.718750
1501		9.765625
1502		13.671875
1503		7.812500
1504		11.718750
1505		7.812500
1506		11.718750
1507		7.812500
1508		11.718750
1509		7.812500
1510		9.765625
1511		5.859375
1512		9.765625
1513		7.812500
1514		9.765625
1515		5.859375
1516		9.765625
1517		5.859375
1518		9.765625
1519		5.859375
1520		9.765625
1521		5.859375
1522		7.812500
1523		3.906250
1524		7.812500
1525		5.859375
1526		7.812500
1527		3.906250
1528		7.812500
1529		3.906250
1530		7.812500
1531		3.906250
1532		7.812500
1533		3.906250
1534		7.812500
1535		3.906250
1536		7.812500
1537		3.906250
1538		7.812500
1539		3.906250
1540		7.812500
1541		3.906250
1542		7.812500
1543		3.906250
1544		5.859375
1545		3.906250
1546		7.812500
1547		3.906250
1548		5.859375
1549		3.906250
1550		7.812500
1551		3.906250
1552		7.812500
1553		3.906250
1554		7.812500
1555		3.906250
1556		7.812500
1557		5.859375
1558		7.812500
1559		5.859375
1560		7.812500
1561		5.859375
1562		7.812500
1563		5.859375
1564		9.765625
1565		5.859375
1566		7.812500
1567		5.859375
1568		9.765625
1569		5.859375
1570		9.765625
1571		7.812500
1572		9.765625
1573		7.812500
1574		9.765625
1575		7.812500
1576		11.718750
1577		7.812500
1578		11.718750
1579		7.812500
1580		11.718750
1581		9.765625
1582		11.718750
1583		9.765625
1584		11.718750
1585		9.765625
1586		13.671875
1587		9.765625
1588		13.671875
1589		11.718750
1590		13.671875
1591		11.718750
1592		15.625000
1593		11.718750
1594		15.625000
1595		13.671875
1596		15.625000
1597		13.671875
1598		15.625000
1599		13.671875
1600		17.578125
1601		15.625000
1602		17.578125
1603		15.625000
1604		17.578125
1605		15.625000
1606		19.531250
1607		15.625000
1608		19.531250
1609		17.578125
1610		19.531250
1611		17.578125
1612		21.484375
1613		17.578125
1614		21.484375
1615		19.531250
1616		21.484375
1617		19.531250
1618		21.484375
1619		19.531250
1620		23.437500
1621		19.531250
1622		25.390625
1623		21.484375
1624		25.390625
1625		21.484375
1626		25.390625
1627		21.484375
1628		25.390625
1629		23.437500
1630		27.343750
1631		23.437500
1632		27.343750
1633		25.390625
1634		27.343750
1635		23.437500
1636		27.343750
1637		25.390625
1638		29.296875
1639		25.390625
1640		29.296875
1641		25.390625
1642		29.296875
1643		25.390625
1644		29.296875
1645		27.343750
1646		29.296875
1647		27.343750
1648		31.250000
1649		27.343750
1650		29.296875
1651		27.343750
1652		31.250000
1653		27.343750
1654		31.250000
1655		29.296875
1656		31.250000
1657		29.296875
1658		31.250000
1659		29.296875
1660		33.203125
1661		29.296875
1662		33.203125
1663		29.296875
1664		33.203125
1665		29.296875
1666		31.250000
1667		29.296875
1668		33.203125
1669		29.296875
1670		33.203125
1671		29.296875
1672		33.203125
1673		31.250000
1674		33.203125
1675		29.296875
1676		33.203125
1677		29.296875
1678		33.203125
1679		29.296875
1680		33.203125
1681		29.296875
1682		33.203125
1683		31.250000
1684		33.203125
1685		31.250000
1686		33.203125
1687		31.250000
1688		33.203125
1689		31.250000
1690		33.203125
1691		29.296875
1692		33.203125
1693		29.296875
1694		33.203125
1695		29.296875
1696		31.250000
1697		29.296875
1698		33.203125
1699		29.296875
1700		31.250000
1701		29.296875
1702		31.250000
1703		29.296875
1704		31.250000
1705		27.343750
1706		31.250000
1707		27.343750
1708		31.250000
1709		27.343750
1710		31.250000
1711		27.343750
1712		31.250000
1713		27.343750
1714		29.296875
1715		27.343750
1716		31.250000
1717		27.343750
1718		29.296875
1719		25.390625
1720		29.296875
1721		25.390625
1722		29.296875
1723		25.390625
1724		27.343750
1725		25.390625
1726		27.343750
1727		25.390625
1728		27.343750
1729		23.437500
1730		27.343750
1731		21.484375
1732		27.343750
1733		23.437500
1734		25.390625
1735		21.484375
1736		25.390625
1737		21.484375
1738		25.390625
1739		21.484375
1740		23.437500
1741		21.484375
1742		25.390625
1743		19.531250
1744		23.437500
1745		19.531250
1746		23.437500
1747		17.578125
1748		21.484375
1749		19.531250
1750		21.484375
1751		17.578125
1752		21.484375
1753		17.578125
1754		21.484375
1755		17.578125
1756		19.531250
1757		15.625000
1758		19.531250
1759		15.625000
1760		17.578125
1761		15.625000
1762		17.578125
1763		13.671875
1764		17.578125
1765		13.671875
1766		19.531250
1767		13.671875
1768		15.625000
1769		13.671875
1770		15.625000
1771		11.718750
1772		15.625000
1773		11.718750
1774		15.625000
1775		11.718750
1776		15.625000
1777		11.718750
1778		13.671875
1779		9.765625
1780		13.671875
1781		9.765625
1782		13.671875
1783		9.765625
1784		11.718750
1785		9.765625
1786		11.718750
1787		7.812500
1788		11.718750
1789		7.812500
1790		11.718750
1791		7.812500
1792		9.765625
1793		7.812500
1794		9.765625
1795		7.812500
1796		9.765625
1797		7.812500
1798		9.765625
1799		5.859375
1800		9.765625
1801		5.859375
1802		7.812500
1803		5.859375
1804		9.765625
1805		5.859375
1806		9.765625
1807		5.859375
1808		7.812500
1809		5.859375
1810		7.812500
1811		5.859375
1812		7.812500
1813		3.906250
1814		7.812500
1815		3.906250
1816		7.812500
1817		3.906250
1818		7.812500
1819		3.906250
1820		7.812500
1821		3.906250
1822		7.812500
1823		3.906250
1824		7.812500
1825		3.906250
1826		7.812500
1827		3.906250
1828		7.812500
1829		3.906250
1830		7.812500
1831		3.906250
1832		7.812500
1833		5.859375
1834		7.812500
1835		5.859375
1836		7.812500
1837		3.906250
1838		7.812500
1839		3.906250
1840		7.812500
1841		5.859375
1842		7.812500
1843		5.859375
1844		9.765625
1845		5.859375
1846		9.765625
1847		5.859375
1848		9.765625
1849		5.859375
1850		9.765625
1851		5.859375
1852		9.765625
1853		5.859375
1854		9.765625
1855		7.812500
1856		11.718750
1857		7.812500
1858		11.718750
1859		7.812500
1860		11.718750
1861		7.812500
1862		11.718750
1863		9.765625
1864		11.718750
1865		9.765625
1866		13.671875
1867		9.765625
1868		13.671875
1869		11.718750
1870		13.671875
1871		9.765625
1872		13.671875
1873		11.718750
1874		15.625000
1875		11.718750
1876		15.625000
1877		13.671875
1878		15.625000
1879		13.671875
1880		15.625000
1881		13.671875
1882		17.578125
1883		13.671875
1884		17.578125
1885		15.625000
1886		17.578125
1887		15.625000
1888		19.531250
1889		15.625000
1890		19.531250
1891		15.625000
1892		19.531250
1893		17.578125
1894		21.484375
1895		17.578125
1896		21.484375
1897		17.578125
1898		23.437500
1899		17.578125
1900		23.437500
1901		19.531250
1902		23.437500
1903		19.531250
1904		23.437500
1905		21.484375
1906		25.390625
1907		21.484375
1908		25.390625
1909		21.484375
1910		25.390625
1911		23.437500
1912		25.390625
1913		23.437500
1914		25.390625
1915		23.437500
1916		27.343750
1917		23.437500
1918		27.343750
1919		25.390625
1920		27.343750
1921		23.437500
1922		29.296875
1923		25.390625
1924		29.296875
1925		25.390625
1926		29.296875
1927		25.390625
1928		29.296875
1929		23.437500
1930		31.250000
1931		25.390625
1932		31.250000
1933		27.343750
1934		29.296875
1935		27.343750
1936		31.250000
1937		27.343750
1938		31.250000
1939		27.343750
1940		31.250000
1941		29.296875
1942		31.250000
1943		29.296875
1944		31.250000
1945		27.343750
1946		33.203125
1947		27.343750
1948		33.203125
1949		27.343750
1950		33.203125
1951		29.296875
1952		33.203125
1953		29.296875
1954		33.203125
1955		27.343750
1956		35.156250
1957		27.343750
1958		35.156250
1959		27.343750
1960		35.156250
1961		27.343750
1962		35.156250
1963		27.343750
1964		35.156250
1965		27.343750
1966		35.156250
1967		29.296875
1968		33.203125
1969		29.296875
1970		33.203125
1971		27.343750
1972		35.156250
1973		27.343750
1974		35.156250
1975		27.343750
1976		35.156250
1977		27.343750
1978		33.203125
1979		27.343750
1980		33.203125
1981		27.343750
1982		33.203125
1983		27.343750
1984		33.203125
1985		27.343750
1986		31.250000
1987		27.343750
1988		31.250000
1989		25.390625
1990		33.203125
1991		25.390625
1992		31.250000
1993		25.390625
1994		33.203125
1995		25.390625
1996		31.250000
1997		23.437500
1998		31.250000
1999		23.437500
2000		31.250000
2001		25.390625
2002		27.343750
2003		25.390625
2004		27.343750
2005		23.437500
2006		29.296875
2007		23.437500
2008		29.296875
2009		21.484375
2010		29.296875
2011		21.484375
2012		27.343750
2013		21.484375
2014		27.343750
2015		19.531250
2016		27.343750
2017		19.531250
2018		25.390625
2019		21.484375
2020		23.437500
2021		19.531250
2022		25.390625
2023		19.531250
2024		25.390625
2025		17.578125
2026		25.390625
2027		17.578125
2028		23.437500
2029		17.578125
2030		23.437500
2031		15.625000
2032		23.437500
2033		15.625000
2034		23.437500
2035		17.578125
2036		19.531250
2037		17.578125
2038		19.531250
2039		13.671875
2040		21.484375
2041		13.671875
2042		19.531250
2043		13.671875
2044		19.531250
2045		11.718750
2046		19.531250
2047		11.718750
2048		19.531250
2049		11.718750
2050		17.578125
2051		11.718750
2052		17.578125
2053		13.671875
2054		15.625000
2055		9.765625
2056		15.625000
2057		9.765625
2058		15.625000
2059		9.765625
2060		15.625000
2061		7.812500
2062		15.625000
2063		7.812500
2064		15.625000
2065		7.812500
2066		13.671875
2067		7.812500
2068		13.671875
2069		7.812500
2070		11.718750
2071		7.812500
2072		11.718750
2073		5.859375
2074		11.718750
2075		5.859375
2076		11.718750
2077		3.906250
2078		11.718750
2079		3.906250
2080		11.718750
2081		3.906250
2082		11.718750
2083		3.906250
2084		9.765625
2085		5.859375
2086		9.765625
2087		5.859375
2088		7.812500
2089		3.906250
2090		9.765625
2091		3.906250
2092		9.765625
2093		1.953125
2094		9.765625
2095		1.953125
2096		9.765625
2097		1.953125
2098		9.765625
2099		1.953125
2100		9.765625
2101		1.953125
2102		7.812500
2103		3.906250
2104		7.812500
2105		1.953125
2106		7.812500
2107		1.953125
2108		9.765625
2109		1.953125
2110		7.812500
2111		1.953125
2112		7.812500
2113		1.953125
2114		9.765625
2115		1.953125
2116		9.765625
2117		3.906250
2118		9.765625
2119		5.859375
2120		7.812500
2121		5.859375
2122		7.812500
2123		1.953125
2124		9.765625
2125		1.953125
2126		9.765625
2127		3.906250
2128		11.718750
2129		3.906250
2130		11.718750
2131		3.906250
2132		11.718750
2133		3.906250
2134		11.718750
2135		5.859375
2136		11.718750
2137		7.812500
2138		9.765625
2139		5.859375
2140		11.718750
2141		5.859375
2142		13.671875
2143		7.812500
2144		13.671875
2145		7.812500
2146		13.671875
2147		7.812500
2148		13.671875
2149		7.812500
2150		15.625000
2151		7.812500
2152		15.625000
2153		11.718750
2154		13.671875
2155		11.718750
2156		13.671875
2157		9.765625
2158		17.578125
2159		11.718750
2160		17.578125
2161		11.718750
2162		17.578125
2163		11.718750
2164		19.531250
2165		13.671875
2166		19.531250
2167		13.671875
2168		19.531250
2169		15.625000
2170		19.531250
2171		15.625000
2172		19.531250
2173		15.625000
2174		21.484375
2175		15.625000
2176		23.437500
2177		15.625000
2178		23.437500
2179		17.578125
2180		23.437500
2181		17.578125
2182		23.437500
2183		17.578125
2184		25.390625
2185		17.578125
2186		25.390625
2187		21.484375
2188		23.437500
2189		21.484375
2190		27.343750
2191		21.484375
2192		27.343750
2193		21.484375
2194		27.343750
2195		21.484375
2196		29.296875
2197		21.484375
2198		29.296875
2199		21.484375
2200		29.296875
2201		23.437500
2202		29.296875
2203		25.390625
2204		27.343750
2205		25.390625
2206		27.343750
2207		25.390625
2208		31.250000
2209		25.390625
2210		31.250000
2211		25.390625
2212		31.250000
2213		25.390625
2214		33.203125
2215		25.390625
2216		33.203125
2217		25.390625
2218		33.203125
2219		27.343750
2220		31.250000
2221		29.296875
2222		31.250000
2223		27.343750
2224		33.203125
2225		27.343750
2226		33.203125
2227		27.343750
2228		35.156250
2229		27.343750
2230		35.156250
2231		27.343750
2232		35.156250
2233		27.343750
2234		35.156250
2235		27.343750
2236		35.156250
2237		29.296875
2238		33.203125
2239		31.250000
2240		33.203125
2241		29.296875
2242		35.156250
2243		29.296875
2244		35.156250
2245		27.343750
2246		35.156250
2247		27.343750
2248		35.156250
2249		29.296875
2250		35.156250
2251		27.343750
2252		35.156250
2253		29.296875
2254		33.203125
2255		29.296875
2256		33.203125
2257		27.343750
2258		35.156250
2259		27.343750
2260		35.156250
2261		27.343750
2262		33.203125
2263		27.343750
2264		33.203125
2265		27.343750
2266		33.203125
2267		27.343750
2268		33.203125
2269		27.343750
2270		33.203125
2271		29.296875
2272		31.250000
2273		25.390625
2274		31.250000
2275		25.390625
2276		33.203125
2277		25.390625
2278		31.250000
2279		25.390625
2280		31.250000
2281		23.437500
2282		31.250000
2283		23.437500
2284		31.250000
2285		23.437500
2286		31.250000
2287		25.390625
2288		27.343750
2289		25.390625
2290		27.343750
2291		21.484375
2292		29.296875
2293		21.484375
2294		29.296875
2295		21.484375
2296		27.343750
2297		21.484375
2298		27.343750
2299		19.531250
2300		27.343750
2301		19.531250
2302		27.343750
2303		19.531250
2304		27.343750
2305		21.484375
2306		23.437500
2307		17.578125
2308		25.390625
2309		17.578125
2310		23.437500
2311		17.578125
2312		23.437500
2313		17.578125
2314		23.437500
2315		15.625000
2316		23.437500
2317		15.625000
2318		23.437500
2319		15.625000
2320		21.484375
2321		17.578125
2322		19.531250
2323		15.625000
2324		19.531250
2325		13.671875
2326		19.531250
2327		13.671875
2328		19.531250
2329		11.718750
2330		19.531250
2331		11.718750
2332		19.531250
2333		11.718750
2334		17.578125
2335		9.765625
2336		17.578125
2337		11.718750
2338		15.625000
2339		11.718750
2340		13.671875
2341		7.812500
2342		15.625000
2343		9.765625
2344		15.625000
2345		7.812500
2346		15.625000
2347		7.812500
2348		15.625000
2349		7.812500
2350		13.671875
2351		5.859375
2352		13.671875
2353		5.859375
2354		13.671875
2355		7.812500
2356		11.718750
2357		5.859375
2358		11.718750
2359		5.859375
2360		11.718750
2361		3.906250
2362		11.718750
2363		3.906250
2364		11.718750
2365		3.906250
2366		9.765625
2367		3.906250
2368		9.765625
2369		3.906250
2370		9.765625
2371		5.859375
2372		7.812500
2373		5.859375
2374		7.812500
2375		1.953125
2376		9.765625
2377		1.953125
2378		9.765625
2379		1.953125
2380		9.765625
2381		1.953125
2382		9.765625
2383		1.953125
2384		9.765625
2385		1.953125
2386		9.765625
2387		1.953125
2388		7.812500
2389		3.906250
2390		5.859375
2391		1.953125
2392		9.765625
2393		1.953125
2394		9.765625
2395		1.953125
2396		9.765625
2397		1.953125
2398		9.765625
2399		1.953125
2400		9.765625
2401		1.953125
2402		9.765625
2403		3.906250
2404		9.765625
2405		5.859375
2406		7.812500
2407		5.859375
2408		7.812500
2409		3.906250
2410		9.765625
2411		3.906250
2412		9.765625
2413		3.906250
2414		11.718750
2415		3.906250
2416		11.718750
2417		3.906250
2418		11.718750
2419		5.859375
2420		11.718750
2421		5.859375
2422		9.765625
2423		7.812500
2424		9.765625
2425		7.812500
2426		13.671875
2427		7.812500
2428		13.671875
2429		7.812500
2430		13.671875
2431		7.812500
2432		13.671875
2433		7.812500
2434		15.625000
2435		9.765625
2436		15.625000
2437		9.765625
2438		15.625000
2439		11.718750
2440		15.625000
2441		11.718750
2442		17.578125
2443		11.718750
2444		17.578125
2445		11.718750
2446		17.578125
2447		11.718750
2448		19.531250
2449		13.671875
2450		19.531250
2451		13.671875
2452		21.484375
2453		13.671875
2454		21.484375
2455		17.578125
2456		19.531250
2457		17.578125
2458		19.531250
2459		15.625000
2460		23.437500
2461		17.578125
2462		23.437500
2463		17.578125
2464		23.437500
2465		17.578125
2466		25.390625
2467		17.578125
2468		25.390625
2469		19.531250
2470		25.390625
2471		19.531250
2472		25.390625
2473		21.484375
2474		25.390625
2475		21.484375
2476		27.343750
2477		21.484375
2478		27.343750
2479		21.484375
2480		27.343750
2481		23.437500
2482		29.296875
2483		23.437500
2484		29.296875
2485		25.390625
2486		29.296875
2487		25.390625
2488		29.296875
2489		25.390625
2490		27.343750
2491		27.343750
2492		29.296875
2493		25.390625
2494		31.250000
2495		25.390625
2496		31.250000
2497		25.390625
2498		31.250000
2499		25.390625
2500		33.203125
2501		27.343750
2502		31.250000
2503		27.343750
2504		33.203125
2505		27.343750
2506		31.250000
2507		29.296875
2508		31.250000
2509		29.296875
2510		33.203125
2511		29.296875
2512		33.203125
2513		29.296875
2514		33.203125
2515		29.296875
2516		33.203125
2517		27.343750
2518		33.203125
2519		29.296875
2520		33.203125
2521		29.296875
2522		33.203125
2523		29.296875
2524		33.203125
2525		29.296875
2526		33.203125
2527		29.296875
2528		33.203125
2529		29.296875
2530		33.203125
2531		29.296875
2532		33.203125
2533		27.343750
2534		35.156250
2535		29.296875
2536		33.203125
2537		29.296875
2538		33.203125
2539		29.296875
2540		31.250000
2541		29.296875
2542		31.250000
2543		29.296875
2544		33.203125
2545		27.343750
2546		33.203125
2547		27.343750
2548		33.203125
2549		27.343750
2550		33.203125
2551		27.343750
2552		31.250000
2553		27.343750
2554		31.250000
2555		27.343750
2556		31.250000
2557		27.343750
2558		29.296875
2559		25.390625
2560		31.250000
2561		25.390625
2562		29.296875
2563		25.390625
2564		29.296875
2565		25.390625
2566		29.296875
2567		25.390625
2568		29.296875
2569		25.390625
2570		27.343750
2571		23.437500
2572		27.343750
2573		25.390625
2574		27.343750
2575		23.437500
2576		27.343750
2577		23.437500
2578		27.343750
2579		21.484375
2580		25.390625
2581		21.484375
2582		25.390625
2583		21.484375
2584		25.390625
2585		21.484375
2586		23.437500
2587		21.484375
2588		25.390625
2589		19.531250
2590		23.437500
2591		19.531250
2592		21.484375
2593		19.531250
2594		21.484375
2595		17.578125
2596		21.484375
2597		17.578125
2598		21.484375
2599		17.578125
2600		21.484375
2601		17.578125
2602		19.531250
2603		15.625000
2604		19.531250
2605		15.625000
2606		19.531250
2607		15.625000
2608		17.578125
2609		13.671875
2610		17.578125
2611		13.671875
2612		17.578125
2613		13.671875
2614		17.578125
2615		13.671875
2616		15.625000
2617		11.718750
2618		15.625000
2619		11.718750
2620		15.625000
2621		11.718750
2622		15.625000
2623		11.718750
2624		13.671875
2625		9.765625
2626		13.671875
2627		9.765625
2628		13.671875
2629		9.765625
2630		13.671875
2631		9.765625
2632		11.718750
2633		7.812500
2634		11.718750
2635		7.812500
2636		11.718750
2637		7.812500
2638		11.718750
2639		7.812500
2640		11.718750
2641		7.812500
2642		9.765625
2643		7.812500
2644		9.765625
2645		5.859375
2646		9.765625
2647		5.859375
2648		9.765625
2649		5.859375
2650		7.812500
2651		5.859375
2652		9.765625
2653		3.906250
2654		7.812500
2655		3.906250
2656		7.812500
2657		5.859375
2658		7.812500
2659		3.906250
2660		7.812500
2661		3.906250
2662		7.812500
2663		3.906250
2664		7.812500
2665		3.906250
2666		7.812500
2667		3.906250
2668		7.812500
2669		3.906250
2670		7.812500
2671		3.906250
2672		7.812500
2673		3.906250
2674		7.812500
2675		5.859375
2676		7.812500
2677		3.906250
2678		7.812500
2679		3.906250
2680		7.812500
2681		5.859375
2682		7.812500
2683		3.906250
2684		7.812500
2685		3.906250
2686		7.812500
2687		5.859375
2688		7.812500
2689		5.859375
2690		7.812500
2691		5.859375
2692		7.812500
2693		5.859375
2694		9.765625
2695		5.859375
2696		9.765625
2697		5.859375
2698		9.765625
2699		7.812500
2700		11.718750
2701		7.812500
2702		9.765625
2703		7.812500
2704		11.718750
2705		7.812500
2706		11.718750
2707		9.765625
2708		11.718750
2709		9.765625
2710		11.718750
2711		9.765625
2712		13.671875
2713		9.765625
2714		13.671875
2715		9.765625
2716		13.671875
2717		11.718750
2718		13.671875
2719		11.718750
2720		15.625000
2721		11.718750
2722		15.625000
2723		11.718750
2724		15.625000
2725		13.671875
2726		15.625000
2727		13.671875
2728		17.578125
2729		13.671875
2730		17.578125
2731		15.625000
2732		17.578125
2733		15.625000
2734		19.531250
2735		15.625000
2736		19.531250
2737		17.578125
2738		19.531250
2739		17.578125
2740		21.484375
2741		17.578125
2742		21.484375
2743		19.531250
2744		21.484375
2745		19.531250
2746		23.437500
2747		19.531250
2748		23.437500
2749		21.484375
2750		23.437500
2751		21.484375
2752		23.437500
2753		21.484375
2754		25.390625
2755		21.484375
2756		25.390625
2757		23.437500
2758		25.390625
2759		23.437500
2760		25.390625
2761		23.437500
2762		27.343750
2763		23.437500
2764		27.343750
2765		25.390625
2766		27.343750
2767		25.390625
2768		29.296875
2769		25.390625
2770		29.296875
2771		25.390625
2772		29.296875
2773		25.390625
2774		29.296875
2775		27.343750
2776		29.296875
2777		27.343750
2778		29.296875
2779		27.343750
2780		31.250000
2781		27.343750
2782		31.250000
2783		29.296875
2784		31.250000
2785		29.296875
2786		31.250000
2787		29.296875
2788		31.250000
2789		29.296875
2790		33.203125
2791		29.296875
2792		31.250000
2793		29.296875
2794		33.203125
2795		29.296875
2796		33.203125
2797		29.296875
2798		33.203125
2799		29.296875
2800		33.203125
2801		29.296875
2802		33.203125
2803		29.296875
2804		33.203125
2805		29.296875
2806		33.203125
2807		29.296875
2808		33.203125
2809		31.250000
2810		33.203125
2811		29.296875
2812		33.203125
2813		29.296875
2814		33.203125
2815		29.296875
2816		33.203125
2817		29.296875
2818		33.203125
2819		29.296875
2820		33.203125
2821		29.296875
2822		33.203125
2823		29.296875
2824		33.203125
2825		29.296875
2826		31.250000
2827		29.296875
2828		31.250000
2829		27.343750
2830		33.203125
2831		29.296875
2832		31.250000
2833		27.343750
2834		31.250000
2835		29.296875
2836		31.250000
2837		27.343750
2838		31.250000
2839		27.343750
2840		31.250000
2841		27.343750
2842		31.250000
2843		27.343750
2844		29.296875
2845		25.390625
2846		29.296875
2847		25.390625
2848		29.296875
2849		25.390625
2850		29.296875
2851		25.390625
2852		27.343750
2853		25.390625
2854		27.343750
2855		23.437500
2856		27.343750
2857		23.437500
2858		27.343750
2859		23.437500
2860		25.390625
2861		23.437500
2862		25.390625
2863		23.437500
2864		25.390625
2865		21.484375
2866		25.390625
2867		21.484375
2868		25.390625
2869		21.484375
2870		25.390625
2871		19.531250
2872		23.437500
2873		19.531250
2874		23.437500
2875		19.531250
2876		23.437500
2877		19.531250
2878		21.484375
2879		17.578125
2880		21.484375
2881		17.578125
2882		21.484375
2883		17.578125
2884		19.531250
2885		15.625000
2886		19.531250
2887		15.625000
2888		19.531250
2889		15.625000
2890		17.578125
2891		15.625000
2892		17.578125
2893		13.671875
2894		17.578125
2895		13.671875
2896		17.578125
2897		13.671875
2898		15.625000
2899		11.718750
2900		15.625000
2901		11.718750
2902		15.625000
2903		11.718750
2904		13.671875
2905		11.718750
2906		13.671875
2907		9.765625
2908		13.671875
2909		9.765625
2910		13.671875
2911		9.765625
2912		11.718750
2913		7.812500
2914		13.671875
2915		7.812500
2916		11.718750
2917		7.812500
2918		11.718750
2919		7.812500
2920		11.718750
2921		7.812500
2922		9.765625
2923		5.859375
2924		9.765625
2925		5.859375
2926		9.765625
2927		5.859375
2928		9.765625
2929		5.859375
2930		9.765625
2931		5.859375
2932		7.812500
2933		5.859375
2934		7.812500
2935		5.859375
2936		7.812500
2937		3.906250
2938		7.812500
2939		3.906250
2940		7.812500
2941		3.906250
2942		7.812500
2943		3.906250
2944		7.812500
2945		5.859375
2946		5.859375
2947		3.906250
2948		7.812500
2949		3.906250
2950		7.812500
2951		3.906250
2952		7.812500
2953		3.906250
2954		7.812500
2955		3.906250
2956		7.812500
2957		3.906250
2958		7.812500
2959		3.906250
2960		7.812500
2961		3.906250
2962		5.859375
2963		3.906250
2964		7.812500
2965		3.906250
2966		7.812500
2967		3.906250
2968		7.812500
2969		3.906250
2970		7.812500
2971		3.906250
2972		7.812500
2973		5.859375
2974		7.812500
2975		5.859375
2976		9.765625
2977		5.859375
2978		7.812500
2979		5.859375
2980		9.765625
2981		5.859375
2982		9.765625
2983		7.812500
2984		9.765625
2985		7.812500
2986		9.765625
2987		7.812500
2988		9.765625
2989		7.812500
2990		11.718750
2991		7.812500
2992		11.718750
2993		9.765625
2994		11.718750
2995		9.765625
2996		11.718750
2997		9.765625
2998		13.671875
2999		9.765625
3000		13.671875
3001		11.718750
3002		13.671875
3003		11.718750
3004		15.625000
3005		11.718750
3006		15.625000
3007		11.718750
3008		15.625000
3009		13.671875
3010		17.578125
3011		13.671875
3012		17.578125
3013		15.625000
3014		17.578125
3015		15.625000
3016		17.578125
3017		15.625000
3018		19.531250
3019		15.625000
3020		19.531250
3021		17.578125
3022		19.531250
3023		17.578125
3024		19.531250
3025		17.578125
3026		21.484375
3027		19.531250
3028		21.484375
3029		19.531250
3030		21.484375
3031		19.531250
3032		23.437500
3033		21.484375
3034		23.437500
3035		21.484375
3036		25.390625
3037		21.484375
3038		25.390625
3039		21.484375
3040		25.390625
3041		23.437500
3042		25.390625
3043		23.437500
3044		27.343750
3045		23.437500
3046		27.343750
3047		23.437500
3048		29.296875
3049		25.390625
3050		27.343750
3051		25.390625
3052		29.296875
3053		25.390625
3054		29.296875
3055		25.390625
3056		29.296875
3057		27.343750
3058		29.296875
3059		27.343750
3060		29.296875
3061		27.343750
3062		29.296875
3063		27.343750
3064		31.250000
3065		27.343750
3066		31.250000
3067		27.343750
3068		31.250000
3069		27.343750
3070		31.250000
3071		29.296875
3072		31.250000
3073		29.296875
3074		33.203125
3075		29.296875
3076		33.203125
3077		29.296875
3078		31.250000
3079		29.296875
3080		33.203125
3081		29.296875
3082		33.203125
3083		29.296875
3084		33.203125
3085		29.296875
3086		33.203125
3087		29.296875
3088		33.203125
3089		29.296875
3090		33.203125
3091		29.296875
3092		33.203125
3093		29.296875
3094		35.156250
3095		31.250000
3096		33.203125
3097		29.296875
3098		35.156250
3099		29.296875
3100		33.203125
3101		29.296875
3102		33.203125
3103		29.296875
3104		33.203125
3105		29.296875
3106		33.203125
3107		29.296875
3108		33.203125
3109		29.296875
3110		33.203125
3111		29.296875
3112		31.250000
3113		29.296875
3114		31.250000
3115		27.343750
3116		33.203125
3117		27.343750
3118		31.250000
3119		27.343750
3120		31.250000
3121		27.343750
3122		31.250000
3123		27.343750
3124		31.250000
3125		27.343750
3126		29.296875
3127		25.390625
3128		29.296875
3129		25.390625
3130		29.296875
3131		25.390625
3132		29.296875
3133		25.390625
3134		29.296875
3135		25.390625
3136		27.343750
3137		23.437500
3138		27.343750
3139		23.437500
3140		27.343750
3141		23.437500
3142		27.343750
3143		21.484375
3144		27.343750
3145		23.437500
3146		25.390625
3147		21.484375
3148		25.390625
3149		21.484375
3150		25.390625
3151		21.484375
3152		23.437500
3153		21.484375
3154		23.437500
3155		19.531250
3156		23.437500
3157		19.531250
3158		23.437500
3159		19.531250
3160		23.437500
3161		19.531250
3162		21.484375
3163		17.578125
3164		21.484375
3165		15.625000
3166		21.484375
3167		17.578125
3168		19.531250
3169		15.625000
3170		19.531250
3171		15.625000
3172		17.578125
3173		15.625000
3174		17.578125
3175		13.671875
3176		17.578125
3177		13.671875
3178		17.578125
3179		13.671875
3180		15.625000
3181		11.718750
3182		17.578125
3183		11.718750
3184		15.625000
3185		11.718750
3186		15.625000
3187		11.718750
3188		13.671875
3189		9.765625
3190		13.671875
3191		11.718750
3192		13.671875
3193		9.765625
3194		13.671875
3195		9.765625
3196		13.671875
3197		9.765625
3198		11.718750
3199		7.812500
3200		13.671875
3201		7.812500
3202		11.718750
3203		7.812500
3204		9.765625
3205		7.812500
3206		11.718750
3207		7.812500
3208		9.765625
3209		5.859375
3210		9.765625
3211		5.859375
3212		9.765625
3213		5.859375
3214		7.812500
3215		5.859375
3216		9.765625
3217		5.859375
3218		7.812500
3219		5.859375
3220		7.812500
3221		5.859375
3222		7.812500
3223		3.906250
3224		7.812500
3225		3.906250
3226		7.812500
3227		5.859375
3228		7.812500
3229		5.859375
3230		7.812500
3231		3.906250
3232		7.812500
3233		3.906250
3234		7.812500
3235		3.906250
3236		7.812500
3237		3.906250
3238		7.812500
3239		3.906250
3240		7.812500
3241		3.906250
3242		7.812500
3243		3.906250
3244		7.812500
3245		5.859375
3246		7.812500
3247		5.859375
3248		7.812500
3249		3.906250
3250		7.812500
3251		5.859375
3252		7.812500
3253		5.859375
3254		7.812500
3255		5.859375
3256		7.812500
3257		5.859375
3258		9.765625
3259		5.859375
3260		9.765625
3261		5.859375
3262		9.765625
3263		7.812500
3264		9.765625
3265		7.812500
3266		11.718750
3267		7.812500
3268		11.718750
3269		7.812500
3270		11.718750
3271		7.812500
3272		11.718750
3273		7.812500
3274		11.718750
3275		9.765625
3276		11.718750
3277		9.765625
3278		13.671875
3279		9.765625
3280		13.671875
3281		11.718750
3282		13.671875
3283		11.718750
3284		15.625000
3285		11.718750
3286		15.625000
3287		13.671875
3288		15.625000
3289		13.671875
3290		15.625000
3291		13.671875
3292		17.578125
3293		13.671875
3294		17.578125
3295		13.671875
3296		17.578125
3297		15.625000
3298		19.531250
3299		15.625000
3300		19.531250
3301		17.578125
3302		19.531250
3303		17.578125
3304		21.484375
3305		17.578125
3306		21.484375
3307		19.531250
3308		21.484375
3309		19.531250
3310		21.484375
3311		19.531250
3312		23.437500
3313		21.484375
3314		23.437500
3315		21.484375
3316		23.437500
3317		19.531250
3318		25.390625
3319		21.484375
3320		25.390625
3321		23.437500
3322		25.390625
3323		23.437500
3324		27.343750
3325		23.437500
3326		27.343750
3327		23.437500
3328		27.343750
3329		25.390625
3330		27.343750
3331		25.390625
3332		27.343750
3333		25.390625
3334		29.296875
3335		25.390625
3336		29.296875
3337		25.390625
3338		29.296875
3339		27.343750
3340		29.296875
3341		27.343750
3342		31.250000
3343		27.343750
3344		31.250000
3345		27.343750
3346		31.250000
3347		29.296875
3348		31.250000
3349		29.296875
3350		31.250000
3351		29.296875
3352		31.250000
3353		29.296875
3354		31.250000
3355		29.296875
3356		31.250000
3357		29.296875
3358		33.203125
3359		29.296875
3360		33.203125
3361		29.296875
3362		33.203125
3363		31.250000
3364		33.203125
3365		31.250000
3366		33.203125
3367		29.296875
3368		33.203125
3369		29.296875
3370		33.203125
3371		29.296875
3372		33.203125
3373		31.250000
3374		33.203125
3375		31.250000
3376		33.203125
3377		31.250000
3378		33.203125
3379		29.296875
3380		33.203125
3381		31.250000
3382		33.203125
3383		29.296875
3384		33.203125
3385		29.296875
3386		33.203125
3387		29.296875
3388		33.203125
3389		29.296875
3390		31.250000
3391		29.296875
3392		31.250000
3393		29.296875
3394		31.250000
3395		27.343750
3396		31.250000
3397		29.296875
3398		31.250000
3399		27.343750
3400		31.250000
3401		27.343750
3402		31.250000
3403		27.343750
3404		31.250000
3405		27.343750
3406		29.296875
3407		27.343750
3408		29.296875
3409		25.390625
3410		29.296875
3411		25.390625
3412		29.296875
3413		25.390625
3414		29.296875
3415		25.390625
3416		27.343750
3417		25.390625
3418		27.343750
3419		23.437500
3420		27.343750
3421		23.437500
3422		27.343750
3423		23.437500
3424		27.343750
3425		23.437500
3426		25.390625
3427		21.484375
3428		25.390625
3429		21.484375
3430		25.390625
3431		21.484375
3432		23.437500
3433		19.531250
3434		23.437500
3435		19.531250
3436		23.437500
3437		19.531250
3438		23.437500
3439		19.531250
3440		23.437500
3441		19.531250
3442		21.484375
3443		17.578125
3444		21.484375
3445		17.578125
3446		21.484375
3447		17.578125
3448		19.531250
3449		17.578125
3450		19.531250
3451		15.625000
3452		19.531250
3453		15.625000
3454		17.578125
3455		15.625000
3456		17.578125
3457		15.625000
3458		17.578125
3459		13.671875
3460		17.578125
3461		13.671875
3462		15.625000
3463		11.718750
3464		15.625000
3465		11.718750
3466		15.625000
3467		11.718750
3468		15.625000
3469		11.718750
3470		15.625000
3471		9.765625
3472		13.671875
3473		9.765625
3474		13.671875
3475		9.765625
3476		13.671875
3477		9.765625
3478		11.718750
3479		7.812500
3480		11.718750
3481		7.812500
3482		11.718750
3483		7.812500
3484		9.765625
3485		7.812500
3486		11.718750
3487		7.812500
3488		9.765625
3489		7.812500
3490		9.765625
3491		5.859375
3492		9.765625
3493		5.859375
3494		9.765625
3495		5.859375
3496		9.765625
3497		5.859375
3498		7.812500
3499		5.859375
3500		7.812500
3501		3.906250
3502		7.812500
3503		3.906250
3504		7.812500
3505		3.906250
3506		7.812500
3507		3.906250
3508		7.812500
3509		3.906250
3510		7.812500
3511		3.906250
3512		7.812500
3513		3.906250
3514		7.812500
3515		3.906250
3516		5.859375
3517		3.906250
3518		7.812500
3519		3.906250
3520		7.812500
3521		3.906250
3522		7.812500
3523		3.906250
3524		7.812500
3525		3.906250
3526		7.812500
3527		3.906250
3528		7.812500
3529		3.906250
3530		7.812500
3531		5.859375
3532		7.812500
3533		5.859375
3534		7.812500
3535		3.906250
3536		7.812500
3537		5.859375
3538		7.812500
3539		5.859375
3540		9.765625
3541		5.859375
3542		9.765625
3543		5.859375
3544		9.765625
3545		5.859375
3546		9.765625
3547		5.859375
3548		9.765625
3549		7.812500
3550		9.765625
3551		7.812500
3552		11.718750
3553		7.812500
3554		11.718750
3555		9.765625
3556		11.718750
3557		9.765625
3558		11.718750
3559		9.765625
3560		11.718750
3561		9.765625
3562		13.671875
3563		9.765625
3564		13.671875
3565		11.718750
3566		13.671875
3567		11.718750
3568		13.671875
3569		11.718750
3570		15.625000
3571		11.718750
3572		15.625000
3573		13.671875
3574		17.578125
3575		13.671875
3576		17.578125
3577		13.671875
3578		17.578125
3579		15.625000
3580		17.578125
3581		15.625000
3582		19.531250
3583		15.625000
3584		19.531250
3585		17.578125
3586		19.531250
3587		17.578125
3588		21.484375
3589		17.578125
3590		21.484375
3591		17.578125
3592		21.484375
3593		19.531250
3594		23.437500
3595		19.531250
3596		23.437500
3597		21.484375
3598		23.437500
3599		21.484375
3600		23.437500
3601		21.484375
3602		25.390625
3603		21.484375
3604		25.390625
3605		23.437500
3606		25.390625
3607		23.437500
3608		25.390625
3609		23.437500
3610		27.343750
3611		23.437500
3612		27.343750
3613		23.437500
3614		27.343750
3615		25.390625
3616		27.343750
3617		25.390625
3618		29.296875
3619		25.390625
3620		29.296875
3621		27.343750
3622		29.296875
3623		27.343750
3624		31.250000
3625		27.343750
3626		31.250000
3627		27.343750
3628		31.250000
3629		27.343750
3630		31.250000
3631		27.343750
3632		31.250000
3633		29.296875
3634		31.250000
3635		29.296875
3636		31.250000
3637		29.296875
3638		33.203125
3639		29.296875
3640		31.250000
3641		29.296875
3642		33.203125
3643		29.296875
3644		33.203125
3645		29.296875
3646		33.203125
3647		29.296875
3648		33.203125
3649		31.250000
3650		33.203125
3651		31.250000
3652		33.203125
3653		29.296875
3654		33.203125
3655		29.296875
3656		33.203125
3657		31.250000
3658		33.203125
3659		29.296875
3660		33.203125
3661		29.296875
3662		33.203125
3663		29.296875
3664		33.203125
3665		29.296875
3666		33.203125
3667		29.296875
3668		33.203125
3669		29.296875
3670		33.203125
3671		29.296875
3672		33.203125
3673		29.296875
3674		31.250000
3675		29.296875
3676		33.203125
3677		29.296875
3678		31.250000
3679		29.296875
3680		31.250000
3681		27.343750
3682		31.250000
3683		29.296875
3684		31.250000
3685		27.343750
3686		31.250000
3687		27.343750
3688		31.250000
3689		27.343750
3690		31.250000
3691		27.343750
3692		29.296875
3693		25.390625
3694		29.296875
3695		25.390625
3696		29.296875
3697		25.390625
3698		29.296875
3699		25.390625
3700		27.343750
3701		25.390625
3702		27.343750
3703		23.437500
3704		27.343750
3705		23.437500
3706		27.343750
3707		23.437500
3708		25.390625
3709		23.437500
3710		25.390625
3711		21.484375
3712		25.390625
3713		21.484375
3714		25.390625
3715		21.484375
3716		25.390625
3717		21.484375
3718		23.437500
3719		19.531250
3720		23.437500
3721		19.531250
3722		23.437500
3723		17.578125
3724		23.437500
3725		19.531250
3726		21.484375
3727		17.578125
3728		21.484375
3729		17.578125
3730		19.531250
3731		17.578125
3732		21.484375
3733		17.578125
3734		19.531250
3735		15.625000
3736		19.531250
3737		15.625000
3738		19.531250
3739		13.671875
3740		17.578125
3741		13.671875
3742		17.578125
3743		13.671875
3744		15.625000
3745		13.671875
3746		15.625000
3747		13.671875
3748		15.625000
3749		11.718750
3750		15.625000
3751		11.718750
3752		13.671875
3753		11.718750
3754		15.625000
3755		11.718750
3756		13.671875
3757		9.765625
3758		13.671875
3759		9.765625
3760		11.718750
3761		9.765625
3762		11.718750
3763		9.765625
3764		11.718750
3765		7.812500
3766		11.718750
3767		7.812500
3768		9.765625
3769		7.812500
3770		9.765625
3771		7.812500
3772		9.765625
3773		7.812500
3774		9.765625
3775		5.859375
3776		9.765625
3777		5.859375
3778		9.765625
3779		5.859375
3780		9.765625
3781		5.859375
3782		9.765625
3783		5.859375
3784		7.812500
3785		5.859375
3786		7.812500
3787		3.906250
3788		7.812500
3789		3.906250
3790		7.812500
3791		3.906250
3792		7.812500
3793		5.859375
3794		7.812500
3795		3.906250
3796		7.812500
3797		3.906250
3798		7.812500
3799		3.906250
3800		7.812500
3801		5.859375
3802		7.812500
3803		3.906250
3804		7.812500
3805		3.906250
3806		7.812500
3807		3.906250
3808		7.812500
3809		3.906250
3810		7.812500
3811		5.859375
3812		7.812500
3813		5.859375
3814		7.812500
3815		3.906250
3816		7.812500
3817		5.859375
3818		7.812500
3819		5.859375
3820		7.812500
3821		5.859375
3822		9.765625
3823		5.859375
3824		9.765625
3825		5.859375
3826		9.765625
3827		5.859375
3828		9.765625
3829		7.812500
3830		9.765625
3831		7.812500
3832		11.718750
3833		7.812500
3834		11.718750
3835		7.812500
3836		11.718750
3837		9.765625
3838		11.718750
3839		9.765625
3840		11.718750
3841		9.765625
3842		13.671875
3843		9.765625
3844		13.671875
3845		11.718750
3846		15.625000
3847		11.718750
3848		13.671875
3849		11.718750
3850		15.625000
3851		13.671875
3852		15.625000
3853		11.718750
3854		17.578125
3855		13.671875
3856		17.578125
3857		13.671875
3858		17.578125
3859		13.671875
3860		17.578125
3861		15.625000
3862		17.578125
3863		15.625000
3864		19.531250
3865		15.625000
3866		19.531250
3867		17.578125
3868		19.531250
3869		17.578125
3870		19.531250
3871		17.578125
3872		21.484375
3873		19.531250
3874		21.484375
3875		19.531250
3876		23.437500
3877		19.531250
3878		23.437500
3879		21.484375
3880		23.437500
3881		21.484375
3882		23.437500
3883		21.484375
3884		25.390625
3885		23.437500
3886		25.390625
3887		23.437500
3888		25.390625
3889		23.437500
3890		27.343750
3891		23.437500
3892		27.343750
3893		25.390625
3894		27.343750
3895		23.437500
3896		27.343750
3897		25.390625
3898		27.343750
3899		25.390625
3900		29.296875
3901		25.390625
3902		29.296875
3903		27.343750
3904		29.296875
3905		27.343750
3906		31.250000
3907		27.343750
3908		31.250000
3909		27.343750
3910		31.250000
3911		27.343750
3912		31.250000
3913		29.296875
3914		31.250000
3915		29.296875
3916		31.250000
3917		29.296875
3918		33.203125
3919		29.296875
3920		31.250000
3921		27.343750
3922		33.203125
3923		29.296875
3924		31.250000
3925		29.296875
3926		33.203125
3927		29.296875
3928		33.203125
3929		29.296875
3930		33.203125
3931		29.296875
3932		33.203125
3933		29.296875
3934		33.203125
3935		29.296875
3936		33.203125
3937		29.296875
3938		33.203125
3939		29.296875
3940		33.203125
3941		29.296875
3942		33.203125
3943		29.296875
3944		33.203125
3945		29.296875
3946		33.203125
3947		29.296875
3948		33.203125
3949		29.296875
3950		33.203125
3951		29.296875
3952		31.250000
3953		29.296875
3954		31.250000
3955		29.296875
3956		31.250000
3957		29.296875
3958		31.250000
3959		29.296875
3960		31.250000
3961		27.343750
3962		31.250000
3963		27.343750
3964		31.250000
3965		27.343750
3966		31.250000
3967		27.343750
3968		31.250000
3969		27.343750
3970		29.296875
3971		27.343750
3972		29.296875
3973		25.390625
3974		29.296875
3975		25.390625
3976		29.296875
3977		25.390625
3978		29.296875
3979		25.390625
3980		27.343750
3981		25.390625
3982		27.343750
3983		23.437500
3984		27.343750
3985		23.437500
3986		27.343750
3987		23.437500
3988		25.390625
3989		21.484375
3990		25.390625
3991		23.437500
3992		25.390625
3993		21.484375
3994		25.390625
3995		21.484375
3996		23.437500
3997		21.484375
3998		23.437500
3999		21.484375
4000		23.437500
4001		19.531250
4002		23.437500
4003		19.531250
4004		21.484375
4005		17.578125
4006		23.437500
4007		17.578125
4008		21.484375
4009		17.578125
4010		21.484375
4011		17.578125
4012		19.531250
4013		15.625000
4014		19.531250
4015		15.625000
4016		19.531250
4017		15.625000
4018		19.531250
4019		15.625000
4020		17.578125
4021		13.671875
4022		17.578125
4023		13.671875
4024		17.578125
4025		13.671875
4026		15.625000
4027		13.671875
4028		15.625000
4029		11.718750
4030		15.625000
4031		11.718750
4032		15.625000
4033		9.765625
4034		13.671875
4035		11.718750
4036		13.671875
4037		9.765625
4038		13.671875
4039		9.765625
4040		13.671875
4041		9.765625
4042		11.718750
4043		7.812500
4044		11.718750
4045		7.812500
4046		11.718750
4047		7.812500
4048		11.718750
4049		5.859375
4050		9.765625
4051		5.859375
4052		9.765625
4053		7.812500
4054		9.765625
4055		5.859375
4056		9.765625
4057		5.859375
4058		9.765625
4059		5.859375
4060		7.812500
4061		5.859375
4062		7.812500
4063		5.859375
4064		7.812500
4065		5.859375
4066		7.812500
4067		3.906250
4068		7.812500
4069		3.906250
4070		7.812500
4071		3.906250
4072		7.812500
4073		3.906250
4074		7.812500
4075		3.906250
4076		7.812500
4077		3.906250
4078		7.812500
4079		3.906250
4080		7.812500
4081		3.906250
4082		7.812500
4083		3.906250
4084		7.812500
4085		3.906250
4086		7.812500
4087		3.906250
4088		7.812500
4089		3.906250
4090		7.812500
4091		3.906250
4092		7.812500
4093		3.906250
4094		7.812500
4095		3.906250
4096		7.812500
4097		3.906250
4098		7.812500
4099		5.859375
4100		7.812500
4101		3.906250
4102		7.812500
4103		5.859375
4104		7.812500
4105		5.859375
4106		7.812500
4107		5.859375
4108		9.765625
4109		5.859375
4110		9.765625
4111		5.859375
4112		9.765625
4113		7.812500
4114		9.765625
4115		7.812500
4116		11.718750
4117		7.812500
4118		11.718750
4119		7.812500
4120		11.718750
4121		9.765625
4122		11.718750
4123		9.765625
4124		13.671875
4125		9.765625
4126		13.671875
4127		9.765625
4128		13.671875
4129		9.765625
4130		13.671875
4131		11.718750
4132		13.671875
4133		11.718750
4134		15.625000
4135		13.671875
4136		15.625000
4137		13.671875
4138		15.625000
4139		13.671875
4140		17.578125
4141		13.671875
4142		17.578125
4143		15.625000
4144		17.578125
4145		15.625000
4146		17.578125
4147		15.625000
4148		19.531250
4149		17.578125
4150		19.531250
4151		15.625000
4152		21.484375
4153		17.578125
4154		21.484375
4155		17.578125
4156		21.484375
4157		17.578125
4158		23.437500
4159		19.531250
4160		23.437500
4161		19.531250
4162		23.437500
4163		21.484375
4164		23.437500
4165		21.484375
4166		25.390625
4167		21.484375
4168		25.390625
4169		21.484375
4170		25.390625
4171		23.437500
4172		25.390625
4173		23.437500
4174		27.343750
4175		23.437500
4176		27.343750
4177		25.390625
4178		27.343750
4179		25.390625
4180		27.343750
4181		25.390625
4182		29.296875
4183		25.390625
4184		29.296875
4185		25.390625
4186		29.296875
4187		27.343750
4188		29.296875
4189		27.343750
4190		29.296875
4191		27.343750
4192		31.250000
4193		27.343750
4194		31.250000
4195		27.343750
4196		31.250000
4197		29.296875
4198		31.250000
4199		29.296875
4200		31.250000
4201		29.296875
4202		31.250000
4203		29.296875
4204		33.203125
4205		29.296875
4206		31.250000
4207		29.296875
4208		33.203125
4209		29.296875
4210		33.203125
4211		29.296875
4212		33.203125
4213		29.296875
4214		33.203125
4215		29.296875
4216		33.203125
4217		29.296875
4218		33.203125
4219		29.296875
4220		33.203125
4221		31.250000
4222		33.203125
4223		29.296875
4224		33.203125
4225		29.296875
4226		33.203125
4227		29.296875
4228		33.203125
4229		29.296875
4230		33.203125
4231		29.296875
4232		33.203125
4233		29.296875
4234		33.203125
4235		27.343750
4236		33.203125
4237		29.296875
4238		31.250000
4239		29.296875
4240		31.250000
4241		29.296875
4242		31.250000
4243		29.296875
4244		31.250000
4245		27.343750
4246		31.250000
4247		27.343750
4248		31.250000
4249		27.343750
4250		31.250000
4251		27.343750
4252		31.250000
4253		27.343750
4254		31.250000
4255		27.343750
4256		29.296875
4257		25.390625
4258		29.296875
4259		25.390625
4260		29.296875
4261		25.390625
4262		29.296875
4263		25.390625
4264		27.343750
4265		25.390625
4266		27.343750
4267		23.437500
4268		27.343750
4269		23.437500
4270		27.343750
4271		23.437500
4272		25.390625
4273		23.437500
4274		25.390625
4275		21.484375
4276		25.390625
4277		21.484375
4278		25.390625
4279		21.484375
4280		25.390625
4281		21.484375
4282		23.437500
4283		21.484375
4284		23.437500
4285		19.531250
4286		23.437500
4287		19.531250
4288		23.437500
4289		19.531250
4290		21.484375
4291		17.578125
4292		21.484375
4293		17.578125
4294		19.531250
4295		17.578125
4296		19.531250
4297		15.625000
4298		19.531250
4299		15.625000
4300		19.531250
4301		15.625000
4302		19.531250
4303		13.671875
4304		17.578125
4305		13.671875
4306		17.578125
4307		13.671875
4308		17.578125
4309		13.671875
4310		15.625000
4311		11.718750
4312		15.625000
4313		11.718750
4314		15.625000
4315		11.718750
4316		15.625000
4317		9.765625
4318		13.671875
4319		9.765625
4320		13.671875
4321		9.765625
4322		13.671875
4323		9.765625
4324		11.718750
4325		9.765625
4326		11.718750
4327		7.812500
4328		11.718750
4329		7.812500
4330		11.718750
4331		7.812500
4332		9.765625
4333		7.812500
4334		9.765625
4335		7.812500
4336		9.765625
4337		5.859375
4338		9.765625
4339		5.859375
4340		9.765625
4341		5.859375
4342		9.765625
4343		5.859375
4344		7.812500
4345		3.906250
4346		7.812500
4347		5.859375
4348		7.812500
4349		3.906250
4350		7.812500
4351		3.906250
4352		7.812500
4353		3.906250
4354		7.812500
4355		5.859375
4356		7.812500
4357		3.906250
4358		5.859375
4359		3.906250
4360		7.812500
4361		3.906250
4362		7.812500
4363		3.906250
4364		7.812500
4365		3.906250
4366		7.812500
4367		3.906250
4368		7.812500
4369		3.906250
4370		7.812500
4371		3.906250
4372		7.812500
4373		5.859375
4374		5.859375
4375		3.906250
4376		7.812500
4377		3.906250
4378		7.812500
4379		3.906250
4380		7.812500
4381		3.906250
4382		7.812500
4383		5.859375
4384		7.812500
4385		5.859375
4386		7.812500
4387		3.906250
4388		9.765625
4389		5.859375
4390		7.812500
4391		5.859375
4392		9.765625
4393		5.859375
4394		9.765625
4395		7.812500
4396		9.765625
4397		7.812500
4398		9.765625
4399		7.812500
4400		11.718750
4401		7.812500
4402		11.718750
4403		7.812500
4404		13.671875
4405		9.765625
4406		11.718750
4407		9.765625
4408		11.718750
4409		9.765625
4410		13.671875
4411		9.765625
4412		13.671875
4413		11.718750
4414		15.625000
4415		11.718750
4416		15.625000
4417		11.718750
4418		15.625000
4419		13.671875
4420		15.625000
4421		13.671875
4422		17.578125
4423		13.671875
4424		17.578125
4425		13.671875
4426		19.531250
4427		15.625000
4428		17.578125
4429		15.625000
4430		19.531250
4431		17.578125
4432		19.531250
4433		17.578125
4434		19.531250
4435		17.578125
4436		21.484375
4437		17.578125
4438		21.484375
4439		19.531250
4440		21.484375
4441		19.531250
4442		21.484375
4443		19.531250
4444		23.437500
4445		21.484375
4446		23.437500
4447		21.484375
4448		23.437500
4449		21.484375
4450		25.390625
4451		21.484375
4452		25.390625
4453		23.437500
4454		25.390625
4455		21.484375
4456		25.390625
4457		23.437500
4458		27.343750
4459		23.437500
4460		27.343750
4461		25.390625
4462		27.343750
4463		25.390625
4464		29.296875
4465		25.390625
4466		29.296875
4467		25.390625
4468		29.296875
4469		25.390625
4470		29.296875
4471		27.343750
4472		31.250000
4473		27.343750
4474		29.296875
4475		27.343750
4476		31.250000
4477		27.343750
4478		31.250000
4479		27.343750
4480		31.250000
4481		27.343750
4482		31.250000
4483		29.296875
4484		31.250000
4485		29.296875
4486		31.250000
4487		29.296875
4488		33.203125
4489		29.296875
4490		31.250000
4491		29.296875
4492		31.250000
4493		29.296875
4494		33.203125
4495		29.296875
4496		33.203125
4497		29.296875
4498		31.250000
4499		29.296875
4500		33.203125
4501		29.296875
4502		33.203125
4503		29.296875
4504		31.250000
4505		29.296875
4506		33.203125
4507		29.296875
4508		31.250000
4509		29.296875
4510		33.203125
4511		29.296875
4512		33.203125
4513		29.296875
4514		33.203125
4515		29.296875
4516		31.250000
4517		29.296875
4518		31.250000
4519		27.343750
4520		31.250000
4521		27.343750
4522		31.250000
4523		29.296875
4524		31.250000
4525		29.296875
4526		31.250000
4527		27.343750
4528		31.250000
4529		27.343750
4530		31.250000
4531		27.343750
4532		29.296875
4533		27.343750
4534		29.296875
4535		27.343750
4536		29.296875
4537		25.390625
4538		29.296875
4539		25.390625
4540		29.296875
4541		25.390625
4542		27.343750
4543		25.390625
4544		27.343750
4545		23.437500
4546		27.343750
4547		23.437500
4548		27.343750
4549		23.437500
4550		27.343750
4551		23.437500
4552		27.343750
4553		23.437500
4554		25.390625
4555		21.484375
4556		25.390625
4557		21.484375
4558		25.390625
4559		21.484375
4560		23.437500
4561		19.531250
4562		23.437500
4563		19.531250
4564		23.437500
4565		19.531250
4566		23.437500
4567		19.531250
4568		21.484375
4569		17.578125
4570		21.484375
4571		17.578125
4572		21.484375
4573		17.578125
4574		19.531250
4575		17.578125
4576		19.531250
4577		15.625000
4578		19.531250
4579		15.625000
4580		19.531250
4581		15.625000
4582		17.578125
4583		15.625000
4584		17.578125
4585		13.671875
4586		17.578125
4587		13.671875
4588		17.578125
4589		11.718750
4590		17.578125
4591		13.671875
4592		15.625000
4593		11.718750
4594		15.625000
4595		11.718750
4596		15.625000
4597		11.718750
4598		13.671875
4599		11.718750
4600		13.671875
4601		9.765625
4602		13.671875
4603		9.765625
4604		13.671875
4605		9.765625
4606		13.671875
4607		7.812500
4608		11.718750
4609		7.812500
4610		11.718750
4611		7.812500
4612		11.718750
4613		7.812500
4614		9.765625
4615		7.812500
4616		9.765625
4617		5.859375
4618		9.765625
4619		5.859375
4620		9.765625
4621		5.859375
4622		9.765625
4623		5.859375
4624		9.765625
4625		5.859375
4626		7.812500
4627		5.859375
4628		7.812500
4629		5.859375
4630		7.812500
4631		3.906250
4632		7.812500
4633		3.906250
4634		7.812500
4635		3.906250
4636		7.812500
4637		3.906250
4638		7.812500
4639		3.906250
4640		7.812500
4641		3.906250
4642		5.859375
4643		3.906250
4644		5.859375
4645		3.906250
4646		7.812500
4647		3.906250
4648		7.812500
4649		3.906250
4650		5.859375
4651		3.906250
4652		7.812500
4653		3.906250
4654		7.812500
4655		3.906250
4656		7.812500
4657		3.906250
4658		7.812500
4659		5.859375
4660		7.812500
4661		3.906250
4662		7.812500
4663		3.906250
4664		7.812500
4665		5.859375
4666		7.812500
4667		5.859375
4668		7.812500
4669		5.859375
4670		7.812500
4671		5.859375
4672		9.765625
4673		5.859375
4674		9.765625
4675		7.812500
4676		9.765625
4677		5.859375
4678		9.765625
4679		7.812500
4680		9.765625
4681		7.812500
4682		11.718750
4683		7.812500
4684		11.718750
4685		7.812500
4686		11.718750
4687		9.765625
4688		11.718750
4689		9.765625
4690		13.671875
4691		9.765625
4692		13.671875
4693		11.718750
4694		13.671875
4695		9.765625
4696		13.671875
4697		11.718750
4698		15.625000
4699		11.718750
4700		15.625000
4701		13.671875
4702		15.625000
4703		13.671875
4704		15.625000
4705		13.671875
4706		17.578125
4707		13.671875
4708		17.578125
4709		15.625000
4710		17.578125
4711		15.625000
4712		19.531250
4713		17.578125
4714		19.531250
4715		17.578125
4716		19.531250
4717		17.578125
4718		21.484375
4719		17.578125
4720		21.484375
4721		19.531250
4722		21.484375
4723		19.531250
4724		23.437500
4725		21.484375
4726		23.437500
4727		21.484375
4728		23.437500
4729		21.484375
4730		25.390625
4731		21.484375
4732		25.390625
4733		23.437500
4734		25.390625
4735		23.437500
4736		25.390625
4737		23.437500
4738		27.343750
4739		23.437500
4740		27.343750
4741		23.437500
4742		27.343750
4743		25.390625
4744		27.343750
4745		25.390625
4746		27.343750
4747		25.390625
4748		29.296875
4749		25.390625
4750		29.296875
4751		25.390625
4752		29.296875
4753		27.343750
4754		29.296875
4755		27.343750
4756		31.250000
4757		27.343750
4758		31.250000
4759		29.296875
4760		31.250000
4761		27.343750
4762		31.250000
4763		29.296875
4764		31.250000
4765		29.296875
4766		31.250000
4767		29.296875
4768		31.250000
4769		29.296875
4770		33.203125
4771		29.296875
4772		33.203125
4773		29.296875
4774		33.203125
4775		29.296875
4776		31.250000
4777		29.296875
4778		33.203125
4779		29.296875
4780		33.203125
4781		29.296875
4782		33.203125
4783		29.296875
4784		33.203125
4785		29.296875
4786		33.203125
4787		29.296875
4788		33.203125
4789		29.296875
4790		33.203125
4791		29.296875
4792		33.203125
4793		29.296875
4794		31.250000
4795		29.296875
4796		33.203125
4797		29.296875
4798		33.203125
4799		29.296875
4800		31.250000
4801		29.296875
4802		31.250000
4803		29.296875
4804		31.250000
4805		27.343750
4806		31.250000
4807		27.343750
4808		31.250000
4809		27.343750
4810		31.250000
4811		27.343750
4812		31.250000
4813		27.343750
4814		31.250000
4815		27.343750
4816		29.296875
4817		27.343750
4818		29.296875
4819		25.390625
4820		29.296875
4821		25.390625
4822		29.296875
4823		25.390625
4824		29.296875
4825		25.390625
4826		29.296875
4827		25.390625
4828		27.343750
4829		23.437500
4830		27.343750
4831		23.437500
4832		27.343750
4833		23.437500
4834		25.390625
4835		23.437500
4836		25.390625
4837		23.437500
4838		25.390625
4839		21.484375
4840		25.390625
4841		21.484375
4842		25.390625
4843		21.484375
4844		23.437500
4845		19.531250
4846		23.437500
4847		19.531250
4848		23.437500
4849		19.531250
4850		23.437500
4851		19.531250
4852		21.484375
4853		19.531250
4854		21.484375
4855		17.578125
4856		21.484375
4857		15.625000
4858		21.484375
4859		17.578125
4860		19.531250
4861		15.625000
4862		19.531250
4863		15.625000
4864		19.531250
4865		15.625000
4866		17.578125
4867		15.625000
4868		17.578125
4869		13.671875
4870		17.578125
4871		13.671875
4872		17.578125
4873		13.671875
4874		15.625000
4875		11.718750
4876		15.625000
4877		11.718750
4878		15.625000
4879		9.765625
4880		13.671875
4881		9.765625
4882		13.671875
4883		9.765625
4884		13.671875
4885		9.765625
4886		13.671875
4887		9.765625
4888		13.671875
4889		9.765625
4890		11.718750
4891		7.812500
4892		11.718750
4893		7.812500
4894		11.718750
4895		7.812500
4896		9.765625
4897		5.859375
4898		11.718750
4899		5.859375
4900		9.765625
4901		5.859375
4902		9.765625
4903		5.859375
4904		9.765625
4905		5.859375
4906		9.765625
4907		5.859375
4908		7.812500
4909		5.859375
4910		7.812500
4911		5.859375
4912		7.812500
4913		3.906250
4914		7.812500
4915		3.906250
4916		7.812500
4917		3.906250
4918		7.812500
4919		3.906250
4920		7.812500
4921		3.906250
4922		7.812500
4923		3.906250
4924		7.812500
4925		3.906250
4926		7.812500
4927		3.906250
4928		5.859375
4929		3.906250
4930		7.812500
4931		3.906250
4932		5.859375
4933		3.906250
4934		7.812500
4935		3.906250
4936		7.812500
4937		3.906250
4938		7.812500
4939		3.906250
4940		7.812500
4941		3.906250
4942		7.812500
4943		3.906250
4944		7.812500
4945		5.859375
4946		7.812500
4947		3.906250
4948		7.812500
4949		3.906250
4950		7.812500
4951		5.859375
4952		7.812500
4953		5.859375
4954		7.812500
4955		5.859375
4956		9.765625
4957		5.859375
4958		9.765625
4959		5.859375
4960		9.765625
4961		7.812500
4962		9.765625
4963		5.859375
4964		11.718750
4965		7.812500
4966		11.718750
4967		7.812500
4968		11.718750
4969		7.812500
4970		11.718750
4971		9.765625
4972		11.718750
4973		9.765625
4974		13.671875
4975		9.765625
4976		13.671875
4977		11.718750
4978		13.671875
4979		11.718750
4980		13.671875
4981		11.718750
4982		15.625000
4983		13.671875
4984		15.625000
4985		13.671875
4986		15.625000
4987		13.671875
4988		15.625000
4989		13.671875
4990		17.578125
4991		15.625000
4992		17.578125
4993		15.625000
4994		19.531250
4995		15.625000
4996		19.531250
4997		17.578125
4998		19.531250
4999		17.578125
5000		19.531250
5001		17.578125
5002		21.484375
5003		19.531250
5004		21.484375
5005		19.531250
5006		21.484375
5007		19.531250
5008		23.437500
5009		19.531250
5010		25.390625
5011		19.531250
5012		23.437500
5013		21.484375
5014		23.437500
5015		21.484375
5016		25.390625
5017		21.484375
5018		25.390625
5019		23.437500
5020		25.390625
5021		23.437500
5022		27.343750
5023		23.437500
5024		27.343750
5025		23.437500
5026		27.343750
5027		25.390625
5028		27.343750
5029		25.390625
5030		27.343750
5031		25.390625
5032		29.296875
5033		25.390625
5034		29.296875
5035		25.390625
5036		29.296875
5037		27.343750
5038		29.296875
5039		27.343750
5040		31.250000
5041		27.343750
5042		31.250000
5043		27.343750
5044		31.250000
5045		29.296875
5046		31.250000
5047		27.343750
5048		31.250000
5049		29.296875
5050		31.250000
5051		29.296875
5052		31.250000
5053		29.296875
5054		31.250000
5055		29.296875
5056		31.250000
5057		29.296875
5058		31.250000
5059		29.296875
5060		33.203125
5061		29.296875
5062		31.250000
5063		29.296875
5064		33.203125
5065		29.296875
5066		33.203125
5067		29.296875
5068		33.203125
5069		29.296875
5070		33.203125
5071		29.296875
5072		33.203125
5073		29.296875
5074		33.203125
5075		29.296875
5076		31.250000
5077		29.296875
5078		33.203125
5079		29.296875
5080		31.250000
5081		29.296875
5082		33.203125
5083		29.296875
5084		31.250000
5085		29.296875
5086		31.250000
5087		29.296875
5088		31.250000
5089		27.343750
5090		31.250000
5091		27.343750
5092		31.250000
5093		27.343750
5094		31.250000
5095		27.343750
5096		29.296875
5097		25.390625
5098		29.296875
5099		27.343750
5100		29.296875
5101		25.390625
5102		29.296875
5103		25.390625
5104		29.296875
5105		25.390625
5106		29.296875
5107		25.390625
5108		27.343750
5109		25.390625
5110		27.343750
5111		25.390625
5112		27.343750
5113		23.437500
5114		25.390625
5115		21.484375
5116		27.343750
5117		21.484375
5118		25.390625
5119		21.484375
5120		25.390625
5121		21.484375
5122		25.390625
5123		21.484375
5124		25.390625
5125		21.484375
5126		23.437500
5127		19.531250
5128		23.437500
5129		19.531250
5130		23.437500
5131		19.531250
5132		23.437500
5133		19.531250
5134		23.437500
5135		17.578125
5136		21.484375
5137		17.578125
5138		21.484375
5139		17.578125
5140		19.531250
5141		15.625000
5142		19.531250
5143		15.625000
5144		19.531250
5145		15.625000
5146		17.578125
5147		15.625000
5148		17.578125
5149		13.671875
5150		17.578125
5151		13.671875
5152		17.578125
5153		13.671875
5154		17.578125
5155		11.718750
5156		15.625000
5157		11.718750
5158		15.625000
5159		11.718750
5160		15.625000
5161		9.765625
5162		13.671875
5163		11.718750
5164		13.671875
5165		9.765625
5166		13.671875
5167		9.765625
5168		13.671875
5169		9.765625
5170		11.718750
5171		9.765625
5172		11.718750
5173		7.812500
5174		11.718750
5175		7.812500
5176		11.718750
5177		7.812500
5178		9.765625
5179		7.812500
5180		9.765625
5181		7.812500
5182		9.765625
5183		5.859375
5184		9.765625
5185		5.859375
5186		9.765625
5187		5.859375
5188		9.765625
5189		5.859375
5190		7.812500
5191		5.859375
5192		7.812500
5193		3.906250
5194		7.812500
5195		5.859375
5196		7.812500
5197		5.859375
5198		7.812500
5199		3.906250
5200		7.812500
5201		3.906250
5202		7.812500
5203		3.906250
5204		7.812500
5205		3.906250
5206		7.812500
5207		3.906250
5208		7.812500
5209		3.906250
5210		7.812500
5211		3.906250
5212		7.812500
5213		3.906250
5214		5.859375
5215		3.906250
5216		7.812500
5217		3.906250
5218		7.812500
5219		3.906250
5220		7.812500
5221		3.906250
5222		7.812500
5223		3.906250
5224		7.812500
5225		3.906250
5226		7.812500
5227		3.906250
5228		7.812500
5229		5.859375
5230		7.812500
5231		5.859375
5232		7.812500
5233		5.859375
5234		9.765625
5235		5.859375
5236		9.765625
5237		5.859375
5238		9.765625
5239		5.859375
5240		9.765625
5241		7.812500
5242		9.765625
5243		7.812500
5244		9.765625
5245		7.812500
5246		9.765625
5247		7.812500
5248		11.718750
5249		7.812500
5250		11.718750
5251		9.765625
5252		11.718750
5253		9.765625
5254		13.671875
5255		9.765625
5256		11.718750
5257		9.765625
5258		13.671875
5259		11.718750
5260		13.671875
5261		11.718750
5262		15.625000
5263		11.718750
5264		15.625000
5265		13.671875
5266		15.625000
5267		13.671875
5268		17.578125
5269		13.671875
5270		17.578125
5271		13.671875
5272		17.578125
5273		13.671875
5274		17.578125
5275		15.625000
5276		19.531250
5277		15.625000
5278		19.531250
5279		17.578125
5280		19.531250
5281		17.578125
5282		19.531250
5283		17.578125
5284		21.484375
5285		17.578125
5286		21.484375
5287		19.531250
5288		23.437500
5289		19.531250
5290		23.437500
5291		19.531250
5292		23.437500
5293		21.484375
5294		23.437500
5295		21.484375
5296		25.390625
5297		23.437500
5298		25.390625
5299		21.484375
5300		25.390625
5301		23.437500
5302		27.343750
5303		23.437500
5304		27.343750
5305		23.437500
5306		27.343750
5307		25.390625
5308		27.343750
5309		25.390625
5310		27.343750
5311		25.390625
5312		29.296875
5313		25.390625
5314		29.296875
5315		27.343750
5316		29.296875
5317		25.390625
5318		31.250000
5319		27.343750
5320		29.296875
5321		27.343750
5322		31.250000
5323		27.343750
5324		31.250000
5325		27.343750
5326		31.250000
5327		27.343750
5328		31.250000
5329		27.343750
5330		31.250000
5331		29.296875
5332		31.250000
5333		29.296875
5334		33.203125
5335		29.296875
5336		31.250000
5337		29.296875
5338		33.203125
5339		29.296875
5340		33.203125
5341		29.296875
5342		33.203125
5343		29.296875
5344		33.203125
5345		29.296875
5346		33.203125
5347		29.296875
5348		33.203125
5349		31.250000
5350		31.250000
5351		29.296875
5352		33.203125
5353		29.296875
5354		33.203125
5355		29.296875
5356		33.203125
5357		29.296875
5358		33.203125
5359		29.296875
5360		33.203125
5361		29.296875
5362		33.203125
5363		27.343750
5364		33.203125
5365		29.296875
5366		31.250000
5367		29.296875
5368		31.250000
5369		29.296875
5370		31.250000
5371		27.343750
5372		31.250000
5373		27.343750
5374		31.250000
5375		27.343750
5376		31.250000
5377		27.343750
5378		31.250000
5379		27.343750
5380		31.250000
5381		27.343750
5382		29.296875
5383		25.390625
5384		29.296875
5385		25.390625
5386		29.296875
5387		25.390625
5388		29.296875
5389		25.390625
5390		29.296875
5391		25.390625
5392		27.343750
5393		25.390625
5394		27.343750
5395		23.437500
5396		27.343750
5397		23.437500
5398		25.390625
5399		23.437500
5400		25.390625
5401		21.484375
5402		27.343750
5403		21.484375
5404		25.390625
5405		21.484375
5406		25.390625
5407		21.484375
5408		23.437500
5409		19.531250
5410		23.437500
5411		19.531250
5412		23.437500
5413		19.531250
5414		23.437500
5415		19.531250
5416		21.484375
5417		19.531250
5418		21.484375
5419		17.578125
5420		21.484375
5421		17.578125
5422		21.484375
5423		17.578125
5424		19.531250
5425		15.625000
5426		19.531250
5427		15.625000
5428		19.531250
5429		15.625000
5430		17.578125
5431		15.625000
5432		17.578125
5433		13.671875
5434		17.578125
5435		13.671875
5436		17.578125
5437		13.671875
5438		15.625000
5439		11.718750
5440		15.625000
5441		11.718750
5442		15.625000
5443		11.718750
5444		13.671875
5445		9.765625
5446		13.671875
5447		9.765625
5448		13.671875
5449		9.765625
5450		11.718750
5451		7.812500
5452		13.671875
5453		7.812500
5454		11.718750
5455		7.812500
5456		11.718750
5457		7.812500
5458		11.718750
5459		7.812500
5460		11.718750
5461		7.812500
5462		9.765625
5463		5.859375
5464		9.765625
5465		5.859375
5466		7.812500
5467		3.906250
5468		9.765625
5469		5.859375
5470		7.812500
5471		5.859375
5472		7.812500
5473		5.859375
5474		7.812500
5475		5.859375
5476		7.812500
5477		3.906250
5478		7.812500
5479		3.906250
5480		7.812500
5481		3.906250
5482		5.859375
5483		3.906250
5484		5.859375
5485		3.906250
5486		7.812500
5487		3.906250
5488		5.859375
5489		3.906250
5490		7.812500
5491		3.906250
5492		5.859375
5493		3.906250
5494		5.859375
5495		3.906250
5496		5.859375
5497		3.906250
5498		7.812500
5499		3.906250
5500		5.859375
5501		3.906250
5502		7.812500
5503		3.906250
5504		7.812500
5505		3.906250
5506		5.859375
5507		3.906250
5508		5.859375
5509		3.906250
5510		7.812500
5511		3.906250
5512		7.812500
5513		3.906250
5514		7.812500
5515		5.859375
5516		7.812500
5517		5.859375
5518		7.812500
5519		3.906250
5520		7.812500
5521		5.859375
5522		9.765625
5523		5.859375
5524		9.765625
5525		7.812500
5526		9.765625
5527		7.812500
5528		9.765625
5529		7.812500
5530		9.765625
5531		7.812500
5532		11.718750
5533		7.812500
5534		11.718750
5535		7.812500
5536		11.718750
5537		9.765625
5538		13.671875
5539		9.765625
5540		13.671875
5541		9.765625
5542		13.671875
5543		11.718750
5544		13.671875
5545		11.718750
5546		13.671875
5547		11.718750
5548		15.625000
5549		13.671875
5550		15.625000
5551		13.671875
5552		17.578125
5553		13.671875
5554		17.578125
5555		15.625000
5556		17.578125
5557		15.625000
5558		19.531250
5559		15.625000
5560		19.531250
5561		15.625000
5562		19.531250
5563		15.625000
5564		19.531250
5565		17.578125
5566		19.531250
5567		17.578125
5568		21.484375
5569		19.531250
5570		21.484375
5571		19.531250
5572		21.484375
5573		19.531250
5574		23.437500
5575		19.531250
5576		23.437500
5577		21.484375
5578		23.437500
5579		21.484375
5580		25.390625
5581		21.484375
5582		25.390625
5583		23.437500
5584		25.390625
5585		23.437500
5586		25.390625
5587		23.437500
5588		27.343750
5589		23.437500
5590		27.343750
5591		25.390625
5592		27.343750
5593		25.390625
5594		29.296875
5595		25.390625
5596		29.296875
5597		25.390625
5598		29.296875
5599		27.343750
5600		29.296875
5601		27.343750
5602		29.296875
5603		25.390625
5604		31.250000
5605		27.343750
5606		31.250000
5607		27.343750
5608		31.250000
5609		27.343750
5610		31.250000
5611		27.343750
5612		31.250000
5613		27.343750
5614		31.250000
5615		27.343750
5616		31.250000
5617		29.296875
5618		31.250000
5619		29.296875
5620		33.203125
5621		29.296875
5622		33.203125
5623		29.296875
5624		31.250000
5625		29.296875
5626		31.250000
5627		29.296875
5628		31.250000
5629		29.296875
5630		33.203125
5631		29.296875
5632		33.203125
5633		29.296875
5634		33.203125
5635		29.296875
5636		33.203125
5637		29.296875
5638		31.250000
5639		29.296875
5640		33.203125
5641		29.296875
5642		33.203125
5643		29.296875
5644		31.250000
5645		29.296875
5646		33.203125
5647		29.296875
5648		31.250000
5649		29.296875
5650		31.250000
5651		29.296875
5652		31.250000
5653		27.343750
5654		31.250000
5655		27.343750
5656		31.250000
5657		27.343750
5658		31.250000
5659		27.343750
5660		29.296875
5661		27.343750
5662		31.250000
5663		27.343750
5664		29.296875
5665		25.390625
5666		29.296875
5667		25.390625
5668		29.296875
5669		25.390625
5670		29.296875
5671		25.390625
5672		27.343750
5673		25.390625
5674		27.343750
5675		25.390625
5676		27.343750
5677		23.437500
5678		27.343750
5679		23.437500
5680		27.343750
5681		21.484375
5682		27.343750
5683		23.437500
5684		25.390625
5685		23.437500
5686		25.390625
5687		21.484375
5688		25.390625
5689		21.484375
5690		23.437500
5691		21.484375
5692		23.437500
5693		19.531250
5694		23.437500
5695		19.531250
5696		23.437500
5697		19.531250
5698		21.484375
5699		17.578125
5700		21.484375
5701		17.578125
5702		21.484375
5703		17.578125
5704		19.531250
5705		17.578125
5706		19.531250
5707		15.625000
5708		19.531250
5709		15.625000
5710		19.531250
5711		15.625000
5712		17.578125
5713		15.625000
5714		17.578125
5715		13.671875
5716		17.578125
5717		13.671875
5718		15.625000
5719		13.671875
5720		15.625000
5721		11.718750
5722		15.625000
5723		11.718750
5724		15.625000
5725		11.718750
5726		13.671875
5727		11.718750
5728		13.671875
5729		9.765625
5730		13.671875
5731		9.765625
5732		13.671875
5733		9.765625
5734		11.718750
5735		9.765625
5736		11.718750
5737		7.812500
5738		11.718750
5739		7.812500
5740		11.718750
5741		7.812500
5742		11.718750
5743		7.812500
5744		9.765625
5745		5.859375
5746		9.765625
5747		5.859375
5748		9.765625
5749		5.859375
5750		9.765625
5751		5.859375
5752		7.812500
5753		5.859375
5754		7.812500
5755		5.859375
5756		7.812500
5757		3.906250
5758		7.812500
5759		5.859375
5760		7.812500
5761		3.906250
5762		7.812500
5763		3.906250
5764		7.812500
5765		3.906250
5766		7.812500
5767		3.906250
5768		7.812500
5769		3.906250
5770		5.859375
5771		3.906250
5772		7.812500
5773		3.906250
5774		7.812500
5775		3.906250
5776		7.812500
5777		3.906250
5778		7.812500
5779		3.906250
5780		7.812500
5781		3.906250
5782		7.812500
5783		3.906250
5784		7.812500
5785		3.906250
5786		5.859375
5787		3.906250
5788		7.812500
5789		3.906250
5790		7.812500
5791		3.906250
5792		7.812500
5793		3.906250
5794		7.812500
5795		3.906250
5796		7.812500
5797		3.906250
5798		7.812500
5799		5.859375
5800		9.765625
5801		5.859375
5802		9.765625
5803		5.859375
5804		9.765625
5805		5.859375
5806		9.765625
5807		5.859375
5808		11.718750
5809		7.812500
5810		11.718750
5811		7.812500
5812		11.718750
5813		7.812500
5814		11.718750
5815		7.812500
5816		13.671875
5817		9.765625
5818		11.718750
5819		9.765625
5820		11.718750
5821		9.765625
5822		13.671875
5823		9.765625
5824		15.625000
5825		9.765625
5826		15.625000
5827		11.718750
5828		15.625000
5829		11.718750
5830		17.578125
5831		11.718750
5832		17.578125
5833		13.671875
5834		17.578125
5835		15.625000
5836		17.578125
5837		15.625000
5838		17.578125
5839		15.625000
5840		19.531250
5841		15.625000
5842		19.531250
5843		15.625000
5844		21.484375
5845		15.625000
5846		21.484375
5847		15.625000
5848		21.484375
5849		17.578125
5850		23.437500
5851		19.531250
5852		21.484375
5853		19.531250
5854		21.484375
5855		19.531250
5856		23.437500
5857		19.531250
5858		25.390625
5859		19.531250
5860		25.390625
5861		21.484375
5862		25.390625
5863		21.484375
5864		25.390625
5865		21.484375
5866		27.343750
5867		23.437500
5868		27.343750
5869		23.437500
5870		27.343750
5871		23.437500
5872		27.343750
5873		23.437500
5874		29.296875
5875		23.437500
5876		29.296875
5877		25.390625
5878		29.296875
5879		25.390625
5880		29.296875
5881		25.390625
5882		31.250000
5883		25.390625
5884		31.250000
5885		27.343750
5886		29.296875
5887		27.343750
5888		29.296875
5889		27.343750
5890		31.250000
5891		29.296875
5892		31.250000
5893		27.343750
5894		31.250000
5895		29.296875
5896		31.250000
5897		29.296875
5898		31.250000
5899		29.296875
5900		31.250000
5901		29.296875
5902		31.250000
5903		29.296875
5904		31.250000
5905		29.296875
5906		33.203125
5907		29.296875
5908		31.250000
5909		29.296875
5910		31.250000
5911		29.296875
5912		31.250000
5913		29.296875
5914		31.250000
5915		29.296875
5916		33.203125
5917		29.296875
5918		31.250000
5919		29.296875
5920		31.250000
5921		29.296875
5922		31.250000
5923		29.296875
5924		31.250000
5925		29.296875
5926		31.250000
5927		29.296875
5928		33.203125
5929		29.296875
5930		31.250000
5931		29.296875
5932		31.250000
5933		29.296875
5934		31.250000
5935		29.296875
5936		31.250000
5937		27.343750
5938		31.250000
5939		27.343750
5940		31.250000
5941		27.343750
5942		29.296875
5943		27.343750
5944		29.296875
5945		27.343750
5946		29.296875
5947		27.343750
5948		29.296875
5949		25.390625
5950		29.296875
5951		25.390625
5952		27.343750
5953		25.390625
5954		27.343750
5955		25.390625
5956		27.343750
5957		25.390625
5958		27.343750
5959		23.437500
5960		27.343750
5961		23.437500
5962		27.343750
5963		23.437500
5964		25.390625
5965		23.437500
5966		25.390625
5967		21.484375
5968		25.390625
5969		21.484375
5970		23.437500
5971		21.484375
5972		23.437500
5973		19.531250
5974		23.437500
5975		19.531250
5976		23.437500
5977		19.531250
5978		21.484375
5979		19.531250
5980		21.484375
5981		17.578125
5982		21.484375
5983		17.578125
5984		19.531250
5985		17.578125
5986		19.531250
5987		17.578125
5988		19.531250
5989		13.671875
5990		21.484375
5991		13.671875
5992		21.484375
5993		11.718750
5994		21.484375
5995		13.671875
5996		17.578125
5997		13.671875
5998		15.625000
5999		13.671875
6000		15.625000
6001		13.671875
6002		15.625000
6003		11.718750
6004		13.671875
6005		7.812500
6006		15.625000
6007		7.812500
6008		17.578125
6009		7.812500
6010		17.578125
6011		7.812500
6012		15.625000
6013		9.765625
6014		11.718750
6015		9.765625
6016		11.718750
6017		9.765625
6018		11.718750
6019		7.812500
6020		11.718750
6021		7.812500
6022		9.765625
6023		3.906250
6024		13.671875
6025		3.906250
6026		11.718750
6027		3.906250
6028		11.718750
6029		5.859375
6030		7.812500
6031		5.859375
6032		7.812500
6033		5.859375
6034		7.812500
6035		5.859375
6036		7.812500
6037		5.859375
6038		7.812500
6039		1.953125
6040		9.765625
6041		0.000000
6042		9.765625
6043		0.000000
6044		9.765625
6045		1.953125
6046		9.765625
6047		3.906250
6048		5.859375
6049		3.906250
6050		5.859375
6051		3.906250
6052		5.859375
6053		3.906250
6054		5.859375
6055		1.953125
6056		5.859375
6057		0.000000
6058		9.765625
6059		0.000000
6060		9.765625
6061		0.000000
6062		9.765625
6063		3.906250
6064		5.859375
6065		3.906250
6066		5.859375
6067		3.906250
6068		5.859375
6069		3.906250
6070		5.859375
6071		3.906250
6072		5.859375
6073		1.953125
6074		9.765625
6075		1.953125
6076		9.765625
6077		0.000000
6078		9.765625
6079		3.906250
6080		7.812500
6081		5.859375
6082		7.812500
6083		5.859375
6084		7.812500
6085		5.859375
6086		7.812500
6087		5.859375
6088		9.765625
6089		3.906250
6090		13.671875
6091		3.906250
6092		13.671875
6093		3.906250
6094		13.671875
6095		3.906250
6096		13.671875
6097		7.812500
6098		11.718750
6099		7.812500
6100		11.718750
6101		7.812500
6102		11.718750
6103		9.765625
6104		11.718750
6105		9.765625
6106		13.671875
6107		7.812500
6108		17.578125
6109		7.812500
6110		17.578125
6111		7.812500
6112		17.578125
6113		11.718750
6114		15.625000
6115		13.671875
6116		15.625000
6117		13.671875
6118		15.625000
6119		13.671875
6120		17.578125
6121		15.625000
6122		17.578125
6123		11.718750
6124		21.484375
6125		11.718750
6126		21.484375
6127		13.671875
6128		21.484375
6129		13.671875
6130		23.437500
6131		17.578125
6132		19.531250
6133		19.531250
6134		21.484375
6135		19.531250
6136		21.484375
6137		19.531250
6138		21.484375
6139		21.484375
6140		23.437500
6141		17.578125
6142		27.343750
6143		19.531250
6144		27.343750
6145		19.531250
6146		27.343750
6147		23.437500
6148		25.390625
6149		21.484375
6150		25.390625
6151		23.437500
6152		25.390625
6153		23.437500
6154		25.390625
6155		25.390625
6156		27.343750
6157		21.484375
6158		31.250000
6159		23.437500
6160		31.250000
6161		23.437500
6162		31.250000
6163		25.390625
6164		29.296875
6165		27.343750
6166		29.296875
6167		27.343750
6168		29.296875
6169		27.343750
6170		29.296875
6171		27.343750
6172		29.296875
6173		27.343750
6174		31.250000
6175		27.343750
6176		33.203125
6177		25.390625
6178		33.203125
6179		29.296875
6180		31.250000
6181		29.296875
6182		31.250000
6183		29.296875
6184		31.250000
6185		29.296875
6186		31.250000
6187		29.296875
6188		31.250000
6189		29.296875
6190		31.250000
6191		29.296875
6192		31.250000
6193		27.343750
6194		35.156250
6195		27.343750
6196		35.156250
6197		29.296875
6198		31.250000
6199		29.296875
6200		31.250000
6201		29.296875
6202		31.250000
6203		29.296875
6204		31.250000
6205		29.296875
6206		31.250000
6207		27.343750
6208		33.203125
6209		27.343750
6210		33.203125
6211		27.343750
6212		33.203125
6213		29.296875
6214		31.250000
6215		29.296875
6216		31.250000
6217		29.296875
6218		31.250000
6219		27.343750
6220		31.250000
6221		27.343750
6222		29.296875
6223		27.343750
6224		29.296875
6225		27.343750
6226		29.296875
6227		27.343750
6228		29.296875
6229		27.343750
6230		29.296875
6231		25.390625
6232		29.296875
6233		25.390625
6234		27.343750
6235		25.390625
6236		27.343750
6237		25.390625
6238		27.343750
6239		25.390625
6240		27.343750
6241		23.437500
6242		27.343750
6243		23.437500
6244		25.390625
6245		23.437500
6246		25.390625
6247		23.437500
6248		25.390625
6249		23.437500
6250		25.390625
6251		21.484375
6252		23.437500
6253		21.484375
6254		23.437500
6255		19.531250
6256		23.437500
6257		19.531250
6258		23.437500
6259		19.531250
6260		23.437500
6261		19.531250
6262		21.484375
6263		19.531250
6264		21.484375
6265		17.578125
6266		21.484375
6267		17.578125
6268		19.531250
6269		17.578125
6270		19.531250
6271		17.578125
6272		19.531250
6273		15.625000
6274		17.578125
6275		15.625000
6276		17.578125
6277		13.671875
6278		17.578125
6279		13.671875
6280		17.578125
6281		13.671875
6282		15.625000
6283		13.671875
6284		15.625000
6285		11.718750
6286		15.625000
6287		11.718750
6288		13.671875
6289		11.718750
6290		13.671875
6291		9.765625
6292		13.671875
6293		9.765625
6294		13.671875
6295		9.765625
6296		11.718750
6297		9.765625
6298		11.718750
6299		7.812500
6300		11.718750
6301		9.765625
6302		11.718750
6303		7.812500
6304		11.718750
6305		7.812500
6306		9.765625
6307		7.812500
6308		9.765625
6309		5.859375
6310		9.765625
6311		5.859375
6312		9.765625
6313		5.859375
6314		7.812500
6315		3.906250
6316		9.765625
6317		5.859375
6318		7.812500
6319		5.859375
6320		7.812500
6321		5.859375
6322		7.812500
6323		5.859375
6324		7.812500
6325		3.906250
6326		7.812500
6327		3.906250
6328		7.812500
6329		3.906250
6330		5.859375
6331		3.906250
6332		5.859375
6333		3.906250
6334		7.812500
6335		3.906250
6336		5.859375
6337		3.906250
6338		5.859375
6339		3.906250
6340		5.859375
6341		1.953125
6342		7.812500
6343		3.906250
6344		5.859375
6345		3.906250
6346		7.812500
6347		3.906250
6348		5.859375
6349		3.906250
6350		7.812500
6351		3.906250
6352		7.812500
6353		3.906250
6354		7.812500
6355		3.906250
6356		5.859375
6357		5.859375
6358		5.859375
6359		3.906250
6360		9.765625
6361		3.906250
6362		7.812500
6363		5.859375
6364		7.812500
6365		5.859375
6366		9.765625
6367		3.906250
6368		9.765625
6369		5.859375
6370		7.812500
6371		5.859375
6372		9.765625
6373		7.812500
6374		9.765625
6375		5.859375
6376		11.718750
6377		7.812500
6378		11.718750
6379		7.812500
6380		11.718750
6381		9.765625
6382		11.718750
6383		9.765625
6384		13.671875
6385		9.765625
6386		11.718750
6387		9.765625
6388		13.671875
6389		11.718750
6390		13.671875
6391		11.718750
6392		13.671875
6393		9.765625
6394		15.625000
6395		11.718750
6396		15.625000
6397		13.671875
6398		15.625000
6399		13.671875
6400		17.578125
6401		13.671875
6402		17.578125
6403		15.625000
6404		17.578125
6405		15.625000
6406		19.531250
6407		15.625000
6408		19.531250
6409		15.625000
6410		19.531250
6411		17.578125
6412		19.531250
6413		17.578125
6414		21.484375
6415		17.578125
6416		21.484375
6417		19.531250
6418		21.484375
6419		19.531250
6420		21.484375
6421		19.531250
6422		23.437500
6423		21.484375
6424		23.437500
6425		19.531250
6426		25.390625
6427		21.484375
6428		25.390625
6429		21.484375
6430		25.390625
6431		23.437500
6432		25.390625
6433		23.437500
6434		27.343750
6435		23.437500
6436		27.343750
6437		23.437500
6438		27.343750
6439		25.390625
6440		27.343750
6441		25.390625
6442		27.343750
6443		25.390625
6444		29.296875
6445		25.390625
6446		29.296875
6447		25.390625
6448		29.296875
6449		27.343750
6450		29.296875
6451		25.390625
6452		31.250000
6453		27.343750
6454		29.296875
6455		27.343750
6456		29.296875
6457		27.343750
6458		31.250000
6459		27.343750
6460		31.250000
6461		29.296875
6462		31.250000
6463		29.296875
6464		31.250000
6465		29.296875
6466		31.250000
6467		29.296875
6468		31.250000
6469		29.296875
6470		33.203125
6471		29.296875
6472		31.250000
6473		29.296875
6474		31.250000
6475		29.296875
6476		31.250000
6477		29.296875
6478		31.250000
6479		29.296875
6480		31.250000
6481		29.296875
6482		31.250000
6483		29.296875
6484		31.250000
6485		29.296875
6486		31.250000
6487		29.296875
6488		31.250000
6489		29.296875
6490		31.250000
6491		27.343750
6492		31.250000
6493		29.296875
6494		31.250000
6495		29.296875
6496		31.250000
6497		27.343750
6498		31.250000
6499		27.343750
6500		31.250000
6501		27.343750
6502		29.296875
6503		27.343750
6504		31.250000
6505		27.343750
6506		29.296875
6507		27.343750
6508		29.296875
6509		27.343750
6510		29.296875
6511		25.390625
6512		29.296875
6513		25.390625
6514		27.343750
6515		25.390625
6516		27.343750
6517		25.390625
6518		27.343750
6519		25.390625
6520		27.343750
6521		25.390625
6522		27.343750
6523		23.437500
6524		25.390625
6525		23.437500
6526		25.390625
6527		23.437500
6528		25.390625
6529		23.437500
6530		25.390625
6531		21.484375
6532		23.437500
6533		21.484375
6534		23.437500
6535		21.484375
6536		23.437500
6537		19.531250
6538		23.437500
6539		19.531250
6540		23.437500
6541		19.531250
6542		21.484375
6543		19.531250
6544		21.484375
6545		17.578125
6546		21.484375
6547		17.578125
6548		19.531250
6549		17.578125
6550		19.531250
6551		17.578125
6552		19.531250
6553		15.625000
6554		17.578125
6555		15.625000
6556		19.531250
6557		15.625000
6558		17.578125
6559		13.671875
6560		17.578125
6561		13.671875
6562		17.578125
6563		13.671875
6564		15.625000
6565		13.671875
6566		15.625000
6567		11.718750
6568		13.671875
6569		11.718750
6570		13.671875
6571		11.718750
6572		13.671875
6573		11.718750
6574		13.671875
6575		9.765625
6576		11.718750
6577		7.812500
6578		13.671875
6579		9.765625
6580		11.718750
6581		9.765625
6582		11.718750
6583		7.812500
6584		9.765625
6585		7.812500
6586		9.765625
6587		7.812500
6588		9.765625
6589		7.812500
6590		9.765625
6591		5.859375
6592		9.765625
6593		5.859375
6594		7.812500
6595		3.906250
6596		9.765625
6597		5.859375
6598		9.765625
6599		5.859375
6600		7.812500
6601		5.859375
6602		7.812500
6603		3.906250
6604		7.812500
6605		3.906250
6606		7.812500
6607		3.906250
6608		7.812500
6609		3.906250
6610		5.859375
6611		1.953125
6612		7.812500
6613		1.953125
6614		7.812500
6615		3.906250
6616		5.859375
6617		3.906250
6618		5.859375
6619		1.953125
6620		5.859375
6621		3.906250
6622		5.859375
6623		3.906250
6624		5.859375
6625		3.906250
6626		5.859375
6627		1.953125
6628		7.812500
6629		1.953125
6630		7.812500
6631		3.906250
6632		5.859375
6633		3.906250
6634		5.859375
6635		3.906250
6636		5.859375
6637		3.906250
6638		5.859375
6639		3.906250
6640		7.812500
6641		3.906250
6642		7.812500
6643		3.906250
6644		7.812500
6645		3.906250
6646		9.765625
6647		3.906250
6648		9.765625
6649		5.859375
6650		7.812500
6651		5.859375
6652		7.812500
6653		5.859375
6654		9.765625
6655		7.812500
6656		9.765625
6657		7.812500
6658		9.765625
6659		7.812500
6660		9.765625
6661		5.859375
6662		11.718750
6663		7.812500
6664		13.671875
6665		9.765625
6666		11.718750
6667		9.765625
6668		11.718750
6669		9.765625
6670		11.718750
6671		9.765625
6672		13.671875
6673		11.718750
6674		13.671875
6675		11.718750
6676		15.625000
6677		11.718750
6678		15.625000
6679		11.718750
6680		17.578125
6681		11.718750
6682		17.578125
6683		13.671875
6684		17.578125
6685		15.625000
6686		17.578125
6687		15.625000
6688		19.531250
6689		15.625000
6690		19.531250
6691		17.578125
6692		19.531250
6693		17.578125
6694		19.531250
6695		15.625000
6696		21.484375
6697		17.578125
6698		23.437500
6699		19.531250
6700		21.484375
6701		19.531250
6702		21.484375
6703		21.484375
6704		23.437500
6705		21.484375
6706		23.437500
6707		21.484375
6708		23.437500
6709		21.484375
6710		25.390625
6711		21.484375
6712		27.343750
6713		21.484375
6714		27.343750
6715		23.437500
6716		25.390625
6717		23.437500
6718		25.390625
6719		23.437500
6720		27.343750
6721		25.390625
6722		27.343750
6723		25.390625
6724		27.343750
6725		25.390625
6726		29.296875
6727		25.390625
6728		29.296875
6729		25.390625
6730		31.250000
6731		25.390625
6732		31.250000
6733		27.343750
6734		29.296875
6735		27.343750
6736		29.296875
6737		27.343750
6738		29.296875
6739		27.343750
6740		31.250000
6741		29.296875
6742		31.250000
6743		29.296875
6744		31.250000
6745		27.343750
6746		33.203125
6747		27.343750
6748		33.203125
6749		29.296875
6750		31.250000
6751		29.296875
6752		31.250000
6753		29.296875
6754		31.250000
6755		29.296875
6756		31.250000
6757		29.296875
6758		33.203125
6759		29.296875
6760		31.250000
6761		29.296875
6762		33.203125
6763		27.343750
6764		35.156250
6765		29.296875
6766		33.203125
6767		29.296875
6768		31.250000
6769		29.296875
6770		31.250000
6771		29.296875
6772		31.250000
6773		29.296875
6774		31.250000
6775		29.296875
6776		31.250000
6777		29.296875
6778		31.250000
6779		27.343750
6780		33.203125
6781		27.343750
6782		33.203125
6783		29.296875
6784		31.250000
6785		27.343750
6786		31.250000
6787		27.343750
6788		29.296875
6789		27.343750
6790		29.296875
6791		27.343750
6792		29.296875
6793		27.343750
6794		29.296875
6795		25.390625
6796		29.296875
6797		25.390625
6798		27.343750
6799		25.390625
6800		27.343750
6801		25.390625
6802		27.343750
6803		25.390625
6804		27.343750
6805		25.390625
6806		27.343750
6807		23.437500
6808		25.390625
6809		23.437500
6810		25.390625
6811		23.437500
6812		25.390625
6813		21.484375
6814		25.390625
6815		21.484375
6816		25.390625
6817		21.484375
6818		23.437500
6819		21.484375
6820		23.437500
6821		21.484375
6822		23.437500
6823		19.531250
6824		23.437500
6825		19.531250
6826		21.484375
6827		19.531250
6828		21.484375
6829		17.578125
6830		21.484375
6831		17.578125
6832		19.531250
6833		17.578125
6834		19.531250
6835		15.625000
6836		19.531250
6837		15.625000
6838		17.578125
6839		15.625000
6840		17.578125
6841		15.625000
6842		17.578125
6843		13.671875
6844		17.578125
6845		13.671875
6846		15.625000
6847		13.671875
6848		15.625000
6849		13.671875
6850		15.625000
6851		11.718750
6852		13.671875
6853		11.718750
6854		13.671875
6855		11.718750
6856		13.671875
6857		9.765625
6858		13.671875
6859		9.765625
6860		11.718750
6861		9.765625
6862		11.718750
6863		9.765625
6864		11.718750
6865		9.765625
6866		11.718750
6867		7.812500
6868		9.765625
6869		7.812500
6870		9.765625
6871		7.812500
6872		9.765625
6873		7.812500
6874		9.765625
6875		7.812500
6876		9.765625
6877		5.859375
6878		9.765625
6879		5.859375
6880		7.812500
6881		5.859375
6882		7.812500
6883		5.859375
6884		7.812500
6885		5.859375
6886		7.812500
6887		5.859375
6888		7.812500
6889		3.906250
6890		7.812500
6891		3.906250
6892		7.812500
6893		3.906250
6894		5.859375
6895		3.906250
6896		5.859375
6897		3.906250
6898		5.859375
6899		3.906250
6900		5.859375
6901		3.906250
6902		5.859375
6903		3.906250
6904		5.859375
6905		3.906250
6906		5.859375
6907		3.906250
6908		5.859375
6909		3.906250
6910		5.859375
6911		3.906250
6912		5.859375
6913		3.906250
6914		5.859375
6915		3.906250
6916		5.859375
6917		3.906250
6918		5.859375
6919		3.906250
6920		5.859375
6921		3.906250
6922		5.859375
6923		3.906250
6924		7.812500
6925		3.906250
6926		7.812500
6927		5.859375
6928		7.812500
6929		5.859375
6930		7.812500
6931		5.859375
6932		7.812500
6933		5.859375
6934		7.812500
6935		5.859375
6936		9.765625
6937		5.859375
6938		9.765625
6939		7.812500
6940		9.765625
6941		7.812500
6942		9.765625
6943		7.812500
6944		9.765625
6945		9.765625
6946		11.718750
6947		9.765625
6948		11.718750
6949		9.765625
6950		11.718750
6951		9.765625
6952		13.671875
6953		11.718750
6954		13.671875
6955		11.718750
6956		13.671875
6957		11.718750
6958		13.671875
6959		11.718750
6960		15.625000
6961		13.671875
6962		15.625000
6963		13.671875
6964		15.625000
6965		13.671875
6966		15.625000
6967		15.625000
6968		17.578125
6969		15.625000
6970		19.531250
6971		15.625000
6972		19.531250
6973		17.578125
6974		19.531250
6975		17.578125
6976		19.531250
6977		17.578125
6978		19.531250
6979		19.531250
6980		21.484375
6981		19.531250
6982		21.484375
6983		19.531250
6984		21.484375
6985		19.531250
6986		23.437500
6987		21.484375
6988		23.437500
6989		21.484375
6990		23.437500
6991		21.484375
6992		25.390625
6993		21.484375
6994		25.390625
6995		23.437500
6996		25.390625
6997		23.437500
6998		25.390625
6999		23.437500
7000		25.390625
7001		23.437500
7002		27.343750
7003		23.437500
7004		27.343750
7005		25.390625
7006		27.343750
7007		25.390625
7008		27.343750
7009		25.390625
7010		27.343750
7011		27.343750
7012		29.296875
7013		27.343750
7014		29.296875
7015		27.343750
7016		29.296875
7017		27.343750
7018		29.296875
7019		27.343750
7020		29.296875
7021		27.343750
7022		29.296875
7023		29.296875
7024		29.296875
7025		27.343750
7026		31.250000
7027		29.296875
7028		31.250000
7029		29.296875
7030		31.250000
7031		29.296875
7032		31.250000
7033		29.296875
7034		31.250000
7035		29.296875
7036		31.250000
7037		29.296875
7038		31.250000
7039		29.296875
7040		31.250000
7041		29.296875
7042		31.250000
7043		29.296875
7044		31.250000
7045		29.296875
7046		31.250000
7047		29.296875
7048		31.250000
7049		29.296875
7050		31.250000
7051		29.296875
7052		31.250000
7053		29.296875
7054		31.250000
7055		29.296875
7056		31.250000
7057		29.296875
7058		31.250000
7059		27.343750
7060		31.250000
7061		29.296875
7062		31.250000
7063		27.343750
7064		31.250000
7065		27.343750
7066		29.296875
7067		27.343750
7068		29.296875
7069		27.343750
7070		29.296875
7071		27.343750
7072		29.296875
7073		27.343750
7074		29.296875
7075		27.343750
7076		29.296875
7077		25.390625
7078		27.343750
7079		25.390625
7080		27.343750
7081		25.390625
7082		27.343750
7083		25.390625
7084		27.343750
7085		25.390625
7086		27.343750
7087		23.437500
7088		25.390625
7089		23.437500
7090		25.390625
7091		23.437500
7092		25.390625
7093		23.437500
7094		25.390625
7095		21.484375
7096		25.390625
7097		21.484375
7098		23.437500
7099		21.484375
7100		23.437500
7101		21.484375
7102		23.437500
7103		19.531250
7104		23.437500
7105		19.531250
7106		21.484375
7107		19.531250
7108		21.484375
7109		19.531250
7110		21.484375
7111		17.578125
7112		21.484375
7113		17.578125
7114		19.531250
7115		17.578125
7116		19.531250
7117		15.625000
7118		19.531250
7119		15.625000
7120		17.578125
7121		15.625000
7122		17.578125
7123		13.671875
7124		17.578125
7125		13.671875
7126		17.578125
7127		13.671875
7128		17.578125
7129		13.671875
7130		15.625000
7131		11.718750
7132		15.625000
7133		11.718750
7134		13.671875
7135		11.718750
7136		13.671875
7137		11.718750
7138		13.671875
7139		9.765625
7140		13.671875
7141		9.765625
7142		11.718750
7143		9.765625
7144		11.718750
7145		9.765625
7146		11.718750
7147		7.812500
7148		11.718750
7149		7.812500
7150		9.765625
7151		7.812500
7152		9.765625
7153		7.812500
7154		9.765625
7155		5.859375
7156		9.765625
7157		5.859375
7158		7.812500
7159		5.859375
7160		9.765625
7161		5.859375
7162		7.812500
7163		5.859375
7164		7.812500
7165		5.859375
7166		7.812500
7167		5.859375
7168		7.812500
7169		3.906250
7170		7.812500
7171		3.906250
7172		7.812500
7173		3.906250
7174		5.859375
7175		3.906250
7176		5.859375
7177		3.906250
7178		5.859375
7179		3.906250
7180		5.859375
7181		3.906250
7182		5.859375
7183		3.906250
7184		5.859375
7185		3.906250
7186		5.859375
7187		3.906250
7188		5.859375
7189		3.906250
7190		5.859375
7191		3.906250
7192		5.859375
7193		3.906250
7194		5.859375
7195		3.906250
7196		5.859375
7197		3.906250
7198		5.859375
7199		3.906250
7200		5.859375
7201		3.906250
7202		5.859375
7203		3.906250
7204		5.859375
7205		3.906250
7206		7.812500
7207		5.859375
7208		7.812500
7209		5.859375
7210		7.812500
7211		5.859375
7212		7.812500
7213		5.859375
7214		7.812500
7215		5.859375
7216		7.812500
7217		7.812500
7218		9.765625
7219		7.812500
7220		9.765625
7221		7.812500
7222		9.765625
7223		7.812500
7224		9.765625
7225		7.812500
7226		11.718750
7227		7.812500
7228		11.718750
7229		9.765625
7230		11.718750
7231		9.765625
7232		11.718750
7233		9.765625
7234		11.718750
7235		11.718750
7236		13.671875
7237		11.718750
7238		13.671875
7239		11.718750
7240		13.671875
7241		11.718750
7242		15.625000
7243		13.671875
7244		15.625000
7245		13.671875
7246		15.625000
7247		13.671875
7248		17.578125
7249		15.625000
7250		17.578125
7251		15.625000
7252		17.578125
7253		15.625000
7254		19.531250
7255		17.578125
7256		19.531250
7257		17.578125
7258		21.484375
7259		17.578125
7260		19.531250
7261		19.531250
7262		21.484375
7263		19.531250
7264		21.484375
7265		19.531250
7266		21.484375
7267		21.484375
7268		23.437500
7269		19.531250
7270		23.437500
7271		21.484375
7272		23.437500
7273		21.484375
7274		25.390625
7275		21.484375
7276		25.390625
7277		23.437500
7278		25.390625
7279		23.437500
7280		27.343750
7281		23.437500
7282		27.343750
7283		25.390625
7284		27.343750
7285		25.390625
7286		27.343750
7287		25.390625
7288		27.343750
7289		25.390625
7290		29.296875
7291		25.390625
7292		29.296875
7293		27.343750
7294		29.296875
7295		27.343750
7296		29.296875
7297		27.343750
7298		29.296875
7299		27.343750
7300		29.296875
7301		27.343750
7302		31.250000
7303		27.343750
7304		31.250000
7305		29.296875
7306		31.250000
7307		29.296875
7308		31.250000
7309		29.296875
7310		31.250000
7311		29.296875
7312		31.250000
7313		29.296875
7314		31.250000
7315		29.296875
7316		31.250000
7317		29.296875
7318		31.250000
7319		29.296875
7320		31.250000
7321		29.296875
7322		31.250000
7323		29.296875
7324		33.203125
7325		29.296875
7326		31.250000
7327		29.296875
7328		31.250000
7329		29.296875
7330		31.250000
7331		29.296875
7332		31.250000
7333		29.296875
7334		31.250000
7335		29.296875
7336		31.250000
7337		29.296875
7338		31.250000
7339		29.296875
7340		31.250000
7341		29.296875
7342		31.250000
7343		29.296875
7344		31.250000
7345		29.296875
7346		31.250000
7347		29.296875
7348		31.250000
7349		27.343750
7350		31.250000
7351		27.343750
7352		29.296875
7353		27.343750
7354		31.250000
7355		27.343750
7356		29.296875
7357		27.343750
7358		29.296875
7359		27.343750
7360		29.296875
7361		25.390625
7362		29.296875
7363		25.390625
7364		27.343750
7365		25.390625
7366		27.343750
7367		25.390625
7368		27.343750
7369		25.390625
7370		27.343750
7371		23.437500
7372		25.390625
7373		23.437500
7374		25.390625
7375		23.437500
7376		25.390625
7377		23.437500
7378		25.390625
7379		21.484375
7380		25.390625
7381		21.484375
7382		23.437500
7383		21.484375
7384		23.437500
7385		21.484375
7386		23.437500
7387		19.531250
7388		21.484375
7389		19.531250
7390		21.484375
7391		19.531250
7392		21.484375
7393		17.578125
7394		21.484375
7395		17.578125
7396		21.484375
7397		17.578125
7398		19.531250
7399		17.578125
7400		19.531250
7401		15.625000
7402		19.531250
7403		15.625000
7404		17.578125
7405		15.625000
7406		17.578125
7407		15.625000
7408		17.578125
7409		13.671875
7410		15.625000
7411		13.671875
7412		17.578125
7413		13.671875
7414		15.625000
7415		11.718750
7416		15.625000
7417		11.718750
7418		13.671875
7419		11.718750
7420		13.671875
7421		9.765625
7422		13.671875
7423		9.765625
7424		11.718750
7425		9.765625
7426		11.718750
7427		9.765625
7428		11.718750
7429		9.765625
7430		11.718750
7431		7.812500
7432		11.718750
7433		7.812500
7434		11.718750
7435		7.812500
7436		9.765625
7437		7.812500
7438		9.765625
7439		7.812500
7440		9.765625
7441		5.859375
7442		7.812500
7443		5.859375
7444		7.812500
7445		5.859375
7446		7.812500
7447		5.859375
7448		7.812500
7449		5.859375
7450		7.812500
7451		3.906250
7452		7.812500
7453		3.906250
7454		7.812500
7455		3.906250
7456		5.859375
7457		3.906250
7458		5.859375
7459		3.906250
7460		5.859375
7461		3.906250
7462		5.859375
7463		3.906250
7464		5.859375
7465		3.906250
7466		5.859375
7467		3.906250
7468		5.859375
7469		3.906250
7470		5.859375
7471		3.906250
7472		5.859375
7473		3.906250
7474		5.859375
7475		3.906250
7476		5.859375
7477		3.906250
7478		5.859375
7479		3.906250
7480		5.859375
7481		3.906250
7482		5.859375
7483		3.906250
7484		5.859375
7485		3.906250
7486		5.859375
7487		3.906250
7488		5.859375
7489		3.906250
7490		7.812500
7491		5.859375
7492		7.812500
7493		5.859375
7494		7.812500
7495		5.859375
7496		7.812500
7497		5.859375
7498		7.812500
7499		5.859375
7500		9.765625
7501		5.859375
7502		9.765625
7503		7.812500
7504		9.765625
7505		7.812500
7506		9.765625
7507		7.812500
7508		9.765625
7509		7.812500
7510		9.765625
7511		9.765625
7512		11.718750
7513		9.765625
7514		11.718750
7515		9.765625
7516		13.671875
7517		9.765625
7518		13.671875
7519		11.718750
7520		13.671875
7521		11.718750
7522		13.671875
7523		11.718750
7524		13.671875
7525		11.718750
7526		15.625000
7527		13.671875
7528		15.625000
7529		13.671875
7530		15.625000
7531		13.671875
7532		17.578125
7533		15.625000
7534		17.578125
7535		15.625000
7536		17.578125
7537		15.625000
7538		19.531250
7539		17.578125
7540		19.531250
7541		17.578125
7542		19.531250
7543		17.578125
7544		19.531250
7545		19.531250
7546		21.484375
7547		19.531250
7548		21.484375
7549		19.531250
7550		21.484375
7551		19.531250
7552		23.437500
7553		21.484375
7554		23.437500
7555		21.484375
7556		23.437500
7557		21.484375
7558		25.390625
7559		23.437500
7560		25.390625
7561		23.437500
7562		25.390625
7563		23.437500
7564		25.390625
7565		23.437500
7566		25.390625
7567		25.390625
7568		27.343750
7569		25.390625
7570		27.343750
7571		25.390625
7572		27.343750
7573		25.390625
7574		27.343750
7575		25.390625
7576		29.296875
7577		25.390625
7578		29.296875
7579		27.343750
7580		29.296875
7581		27.343750
7582		29.296875
7583		27.343750
7584		29.296875
7585		27.343750
7586		29.296875
7587		27.343750
7588		31.250000
7589		27.343750
7590		31.250000
7591		29.296875
7592		31.250000
7593		29.296875
7594		31.250000
7595		27.343750
7596		31.250000
7597		29.296875
7598		31.250000
7599		29.296875
7600		31.250000
7601		29.296875
7602		31.250000
7603		29.296875
7604		31.250000
7605		29.296875
7606		31.250000
7607		29.296875
7608		31.250000
7609		29.296875
7610		31.250000
7611		29.296875
7612		31.250000
7613		29.296875
7614		31.250000
7615		29.296875
7616		31.250000
7617		29.296875
7618		31.250000
7619		29.296875
7620		31.250000
7621		29.296875
7622		31.250000
7623		29.296875
7624		31.250000
7625		27.343750
7626		31.250000
7627		29.296875
7628		31.250000
7629		27.343750
7630		31.250000
7631		27.343750
7632		29.296875
7633		27.343750
7634		29.296875
7635		27.343750
7636		29.296875
7637		27.343750
7638		29.296875
7639		27.343750
7640		29.296875
7641		25.390625
7642		31.250000
7643		25.390625
7644		29.296875
7645		23.437500
7646		29.296875
7647		25.390625
7648		27.343750
7649		25.390625
7650		27.343750
7651		23.437500
7652		27.343750
7653		23.437500
7654		25.390625
7655		23.437500
7656		25.390625
7657		21.484375
7658		27.343750
7659		23.437500
7660		25.390625
7661		21.484375
7662		25.390625
7663		21.484375
7664		23.437500
7665		19.531250
7666		25.390625
7667		21.484375
7668		23.437500
7669		19.531250
7670		23.437500
7671		19.531250
7672		21.484375
7673		15.625000
7674		21.484375
7675		17.578125
7676		21.484375
7677		17.578125
7678		21.484375
7679		15.625000
7680		21.484375
7681		13.671875
7682		21.484375
7683		15.625000
7684		19.531250
7685		15.625000
7686		17.578125
7687		13.671875
7688		17.578125
7689		13.671875
7690		17.578125
7691		11.718750
7692		17.578125
7693		11.718750
7694		15.625000
7695		11.718750
7696		17.578125
7697		11.718750
7698		15.625000
7699		9.765625
7700		17.578125
7701		11.718750
7702		13.671875
7703		9.765625
7704		13.671875
7705		7.812500
7706		15.625000
7707		7.812500
7708		13.671875
7709		7.812500
7710		11.718750
7711		7.812500
7712		13.671875
7713		7.812500
7714		11.718750
7715		5.859375
7716		13.671875
7717		7.812500
7718		9.765625
7719		7.812500
7720		9.765625
7721		5.859375
7722		9.765625
7723		3.906250
7724		11.718750
7725		5.859375
7726		9.765625
7727		5.859375
7728		9.765625
7729		1.953125
7730		11.718750
7731		5.859375
7732		7.812500
7733		1.953125
7734		9.765625
7735		5.859375
7736		7.812500
7737		3.906250
7738		7.812500
7739		1.953125
7740		9.765625
7741		1.953125
7742		7.812500
7743		3.906250
7744		7.812500
7745		1.953125
7746		9.765625
7747		0.000000
7748		9.765625
7749		0.000000
7750		7.812500
7751		3.906250
7752		5.859375
7753		3.906250
7754		5.859375
7755		1.953125
7756		7.812500
7757		0.000000
7758		9.765625
7759		3.906250
7760		7.812500
7761		3.906250
7762		7.812500
7763		0.000000
7764		9.765625
7765		1.953125
7766		11.718750
7767		3.906250
7768		5.859375
7769		3.906250
7770		5.859375
7771		3.906250
7772		7.812500
7773		1.953125
7774		9.765625
7775		3.906250
7776		9.765625
7777		5.859375
7778		7.812500
7779		3.906250
7780		11.718750
7781		1.953125
7782		11.718750
7783		3.906250
7784		11.718750
7785		7.812500
7786		9.765625
7787		7.812500
7788		11.718750
7789		5.859375
7790		13.671875
7791		5.859375
7792		13.671875
7793		9.765625
7794		11.718750
7795		9.765625
7796		13.671875
7797		7.812500
7798		15.625000
7799		9.765625
7800		15.625000
7801		11.718750
7802		13.671875
7803		11.718750
7804		15.625000
7805		9.765625
7806		17.578125
7807		9.765625
7808		19.531250
7809		11.718750
7810		17.578125
7811		13.671875
7812		17.578125
7813		11.718750
7814		21.484375
7815		15.625000
7816		17.578125
7817		11.718750
7818		21.484375
7819		15.625000
7820		19.531250
7821		17.578125
7822		21.484375
7823		15.625000
7824		23.437500
7825		15.625000
7826		23.437500
7827		19.531250
7828		21.484375
7829		17.578125
7830		25.390625
7831		15.625000
7832		25.390625
7833		17.578125
7834		25.390625
7835		21.484375
7836		23.437500
7837		21.484375
7838		23.437500
7839		21.484375
7840		25.390625
7841		19.531250
7842		29.296875
7843		23.437500
7844		27.343750
7845		23.437500
7846		27.343750
7847		21.484375
7848		31.250000
7849		21.484375
7850		29.296875
7851		25.390625
7852		27.343750
7853		25.390625
7854		27.343750
7855		25.390625
7856		29.296875
7857		23.437500
7858		31.250000
7859		27.343750
7860		31.250000
7861		27.343750
7862		29.296875
7863		25.390625
7864		33.203125
7865		23.437500
7866		33.203125
7867		27.343750
7868		33.203125
7869		29.296875
7870		31.250000
7871		29.296875
7872		31.250000
7873		27.343750
7874		33.203125
7875		25.390625
7876		35.156250
7877		29.296875
7878		33.203125
7879		27.343750
7880		33.203125
7881		25.390625
7882		35.156250
7883		27.343750
7884		33.203125
7885		29.296875
7886		33.203125
7887		29.296875
7888		31.250000
7889		29.296875
7890		33.203125
7891		27.343750
7892		35.156250
7893		27.343750
7894		33.203125
7895		29.296875
7896		31.250000
7897		27.343750
7898		35.156250
7899		27.343750
7900		33.203125
7901		27.343750
7902		33.203125
7903		29.296875
7904		31.250000
7905		29.296875
7906		31.250000
7907		27.343750
7908		33.203125
7909		27.343750
7910		33.203125
7911		29.296875
7912		31.250000
7913		27.343750
7914		33.203125
7915		27.343750
7916		29.296875
7917		25.390625
7918		33.203125
7919		27.343750
7920		29.296875
7921		27.343750
7922		29.296875
7923		27.343750
7924		29.296875
7925		23.437500
7926		31.250000
7927		25.390625
7928		29.296875
7929		23.437500
7930		29.296875
7931		23.437500
7932		29.296875
7933		25.390625
7934		27.343750
7935		23.437500
7936		27.343750
7937		23.437500
7938		27.343750
7939		23.437500
7940		25.390625
7941		23.437500
7942		25.390625
7943		19.531250
7944		25.390625
7945		21.484375
7946		23.437500
7947		19.531250
7948		25.390625
7949		21.484375
7950		23.437500
7951		19.531250
7952		23.437500
7953		19.531250
7954		21.484375
7955		17.578125
7956		21.484375
7957		17.578125
7958		21.484375
7959		17.578125
7960		21.484375
7961		17.578125
7962		19.531250
7963		17.578125
7964		19.531250
7965		15.625000
7966		19.531250
7967		15.625000
7968		19.531250
7969		15.625000
7970		17.578125
7971		13.671875
7972		17.578125
7973		13.671875
7974		17.578125
7975		13.671875
7976		15.625000
7977		13.671875
7978		15.625000
7979		11.718750
7980		15.625000
7981		11.718750
7982		13.671875
7983		11.718750
7984		13.671875
7985		9.765625
7986		13.671875
7987		9.765625
7988		11.718750
7989		9.765625
7990		13.671875
7991		7.812500
7992		13.671875
7993		7.812500
7994		11.718750
7995		5.859375
7996		11.718750
7997		5.859375
7998		11.718750
7999		5.859375
8000		11.718750
8001		5.859375
8002		9.765625
8003		5.859375
8004		9.765625
8005		5.859375
8006		7.812500
8007		5.859375
8008		9.765625
8009		3.906250
8010		9.765625
8011		3.906250
8012		9.765625
8013		3.906250
8014		9.765625
8015		3.906250
8016		7.812500
8017		3.906250
8018		7.812500
8019		3.906250
8020		7.812500
8021		3.906250
8022		5.859375
8023		3.906250
8024		7.812500
8025		1.953125
8026		7.812500
8027		1.953125
8028		7.812500
8029		1.953125
8030		7.812500
8031		1.953125
8032		7.812500
8033		1.953125
8034		7.812500
8035		1.953125
8036		7.812500
8037		3.906250
8038		5.859375
8039		3.906250
8040		7.812500
8041		1.953125
8042		7.812500
8043		1.953125
8044		7.812500
8045		1.953125
8046		7.812500
8047		1.953125
8048		7.812500
8049		1.953125
8050		7.812500
8051		3.906250
8052		7.812500
8053		3.906250
8054		7.812500
8055		3.906250
8056		7.812500
8057		3.906250
8058		7.812500
8059		5.859375
8060		7.812500
8061		5.859375
8062		9.765625
8063		3.906250
8064		9.765625
8065		5.859375
8066		9.765625
8067		5.859375
8068		9.765625
8069		5.859375
8070		9.765625
8071		7.812500
8072		9.765625
8073		7.812500
8074		11.718750
8075		7.812500
8076		11.718750
8077		7.812500
8078		13.671875
8079		7.812500
8080		13.671875
8081		9.765625
8082		13.671875
8083		9.765625
8084		13.671875
8085		9.765625
8086		13.671875
8087		11.718750
8088		13.671875
8089		11.718750
8090		15.625000
8091		11.718750
8092		15.625000
8093		13.671875
8094		17.578125
8095		13.671875
8096		17.578125
8097		13.671875
8098		19.531250
8099		13.671875
8100		19.531250
8101		15.625000
8102		19.531250
8103		15.625000
8104		19.531250
8105		17.578125
8106		19.531250
8107		17.578125
8108		21.484375
8109		17.578125
8110		21.484375
8111		19.531250
8112		21.484375
8113		17.578125
8114		23.437500
8115		19.531250
8116		23.437500
8117		19.531250
8118		23.437500
8119		21.484375
8120		23.437500
8121		21.484375
8122		23.437500
8123		23.437500
8124		25.390625
8125		21.484375
8126		25.390625
8127		23.437500
8128		27.343750
8129		21.484375
8130		29.296875
8131		23.437500
8132		27.343750
8133		23.437500
8134		27.343750
8135		25.390625
8136		29.296875
8137		25.390625
8138		27.343750
8139		25.390625
8140		27.343750
8141		25.390625
8142		29.296875
8143		27.343750
8144		29.296875
8145		25.390625
8146		29.296875
8147		25.390625
8148		31.250000
8149		27.343750
8150		31.250000
8151		27.343750
8152		31.250000
8153		27.343750
8154		31.250000
8155		29.296875
8156		31.250000
8157		27.343750
8158		31.250000
8159		29.296875
8160		31.250000
8161		29.296875
8162		31.250000
8163		27.343750
8164		33.203125
8165		29.296875
8166		31.250000
8167		29.296875
8168		33.203125
8169		29.296875
8170		33.203125
8171		29.296875
8172		31.250000
8173		29.296875
8174		31.250000
8175		27.343750
8176		33.203125
8177		29.296875
8178		31.250000
8179		29.296875
8180		31.250000
8181		29.296875
8182		31.250000
8183		29.296875
8184		31.250000
8185		29.296875
8186		31.250000
8187		27.343750
8188		31.250000
8189		29.296875
8190		31.250000
8191		27.343750
8192		31.250000
8193		27.343750
8194		31.250000
8195		27.343750
8196		31.250000
8197		25.390625
8198		31.250000
8199		27.343750
8200		31.250000
8201		25.390625
8202		29.296875
8203		27.343750
8204		29.296875
8205		25.390625
8206		29.296875
8207		25.390625
8208		29.296875
8209		25.390625
8210		29.296875
8211		25.390625
8212		27.343750
8213		23.437500
8214		27.343750
8215		23.437500
8216		27.343750
8217		23.437500
8218		27.343750
8219		23.437500
8220		25.390625
8221		23.437500
8222		25.390625
8223		23.437500
8224		25.390625
8225		21.484375
8226		25.390625
8227		21.484375
8228		23.437500
8229		19.531250
8230		23.437500
8231		19.531250
8232		23.437500
8233		19.531250
8234		23.437500
8235		19.531250
8236		21.484375
8237		17.578125
8238		21.484375
8239		17.578125
8240		21.484375
8241		17.578125
8242		21.484375
8243		17.578125
8244		19.531250
8245		15.625000
8246		19.531250
8247		15.625000
8248		19.531250
8249		15.625000
8250		17.578125
8251		15.625000
8252		17.578125
8253		13.671875
8254		17.578125
8255		13.671875
8256		15.625000
8257		13.671875
8258		15.625000
8259		11.718750
8260		15.625000
8261		11.718750
8262		15.625000
8263		11.718750
8264		15.625000
8265		11.718750
8266		13.671875
8267		9.765625
8268		13.671875
8269		9.765625
8270		13.671875
8271		9.765625
8272		13.671875
8273		9.765625
8274		11.718750
8275		7.812500
8276		11.718750
8277		7.812500
8278		11.718750
8279		7.812500
8280		11.718750
8281		7.812500
8282		11.718750
8283		7.812500
8284		9.765625
8285		5.859375
8286		9.765625
8287		5.859375
8288		9.765625
8289		5.859375
8290		7.812500
8291		5.859375
8292		7.812500
8293		3.906250
8294		9.765625
8295		3.906250
8296		7.812500
8297		5.859375
8298		7.812500
8299		3.906250
8300		7.812500
8301		3.906250
8302		7.812500
8303		3.906250
8304		7.812500
8305		3.906250
8306		5.859375
8307		3.906250
8308		5.859375
8309		1.953125
8310		7.812500
8311		3.906250
8312		5.859375
8313		3.906250
8314		5.859375
8315		3.906250
8316		5.859375
8317		3.906250
8318		5.859375
8319		3.906250
8320		5.859375
8321		3.906250
8322		5.859375
8323		3.906250
8324		5.859375
8325		3.906250
8326		7.812500
8327		3.906250
8328		7.812500
8329		3.906250
8330		7.812500
8331		3.906250
8332		7.812500
8333		3.906250
8334		7.812500
8335		3.906250
8336		7.812500
8337		3.906250
8338		7.812500
8339		5.859375
8340		7.812500
8341		5.859375
8342		7.812500
8343		5.859375
8344		9.765625
8345		5.859375
8346		9.765625
8347		5.859375
8348		9.765625
8349		7.812500
8350		9.765625
8351		7.812500
8352		9.765625
8353		7.812500
8354		11.718750
8355		7.812500
8356		11.718750
8357		9.765625
8358		11.718750
8359		7.812500
8360		11.718750
8361		9.765625
8362		13.671875
8363		9.765625
8364		13.671875
8365		11.718750
8366		13.671875
8367		11.718750
8368		15.625000
8369		11.718750
8370		15.625000
8371		11.718750
8372		15.625000
8373		13.671875
8374		15.625000
8375		13.671875
8376		15.625000
8377		13.671875
8378		17.578125
8379		15.625000
8380		17.578125
8381		15.625000
8382		19.531250
8383		17.578125
8384		19.531250
8385		17.578125
8386		19.531250
8387		17.578125
8388		21.484375
8389		17.578125
8390		21.484375
8391		19.531250
8392		21.484375
8393		19.531250
8394		23.437500
8395		19.531250
8396		23.437500
8397		19.531250
8398		23.437500
8399		21.484375
8400		23.437500
8401		21.484375
8402		25.390625
8403		21.484375
8404		25.390625
8405		21.484375
8406		25.390625
8407		23.437500
8408		25.390625
8409		23.437500
8410		27.343750
8411		23.437500
8412		27.343750
8413		25.390625
8414		27.343750
8415		25.390625
8416		27.343750
8417		25.390625
8418		29.296875
8419		25.390625
8420		29.296875
8421		25.390625
8422		29.296875
8423		27.343750
8424		29.296875
8425		27.343750
8426		29.296875
8427		27.343750
8428		31.250000
8429		27.343750
8430		31.250000
8431		27.343750
8432		31.250000
8433		29.296875
8434		31.250000
8435		27.343750
8436		31.250000
8437		29.296875
8438		31.250000
8439		29.296875
8440		31.250000
8441		29.296875
8442		31.250000
8443		29.296875
8444		33.203125
8445		29.296875
8446		31.250000
8447		29.296875
8448		33.203125
8449		29.296875
8450		31.250000
8451		29.296875
8452		33.203125
8453		29.296875
8454		33.203125
8455		27.343750
8456		33.203125
8457		29.296875
8458		33.203125
8459		29.296875
8460		31.250000
8461		29.296875
8462		33.203125
8463		29.296875
8464		31.250000
8465		29.296875
8466		31.250000
8467		29.296875
8468		31.250000
8469		27.343750
8470		31.250000
8471		27.343750
8472		31.250000
8473		27.343750
8474		31.250000
8475		29.296875
8476		31.250000
8477		27.343750
8478		31.250000
8479		27.343750
8480		31.250000
8481		27.343750
8482		31.250000
8483		27.343750
8484		31.250000
8485		27.343750
8486		29.296875
8487		25.390625
8488		29.296875
8489		25.390625
8490		29.296875
8491		25.390625
8492		27.343750
8493		23.437500
8494		27.343750
8495		25.390625
8496		27.343750
8497		23.437500
8498		27.343750
8499		23.437500
8500		27.343750
8501		23.437500
8502		27.343750
8503		23.437500
8504		25.390625
8505		21.484375
8506		25.390625
8507		21.484375
8508		25.390625
8509		21.484375
8510		23.437500
8511		21.484375
8512		25.390625
8513		19.531250
8514		23.437500
8515		19.531250
8516		23.437500
8517		19.531250
8518		21.484375
8519		17.578125
8520		21.484375
8521		17.578125
8522		21.484375
8523		17.578125
8524		21.484375
8525		17.578125
8526		19.531250
8527		17.578125
8528		19.531250
8529		15.625000
8530		19.531250
8531		15.625000
8532		19.531250
8533		15.625000
8534		17.578125
8535		13.671875
8536		17.578125
8537		13.671875
8538		17.578125
8539		13.671875
8540		17.578125
8541		13.671875
8542		15.625000
8543		13.671875
8544		15.625000
8545		11.718750
8546		15.625000
8547		11.718750
8548		13.671875
8549		9.765625
8550		13.671875
8551		9.765625
8552		13.671875
8553		9.765625
8554		11.718750
8555		9.765625
8556		11.718750
8557		9.765625
8558		11.718750
8559		7.812500
8560		11.718750
8561		7.812500
8562		11.718750
8563		7.812500
8564		9.765625
8565		7.812500
8566		9.765625
8567		5.859375
8568		9.765625
8569		5.859375
8570		9.765625
8571		5.859375
8572		9.765625
8573		5.859375
8574		9.765625
8575		5.859375
8576		7.812500
8577		3.906250
8578		7.812500
8579		3.906250
8580		7.812500
8581		3.906250
8582		7.812500
8583		3.906250
8584		7.812500
8585		3.906250
8586		5.859375
8587		3.906250
8588		7.812500
8589		3.906250
8590		5.859375
8591		3.906250
8592		5.859375
8593		3.906250
8594		5.859375
8595		3.906250
8596		5.859375
8597		3.906250
8598		5.859375
8599		3.906250
8600		5.859375
8601		3.906250
8602		5.859375
8603		3.906250
8604		5.859375
8605		3.906250
8606		5.859375
8607		1.953125
8608		7.812500
8609		3.906250
8610		5.859375
8611		3.906250
8612		7.812500
8613		3.906250
8614		5.859375
8615		3.906250
8616		7.812500
8617		3.906250
8618		7.812500
8619		3.906250
8620		7.812500
8621		5.859375
8622		7.812500
8623		3.906250
8624		7.812500
8625		5.859375
8626		7.812500
8627		5.859375
8628		7.812500
8629		3.906250
8630		9.765625
8631		5.859375
8632		9.765625
8633		7.812500
8634		9.765625
8635		7.812500
8636		9.765625
8637		7.812500
8638		9.765625
8639		7.812500
8640		11.718750
8641		9.765625
8642		11.718750
8643		9.765625
8644		11.718750
8645		9.765625
8646		13.671875
8647		9.765625
8648		13.671875
8649		11.718750
8650		13.671875
8651		11.718750
8652		13.671875
8653		11.718750
8654		15.625000
8655		11.718750
8656		15.625000
8657		13.671875
8658		15.625000
8659		13.671875
8660		17.578125
8661		13.671875
8662		17.578125
8663		15.625000
8664		17.578125
8665		15.625000
8666		19.531250
8667		15.625000
8668		19.531250
8669		15.625000
8670		19.531250
8671		17.578125
8672		21.484375
8673		17.578125
8674		21.484375
8675		19.531250
8676		21.484375
8677		19.531250
8678		21.484375
8679		19.531250
8680		23.437500
8681		19.531250
8682		23.437500
8683		21.484375
8684		23.437500
8685		21.484375
8686		25.390625
8687		21.484375
8688		25.390625
8689		23.437500
8690		25.390625
8691		21.484375
8692		27.343750
8693		23.437500
8694		27.343750
8695		23.437500
8696		27.343750
8697		23.437500
8698		27.343750
8699		25.390625
8700		27.343750
8701		25.390625
8702		29.296875
8703		25.390625
8704		29.296875
8705		27.343750
8706		29.296875
8707		27.343750
8708		29.296875
8709		27.343750
8710		29.296875
8711		27.343750
8712		31.250000
8713		27.343750
8714		31.250000
8715		27.343750
8716		31.250000
8717		29.296875
8718		31.250000
8719		29.296875
8720		31.250000
8721		29.296875
8722		31.250000
8723		29.296875
8724		33.203125
8725		27.343750
8726		33.203125
8727		29.296875
8728		31.250000
8729		29.296875
8730		33.203125
8731		29.296875
8732		31.250000
8733		29.296875
8734		31.250000
8735		29.296875
8736		33.203125
8737		29.296875
8738		31.250000
8739		29.296875
8740		31.250000
8741		27.343750
8742		33.203125
8743		29.296875
8744		33.203125
8745		29.296875
8746		31.250000
8747		29.296875
8748		33.203125
8749		29.296875
8750		31.250000
8751		29.296875
8752		31.250000
8753		29.296875
8754		31.250000
8755		27.343750
8756		31.250000
8757		27.343750
8758		31.250000
8759		27.343750
8760		29.296875
8761		27.343750
8762		29.296875
8763		27.343750
8764		31.250000
8765		27.343750
8766		29.296875
8767		27.343750
8768		29.296875
8769		25.390625
8770		29.296875
8771		25.390625
8772		29.296875
8773		25.390625
8774		29.296875
8775		25.390625
8776		29.296875
8777		25.390625
8778		27.343750
8779		23.437500
8780		27.343750
8781		23.437500
8782		27.343750
8783		23.437500
8784		27.343750
8785		23.437500
8786		25.390625
8787		21.484375
8788		25.390625
8789		23.437500
8790		25.390625
8791		21.484375
8792		25.390625
8793		21.484375
8794		23.437500
8795		21.484375
8796		23.437500
8797		19.531250
8798		23.437500
8799		19.531250
8800		23.437500
8801		19.531250
8802		21.484375
8803		17.578125
8804		21.484375
8805		17.578125
8806		21.484375
8807		17.578125
8808		21.484375
8809		15.625000
8810		19.531250
8811		17.578125
8812		19.531250
8813		15.625000
8814		19.531250
8815		15.625000
8816		17.578125
8817		15.625000
8818		17.578125
8819		13.671875
8820		17.578125
8821		13.671875
8822		17.578125
8823		13.671875
8824		15.625000
8825		11.718750
8826		15.625000
8827		11.718750
8828		15.625000
8829		11.718750
8830		13.671875
8831		11.718750
8832		13.671875
8833		11.718750
8834		13.671875
8835		9.765625
8836		13.671875
8837		9.765625
8838		11.718750
8839		9.765625
8840		13.671875
8841		9.765625
8842		11.718750
8843		9.765625
8844		11.718750
8845		7.812500
8846		9.765625
8847		5.859375
8848		9.765625
8849		7.812500
8850		9.765625
8851		5.859375
8852		9.765625
8853		5.859375
8854		9.765625
8855		5.859375
8856		9.765625
8857		5.859375
8858		7.812500
8859		3.906250
8860		9.765625
8861		5.859375
8862		7.812500
8863		3.906250
8864		7.812500
8865		5.859375
8866		7.812500
8867		3.906250
8868		7.812500
8869		3.906250
8870		7.812500
8871		3.906250
8872		7.812500
8873		3.906250
8874		7.812500
8875		3.906250
8876		7.812500
8877		3.906250
8878		5.859375
8879		3.906250
8880		5.859375
8881		3.906250
8882		7.812500
8883		3.906250
8884		5.859375
8885		3.906250
8886		5.859375
8887		3.906250
8888		7.812500
8889		3.906250
8890		7.812500
8891		3.906250
8892		5.859375
8893		3.906250
8894		7.812500
8895		3.906250
8896		5.859375
8897		3.906250
8898		7.812500
8899		3.906250
8900		7.812500
8901		3.906250
8902		7.812500
8903		5.859375
8904		7.812500
8905		5.859375
8906		7.812500
8907		5.859375
8908		7.812500
8909		5.859375
8910		9.765625
8911		7.812500
8912		9.765625
8913		7.812500
8914		9.765625
8915		5.859375
8916		11.718750
8917		7.812500
8918		11.718750
8919		7.812500
8920		11.718750
8921		9.765625
8922		11.718750
8923		9.765625
8924		11.718750
8925		9.765625
8926		13.671875
8927		9.765625
8928		13.671875
8929		11.718750
8930		13.671875
8931		11.718750
8932		15.625000
8933		11.718750
8934		15.625000
8935		11.718750
8936		15.625000
8937		13.671875
8938		15.625000
8939		13.671875
8940		17.578125
8941		15.625000
8942		17.578125
8943		13.671875
8944		17.578125
8945		15.625000
8946		17.578125
8947		15.625000
8948		19.531250
8949		17.578125
8950		19.531250
8951		17.578125
8952		21.484375
8953		17.578125
8954		21.484375
8955		17.578125
8956		21.484375
8957		19.531250
8958		21.484375
8959		19.531250
8960		23.437500
8961		19.531250
8962		23.437500
8963		21.484375
8964		23.437500
8965		21.484375
8966		23.437500
8967		21.484375
8968		25.390625
8969		23.437500
8970		25.390625
8971		23.437500
8972		25.390625
8973		23.437500
8974		25.390625
8975		23.437500
8976		27.343750
8977		25.390625
8978		27.343750
8979		25.390625
8980		27.343750
8981		25.390625
8982		29.296875
8983		25.390625
8984		29.296875
8985		25.390625
8986		29.296875
8987		27.343750
8988		29.296875
8989		27.343750
8990		29.296875
8991		27.343750
8992		29.296875
8993		27.343750
8994		31.250000
8995		29.296875
8996		29.296875
8997		29.296875
8998		31.250000
8999		27.343750
9000		31.250000
9001		29.296875
9002		31.250000
9003		29.296875
9004		31.250000
9005		27.343750
9006		33.203125
9007		29.296875
9008		31.250000
9009		29.296875
9010		33.203125
9011		27.343750
9012		33.203125
9013		29.296875
9014		31.250000
9015		29.296875
9016		33.203125
9017		29.296875
9018		33.203125
9019		29.296875
9020		31.250000
9021		29.296875
9022		33.203125
9023		29.296875
9024		31.250000
9025		29.296875
9026		31.250000
9027		27.343750
9028		33.203125
9029		29.296875
9030		31.250000
9031		27.343750
9032		31.250000
9033		27.343750
9034		31.250000
9035		27.343750
9036		31.250000
9037		27.343750
9038		31.250000
9039		27.343750
9040		31.250000
9041		27.343750
9042		31.250000
9043		27.343750
9044		31.250000
9045		27.343750
9046		29.296875
9047		27.343750
9048		29.296875
9049		25.390625
9050		29.296875
9051		25.390625
9052		29.296875
9053		25.390625
9054		29.296875
9055		25.390625
9056		27.343750
9057		25.390625
9058		29.296875
9059		23.437500
9060		27.343750
9061		23.437500
9062		27.343750
9063		23.437500
9064		27.343750
9065		23.437500
9066		27.343750
9067		23.437500
9068		25.390625
9069		23.437500
9070		25.390625
9071		21.484375
9072		25.390625
9073		21.484375
9074		25.390625
9075		21.484375
9076		25.390625
9077		19.531250
9078		23.437500
9079		21.484375
9080		23.437500
9081		19.531250
9082		21.484375
9083		19.531250
9084		23.437500
9085		17.578125
9086		21.484375
9087		17.578125
9088		21.484375
9089		17.578125
9090		19.531250
9091		17.578125
9092		19.531250
9093		15.625000
9094		19.531250
9095		15.625000
9096		19.531250
9097		15.625000
9098		17.578125
9099		13.671875
9100		17.578125
9101		13.671875
9102		17.578125
9103		13.671875
9104		15.625000
9105		11.718750
9106		15.625000
9107		11.718750
9108		15.625000
9109		11.718750
9110		15.625000
9111		11.718750
9112		13.671875
9113		9.765625
9114		13.671875
9115		7.812500
9116		13.671875
9117		9.765625
9118		13.671875
9119		9.765625
9120		11.718750
9121		9.765625
9122		11.718750
9123		7.812500
9124		11.718750
9125		7.812500
9126		11.718750
9127		7.812500
9128		9.765625
9129		7.812500
9130		9.765625
9131		7.812500
9132		9.765625
9133		5.859375
9134		9.765625
9135		5.859375
9136		9.765625
9137		5.859375
9138		7.812500
9139		5.859375
9140		7.812500
9141		3.906250
9142		7.812500
9143		3.906250
9144		7.812500
9145		3.906250
9146		7.812500
9147		3.906250
9148		7.812500
9149		3.906250
9150		7.812500
9151		3.906250
9152		5.859375
9153		3.906250
9154		7.812500
9155		3.906250
9156		5.859375
9157		3.906250
9158		7.812500
9159		3.906250
9160		5.859375
9161		1.953125
9162		5.859375
9163		3.906250
9164		5.859375
9165		3.906250
9166		5.859375
9167		1.953125
9168		5.859375
9169		3.906250
9170		5.859375
9171		3.906250
9172		5.859375
9173		3.906250
9174		5.859375
9175		3.906250
9176		7.812500
9177		3.906250
9178		7.812500
9179		3.906250
9180		7.812500
9181		3.906250
9182		7.812500
9183		3.906250
9184		7.812500
9185		3.906250
9186		7.812500
9187		5.859375
9188		7.812500
9189		5.859375
9190		7.812500
9191		5.859375
9192		9.765625
9193		5.859375
9194		9.765625
9195		7.812500
9196		9.765625
9197		7.812500
9198		9.765625
9199		7.812500
9200		11.718750
9201		7.812500
9202		11.718750
9203		7.812500
9204		11.718750
9205		7.812500
9206		11.718750
9207		9.765625
9208		11.718750
9209		9.765625
9210		13.671875
9211		9.765625
9212		13.671875
9213		11.718750
9214		13.671875
9215		11.718750
9216		13.671875
9217		11.718750
9218		15.625000
9219		13.671875
9220		17.578125
9221		13.671875
9222		17.578125
9223		13.671875
9224		17.578125
9225		15.625000
9226		17.578125
9227		15.625000
9228		17.578125
9229		15.625000
9230		19.531250
9231		17.578125
9232		19.531250
9233		17.578125
9234		19.531250
9235		17.578125
9236		21.484375
9237		19.531250
9238		21.484375
9239		19.531250
9240		21.484375
9241		19.531250
9242		21.484375
9243		19.531250
9244		23.437500
9245		21.484375
9246		23.437500
9247		21.484375
9248		23.437500
9249		21.484375
9250		25.390625
9251		21.484375
9252		25.390625
9253		23.437500
9254		25.390625
9255		23.437500
9256		27.343750
9257		23.437500
9258		27.343750
9259		23.437500
9260		27.343750
9261		25.390625
9262		27.343750
9263		25.390625
9264		29.296875
9265		25.390625
9266		29.296875
9267		25.390625
9268		29.296875
9269		25.390625
9270		29.296875
9271		27.343750
9272		29.296875
9273		27.343750
9274		29.296875
9275		27.343750
9276		31.250000
9277		27.343750
9278		31.250000
9279		27.343750
9280		31.250000
9281		29.296875
9282		31.250000
9283		29.296875
9284		31.250000
9285		29.296875
9286		31.250000
9287		29.296875
9288		31.250000
9289		29.296875
9290		33.203125
9291		29.296875
9292		33.203125
9293		29.296875
9294		33.203125
9295		29.296875
9296		33.203125
9297		29.296875
9298		33.203125
9299		29.296875
9300		31.250000
9301		29.296875
9302		33.203125
9303		29.296875
9304		33.203125
9305		29.296875
9306		33.203125
9307		29.296875
9308		33.203125
9309		29.296875
9310		33.203125
9311		29.296875
9312		33.203125
9313		29.296875
9314		33.203125
9315		29.296875
9316		31.250000
9317		29.296875
9318		31.250000
9319		29.296875
9320		31.250000
9321		27.343750
9322		31.250000
9323		27.343750
9324		31.250000
9325		27.343750
9326		31.250000
9327		27.343750
9328		31.250000
9329		27.343750
9330		31.250000
9331		27.343750
9332		29.296875
9333		27.343750
9334		29.296875
9335		27.343750
9336		29.296875
9337		25.390625
9338		29.296875
9339		25.390625
9340		29.296875
9341		25.390625
9342		29.296875
9343		25.390625
9344		27.343750
9345		23.437500
9346		27.343750
9347		23.437500
9348		27.343750
9349		23.437500
9350		25.390625
9351		23.437500
9352		25.390625
9353		23.437500
9354		25.390625
9355		21.484375
9356		25.390625
9357		21.484375
9358		25.390625
9359		21.484375
9360		23.437500
9361		21.484375
9362		23.437500
9363		19.531250
9364		23.437500
9365		19.531250
9366		23.437500
9367		19.531250
9368		23.437500
9369		19.531250
9370		21.484375
9371		17.578125
9372		21.484375
9373		17.578125
9374		21.484375
9375		17.578125
9376		19.531250
9377		15.625000
9378		19.531250
9379		15.625000
9380		19.531250
9381		15.625000
9382		17.578125
9383		15.625000
9384		17.578125
9385		13.671875
9386		17.578125
9387		13.671875
9388		17.578125
9389		13.671875
9390		15.625000
9391		13.671875
9392		15.625000
9393		11.718750
9394		15.625000
9395		11.718750
9396		13.671875
9397		11.718750
9398		13.671875
9399		11.718750
9400		13.671875
9401		9.765625
9402		13.671875
9403		9.765625
9404		13.671875
9405		9.765625
9406		11.718750
9407		9.765625
9408		11.718750
9409		7.812500
9410		11.718750
9411		7.812500
9412		11.718750
9413		7.812500
9414		9.765625
9415		7.812500
9416		9.765625
9417		7.812500
9418		9.765625
9419		5.859375
9420		9.765625
9421		5.859375
9422		7.812500
9423		5.859375
9424		7.812500
9425		5.859375
9426		7.812500
9427		5.859375
9428		7.812500
9429		3.906250
9430		7.812500
9431		3.906250
9432		7.812500
9433		5.859375
9434		7.812500
9435		3.906250
9436		7.812500
9437		3.906250
9438		7.812500
9439		3.906250
9440		7.812500
9441		3.906250
9442		7.812500
9443		3.906250
9444		7.812500
9445		3.906250
9446		7.812500
9447		3.906250
9448		7.812500
9449		3.906250
9450		5.859375
9451		3.906250
9452		5.859375
9453		3.906250
9454		7.812500
9455		3.906250
9456		7.812500
9457		3.906250
9458		7.812500
9459		3.906250
9460		7.812500
9461		3.906250
9462		7.812500
9463		3.906250
9464		9.765625
9465		5.859375
9466		7.812500
9467		5.859375
9468		7.812500
9469		3.906250
9470		9.765625
9471		5.859375
9472		9.765625
9473		5.859375
9474		9.765625
9475		5.859375
9476		9.765625
9477		7.812500
9478		9.765625
9479		7.812500
9480		9.765625
9481		7.812500
9482		11.718750
9483		7.812500
9484		11.718750
9485		9.765625
9486		11.718750
9487		9.765625
9488		11.718750
9489		9.765625
9490		13.671875
9491		9.765625
9492		13.671875
9493		11.718750
9494		13.671875
9495		11.718750
9496		15.625000
9497		11.718750
9498		15.625000
9499		13.671875
9500		15.625000
9501		13.671875
9502		15.625000
9503		13.671875
9504		17.578125
9505		13.671875
9506		17.578125
9507		15.625000
9508		17.578125
9509		15.625000
9510		19.531250
9511		15.625000
9512		19.531250
9513		17.578125
9514		19.531250
9515		15.625000
9516		19.531250
9517		17.578125
9518		21.484375
9519		17.578125
9520		21.484375
9521		19.531250
9522		21.484375
9523		19.531250
9524		21.484375
9525		19.531250
9526		23.437500
9527		21.484375
9528		23.437500
9529		21.484375
9530		23.437500
9531		21.484375
9532		25.390625
9533		23.437500
9534		25.390625
9535		23.437500
9536		25.390625
9537		21.484375
9538		27.343750
9539		23.437500
9540		27.343750
9541		25.390625
9542		27.343750
9543		25.390625
9544		27.343750
9545		25.390625
9546		29.296875
9547		25.390625
9548		29.296875
9549		25.390625
9550		29.296875
9551		27.343750
9552		29.296875
9553		25.390625
9554		29.296875
9555		27.343750
9556		29.296875
9557		27.343750
9558		31.250000
9559		27.343750
9560		31.250000
9561		27.343750
9562		31.250000
9563		29.296875
9564		31.250000
9565		27.343750
9566		31.250000
9567		29.296875
9568		31.250000
9569		29.296875
9570		31.250000
9571		29.296875
9572		31.250000
9573		29.296875
9574		31.250000
9575		29.296875
9576		33.203125
9577		29.296875
9578		31.250000
9579		29.296875
9580		33.203125
9581		29.296875
9582		33.203125
9583		29.296875
9584		31.250000
9585		29.296875
9586		31.250000
9587		29.296875
9588		33.203125
9589		29.296875
9590		33.203125
9591		29.296875
9592		31.250000
9593		29.296875
9594		31.250000
9595		29.296875
9596		31.250000
9597		29.296875
9598		33.203125
9599		29.296875
9600		33.203125
9601		29.296875
9602		31.250000
9603		27.343750
9604		31.250000
9605		27.343750
9606		31.250000
9607		27.343750
9608		31.250000
9609		27.343750
9610		31.250000
9611		27.343750
9612		29.296875
9613		27.343750
9614		29.296875
9615		27.343750
9616		29.296875
9617		27.343750
9618		29.296875
9619		25.390625
9620		29.296875
9621		25.390625
9622		29.296875
9623		25.390625
9624		29.296875
9625		25.390625
9626		27.343750
9627		23.437500
9628		27.343750
9629		23.437500
9630		27.343750
9631		23.437500
9632		27.343750
9633		23.437500
9634		25.390625
9635		23.437500
9636		25.390625
9637		21.484375
9638		25.390625
9639		21.484375
9640		25.390625
9641		21.484375
9642		23.437500
9643		21.484375
9644		23.437500
9645		19.531250
9646		23.437500
9647		19.531250
9648		23.437500
9649		17.578125
9650		21.484375
9651		17.578125
9652		21.484375
9653		17.578125
9654		21.484375
9655		17.578125
9656		19.531250
9657		17.578125
9658		19.531250
9659		15.625000
9660		19.531250
9661		15.625000
9662		17.578125
9663		15.625000
9664		19.531250
9665		13.671875
9666		17.578125
9667		13.671875
9668		17.578125
9669		13.671875
9670		15.625000
9671		13.671875
9672		15.625000
9673		11.718750
9674		15.625000
9675		11.718750
9676		13.671875
9677		11.718750
9678		13.671875
9679		11.718750
9680		13.671875
9681		9.765625
9682		13.671875
9683		9.765625
9684		11.718750
9685		9.765625
9686		11.718750
9687		7.812500
9688		11.718750
9689		7.812500
9690		11.718750
9691		7.812500
9692		11.718750
9693		7.812500
9694		9.765625
9695		7.812500
9696		9.765625
9697		7.812500
9698		9.765625
9699		5.859375
9700		9.765625
9701		5.859375
9702		7.812500
9703		5.859375
9704		7.812500
9705		5.859375
9706		7.812500
9707		5.859375
9708		7.812500
9709		5.859375
9710		7.812500
9711		3.906250
9712		7.812500
9713		3.906250
9714		7.812500
9715		3.906250
9716		7.812500
9717		3.906250
9718		7.812500
9719		3.906250
9720		5.859375
9721		3.906250
9722		5.859375
9723		3.906250
9724		7.812500
9725		3.906250
9726		7.812500
9727		3.906250
9728		7.812500
9729		3.906250
9730		5.859375
9731		3.906250
9732		7.812500
9733		3.906250
9734		7.812500
9735		3.906250
9736		5.859375
9737		3.906250
9738		7.812500
9739		3.906250
9740		7.812500
9741		3.906250
9742		7.812500
9743		3.906250
9744		7.812500
9745		3.906250
9746		7.812500
9747		3.906250
9748		7.812500
9749		5.859375
9750		7.812500
9751		5.859375
9752		7.812500
9753		5.859375
9754		9.765625
9755		5.859375
9756		9.765625
9757		5.859375
9758		9.765625
9759		7.812500
9760		9.765625
9761		7.812500
9762		9.765625
9763		7.812500
9764		11.718750
9765		7.812500
9766		11.718750
9767		7.812500
9768		11.718750
9769		9.765625
9770		11.718750
9771		9.765625
9772		13.671875
9773		9.765625
9774		13.671875
9775		9.765625
9776		13.671875
9777		11.718750
9778		13.671875
9779		11.718750
9780		15.625000
9781		11.718750
9782		15.625000
9783		11.718750
9784		15.625000
9785		13.671875
9786		15.625000
9787		13.671875
9788		17.578125
9789		13.671875
9790		17.578125
9791		15.625000
9792		19.531250
9793		15.625000
9794		19.531250
9795		17.578125
9796		19.531250
9797		17.578125
9798		19.531250
9799		17.578125
9800		21.484375
9801		17.578125
9802		21.484375
9803		19.531250
9804		21.484375
9805		19.531250
9806		23.437500
9807		19.531250
9808		23.437500
9809		21.484375
9810		23.437500
9811		21.484375
9812		23.437500
9813		21.484375
9814		25.390625
9815		21.484375
9816		25.390625
9817		23.437500
9818		25.390625
9819		23.437500
9820		27.343750
9821		23.437500
9822		27.343750
9823		23.437500
9824		27.343750
9825		25.390625
9826		27.343750
9827		25.390625
9828		29.296875
9829		25.390625
9830		29.296875
9831		25.390625
9832		29.296875
9833		25.390625
9834		29.296875
9835		27.343750
9836		29.296875
9837		27.343750
9838		29.296875
9839		27.343750
9840		31.250000
9841		27.343750
9842		31.250000
9843		27.343750
9844		31.250000
9845		29.296875
9846		31.250000
9847		29.296875
9848		31.250000
9849		29.296875
9850		31.250000
9851		29.296875
9852		33.203125
9853		29.296875
9854		33.203125
9855		29.296875
9856		33.203125
9857		29.296875
9858		33.203125
9859		29.296875
9860		33.203125
9861		29.296875
9862		33.203125
9863		29.296875
9864		33.203125
9865		29.296875
9866		33.203125
9867		29.296875
9868		33.203125
9869		29.296875
9870		33.203125
9871		31.250000
9872		33.203125
9873		29.296875
9874		33.203125
9875		29.296875
9876		33.203125
9877		29.296875
9878		33.203125
9879		29.296875
9880		33.203125
9881		29.296875
9882		31.250000
9883		29.296875
9884		31.250000
9885		29.296875
9886		31.250000
9887		29.296875
9888		31.250000
9889		27.343750
9890		33.203125
9891		27.343750
9892		31.250000
9893		27.343750
9894		31.250000
9895		27.343750
9896		31.250000
9897		27.343750
9898		31.250000
9899		27.343750
9900		29.296875
9901		27.343750
9902		29.296875
9903		27.343750
9904		29.296875
9905		25.390625
9906		29.296875
9907		25.390625
9908		27.343750
9909		25.390625
9910		29.296875
9911		23.437500
9912		27.343750
9913		23.437500
9914		27.343750
9915		23.437500
9916		27.343750
9917		23.437500
9918		25.390625
9919		23.437500
9920		25.390625
9921		21.484375
9922		25.390625
9923		21.484375
9924		25.390625
9925		19.531250
9926		23.437500
9927		19.531250
9928		23.437500
9929		19.531250
9930		23.437500
9931		19.531250
9932		23.437500
9933		19.531250
9934		23.437500
9935		17.578125
9936		21.484375
9937		17.578125
9938		19.531250
9939		17.578125
9940		19.531250
9941		17.578125
9942		19.531250
9943		15.625000
9944		19.531250
9945		15.625000
9946		19.531250
9947		15.625000
9948		17.578125
9949		15.625000
9950		17.578125
9951		13.671875
9952		17.578125
9953		13.671875
9954		15.625000
9955		13.671875
9956		15.625000
9957		11.718750
9958		15.625000
9959		11.718750
9960		15.625000
9961		11.718750
9962		13.671875
9963		9.765625
9964		13.671875
9965		9.765625
9966		13.671875
9967		9.765625
9968		13.671875
9969		7.812500
9970		11.718750
9971		9.765625
9972		11.718750
9973		7.812500
9974		11.718750
9975		7.812500
9976		11.718750
9977		7.812500
9978		9.765625
9979		7.812500
9980		9.765625
9981		7.812500
9982		9.765625
9983		5.859375
9984		9.765625
9985		5.859375
9986		9.765625
9987		5.859375
9988		7.812500
9989		5.859375
9990		7.812500
9991		5.859375
9992		7.812500
9993		5.859375
9994		7.812500
9995		3.906250
9996		7.812500
9997		3.906250
9998		7.812500
9999		3.906250
10000		7.812500
