Channel              :		CH1
Frequency            :		1.975kHz
Period               :		0.506ms
PK-PK                :		125.0mV
Probe attenuation    :		1X
Voltage per ADC value:		0.122070mV
Time interval        :		2.00000us

index		CH1_Voltage(mV)
1		64.453125
2		64.453125
3		68.359375
4		64.453125
5		66.406250
6		64.453125
7		66.406250
8		62.500000
9		66.406250
10		62.500000
11		66.406250
12		62.500000
13		66.406250
14		60.546875
15		64.453125
16		58.593750
17		62.500000
18		58.593750
19		62.500000
20		56.640625
21		60.546875
22		54.687500
23		60.546875
24		54.687500
25		58.593750
26		52.734375
27		56.640625
28		50.781250
29		54.687500
30		48.828125
31		52.734375
32		46.875000
33		50.781250
34		44.921875
35		48.828125
36		42.968750
37		46.875000
38		41.015625
39		44.921875
40		39.062500
41		42.968750
42		35.156250
43		41.015625
44		33.203125
45		37.109375
46		31.250000
47		35.156250
48		29.296875
49		33.203125
50		25.390625
51		29.296875
52		23.437500
53		27.343750
54		19.531250
55		23.437500
56		17.578125
57		21.484375
58		13.671875
59		19.531250
60		11.718750
61		15.625000
62		9.765625
63		13.671875
64		5.859375
65		9.765625
66		1.953125
67		7.812500
68		0.000000
69		5.859375
70		-1.953125
71		1.953125
72		-5.859375
73		-1.953125
74		-9.765625
75		-3.906250
76		-11.718750
77		-7.812500
78		-13.671875
79		-7.812500
80		-15.625000
81		-11.718750
82		-19.531250
83		-15.625000
84		-21.484375
85		-15.625000
86		-25.390625
87		-19.531250
88		-27.343750
89		-23.437500
90		-29.296875
91		-25.390625
92		-31.250000
93		-27.343750
94		-33.203125
95		-29.296875
96		-35.156250
97		-31.250000
98		-37.109375
99		-33.203125
100		-39.062500
101		-35.156250
102		-41.015625
103		-37.109375
104		-41.015625
105		-39.062500
106		-42.968750
107		-41.015625
108		-44.921875
109		-41.015625
110		-44.921875
111		-42.968750
112		-46.875000
113		-44.921875
114		-46.875000
115		-44.921875
116		-48.828125
117		-44.921875
118		-48.828125
119		-46.875000
120		-48.828125
121		-46.875000
122		-50.781250
123		-46.875000
124		-48.828125
125		-46.875000
126		-48.828125
127		-46.875000
128		-48.828125
129		-46.875000
130		-48.828125
131		-46.875000
132		-48.828125
133		-46.875000
134		-48.828125
135		-44.921875
136		-46.875000
137		-44.921875
138		-46.875000
139		-42.968750
140		-44.921875
141		-42.968750
142		-44.921875
143		-41.015625
144		-42.968750
145		-39.062500
146		-42.968750
147		-39.062500
148		-41.015625
149		-37.109375
150		-39.062500
151		-35.156250
152		-37.109375
153		-33.203125
154		-35.156250
155		-31.250000
156		-33.203125
157		-29.296875
158		-31.250000
159		-27.343750
160		-29.296875
161		-25.390625
162		-27.343750
163		-21.484375
164		-23.437500
165		-19.531250
166		-21.484375
167		-17.578125
168		-19.531250
169		-15.625000
170		-17.578125
171		-11.718750
172		-13.671875
173		-9.765625
174		-11.718750
175		-5.859375
176		-7.812500
177		-3.906250
178		-5.859375
179		0.000000
180		-3.906250
181		1.953125
182		0.000000
183		3.906250
184		3.906250
185		7.812500
186		5.859375
187		9.765625
188		7.812500
189		13.671875
190		11.718750
191		15.625000
192		13.671875
193		19.531250
194		17.578125
195		21.484375
196		19.531250
197		23.437500
198		23.437500
199		27.343750
200		25.390625
201		31.250000
202		27.343750
203		31.250000
204		29.296875
205		35.156250
206		33.203125
207		37.109375
208		35.156250
209		39.062500
210		37.109375
211		42.968750
212		41.015625
213		44.921875
214		42.968750
215		46.875000
216		44.921875
217		48.828125
218		46.875000
219		50.781250
220		48.828125
221		52.734375
222		50.781250
223		54.687500
224		52.734375
225		56.640625
226		54.687500
227		58.593750
228		56.640625
229		58.593750
230		56.640625
231		60.546875
232		58.593750
233		60.546875
234		60.546875
235		64.453125
236		60.546875
237		64.453125
238		62.500000
239		64.453125
240		62.500000
241		64.453125
242		62.500000
243		66.406250
244		62.500000
245		66.406250
246		64.453125
247		68.359375
248		64.453125
249		68.359375
250		64.453125
251		66.406250
252		64.453125
253		68.359375
254		64.453125
255		68.359375
256		64.453125
257		68.359375
258		64.453125
259		66.406250
260		64.453125
261		66.406250
262		62.500000
263		66.406250
264		62.500000
265		66.406250
266		62.500000
267		64.453125
268		60.546875
269		64.453125
270		58.593750
271		62.500000
272		58.593750
273		62.500000
274		56.640625
275		60.546875
276		54.687500
277		58.593750
278		52.734375
279		56.640625
280		50.781250
281		56.640625
282		50.781250
283		52.734375
284		48.828125
285		50.781250
286		46.875000
287		50.781250
288		44.921875
289		48.828125
290		42.968750
291		46.875000
292		41.015625
293		42.968750
294		37.109375
295		41.015625
296		33.203125
297		39.062500
298		33.203125
299		37.109375
300		29.296875
301		33.203125
302		27.343750
303		31.250000
304		25.390625
305		29.296875
306		21.484375
307		27.343750
308		19.531250
309		23.437500
310		15.625000
311		21.484375
312		13.671875
313		17.578125
314		9.765625
315		15.625000
316		7.812500
317		11.718750
318		3.906250
319		9.765625
320		1.953125
321		7.812500
322		0.000000
323		3.906250
324		-3.906250
325		1.953125
326		-5.859375
327		-1.953125
328		-9.765625
329		-5.859375
330		-11.718750
331		-7.812500
332		-13.671875
333		-9.765625
334		-17.578125
335		-13.671875
336		-19.531250
337		-15.625000
338		-23.437500
339		-17.578125
340		-25.390625
341		-21.484375
342		-27.343750
343		-23.437500
344		-29.296875
345		-25.390625
346		-31.250000
347		-27.343750
348		-33.203125
349		-29.296875
350		-35.156250
351		-33.203125
352		-39.062500
353		-33.203125
354		-39.062500
355		-35.156250
356		-41.015625
357		-37.109375
358		-42.968750
359		-39.062500
360		-42.968750
361		-41.015625
362		-44.921875
363		-41.015625
364		-46.875000
365		-42.968750
366		-46.875000
367		-44.921875
368		-46.875000
369		-44.921875
370		-48.828125
371		-44.921875
372		-48.828125
373		-46.875000
374		-50.781250
375		-46.875000
376		-50.781250
377		-46.875000
378		-50.781250
379		-46.875000
380		-50.781250
381		-46.875000
382		-50.781250
383		-46.875000
384		-48.828125
385		-46.875000
386		-48.828125
387		-46.875000
388		-48.828125
389		-44.921875
390		-46.875000
391		-44.921875
392		-46.875000
393		-42.968750
394		-44.921875
395		-42.968750
396		-44.921875
397		-41.015625
398		-42.968750
399		-39.062500
400		-41.015625
401		-39.062500
402		-41.015625
403		-35.156250
404		-39.062500
405		-35.156250
406		-37.109375
407		-33.203125
408		-35.156250
409		-31.250000
410		-33.203125
411		-27.343750
412		-31.250000
413		-25.390625
414		-27.343750
415		-23.437500
416		-25.390625
417		-21.484375
418		-23.437500
419		-19.531250
420		-21.484375
421		-15.625000
422		-17.578125
423		-13.671875
424		-15.625000
425		-11.718750
426		-11.718750
427		-7.812500
428		-9.765625
429		-5.859375
430		-7.812500
431		-1.953125
432		-5.859375
433		0.000000
434		-1.953125
435		1.953125
436		1.953125
437		5.859375
438		3.906250
439		9.765625
440		5.859375
441		11.718750
442		9.765625
443		13.671875
444		11.718750
445		17.578125
446		15.625000
447		19.531250
448		17.578125
449		23.437500
450		21.484375
451		25.390625
452		23.437500
453		27.343750
454		25.390625
455		31.250000
456		29.296875
457		33.203125
458		31.250000
459		35.156250
460		33.203125
461		39.062500
462		37.109375
463		41.015625
464		37.109375
465		42.968750
466		41.015625
467		44.921875
468		42.968750
469		46.875000
470		44.921875
471		48.828125
472		46.875000
473		52.734375
474		48.828125
475		52.734375
476		50.781250
477		54.687500
478		52.734375
479		56.640625
480		54.687500
481		58.593750
482		54.687500
483		58.593750
484		58.593750
485		60.546875
486		58.593750
487		62.500000
488		58.593750
489		62.500000
490		60.546875
491		64.453125
492		62.500000
493		64.453125
494		62.500000
495		66.406250
496		62.500000
497		66.406250
498		64.453125
499		68.359375
500		64.453125
501		66.406250
502		64.453125
503		66.406250
504		64.453125
505		68.359375
506		64.453125
507		68.359375
508		64.453125
509		68.359375
510		64.453125
511		68.359375
512		64.453125
513		66.406250
514		64.453125
515		66.406250
516		62.500000
517		66.406250
518		62.500000
519		64.453125
520		60.546875
521		64.453125
522		60.546875
523		64.453125
524		58.593750
525		62.500000
526		58.593750
527		60.546875
528		56.640625
529		60.546875
530		54.687500
531		58.593750
532		52.734375
533		56.640625
534		50.781250
535		54.687500
536		48.828125
537		52.734375
538		48.828125
539		52.734375
540		44.921875
541		48.828125
542		42.968750
543		46.875000
544		41.015625
545		44.921875
546		39.062500
547		42.968750
548		37.109375
549		41.015625
550		35.156250
551		39.062500
552		31.250000
553		35.156250
554		29.296875
555		33.203125
556		25.390625
557		31.250000
558		23.437500
559		27.343750
560		21.484375
561		25.390625
562		17.578125
563		23.437500
564		15.625000
565		21.484375
566		11.718750
567		17.578125
568		9.765625
569		13.671875
570		5.859375
571		11.718750
572		3.906250
573		7.812500
574		0.000000
575		5.859375
576		-1.953125
577		1.953125
578		-3.906250
579		0.000000
580		-7.812500
581		-1.953125
582		-11.718750
583		-5.859375
584		-13.671875
585		-9.765625
586		-15.625000
587		-11.718750
588		-19.531250
589		-13.671875
590		-21.484375
591		-15.625000
592		-23.437500
593		-19.531250
594		-25.390625
595		-21.484375
596		-29.296875
597		-23.437500
598		-29.296875
599		-25.390625
600		-33.203125
601		-27.343750
602		-35.156250
603		-31.250000
604		-37.109375
605		-33.203125
606		-39.062500
607		-35.156250
608		-41.015625
609		-37.109375
610		-42.968750
611		-37.109375
612		-42.968750
613		-39.062500
614		-44.921875
615		-41.015625
616		-46.875000
617		-41.015625
618		-46.875000
619		-42.968750
620		-46.875000
621		-44.921875
622		-48.828125
623		-42.968750
624		-48.828125
625		-44.921875
626		-48.828125
627		-46.875000
628		-50.781250
629		-46.875000
630		-50.781250
631		-46.875000
632		-50.781250
633		-46.875000
634		-50.781250
635		-46.875000
636		-48.828125
637		-46.875000
638		-48.828125
639		-46.875000
640		-48.828125
641		-44.921875
642		-48.828125
643		-44.921875
644		-46.875000
645		-42.968750
646		-46.875000
647		-42.968750
648		-44.921875
649		-41.015625
650		-44.921875
651		-41.015625
652		-42.968750
653		-39.062500
654		-41.015625
655		-37.109375
656		-39.062500
657		-35.156250
658		-37.109375
659		-33.203125
660		-37.109375
661		-31.250000
662		-33.203125
663		-29.296875
664		-31.250000
665		-27.343750
666		-29.296875
667		-23.437500
668		-27.343750
669		-23.437500
670		-25.390625
671		-21.484375
672		-23.437500
673		-17.578125
674		-19.531250
675		-15.625000
676		-17.578125
677		-11.718750
678		-13.671875
679		-9.765625
680		-11.718750
681		-7.812500
682		-9.765625
683		-3.906250
684		-5.859375
685		-1.953125
686		-3.906250
687		0.000000
688		0.000000
689		3.906250
690		1.953125
691		5.859375
692		5.859375
693		9.765625
694		7.812500
695		11.718750
696		9.765625
697		15.625000
698		13.671875
699		17.578125
700		15.625000
701		21.484375
702		19.531250
703		23.437500
704		21.484375
705		27.343750
706		23.437500
707		29.296875
708		27.343750
709		33.203125
710		29.296875
711		33.203125
712		33.203125
713		37.109375
714		35.156250
715		39.062500
716		37.109375
717		41.015625
718		39.062500
719		42.968750
720		41.015625
721		44.921875
722		44.921875
723		48.828125
724		46.875000
725		50.781250
726		48.828125
727		52.734375
728		50.781250
729		54.687500
730		50.781250
731		54.687500
732		52.734375
733		56.640625
734		54.687500
735		58.593750
736		56.640625
737		60.546875
738		56.640625
739		62.500000
740		58.593750
741		62.500000
742		60.546875
743		64.453125
744		60.546875
745		64.453125
746		62.500000
747		66.406250
748		62.500000
749		66.406250
750		64.453125
751		66.406250
752		64.453125
753		66.406250
754		64.453125
755		66.406250
756		64.453125
757		68.359375
758		64.453125
759		68.359375
760		64.453125
761		68.359375
762		64.453125
763		68.359375
764		64.453125
765		66.406250
766		64.453125
767		66.406250
768		64.453125
769		66.406250
770		62.500000
771		64.453125
772		60.546875
773		64.453125
774		60.546875
775		64.453125
776		60.546875
777		62.500000
778		58.593750
779		62.500000
780		56.640625
781		60.546875
782		56.640625
783		58.593750
784		54.687500
785		58.593750
786		52.734375
787		56.640625
788		50.781250
789		54.687500
790		48.828125
791		52.734375
792		46.875000
793		50.781250
794		44.921875
795		48.828125
796		42.968750
797		46.875000
798		41.015625
799		44.921875
800		39.062500
801		42.968750
802		35.156250
803		41.015625
804		33.203125
805		37.109375
806		31.250000
807		35.156250
808		27.343750
809		33.203125
810		25.390625
811		31.250000
812		23.437500
813		27.343750
814		19.531250
815		23.437500
816		15.625000
817		21.484375
818		13.671875
819		19.531250
820		11.718750
821		15.625000
822		7.812500
823		13.671875
824		5.859375
825		11.718750
826		1.953125
827		7.812500
828		0.000000
829		3.906250
830		-3.906250
831		1.953125
832		-5.859375
833		-1.953125
834		-9.765625
835		-3.906250
836		-11.718750
837		-5.859375
838		-13.671875
839		-9.765625
840		-15.625000
841		-11.718750
842		-19.531250
843		-13.671875
844		-21.484375
845		-17.578125
846		-25.390625
847		-19.531250
848		-27.343750
849		-21.484375
850		-29.296875
851		-25.390625
852		-31.250000
853		-27.343750
854		-33.203125
855		-29.296875
856		-35.156250
857		-31.250000
858		-37.109375
859		-33.203125
860		-39.062500
861		-35.156250
862		-41.015625
863		-37.109375
864		-41.015625
865		-37.109375
866		-42.968750
867		-39.062500
868		-44.921875
869		-41.015625
870		-44.921875
871		-42.968750
872		-46.875000
873		-44.921875
874		-48.828125
875		-42.968750
876		-48.828125
877		-44.921875
878		-48.828125
879		-44.921875
880		-48.828125
881		-46.875000
882		-48.828125
883		-46.875000
884		-50.781250
885		-46.875000
886		-48.828125
887		-46.875000
888		-48.828125
889		-46.875000
890		-48.828125
891		-44.921875
892		-48.828125
893		-46.875000
894		-48.828125
895		-44.921875
896		-48.828125
897		-42.968750
898		-46.875000
899		-42.968750
900		-44.921875
901		-42.968750
902		-44.921875
903		-41.015625
904		-42.968750
905		-41.015625
906		-41.015625
907		-39.062500
908		-41.015625
909		-37.109375
910		-39.062500
911		-35.156250
912		-37.109375
913		-33.203125
914		-35.156250
915		-31.250000
916		-33.203125
917		-27.343750
918		-31.250000
919		-25.390625
920		-27.343750
921		-25.390625
922		-25.390625
923		-21.484375
924		-23.437500
925		-19.531250
926		-21.484375
927		-17.578125
928		-19.531250
929		-13.671875
930		-15.625000
931		-11.718750
932		-13.671875
933		-7.812500
934		-11.718750
935		-5.859375
936		-7.812500
937		-3.906250
938		-5.859375
939		-1.953125
940		-1.953125
941		1.953125
942		0.000000
943		3.906250
944		3.906250
945		7.812500
946		5.859375
947		9.765625
948		7.812500
949		13.671875
950		11.718750
951		15.625000
952		15.625000
953		19.531250
954		17.578125
955		21.484375
956		19.531250
957		23.437500
958		21.484375
959		27.343750
960		25.390625
961		29.296875
962		27.343750
963		33.203125
964		31.250000
965		35.156250
966		33.203125
967		37.109375
968		35.156250
969		41.015625
970		37.109375
971		42.968750
972		41.015625
973		44.921875
974		42.968750
975		46.875000
976		44.921875
977		48.828125
978		46.875000
979		50.781250
980		48.828125
981		52.734375
982		50.781250
983		54.687500
984		52.734375
985		56.640625
986		54.687500
987		56.640625
988		54.687500
989		58.593750
990		56.640625
991		60.546875
992		58.593750
993		62.500000
994		58.593750
995		62.500000
996		60.546875
997		64.453125
998		62.500000
999		64.453125
1000		62.500000
1001		66.406250
1002		64.453125
1003		66.406250
1004		62.500000
1005		66.406250
1006		64.453125
1007		66.406250
1008		64.453125
1009		68.359375
1010		64.453125
1011		68.359375
1012		64.453125
1013		68.359375
1014		64.453125
1015		68.359375
1016		64.453125
1017		68.359375
1018		64.453125
1019		68.359375
1020		64.453125
1021		66.406250
1022		62.500000
1023		66.406250
1024		62.500000
1025		66.406250
1026		60.546875
1027		64.453125
1028		60.546875
1029		64.453125
1030		60.546875
1031		62.500000
1032		58.593750
1033		60.546875
1034		56.640625
1035		60.546875
1036		54.687500
1037		58.593750
1038		54.687500
1039		56.640625
1040		52.734375
1041		54.687500
1042		50.781250
1043		54.687500
1044		48.828125
1045		52.734375
1046		46.875000
1047		50.781250
1048		44.921875
1049		46.875000
1050		42.968750
1051		46.875000
1052		39.062500
1053		44.921875
1054		37.109375
1055		42.968750
1056		35.156250
1057		39.062500
1058		33.203125
1059		37.109375
1060		29.296875
1061		33.203125
1062		27.343750
1063		31.250000
1064		25.390625
1065		29.296875
1066		21.484375
1067		27.343750
1068		19.531250
1069		23.437500
1070		15.625000
1071		21.484375
1072		13.671875
1073		17.578125
1074		9.765625
1075		15.625000
1076		7.812500
1077		13.671875
1078		5.859375
1079		9.765625
1080		1.953125
1081		5.859375
1082		-1.953125
1083		3.906250
1084		-3.906250
1085		0.000000
1086		-5.859375
1087		-1.953125
1088		-9.765625
1089		-3.906250
1090		-11.718750
1091		-7.812500
1092		-15.625000
1093		-9.765625
1094		-17.578125
1095		-13.671875
1096		-19.531250
1097		-15.625000
1098		-23.437500
1099		-17.578125
1100		-25.390625
1101		-19.531250
1102		-27.343750
1103		-23.437500
1104		-29.296875
1105		-25.390625
1106		-31.250000
1107		-27.343750
1108		-35.156250
1109		-29.296875
1110		-35.156250
1111		-31.250000
1112		-37.109375
1113		-33.203125
1114		-41.015625
1115		-35.156250
1116		-41.015625
1117		-37.109375
1118		-42.968750
1119		-39.062500
1120		-44.921875
1121		-41.015625
1122		-44.921875
1123		-41.015625
1124		-44.921875
1125		-42.968750
1126		-46.875000
1127		-42.968750
1128		-46.875000
1129		-44.921875
1130		-48.828125
1131		-44.921875
1132		-48.828125
1133		-44.921875
1134		-48.828125
1135		-46.875000
1136		-48.828125
1137		-46.875000
1138		-50.781250
1139		-46.875000
1140		-48.828125
1141		-46.875000
1142		-48.828125
1143		-46.875000
1144		-48.828125
1145		-44.921875
1146		-48.828125
1147		-44.921875
1148		-48.828125
1149		-44.921875
1150		-46.875000
1151		-42.968750
1152		-46.875000
1153		-42.968750
1154		-44.921875
1155		-41.015625
1156		-42.968750
1157		-41.015625
1158		-42.968750
1159		-39.062500
1160		-41.015625
1161		-37.109375
1162		-41.015625
1163		-35.156250
1164		-37.109375
1165		-35.156250
1166		-35.156250
1167		-31.250000
1168		-33.203125
1169		-29.296875
1170		-31.250000
1171		-27.343750
1172		-29.296875
1173		-25.390625
1174		-27.343750
1175		-23.437500
1176		-25.390625
1177		-21.484375
1178		-23.437500
1179		-17.578125
1180		-19.531250
1181		-15.625000
1182		-17.578125
1183		-13.671875
1184		-15.625000
1185		-9.765625
1186		-13.671875
1187		-7.812500
1188		-9.765625
1189		-5.859375
1190		-5.859375
1191		-1.953125
1192		-3.906250
1193		1.953125
1194		-1.953125
1195		3.906250
1196		1.953125
1197		5.859375
1198		3.906250
1199		7.812500
1200		7.812500
1201		11.718750
1202		9.765625
1203		15.625000
1204		13.671875
1205		17.578125
1206		15.625000
1207		19.531250
1208		17.578125
1209		23.437500
1210		21.484375
1211		25.390625
1212		23.437500
1213		27.343750
1214		27.343750
1215		31.250000
1216		29.296875
1217		33.203125
1218		31.250000
1219		37.109375
1220		35.156250
1221		39.062500
1222		37.109375
1223		41.015625
1224		39.062500
1225		42.968750
1226		41.015625
1227		46.875000
1228		42.968750
1229		46.875000
1230		44.921875
1231		48.828125
1232		48.828125
1233		50.781250
1234		50.781250
1235		54.687500
1236		50.781250
1237		54.687500
1238		52.734375
1239		56.640625
1240		54.687500
1241		58.593750
1242		56.640625
1243		58.593750
1244		56.640625
1245		60.546875
1246		58.593750
1247		62.500000
1248		60.546875
1249		64.453125
1250		60.546875
1251		64.453125
1252		60.546875
1253		66.406250
1254		62.500000
1255		66.406250
1256		62.500000
1257		66.406250
1258		64.453125
1259		66.406250
1260		64.453125
1261		68.359375
1262		64.453125
1263		68.359375
1264		64.453125
1265		68.359375
1266		64.453125
1267		68.359375
1268		64.453125
1269		68.359375
1270		64.453125
1271		68.359375
1272		64.453125
1273		68.359375
1274		64.453125
1275		66.406250
1276		62.500000
1277		66.406250
1278		62.500000
1279		64.453125
1280		60.546875
1281		64.453125
1282		60.546875
1283		64.453125
1284		58.593750
1285		62.500000
1286		56.640625
1287		60.546875
1288		56.640625
1289		60.546875
1290		54.687500
1291		58.593750
1292		52.734375
1293		56.640625
1294		50.781250
1295		56.640625
1296		48.828125
1297		52.734375
1298		46.875000
1299		52.734375
1300		46.875000
1301		48.828125
1302		42.968750
1303		46.875000
1304		41.015625
1305		44.921875
1306		39.062500
1307		42.968750
1308		37.109375
1309		41.015625
1310		33.203125
1311		39.062500
1312		31.250000
1313		37.109375
1314		29.296875
1315		33.203125
1316		27.343750
1317		31.250000
1318		23.437500
1319		29.296875
1320		21.484375
1321		25.390625
1322		17.578125
1323		23.437500
1324		15.625000
1325		19.531250
1326		13.671875
1327		17.578125
1328		9.765625
1329		15.625000
1330		5.859375
1331		11.718750
1332		3.906250
1333		7.812500
1334		1.953125
1335		5.859375
1336		-1.953125
1337		1.953125
1338		-5.859375
1339		0.000000
1340		-7.812500
1341		-1.953125
1342		-9.765625
1343		-5.859375
1344		-13.671875
1345		-7.812500
1346		-15.625000
1347		-11.718750
1348		-19.531250
1349		-13.671875
1350		-21.484375
1351		-15.625000
1352		-23.437500
1353		-19.531250
1354		-25.390625
1355		-21.484375
1356		-27.343750
1357		-23.437500
1358		-31.250000
1359		-25.390625
1360		-33.203125
1361		-29.296875
1362		-33.203125
1363		-31.250000
1364		-35.156250
1365		-31.250000
1366		-39.062500
1367		-35.156250
1368		-39.062500
1369		-37.109375
1370		-41.015625
1371		-37.109375
1372		-42.968750
1373		-39.062500
1374		-44.921875
1375		-41.015625
1376		-44.921875
1377		-42.968750
1378		-46.875000
1379		-42.968750
1380		-46.875000
1381		-44.921875
1382		-48.828125
1383		-44.921875
1384		-48.828125
1385		-44.921875
1386		-50.781250
1387		-44.921875
1388		-48.828125
1389		-46.875000
1390		-50.781250
1391		-46.875000
1392		-48.828125
1393		-46.875000
1394		-48.828125
1395		-44.921875
1396		-48.828125
1397		-46.875000
1398		-48.828125
1399		-44.921875
1400		-48.828125
1401		-44.921875
1402		-48.828125
1403		-42.968750
1404		-46.875000
1405		-42.968750
1406		-46.875000
1407		-42.968750
1408		-44.921875
1409		-41.015625
1410		-42.968750
1411		-41.015625
1412		-41.015625
1413		-39.062500
1414		-41.015625
1415		-37.109375
1416		-39.062500
1417		-35.156250
1418		-37.109375
1419		-33.203125
1420		-35.156250
1421		-31.250000
1422		-33.203125
1423		-29.296875
1424		-31.250000
1425		-27.343750
1426		-29.296875
1427		-25.390625
1428		-27.343750
1429		-21.484375
1430		-27.343750
1431		-19.531250
1432		-23.437500
1433		-17.578125
1434		-19.531250
1435		-13.671875
1436		-17.578125
1437		-11.718750
1438		-13.671875
1439		-9.765625
1440		-11.718750
1441		-7.812500
1442		-9.765625
1443		-3.906250
1444		-5.859375
1445		0.000000
1446		-5.859375
1447		3.906250
1448		-1.953125
1449		5.859375
1450		1.953125
1451		7.812500
1452		5.859375
1453		11.718750
1454		7.812500
1455		13.671875
1456		11.718750
1457		17.578125
1458		13.671875
1459		17.578125
1460		17.578125
1461		21.484375
1462		17.578125
1463		25.390625
1464		19.531250
1465		27.343750
1466		23.437500
1467		29.296875
1468		27.343750
1469		31.250000
1470		29.296875
1471		35.156250
1472		31.250000
1473		37.109375
1474		35.156250
1475		39.062500
1476		37.109375
1477		41.015625
1478		41.015625
1479		46.875000
1480		41.015625
1481		48.828125
1482		42.968750
1483		50.781250
1484		46.875000
1485		50.781250
1486		48.828125
1487		52.734375
1488		48.828125
1489		56.640625
1490		48.828125
1491		56.640625
1492		54.687500
1493		56.640625
1494		56.640625
1495		58.593750
1496		54.687500
1497		62.500000
1498		56.640625
1499		64.453125
1500		56.640625
1501		64.453125
1502		58.593750
1503		66.406250
1504		60.546875
1505		66.406250
1506		60.546875
1507		68.359375
1508		62.500000
1509		68.359375
1510		64.453125
1511		66.406250
1512		62.500000
1513		70.312500
1514		62.500000
1515		70.312500
1516		62.500000
1517		70.312500
1518		64.453125
1519		70.312500
1520		62.500000
1521		70.312500
1522		62.500000
1523		70.312500
1524		62.500000
1525		70.312500
1526		64.453125
1527		66.406250
1528		64.453125
1529		66.406250
1530		60.546875
1531		68.359375
1532		60.546875
1533		66.406250
1534		58.593750
1535		66.406250
1536		58.593750
1537		64.453125
1538		56.640625
1539		64.453125
1540		54.687500
1541		62.500000
1542		56.640625
1543		58.593750
1544		54.687500
1545		58.593750
1546		50.781250
1547		58.593750
1548		46.875000
1549		56.640625
1550		46.875000
1551		54.687500
1552		44.921875
1553		52.734375
1554		42.968750
1555		50.781250
1556		41.015625
1557		48.828125
1558		39.062500
1559		46.875000
1560		39.062500
1561		42.968750
1562		35.156250
1563		39.062500
1564		31.250000
1565		39.062500
1566		29.296875
1567		37.109375
1568		25.390625
1569		33.203125
1570		23.437500
1571		31.250000
1572		19.531250
1573		29.296875
1574		19.531250
1575		27.343750
1576		17.578125
1577		21.484375
1578		13.671875
1579		19.531250
1580		7.812500
1581		17.578125
1582		5.859375
1583		13.671875
1584		3.906250
1585		11.718750
1586		1.953125
1587		9.765625
1588		-1.953125
1589		7.812500
1590		-3.906250
1591		3.906250
1592		-5.859375
1593		0.000000
1594		-7.812500
1595		-3.906250
1596		-13.671875
1597		-5.859375
1598		-15.625000
1599		-7.812500
1600		-19.531250
1601		-9.765625
1602		-21.484375
1603		-13.671875
1604		-23.437500
1605		-15.625000
1606		-25.390625
1607		-17.578125
1608		-27.343750
1609		-19.531250
1610		-29.296875
1611		-25.390625
1612		-31.250000
1613		-27.343750
1614		-35.156250
1615		-27.343750
1616		-37.109375
1617		-29.296875
1618		-39.062500
1619		-31.250000
1620		-41.015625
1621		-33.203125
1622		-41.015625
1623		-35.156250
1624		-44.921875
1625		-37.109375
1626		-42.968750
1627		-39.062500
1628		-44.921875
1629		-41.015625
1630		-48.828125
1631		-41.015625
1632		-48.828125
1633		-41.015625
1634		-48.828125
1635		-42.968750
1636		-50.781250
1637		-42.968750
1638		-50.781250
1639		-44.921875
1640		-50.781250
1641		-44.921875
1642		-50.781250
1643		-44.921875
1644		-48.828125
1645		-46.875000
1646		-50.781250
1647		-44.921875
1648		-52.734375
1649		-44.921875
1650		-50.781250
1651		-44.921875
1652		-50.781250
1653		-42.968750
1654		-50.781250
1655		-42.968750
1656		-50.781250
1657		-42.968750
1658		-48.828125
1659		-41.015625
1660		-44.921875
1661		-42.968750
1662		-44.921875
1663		-41.015625
1664		-44.921875
1665		-37.109375
1666		-42.968750
1667		-35.156250
1668		-41.015625
1669		-33.203125
1670		-41.015625
1671		-33.203125
1672		-39.062500
1673		-31.250000
1674		-37.109375
1675		-29.296875
1676		-35.156250
1677		-29.296875
1678		-31.250000
1679		-27.343750
1680		-29.296875
1681		-21.484375
1682		-27.343750
1683		-19.531250
1684		-25.390625
1685		-17.578125
1686		-23.437500
1687		-15.625000
1688		-19.531250
1689		-11.718750
1690		-17.578125
1691		-9.765625
1692		-15.625000
1693		-7.812500
1694		-9.765625
1695		-5.859375
1696		-7.812500
1697		-3.906250
1698		-7.812500
1699		1.953125
1700		-3.906250
1701		3.906250
1702		-1.953125
1703		7.812500
1704		1.953125
1705		9.765625
1706		3.906250
1707		11.718750
1708		7.812500
1709		15.625000
1710		11.718750
1711		15.625000
1712		15.625000
1713		19.531250
1714		15.625000
1715		23.437500
1716		19.531250
1717		27.343750
1718		21.484375
1719		29.296875
1720		23.437500
1721		31.250000
1722		27.343750
1723		35.156250
1724		29.296875
1725		37.109375
1726		31.250000
1727		39.062500
1728		37.109375
1729		41.015625
1730		39.062500
1731		44.921875
1732		39.062500
1733		46.875000
1734		41.015625
1735		48.828125
1736		42.968750
1737		50.781250
1738		44.921875
1739		52.734375
1740		46.875000
1741		54.687500
1742		48.828125
1743		56.640625
1744		52.734375
1745		56.640625
1746		54.687500
1747		58.593750
1748		54.687500
1749		62.500000
1750		54.687500
1751		62.500000
1752		56.640625
1753		64.453125
1754		58.593750
1755		66.406250
1756		58.593750
1757		66.406250
1758		60.546875
1759		66.406250
1760		60.546875
1761		66.406250
1762		64.453125
1763		66.406250
1764		62.500000
1765		68.359375
1766		62.500000
1767		70.312500
1768		62.500000
1769		70.312500
1770		62.500000
1771		70.312500
1772		62.500000
1773		70.312500
1774		62.500000
1775		70.312500
1776		62.500000
1777		70.312500
1778		64.453125
1779		68.359375
1780		64.453125
1781		66.406250
1782		62.500000
1783		68.359375
1784		60.546875
1785		66.406250
1786		60.546875
1787		66.406250
1788		58.593750
1789		64.453125
1790		58.593750
1791		64.453125
1792		56.640625
1793		62.500000
1794		56.640625
1795		60.546875
1796		56.640625
1797		58.593750
1798		50.781250
1799		58.593750
1800		50.781250
1801		58.593750
1802		46.875000
1803		56.640625
1804		46.875000
1805		54.687500
1806		44.921875
1807		52.734375
1808		42.968750
1809		50.781250
1810		41.015625
1811		48.828125
1812		39.062500
1813		44.921875
1814		35.156250
1815		42.968750
1816		33.203125
1817		41.015625
1818		29.296875
1819		39.062500
1820		27.343750
1821		35.156250
1822		25.390625
1823		33.203125
1824		21.484375
1825		31.250000
1826		19.531250
1827		29.296875
1828		19.531250
1829		23.437500
1830		17.578125
1831		21.484375
1832		11.718750
1833		19.531250
1834		9.765625
1835		17.578125
1836		5.859375
1837		13.671875
1838		1.953125
1839		11.718750
1840		0.000000
1841		7.812500
1842		-1.953125
1843		5.859375
1844		-3.906250
1845		1.953125
1846		-5.859375
1847		-1.953125
1848		-11.718750
1849		-3.906250
1850		-13.671875
1851		-5.859375
1852		-17.578125
1853		-7.812500
1854		-19.531250
1855		-9.765625
1856		-21.484375
1857		-13.671875
1858		-25.390625
1859		-15.625000
1860		-27.343750
1861		-19.531250
1862		-27.343750
1863		-23.437500
1864		-29.296875
1865		-25.390625
1866		-33.203125
1867		-25.390625
1868		-35.156250
1869		-27.343750
1870		-39.062500
1871		-29.296875
1872		-39.062500
1873		-31.250000
1874		-41.015625
1875		-33.203125
1876		-42.968750
1877		-35.156250
1878		-42.968750
1879		-39.062500
1880		-42.968750
1881		-41.015625
1882		-46.875000
1883		-41.015625
1884		-46.875000
1885		-41.015625
1886		-48.828125
1887		-41.015625
1888		-50.781250
1889		-42.968750
1890		-50.781250
1891		-42.968750
1892		-50.781250
1893		-42.968750
1894		-50.781250
1895		-44.921875
1896		-48.828125
1897		-46.875000
1898		-52.734375
1899		-44.921875
1900		-50.781250
1901		-44.921875
1902		-50.781250
1903		-44.921875
1904		-50.781250
1905		-42.968750
1906		-50.781250
1907		-42.968750
1908		-48.828125
1909		-42.968750
1910		-48.828125
1911		-42.968750
1912		-44.921875
1913		-42.968750
1914		-44.921875
1915		-42.968750
1916		-44.921875
1917		-39.062500
1918		-44.921875
1919		-37.109375
1920		-42.968750
1921		-35.156250
1922		-41.015625
1923		-33.203125
1924		-39.062500
1925		-31.250000
1926		-39.062500
1927		-29.296875
1928		-35.156250
1929		-29.296875
1930		-31.250000
1931		-27.343750
1932		-31.250000
1933		-23.437500
1934		-29.296875
1935		-21.484375
1936		-27.343750
1937		-19.531250
1938		-25.390625
1939		-15.625000
1940		-21.484375
1941		-13.671875
1942		-19.531250
1943		-11.718750
1944		-15.625000
1945		-9.765625
1946		-11.718750
1947		-7.812500
1948		-9.765625
1949		-5.859375
1950		-7.812500
1951		0.000000
1952		-5.859375
1953		1.953125
1954		-3.906250
1955		5.859375
1956		0.000000
1957		7.812500
1958		1.953125
1959		11.718750
1960		5.859375
1961		13.671875
1962		9.765625
1963		13.671875
1964		13.671875
1965		17.578125
1966		13.671875
1967		21.484375
1968		15.625000
1969		25.390625
1970		19.531250
1971		27.343750
1972		21.484375
1973		31.250000
1974		25.390625
1975		33.203125
1976		27.343750
1977		35.156250
1978		29.296875
1979		37.109375
1980		35.156250
1981		39.062500
1982		37.109375
1983		42.968750
1984		37.109375
1985		44.921875
1986		39.062500
1987		46.875000
1988		41.015625
1989		50.781250
1990		44.921875
1991		50.781250
1992		44.921875
1993		52.734375
1994		46.875000
1995		54.687500
1996		52.734375
1997		54.687500
1998		54.687500
1999		56.640625
2000		52.734375
2001		60.546875
2002		54.687500
2003		62.500000
2004		56.640625
2005		62.500000
2006		56.640625
2007		64.453125
2008		58.593750
2009		66.406250
2010		58.593750
2011		66.406250
2012		60.546875
2013		66.406250
2014		62.500000
2015		66.406250
2016		62.500000
2017		68.359375
2018		62.500000
2019		68.359375
2020		62.500000
2021		70.312500
2022		62.500000
2023		70.312500
2024		62.500000
2025		70.312500
2026		62.500000
2027		70.312500
2028		64.453125
2029		70.312500
2030		64.453125
2031		66.406250
2032		64.453125
2033		66.406250
2034		62.500000
2035		68.359375
2036		60.546875
2037		68.359375
2038		60.546875
2039		66.406250
2040		58.593750
2041		66.406250
2042		58.593750
2043		64.453125
2044		56.640625
2045		64.453125
2046		56.640625
2047		62.500000
2048		56.640625
2049		60.546875
2050		52.734375
2051		60.546875
2052		50.781250
2053		58.593750
2054		48.828125
2055		56.640625
2056		46.875000
2057		56.640625
2058		44.921875
2059		54.687500
2060		42.968750
2061		50.781250
2062		42.968750
2063		48.828125
2064		41.015625
2065		44.921875
2066		39.062500
2067		42.968750
2068		35.156250
2069		42.968750
2070		31.250000
2071		41.015625
2072		29.296875
2073		37.109375
2074		27.343750
2075		35.156250
2076		23.437500
2077		33.203125
2078		21.484375
2079		31.250000
2080		21.484375
2081		25.390625
2082		17.578125
2083		23.437500
2084		13.671875
2085		21.484375
2086		9.765625
2087		19.531250
2088		7.812500
2089		15.625000
2090		3.906250
2091		13.671875
2092		1.953125
2093		9.765625
2094		0.000000
2095		7.812500
2096		-1.953125
2097		5.859375
2098		-3.906250
2099		0.000000
2100		-7.812500
2101		-1.953125
2102		-11.718750
2103		-3.906250
2104		-13.671875
2105		-7.812500
2106		-19.531250
2107		-9.765625
2108		-19.531250
2109		-11.718750
2110		-23.437500
2111		-13.671875
2112		-25.390625
2113		-17.578125
2114		-25.390625
2115		-21.484375
2116		-27.343750
2117		-23.437500
2118		-33.203125
2119		-23.437500
2120		-33.203125
2121		-25.390625
2122		-37.109375
2123		-29.296875
2124		-39.062500
2125		-31.250000
2126		-39.062500
2127		-33.203125
2128		-41.015625
2129		-33.203125
2130		-41.015625
2131		-35.156250
2132		-42.968750
2133		-39.062500
2134		-46.875000
2135		-39.062500
2136		-46.875000
2137		-39.062500
2138		-46.875000
2139		-41.015625
2140		-48.828125
2141		-41.015625
2142		-50.781250
2143		-42.968750
2144		-50.781250
2145		-42.968750
2146		-50.781250
2147		-44.921875
2148		-48.828125
2149		-46.875000
2150		-50.781250
2151		-46.875000
2152		-50.781250
2153		-44.921875
2154		-50.781250
2155		-44.921875
2156		-50.781250
2157		-44.921875
2158		-50.781250
2159		-44.921875
2160		-50.781250
2161		-42.968750
2162		-50.781250
2163		-42.968750
2164		-46.875000
2165		-42.968750
2166		-44.921875
2167		-42.968750
2168		-44.921875
2169		-39.062500
2170		-44.921875
2171		-37.109375
2172		-44.921875
2173		-37.109375
2174		-42.968750
2175		-35.156250
2176		-41.015625
2177		-33.203125
2178		-39.062500
2179		-31.250000
2180		-37.109375
2181		-31.250000
2182		-33.203125
2183		-29.296875
2184		-31.250000
2185		-25.390625
2186		-31.250000
2187		-23.437500
2188		-27.343750
2189		-21.484375
2190		-25.390625
2191		-17.578125
2192		-23.437500
2193		-15.625000
2194		-21.484375
2195		-13.671875
2196		-19.531250
2197		-9.765625
2198		-13.671875
2199		-9.765625
2200		-11.718750
2201		-5.859375
2202		-9.765625
2203		-1.953125
2204		-7.812500
2205		0.000000
2206		-3.906250
2207		3.906250
2208		-1.953125
2209		7.812500
2210		1.953125
2211		9.765625
2212		3.906250
2213		11.718750
2214		7.812500
2215		11.718750
2216		11.718750
2217		15.625000
2218		13.671875
2219		19.531250
2220		15.625000
2221		23.437500
2222		17.578125
2223		25.390625
2224		19.531250
2225		29.296875
2226		23.437500
2227		31.250000
2228		25.390625
2229		33.203125
2230		27.343750
2231		35.156250
2232		33.203125
2233		37.109375
2234		35.156250
2235		39.062500
2236		35.156250
2237		44.921875
2238		39.062500
2239		46.875000
2240		41.015625
2241		48.828125
2242		42.968750
2243		50.781250
2244		44.921875
2245		52.734375
2246		46.875000
2247		54.687500
2248		48.828125
2249		54.687500
2250		52.734375
2251		56.640625
2252		52.734375
2253		60.546875
2254		52.734375
2255		60.546875
2256		54.687500
2257		62.500000
2258		56.640625
2259		64.453125
2260		58.593750
2261		64.453125
2262		58.593750
2263		66.406250
2264		60.546875
2265		66.406250
2266		62.500000
2267		66.406250
2268		62.500000
2269		68.359375
2270		62.500000
2271		68.359375
2272		62.500000
2273		70.312500
2274		62.500000
2275		70.312500
2276		62.500000
2277		70.312500
2278		62.500000
2279		70.312500
2280		62.500000
2281		70.312500
2282		66.406250
2283		68.359375
2284		64.453125
2285		66.406250
2286		62.500000
2287		68.359375
2288		62.500000
2289		68.359375
2290		60.546875
2291		68.359375
2292		60.546875
2293		68.359375
2294		58.593750
2295		66.406250
2296		58.593750
2297		64.453125
2298		58.593750
2299		64.453125
2300		58.593750
2301		60.546875
2302		54.687500
2303		60.546875
2304		52.734375
2305		60.546875
2306		50.781250
2307		58.593750
2308		48.828125
2309		56.640625
2310		46.875000
2311		54.687500
2312		44.921875
2313		52.734375
2314		44.921875
2315		50.781250
2316		42.968750
2317		46.875000
2318		39.062500
2319		44.921875
2320		37.109375
2321		44.921875
2322		35.156250
2323		42.968750
2324		31.250000
2325		39.062500
2326		29.296875
2327		37.109375
2328		27.343750
2329		35.156250
2330		23.437500
2331		31.250000
2332		23.437500
2333		29.296875
2334		19.531250
2335		23.437500
2336		15.625000
2337		23.437500
2338		13.671875
2339		21.484375
2340		9.765625
2341		17.578125
2342		7.812500
2343		15.625000
2344		3.906250
2345		11.718750
2346		1.953125
2347		9.765625
2348		0.000000
2349		5.859375
2350		-1.953125
2351		1.953125
2352		-5.859375
2353		-1.953125
2354		-9.765625
2355		-1.953125
2356		-13.671875
2357		-3.906250
2358		-15.625000
2359		-7.812500
2360		-19.531250
2361		-9.765625
2362		-21.484375
2363		-13.671875
2364		-23.437500
2365		-15.625000
2366		-23.437500
2367		-19.531250
2368		-25.390625
2369		-21.484375
2370		-29.296875
2371		-23.437500
2372		-33.203125
2373		-25.390625
2374		-35.156250
2375		-27.343750
2376		-35.156250
2377		-29.296875
2378		-39.062500
2379		-31.250000
2380		-41.015625
2381		-33.203125
2382		-41.015625
2383		-35.156250
2384		-41.015625
2385		-37.109375
2386		-44.921875
2387		-39.062500
2388		-46.875000
2389		-39.062500
2390		-46.875000
2391		-41.015625
2392		-48.828125
2393		-41.015625
2394		-48.828125
2395		-41.015625
2396		-50.781250
2397		-42.968750
2398		-50.781250
2399		-42.968750
2400		-48.828125
2401		-44.921875
2402		-48.828125
2403		-46.875000
2404		-50.781250
2405		-44.921875
2406		-50.781250
2407		-44.921875
2408		-50.781250
2409		-44.921875
2410		-50.781250
2411		-42.968750
2412		-50.781250
2413		-42.968750
2414		-50.781250
2415		-42.968750
2416		-46.875000
2417		-42.968750
2418		-44.921875
2419		-42.968750
2420		-46.875000
2421		-39.062500
2422		-44.921875
2423		-39.062500
2424		-44.921875
2425		-37.109375
2426		-42.968750
2427		-35.156250
2428		-41.015625
2429		-33.203125
2430		-39.062500
2431		-33.203125
2432		-37.109375
2433		-31.250000
2434		-33.203125
2435		-29.296875
2436		-31.250000
2437		-27.343750
2438		-33.203125
2439		-23.437500
2440		-29.296875
2441		-21.484375
2442		-27.343750
2443		-19.531250
2444		-25.390625
2445		-15.625000
2446		-21.484375
2447		-13.671875
2448		-19.531250
2449		-11.718750
2450		-15.625000
2451		-11.718750
2452		-11.718750
2453		-7.812500
2454		-9.765625
2455		-3.906250
2456		-9.765625
2457		0.000000
2458		-7.812500
2459		1.953125
2460		-3.906250
2461		5.859375
2462		0.000000
2463		7.812500
2464		1.953125
2465		9.765625
2466		3.906250
2467		11.718750
2468		9.765625
2469		15.625000
2470		13.671875
2471		19.531250
2472		13.671875
2473		21.484375
2474		17.578125
2475		25.390625
2476		19.531250
2477		27.343750
2478		21.484375
2479		31.250000
2480		23.437500
2481		33.203125
2482		27.343750
2483		35.156250
2484		31.250000
2485		35.156250
2486		33.203125
2487		39.062500
2488		35.156250
2489		42.968750
2490		37.109375
2491		44.921875
2492		39.062500
2493		46.875000
2494		41.015625
2495		48.828125
2496		42.968750
2497		52.734375
2498		44.921875
2499		54.687500
2500		48.828125
2501		52.734375
2502		52.734375
2503		54.687500
2504		52.734375
2505		58.593750
2506		52.734375
2507		60.546875
2508		54.687500
2509		62.500000
2510		56.640625
2511		62.500000
2512		56.640625
2513		64.453125
2514		58.593750
2515		66.406250
2516		60.546875
2517		66.406250
2518		62.500000
2519		66.406250
2520		62.500000
2521		66.406250
2522		62.500000
2523		68.359375
2524		62.500000
2525		70.312500
2526		62.500000
2527		70.312500
2528		62.500000
2529		70.312500
2530		64.453125
2531		70.312500
2532		62.500000
2533		70.312500
2534		66.406250
2535		68.359375
2536		66.406250
2537		68.359375
2538		62.500000
2539		70.312500
2540		62.500000
2541		68.359375
2542		62.500000
2543		68.359375
2544		60.546875
2545		68.359375
2546		60.546875
2547		66.406250
2548		58.593750
2549		66.406250
2550		58.593750
2551		64.453125
2552		58.593750
2553		62.500000
2554		56.640625
2555		60.546875
2556		54.687500
2557		62.500000
2558		52.734375
2559		60.546875
2560		50.781250
2561		58.593750
2562		48.828125
2563		56.640625
2564		46.875000
2565		54.687500
2566		44.921875
2567		52.734375
2568		44.921875
2569		48.828125
2570		42.968750
2571		46.875000
2572		37.109375
2573		44.921875
2574		35.156250
2575		42.968750
2576		33.203125
2577		41.015625
2578		31.250000
2579		39.062500
2580		29.296875
2581		37.109375
2582		25.390625
2583		33.203125
2584		25.390625
2585		31.250000
2586		23.437500
2587		27.343750
2588		17.578125
2589		23.437500
2590		13.671875
2591		23.437500
2592		11.718750
2593		19.531250
2594		7.812500
2595		17.578125
2596		5.859375
2597		13.671875
2598		3.906250
2599		11.718750
2600		1.953125
2601		9.765625
2602		0.000000
2603		3.906250
2604		-3.906250
2605		1.953125
2606		-7.812500
2607		0.000000
2608		-9.765625
2609		-1.953125
2610		-13.671875
2611		-3.906250
2612		-15.625000
2613		-7.812500
2614		-17.578125
2615		-11.718750
2616		-21.484375
2617		-13.671875
2618		-21.484375
2619		-17.578125
2620		-23.437500
2621		-19.531250
2622		-29.296875
2623		-21.484375
2624		-31.250000
2625		-23.437500
2626		-33.203125
2627		-25.390625
2628		-35.156250
2629		-27.343750
2630		-37.109375
2631		-29.296875
2632		-39.062500
2633		-31.250000
2634		-39.062500
2635		-33.203125
2636		-39.062500
2637		-37.109375
2638		-42.968750
2639		-37.109375
2640		-44.921875
2641		-37.109375
2642		-46.875000
2643		-39.062500
2644		-46.875000
2645		-41.015625
2646		-48.828125
2647		-41.015625
2648		-48.828125
2649		-41.015625
2650		-48.828125
2651		-42.968750
2652		-46.875000
2653		-44.921875
2654		-48.828125
2655		-46.875000
2656		-50.781250
2657		-44.921875
2658		-50.781250
2659		-44.921875
2660		-50.781250
2661		-44.921875
2662		-50.781250
2663		-42.968750
2664		-50.781250
2665		-42.968750
2666		-48.828125
2667		-42.968750
2668		-48.828125
2669		-42.968750
2670		-44.921875
2671		-42.968750
2672		-46.875000
2673		-41.015625
2674		-46.875000
2675		-39.062500
2676		-44.921875
2677		-37.109375
2678		-42.968750
2679		-37.109375
2680		-42.968750
2681		-35.156250
2682		-41.015625
2683		-33.203125
2684		-39.062500
2685		-31.250000
2686		-35.156250
2687		-31.250000
2688		-33.203125
2689		-29.296875
2690		-33.203125
2691		-25.390625
2692		-29.296875
2693		-23.437500
2694		-27.343750
2695		-19.531250
2696		-25.390625
2697		-17.578125
2698		-23.437500
2699		-15.625000
2700		-21.484375
2701		-13.671875
2702		-17.578125
2703		-11.718750
2704		-13.671875
2705		-9.765625
2706		-11.718750
2707		-5.859375
2708		-11.718750
2709		-1.953125
2710		-7.812500
2711		0.000000
2712		-3.906250
2713		3.906250
2714		-1.953125
2715		7.812500
2716		1.953125
2717		9.765625
2718		3.906250
2719		9.765625
2720		7.812500
2721		11.718750
2722		11.718750
2723		17.578125
2724		11.718750
2725		19.531250
2726		13.671875
2727		23.437500
2728		17.578125
2729		25.390625
2730		19.531250
2731		29.296875
2732		23.437500
2733		31.250000
2734		25.390625
2735		33.203125
2736		31.250000
2737		35.156250
2738		33.203125
2739		37.109375
2740		33.203125
2741		41.015625
2742		35.156250
2743		44.921875
2744		39.062500
2745		46.875000
2746		41.015625
2747		48.828125
2748		42.968750
2749		50.781250
2750		44.921875
2751		52.734375
2752		46.875000
2753		52.734375
2754		50.781250
2755		54.687500
2756		52.734375
2757		58.593750
2758		52.734375
2759		60.546875
2760		52.734375
2761		60.546875
2762		54.687500
2763		62.500000
2764		56.640625
2765		64.453125
2766		58.593750
2767		64.453125
2768		58.593750
2769		66.406250
2770		62.500000
2771		64.453125
2772		64.453125
2773		66.406250
2774		62.500000
2775		68.359375
2776		62.500000
2777		70.312500
2778		62.500000
2779		70.312500
2780		64.453125
2781		70.312500
2782		64.453125
2783		70.312500
2784		64.453125
2785		70.312500
2786		66.406250
2787		68.359375
2788		66.406250
2789		68.359375
2790		62.500000
2791		70.312500
2792		62.500000
2793		70.312500
2794		62.500000
2795		70.312500
2796		62.500000
2797		68.359375
2798		60.546875
2799		68.359375
2800		60.546875
2801		68.359375
2802		60.546875
2803		66.406250
2804		60.546875
2805		62.500000
2806		56.640625
2807		62.500000
2808		54.687500
2809		62.500000
2810		52.734375
2811		60.546875
2812		52.734375
2813		58.593750
2814		48.828125
2815		58.593750
2816		48.828125
2817		56.640625
2818		46.875000
2819		54.687500
2820		46.875000
2821		50.781250
2822		44.921875
2823		48.828125
2824		41.015625
2825		46.875000
2826		37.109375
2827		44.921875
2828		35.156250
2829		42.968750
2830		33.203125
2831		41.015625
2832		29.296875
2833		39.062500
2834		27.343750
2835		35.156250
2836		27.343750
2837		33.203125
2838		23.437500
2839		29.296875
2840		19.531250
2841		25.390625
2842		15.625000
2843		25.390625
2844		13.671875
2845		23.437500
2846		11.718750
2847		19.531250
2848		9.765625
2849		15.625000
2850		5.859375
2851		13.671875
2852		3.906250
2853		11.718750
2854		1.953125
2855		5.859375
2856		0.000000
2857		3.906250
2858		-5.859375
2859		1.953125
2860		-7.812500
2861		0.000000
2862		-11.718750
2863		-1.953125
2864		-13.671875
2865		-5.859375
2866		-17.578125
2867		-9.765625
2868		-19.531250
2869		-11.718750
2870		-19.531250
2871		-13.671875
2872		-21.484375
2873		-17.578125
2874		-27.343750
2875		-19.531250
2876		-29.296875
2877		-21.484375
2878		-31.250000
2879		-23.437500
2880		-33.203125
2881		-25.390625
2882		-35.156250
2883		-27.343750
2884		-37.109375
2885		-29.296875
2886		-39.062500
2887		-31.250000
2888		-39.062500
2889		-35.156250
2890		-41.015625
2891		-37.109375
2892		-42.968750
2893		-37.109375
2894		-44.921875
2895		-37.109375
2896		-46.875000
2897		-39.062500
2898		-46.875000
2899		-39.062500
2900		-48.828125
2901		-41.015625
2902		-48.828125
2903		-41.015625
2904		-46.875000
2905		-44.921875
2906		-46.875000
2907		-44.921875
2908		-50.781250
2909		-42.968750
2910		-50.781250
2911		-42.968750
2912		-50.781250
2913		-42.968750
2914		-50.781250
2915		-42.968750
2916		-50.781250
2917		-42.968750
2918		-48.828125
2919		-42.968750
2920		-48.828125
2921		-42.968750
2922		-46.875000
2923		-42.968750
2924		-46.875000
2925		-41.015625
2926		-46.875000
2927		-39.062500
2928		-44.921875
2929		-39.062500
2930		-44.921875
2931		-37.109375
2932		-42.968750
2933		-35.156250
2934		-41.015625
2935		-33.203125
2936		-39.062500
2937		-33.203125
2938		-35.156250
2939		-33.203125
2940		-33.203125
2941		-31.250000
2942		-33.203125
2943		-25.390625
2944		-31.250000
2945		-23.437500
2946		-29.296875
2947		-21.484375
2948		-27.343750
2949		-19.531250
2950		-25.390625
2951		-17.578125
2952		-23.437500
2953		-13.671875
2954		-21.484375
2955		-13.671875
2956		-15.625000
2957		-11.718750
2958		-13.671875
2959		-7.812500
2960		-11.718750
2961		-3.906250
2962		-9.765625
2963		0.000000
2964		-7.812500
2965		1.953125
2966		-3.906250
2967		3.906250
2968		-1.953125
2969		7.812500
2970		1.953125
2971		7.812500
2972		5.859375
2973		11.718750
2974		9.765625
2975		15.625000
2976		9.765625
2977		19.531250
2978		13.671875
2979		21.484375
2980		15.625000
2981		23.437500
2982		19.531250
2983		27.343750
2984		21.484375
2985		29.296875
2986		23.437500
2987		31.250000
2988		29.296875
2989		33.203125
2990		31.250000
2991		35.156250
2992		33.203125
2993		41.015625
2994		35.156250
2995		42.968750
2996		37.109375
2997		44.921875
2998		39.062500
2999		46.875000
3000		41.015625
3001		48.828125
3002		42.968750
3003		50.781250
3004		44.921875
3005		52.734375
3006		48.828125
3007		52.734375
3008		50.781250
3009		56.640625
3010		52.734375
3011		58.593750
3012		52.734375
3013		60.546875
3014		54.687500
3015		62.500000
3016		56.640625
3017		64.453125
3018		56.640625
3019		64.453125
3020		58.593750
3021		66.406250
3022		60.546875
3023		64.453125
3024		62.500000
3025		66.406250
3026		62.500000
3027		68.359375
3028		62.500000
3029		70.312500
3030		62.500000
3031		70.312500
3032		64.453125
3033		70.312500
3034		62.500000
3035		70.312500
3036		64.453125
3037		70.312500
3038		64.453125
3039		70.312500
3040		66.406250
3041		68.359375
3042		64.453125
3043		70.312500
3044		62.500000
3045		70.312500
3046		62.500000
3047		70.312500
3048		62.500000
3049		68.359375
3050		62.500000
3051		68.359375
3052		60.546875
3053		68.359375
3054		60.546875
3055		66.406250
3056		60.546875
3057		64.453125
3058		58.593750
3059		62.500000
3060		56.640625
3061		64.453125
3062		54.687500
3063		62.500000
3064		52.734375
3065		60.546875
3066		50.781250
3067		58.593750
3068		50.781250
3069		56.640625
3070		48.828125
3071		54.687500
3072		48.828125
3073		52.734375
3074		46.875000
3075		48.828125
3076		41.015625
3077		48.828125
3078		39.062500
3079		46.875000
3080		37.109375
3081		44.921875
3082		35.156250
3083		42.968750
3084		33.203125
3085		41.015625
3086		29.296875
3087		37.109375
3088		27.343750
3089		35.156250
3090		27.343750
3091		31.250000
3092		21.484375
3093		27.343750
3094		19.531250
3095		27.343750
3096		15.625000
3097		23.437500
3098		13.671875
3099		21.484375
3100		9.765625
3101		19.531250
3102		7.812500
3103		15.625000
3104		5.859375
3105		13.671875
3106		3.906250
3107		7.812500
3108		0.000000
3109		5.859375
3110		-3.906250
3111		3.906250
3112		-5.859375
3113		1.953125
3114		-9.765625
3115		-1.953125
3116		-11.718750
3117		-3.906250
3118		-15.625000
3119		-5.859375
3120		-17.578125
3121		-9.765625
3122		-17.578125
3123		-11.718750
3124		-21.484375
3125		-15.625000
3126		-25.390625
3127		-17.578125
3128		-27.343750
3129		-19.531250
3130		-29.296875
3131		-21.484375
3132		-31.250000
3133		-23.437500
3134		-35.156250
3135		-25.390625
3136		-35.156250
3137		-27.343750
3138		-37.109375
3139		-29.296875
3140		-37.109375
3141		-35.156250
3142		-41.015625
3143		-35.156250
3144		-42.968750
3145		-35.156250
3146		-44.921875
3147		-37.109375
3148		-44.921875
3149		-37.109375
3150		-46.875000
3151		-39.062500
3152		-48.828125
3153		-39.062500
3154		-48.828125
3155		-41.015625
3156		-46.875000
3157		-42.968750
3158		-46.875000
3159		-44.921875
3160		-50.781250
3161		-42.968750
3162		-50.781250
3163		-42.968750
3164		-50.781250
3165		-42.968750
3166		-50.781250
3167		-42.968750
3168		-50.781250
3169		-42.968750
3170		-48.828125
3171		-42.968750
3172		-48.828125
3173		-42.968750
3174		-46.875000
3175		-44.921875
3176		-46.875000
3177		-41.015625
3178		-46.875000
3179		-41.015625
3180		-46.875000
3181		-39.062500
3182		-44.921875
3183		-37.109375
3184		-42.968750
3185		-35.156250
3186		-41.015625
3187		-35.156250
3188		-41.015625
3189		-33.203125
3190		-37.109375
3191		-31.250000
3192		-35.156250
3193		-31.250000
3194		-35.156250
3195		-27.343750
3196		-33.203125
3197		-25.390625
3198		-31.250000
3199		-23.437500
3200		-29.296875
3201		-21.484375
3202		-27.343750
3203		-17.578125
3204		-23.437500
3205		-15.625000
3206		-21.484375
3207		-15.625000
3208		-17.578125
3209		-11.718750
3210		-13.671875
3211		-7.812500
3212		-13.671875
3213		-5.859375
3214		-11.718750
3215		-1.953125
3216		-7.812500
3217		0.000000
3218		-5.859375
3219		1.953125
3220		-3.906250
3221		5.859375
3222		0.000000
3223		7.812500
3224		5.859375
3225		9.765625
3226		7.812500
3227		13.671875
3228		9.765625
3229		17.578125
3230		11.718750
3231		19.531250
3232		13.671875
3233		23.437500
3234		17.578125
3235		25.390625
3236		19.531250
3237		27.343750
3238		21.484375
3239		31.250000
3240		27.343750
3241		31.250000
3242		29.296875
3243		35.156250
3244		31.250000
3245		39.062500
3246		33.203125
3247		41.015625
3248		35.156250
3249		44.921875
3250		37.109375
3251		44.921875
3252		41.015625
3253		48.828125
3254		41.015625
3255		50.781250
3256		44.921875
3257		50.781250
3258		48.828125
3259		52.734375
3260		50.781250
3261		56.640625
3262		50.781250
3263		58.593750
3264		50.781250
3265		60.546875
3266		54.687500
3267		60.546875
3268		54.687500
3269		62.500000
3270		56.640625
3271		64.453125
3272		58.593750
3273		64.453125
3274		60.546875
3275		64.453125
3276		62.500000
3277		64.453125
3278		62.500000
3279		68.359375
3280		62.500000
3281		68.359375
3282		62.500000
3283		70.312500
3284		62.500000
3285		70.312500
3286		64.453125
3287		70.312500
3288		64.453125
3289		70.312500
3290		64.453125
3291		70.312500
3292		66.406250
3293		68.359375
3294		64.453125
3295		70.312500
3296		64.453125
3297		70.312500
3298		64.453125
3299		70.312500
3300		62.500000
3301		70.312500
3302		62.500000
3303		70.312500
3304		62.500000
3305		68.359375
3306		60.546875
3307		68.359375
3308		62.500000
3309		64.453125
3310		60.546875
3311		64.453125
3312		56.640625
3313		64.453125
3314		56.640625
3315		62.500000
3316		54.687500
3317		62.500000
3318		52.734375
3319		60.546875
3320		50.781250
3321		58.593750
3322		48.828125
3323		56.640625
3324		50.781250
3325		52.734375
3326		48.828125
3327		50.781250
3328		42.968750
3329		50.781250
3330		41.015625
3331		48.828125
3332		39.062500
3333		46.875000
3334		37.109375
3335		44.921875
3336		35.156250
3337		41.015625
3338		31.250000
3339		39.062500
3340		31.250000
3341		37.109375
3342		29.296875
3343		33.203125
3344		25.390625
3345		31.250000
3346		21.484375
3347		29.296875
3348		17.578125
3349		25.390625
3350		15.625000
3351		23.437500
3352		13.671875
3353		21.484375
3354		9.765625
3355		17.578125
3356		7.812500
3357		15.625000
3358		5.859375
3359		9.765625
3360		3.906250
3361		7.812500
3362		-1.953125
3363		5.859375
3364		-5.859375
3365		3.906250
3366		-7.812500
3367		0.000000
3368		-9.765625
3369		-1.953125
3370		-11.718750
3371		-3.906250
3372		-15.625000
3373		-7.812500
3374		-17.578125
3375		-9.765625
3376		-17.578125
3377		-13.671875
3378		-23.437500
3379		-17.578125
3380		-25.390625
3381		-17.578125
3382		-27.343750
3383		-19.531250
3384		-29.296875
3385		-21.484375
3386		-33.203125
3387		-25.390625
3388		-33.203125
3389		-25.390625
3390		-37.109375
3391		-27.343750
3392		-35.156250
3393		-33.203125
3394		-37.109375
3395		-35.156250
3396		-41.015625
3397		-33.203125
3398		-42.968750
3399		-35.156250
3400		-42.968750
3401		-37.109375
3402		-44.921875
3403		-37.109375
3404		-46.875000
3405		-39.062500
3406		-46.875000
3407		-41.015625
3408		-46.875000
3409		-42.968750
3410		-46.875000
3411		-42.968750
3412		-48.828125
3413		-42.968750
3414		-48.828125
3415		-42.968750
3416		-48.828125
3417		-42.968750
3418		-50.781250
3419		-42.968750
3420		-50.781250
3421		-42.968750
3422		-50.781250
3423		-42.968750
3424		-48.828125
3425		-42.968750
3426		-46.875000
3427		-44.921875
3428		-46.875000
3429		-41.015625
3430		-46.875000
3431		-41.015625
3432		-46.875000
3433		-39.062500
3434		-44.921875
3435		-37.109375
3436		-44.921875
3437		-35.156250
3438		-42.968750
3439		-35.156250
3440		-41.015625
3441		-33.203125
3442		-37.109375
3443		-33.203125
3444		-35.156250
3445		-31.250000
3446		-35.156250
3447		-27.343750
3448		-35.156250
3449		-27.343750
3450		-31.250000
3451		-23.437500
3452		-29.296875
3453		-21.484375
3454		-27.343750
3455		-19.531250
3456		-25.390625
3457		-17.578125
3458		-21.484375
3459		-15.625000
3460		-17.578125
3461		-13.671875
3462		-15.625000
3463		-9.765625
3464		-13.671875
3465		-7.812500
3466		-11.718750
3467		-3.906250
3468		-7.812500
3469		-1.953125
3470		-5.859375
3471		1.953125
3472		-1.953125
3473		3.906250
3474		0.000000
3475		5.859375
3476		3.906250
3477		7.812500
3478		5.859375
3479		11.718750
3480		9.765625
3481		13.671875
3482		11.718750
3483		17.578125
3484		15.625000
3485		21.484375
3486		15.625000
3487		23.437500
3488		19.531250
3489		27.343750
3490		21.484375
3491		29.296875
3492		25.390625
3493		29.296875
3494		29.296875
3495		33.203125
3496		31.250000
3497		35.156250
3498		33.203125
3499		39.062500
3500		35.156250
3501		41.015625
3502		37.109375
3503		44.921875
3504		39.062500
3505		46.875000
3506		41.015625
3507		48.828125
3508		44.921875
3509		50.781250
3510		48.828125
3511		50.781250
3512		50.781250
3513		54.687500
3514		50.781250
3515		54.687500
3516		52.734375
3517		56.640625
3518		54.687500
3519		58.593750
3520		54.687500
3521		60.546875
3522		56.640625
3523		62.500000
3524		58.593750
3525		62.500000
3526		60.546875
3527		64.453125
3528		62.500000
3529		64.453125
3530		62.500000
3531		66.406250
3532		64.453125
3533		66.406250
3534		64.453125
3535		68.359375
3536		64.453125
3537		70.312500
3538		64.453125
3539		70.312500
3540		64.453125
3541		70.312500
3542		66.406250
3543		70.312500
3544		66.406250
3545		68.359375
3546		66.406250
3547		70.312500
3548		66.406250
3549		70.312500
3550		66.406250
3551		68.359375
3552		66.406250
3553		70.312500
3554		64.453125
3555		68.359375
3556		62.500000
3557		68.359375
3558		62.500000
3559		66.406250
3560		62.500000
3561		66.406250
3562		62.500000
3563		64.453125
3564		60.546875
3565		64.453125
3566		58.593750
3567		62.500000
3568		58.593750
3569		62.500000
3570		54.687500
3571		58.593750
3572		54.687500
3573		58.593750
3574		52.734375
3575		58.593750
3576		50.781250
3577		56.640625
3578		48.828125
3579		52.734375
3580		46.875000
3581		50.781250
3582		44.921875
3583		48.828125
3584		42.968750
3585		46.875000
3586		41.015625
3587		44.921875
3588		37.109375
3589		42.968750
3590		35.156250
3591		39.062500
3592		33.203125
3593		37.109375
3594		31.250000
3595		35.156250
3596		27.343750
3597		33.203125
3598		25.390625
3599		29.296875
3600		23.437500
3601		27.343750
3602		19.531250
3603		23.437500
3604		15.625000
3605		21.484375
3606		13.671875
3607		19.531250
3608		9.765625
3609		15.625000
3610		7.812500
3611		11.718750
3612		5.859375
3613		9.765625
3614		1.953125
3615		7.812500
3616		0.000000
3617		3.906250
3618		-3.906250
3619		1.953125
3620		-5.859375
3621		-1.953125
3622		-9.765625
3623		-3.906250
3624		-11.718750
3625		-5.859375
3626		-13.671875
3627		-9.765625
3628		-15.625000
3629		-13.671875
3630		-19.531250
3631		-15.625000
3632		-21.484375
3633		-17.578125
3634		-23.437500
3635		-19.531250
3636		-27.343750
3637		-21.484375
3638		-29.296875
3639		-23.437500
3640		-31.250000
3641		-27.343750
3642		-33.203125
3643		-27.343750
3644		-35.156250
3645		-31.250000
3646		-37.109375
3647		-33.203125
3648		-39.062500
3649		-33.203125
3650		-41.015625
3651		-35.156250
3652		-41.015625
3653		-37.109375
3654		-42.968750
3655		-39.062500
3656		-42.968750
3657		-39.062500
3658		-44.921875
3659		-41.015625
3660		-44.921875
3661		-41.015625
3662		-44.921875
3663		-42.968750
3664		-46.875000
3665		-42.968750
3666		-46.875000
3667		-44.921875
3668		-46.875000
3669		-44.921875
3670		-48.828125
3671		-44.921875
3672		-48.828125
3673		-44.921875
3674		-46.875000
3675		-44.921875
3676		-48.828125
3677		-42.968750
3678		-46.875000
3679		-44.921875
3680		-46.875000
3681		-42.968750
3682		-44.921875
3683		-42.968750
3684		-44.921875
3685		-41.015625
3686		-44.921875
3687		-41.015625
3688		-42.968750
3689		-39.062500
3690		-41.015625
3691		-37.109375
3692		-41.015625
3693		-35.156250
3694		-39.062500
3695		-35.156250
3696		-37.109375
3697		-33.203125
3698		-35.156250
3699		-31.250000
3700		-33.203125
3701		-29.296875
3702		-31.250000
3703		-27.343750
3704		-29.296875
3705		-25.390625
3706		-27.343750
3707		-23.437500
3708		-25.390625
3709		-21.484375
3710		-21.484375
3711		-17.578125
3712		-19.531250
3713		-15.625000
3714		-17.578125
3715		-11.718750
3716		-15.625000
3717		-9.765625
3718		-11.718750
3719		-7.812500
3720		-9.765625
3721		-5.859375
3722		-7.812500
3723		-1.953125
3724		-3.906250
3725		0.000000
3726		-1.953125
3727		3.906250
3728		1.953125
3729		5.859375
3730		3.906250
3731		9.765625
3732		7.812500
3733		11.718750
3734		9.765625
3735		15.625000
3736		11.718750
3737		17.578125
3738		15.625000
3739		19.531250
3740		19.531250
3741		23.437500
3742		21.484375
3743		25.390625
3744		23.437500
3745		29.296875
3746		27.343750
3747		31.250000
3748		29.296875
3749		33.203125
3750		31.250000
3751		37.109375
3752		35.156250
3753		39.062500
3754		37.109375
3755		42.968750
3756		39.062500
3757		42.968750
3758		41.015625
3759		46.875000
3760		44.921875
3761		48.828125
3762		46.875000
3763		50.781250
3764		48.828125
3765		52.734375
3766		50.781250
3767		54.687500
3768		52.734375
3769		56.640625
3770		54.687500
3771		56.640625
3772		56.640625
3773		58.593750
3774		56.640625
3775		60.546875
3776		58.593750
3777		62.500000
3778		60.546875
3779		62.500000
3780		60.546875
3781		64.453125
3782		60.546875
3783		66.406250
3784		62.500000
3785		66.406250
3786		64.453125
3787		68.359375
3788		64.453125
3789		68.359375
3790		64.453125
3791		68.359375
3792		66.406250
3793		68.359375
3794		66.406250
3795		70.312500
3796		66.406250
3797		68.359375
3798		66.406250
3799		70.312500
3800		66.406250
3801		70.312500
3802		66.406250
3803		70.312500
3804		66.406250
3805		68.359375
3806		64.453125
3807		68.359375
3808		64.453125
3809		68.359375
3810		64.453125
3811		68.359375
3812		62.500000
3813		66.406250
3814		62.500000
3815		64.453125
3816		60.546875
3817		64.453125
3818		58.593750
3819		64.453125
3820		58.593750
3821		62.500000
3822		56.640625
3823		60.546875
3824		56.640625
3825		58.593750
3826		54.687500
3827		58.593750
3828		52.734375
3829		56.640625
3830		50.781250
3831		54.687500
3832		46.875000
3833		52.734375
3834		46.875000
3835		50.781250
3836		44.921875
3837		48.828125
3838		41.015625
3839		46.875000
3840		39.062500
3841		42.968750
3842		37.109375
3843		41.015625
3844		35.156250
3845		39.062500
3846		33.203125
3847		37.109375
3848		27.343750
3849		33.203125
3850		27.343750
3851		33.203125
3852		23.437500
3853		29.296875
3854		21.484375
3855		25.390625
3856		19.531250
3857		23.437500
3858		15.625000
3859		19.531250
3860		11.718750
3861		17.578125
3862		9.765625
3863		13.671875
3864		7.812500
3865		11.718750
3866		3.906250
3867		9.765625
3868		1.953125
3869		5.859375
3870		-1.953125
3871		3.906250
3872		-3.906250
3873		0.000000
3874		-7.812500
3875		-1.953125
3876		-9.765625
3877		-5.859375
3878		-11.718750
3879		-7.812500
3880		-15.625000
3881		-11.718750
3882		-17.578125
3883		-13.671875
3884		-19.531250
3885		-15.625000
3886		-23.437500
3887		-17.578125
3888		-25.390625
3889		-21.484375
3890		-27.343750
3891		-23.437500
3892		-29.296875
3893		-25.390625
3894		-33.203125
3895		-27.343750
3896		-33.203125
3897		-29.296875
3898		-35.156250
3899		-31.250000
3900		-37.109375
3901		-33.203125
3902		-39.062500
3903		-35.156250
3904		-41.015625
3905		-37.109375
3906		-42.968750
3907		-39.062500
3908		-42.968750
3909		-39.062500
3910		-44.921875
3911		-39.062500
3912		-44.921875
3913		-41.015625
3914		-44.921875
3915		-42.968750
3916		-46.875000
3917		-42.968750
3918		-46.875000
3919		-44.921875
3920		-46.875000
3921		-44.921875
3922		-48.828125
3923		-42.968750
3924		-46.875000
3925		-44.921875
3926		-46.875000
3927		-44.921875
3928		-48.828125
3929		-44.921875
3930		-46.875000
3931		-44.921875
3932		-46.875000
3933		-44.921875
3934		-46.875000
3935		-42.968750
3936		-46.875000
3937		-42.968750
3938		-44.921875
3939		-41.015625
3940		-42.968750
3941		-39.062500
3942		-42.968750
3943		-39.062500
3944		-41.015625
3945		-37.109375
3946		-39.062500
3947		-37.109375
3948		-37.109375
3949		-35.156250
3950		-35.156250
3951		-33.203125
3952		-35.156250
3953		-31.250000
3954		-33.203125
3955		-27.343750
3956		-31.250000
3957		-25.390625
3958		-27.343750
3959		-23.437500
3960		-25.390625
3961		-21.484375
3962		-25.390625
3963		-19.531250
3964		-21.484375
3965		-17.578125
3966		-17.578125
3967		-13.671875
3968		-15.625000
3969		-11.718750
3970		-13.671875
3971		-9.765625
3972		-11.718750
3973		-5.859375
3974		-7.812500
3975		-3.906250
3976		-5.859375
3977		-1.953125
3978		-3.906250
3979		3.906250
3980		0.000000
3981		3.906250
3982		1.953125
3983		7.812500
3984		5.859375
3985		9.765625
3986		7.812500
3987		13.671875
3988		11.718750
3989		15.625000
3990		13.671875
3991		19.531250
3992		17.578125
3993		21.484375
3994		19.531250
3995		23.437500
3996		21.484375
3997		27.343750
3998		25.390625
3999		29.296875
4000		27.343750
4001		33.203125
4002		31.250000
4003		35.156250
4004		33.203125
4005		37.109375
4006		35.156250
4007		39.062500
4008		37.109375
4009		42.968750
4010		41.015625
4011		44.921875
4012		42.968750
4013		46.875000
4014		44.921875
4015		48.828125
4016		46.875000
4017		50.781250
4018		48.828125
4019		52.734375
4020		50.781250
4021		54.687500
4022		52.734375
4023		56.640625
4024		54.687500
4025		58.593750
4026		56.640625
4027		60.546875
4028		58.593750
4029		62.500000
4030		58.593750
4031		62.500000
4032		60.546875
4033		64.453125
4034		60.546875
4035		64.453125
4036		62.500000
4037		66.406250
4038		64.453125
4039		66.406250
4040		64.453125
4041		68.359375
4042		64.453125
4043		68.359375
4044		66.406250
4045		68.359375
4046		66.406250
4047		70.312500
4048		66.406250
4049		68.359375
4050		66.406250
4051		70.312500
4052		66.406250
4053		70.312500
4054		66.406250
4055		70.312500
4056		66.406250
4057		70.312500
4058		66.406250
4059		68.359375
4060		64.453125
4061		68.359375
4062		64.453125
4063		68.359375
4064		64.453125
4065		66.406250
4066		64.453125
4067		66.406250
4068		62.500000
4069		66.406250
4070		60.546875
4071		64.453125
4072		60.546875
4073		64.453125
4074		58.593750
4075		62.500000
4076		56.640625
4077		60.546875
4078		54.687500
4079		58.593750
4080		54.687500
4081		58.593750
4082		52.734375
4083		54.687500
4084		48.828125
4085		52.734375
4086		48.828125
4087		52.734375
4088		44.921875
4089		50.781250
4090		42.968750
4091		46.875000
4092		41.015625
4093		46.875000
4094		39.062500
4095		42.968750
4096		37.109375
4097		41.015625
4098		35.156250
4099		39.062500
4100		31.250000
4101		35.156250
4102		29.296875
4103		33.203125
4104		25.390625
4105		31.250000
4106		23.437500
4107		27.343750
4108		19.531250
4109		25.390625
4110		17.578125
4111		21.484375
4112		15.625000
4113		19.531250
4114		11.718750
4115		17.578125
4116		9.765625
4117		13.671875
4118		5.859375
4119		11.718750
4120		3.906250
4121		7.812500
4122		0.000000
4123		5.859375
4124		-3.906250
4125		3.906250
4126		-3.906250
4127		0.000000
4128		-7.812500
4129		-1.953125
4130		-9.765625
4131		-5.859375
4132		-13.671875
4133		-9.765625
4134		-15.625000
4135		-11.718750
4136		-17.578125
4137		-13.671875
4138		-21.484375
4139		-15.625000
4140		-23.437500
4141		-19.531250
4142		-25.390625
4143		-21.484375
4144		-27.343750
4145		-23.437500
4146		-31.250000
4147		-25.390625
4148		-31.250000
4149		-27.343750
4150		-33.203125
4151		-31.250000
4152		-35.156250
4153		-31.250000
4154		-37.109375
4155		-33.203125
4156		-39.062500
4157		-35.156250
4158		-41.015625
4159		-37.109375
4160		-42.968750
4161		-39.062500
4162		-42.968750
4163		-39.062500
4164		-44.921875
4165		-39.062500
4166		-44.921875
4167		-41.015625
4168		-44.921875
4169		-42.968750
4170		-46.875000
4171		-42.968750
4172		-46.875000
4173		-42.968750
4174		-46.875000
4175		-44.921875
4176		-46.875000
4177		-44.921875
4178		-46.875000
4179		-44.921875
4180		-46.875000
4181		-42.968750
4182		-46.875000
4183		-44.921875
4184		-46.875000
4185		-44.921875
4186		-46.875000
4187		-42.968750
4188		-46.875000
4189		-42.968750
4190		-44.921875
4191		-41.015625
4192		-42.968750
4193		-39.062500
4194		-42.968750
4195		-39.062500
4196		-41.015625
4197		-37.109375
4198		-39.062500
4199		-37.109375
4200		-39.062500
4201		-35.156250
4202		-37.109375
4203		-33.203125
4204		-35.156250
4205		-31.250000
4206		-33.203125
4207		-29.296875
4208		-31.250000
4209		-27.343750
4210		-29.296875
4211		-25.390625
4212		-27.343750
4213		-23.437500
4214		-25.390625
4215		-21.484375
4216		-21.484375
4217		-19.531250
4218		-19.531250
4219		-15.625000
4220		-17.578125
4221		-13.671875
4222		-15.625000
4223		-11.718750
4224		-13.671875
4225		-7.812500
4226		-9.765625
4227		-3.906250
4228		-7.812500
4229		-1.953125
4230		-3.906250
4231		1.953125
4232		-1.953125
4233		1.953125
4234		1.953125
4235		5.859375
4236		3.906250
4237		9.765625
4238		5.859375
4239		11.718750
4240		9.765625
4241		15.625000
4242		11.718750
4243		17.578125
4244		15.625000
4245		19.531250
4246		17.578125
4247		23.437500
4248		21.484375
4249		25.390625
4250		23.437500
4251		27.343750
4252		27.343750
4253		31.250000
4254		29.296875
4255		33.203125
4256		31.250000
4257		37.109375
4258		35.156250
4259		39.062500
4260		37.109375
4261		41.015625
4262		39.062500
4263		42.968750
4264		41.015625
4265		44.921875
4266		42.968750
4267		46.875000
4268		46.875000
4269		48.828125
4270		46.875000
4271		52.734375
4272		50.781250
4273		54.687500
4274		52.734375
4275		56.640625
4276		54.687500
4277		56.640625
4278		54.687500
4279		58.593750
4280		56.640625
4281		60.546875
4282		56.640625
4283		62.500000
4284		60.546875
4285		62.500000
4286		60.546875
4287		64.453125
4288		62.500000
4289		66.406250
4290		64.453125
4291		66.406250
4292		64.453125
4293		66.406250
4294		64.453125
4295		68.359375
4296		64.453125
4297		68.359375
4298		64.453125
4299		70.312500
4300		66.406250
4301		68.359375
4302		66.406250
4303		70.312500
4304		68.359375
4305		70.312500
4306		66.406250
4307		70.312500
4308		66.406250
4309		70.312500
4310		66.406250
4311		68.359375
4312		66.406250
4313		68.359375
4314		66.406250
4315		68.359375
4316		64.453125
4317		68.359375
4318		64.453125
4319		66.406250
4320		62.500000
4321		66.406250
4322		62.500000
4323		64.453125
4324		60.546875
4325		64.453125
4326		60.546875
4327		62.500000
4328		58.593750
4329		62.500000
4330		56.640625
4331		60.546875
4332		54.687500
4333		58.593750
4334		52.734375
4335		56.640625
4336		50.781250
4337		54.687500
4338		48.828125
4339		54.687500
4340		46.875000
4341		50.781250
4342		44.921875
4343		48.828125
4344		42.968750
4345		46.875000
4346		41.015625
4347		44.921875
4348		37.109375
4349		42.968750
4350		35.156250
4351		39.062500
4352		33.203125
4353		37.109375
4354		31.250000
4355		35.156250
4356		27.343750
4357		33.203125
4358		25.390625
4359		29.296875
4360		23.437500
4361		27.343750
4362		19.531250
4363		23.437500
4364		17.578125
4365		21.484375
4366		13.671875
4367		19.531250
4368		11.718750
4369		15.625000
4370		7.812500
4371		13.671875
4372		5.859375
4373		9.765625
4374		1.953125
4375		7.812500
4376		-1.953125
4377		3.906250
4378		-1.953125
4379		1.953125
4380		-5.859375
4381		-1.953125
4382		-7.812500
4383		-3.906250
4384		-11.718750
4385		-7.812500
4386		-15.625000
4387		-9.765625
4388		-17.578125
4389		-11.718750
4390		-19.531250
4391		-13.671875
4392		-21.484375
4393		-17.578125
4394		-23.437500
4395		-19.531250
4396		-27.343750
4397		-21.484375
4398		-29.296875
4399		-23.437500
4400		-29.296875
4401		-27.343750
4402		-31.250000
4403		-29.296875
4404		-35.156250
4405		-29.296875
4406		-37.109375
4407		-33.203125
4408		-39.062500
4409		-33.203125
4410		-39.062500
4411		-35.156250
4412		-41.015625
4413		-37.109375
4414		-42.968750
4415		-39.062500
4416		-42.968750
4417		-39.062500
4418		-42.968750
4419		-41.015625
4420		-44.921875
4421		-42.968750
4422		-46.875000
4423		-42.968750
4424		-46.875000
4425		-42.968750
4426		-46.875000
4427		-44.921875
4428		-46.875000
4429		-44.921875
4430		-46.875000
4431		-44.921875
4432		-48.828125
4433		-44.921875
4434		-46.875000
4435		-44.921875
4436		-46.875000
4437		-44.921875
4438		-46.875000
4439		-42.968750
4440		-46.875000
4441		-42.968750
4442		-46.875000
4443		-42.968750
4444		-44.921875
4445		-41.015625
4446		-42.968750
4447		-39.062500
4448		-42.968750
4449		-39.062500
4450		-41.015625
4451		-37.109375
4452		-39.062500
4453		-37.109375
4454		-37.109375
4455		-33.203125
4456		-35.156250
4457		-33.203125
4458		-35.156250
4459		-31.250000
4460		-33.203125
4461		-29.296875
4462		-31.250000
4463		-27.343750
4464		-29.296875
4465		-23.437500
4466		-25.390625
4467		-21.484375
4468		-23.437500
4469		-19.531250
4470		-21.484375
4471		-17.578125
4472		-19.531250
4473		-15.625000
4474		-17.578125
4475		-11.718750
4476		-13.671875
4477		-9.765625
4478		-11.718750
4479		-7.812500
4480		-9.765625
4481		-3.906250
4482		-5.859375
4483		0.000000
4484		-3.906250
4485		0.000000
4486		0.000000
4487		3.906250
4488		1.953125
4489		7.812500
4490		3.906250
4491		9.765625
4492		7.812500
4493		13.671875
4494		9.765625
4495		15.625000
4496		13.671875
4497		19.531250
4498		17.578125
4499		21.484375
4500		17.578125
4501		23.437500
4502		21.484375
4503		25.390625
4504		25.390625
4505		29.296875
4506		27.343750
4507		33.203125
4508		29.296875
4509		33.203125
4510		31.250000
4511		37.109375
4512		35.156250
4513		39.062500
4514		37.109375
4515		41.015625
4516		39.062500
4517		44.921875
4518		42.968750
4519		46.875000
4520		44.921875
4521		48.828125
4522		44.921875
4523		50.781250
4524		48.828125
4525		52.734375
4526		50.781250
4527		54.687500
4528		52.734375
4529		56.640625
4530		54.687500
4531		58.593750
4532		56.640625
4533		60.546875
4534		56.640625
4535		60.546875
4536		58.593750
4537		62.500000
4538		60.546875
4539		64.453125
4540		62.500000
4541		64.453125
4542		60.546875
4543		66.406250
4544		62.500000
4545		66.406250
4546		64.453125
4547		68.359375
4548		64.453125
4549		68.359375
4550		66.406250
4551		68.359375
4552		66.406250
4553		68.359375
4554		66.406250
4555		68.359375
4556		66.406250
4557		70.312500
4558		66.406250
4559		70.312500
4560		66.406250
4561		70.312500
4562		66.406250
4563		70.312500
4564		66.406250
4565		70.312500
4566		64.453125
4567		68.359375
4568		66.406250
4569		68.359375
4570		64.453125
4571		66.406250
4572		62.500000
4573		66.406250
4574		62.500000
4575		66.406250
4576		60.546875
4577		64.453125
4578		60.546875
4579		64.453125
4580		58.593750
4581		62.500000
4582		58.593750
4583		60.546875
4584		54.687500
4585		60.546875
4586		54.687500
4587		58.593750
4588		52.734375
4589		56.640625
4590		50.781250
4591		54.687500
4592		48.828125
4593		52.734375
4594		46.875000
4595		50.781250
4596		42.968750
4597		48.828125
4598		42.968750
4599		46.875000
4600		39.062500
4601		44.921875
4602		37.109375
4603		41.015625
4604		35.156250
4605		39.062500
4606		33.203125
4607		37.109375
4608		29.296875
4609		35.156250
4610		27.343750
4611		31.250000
4612		23.437500
4613		29.296875
4614		21.484375
4615		25.390625
4616		17.578125
4617		23.437500
4618		15.625000
4619		21.484375
4620		13.671875
4621		17.578125
4622		9.765625
4623		13.671875
4624		7.812500
4625		11.718750
4626		3.906250
4627		9.765625
4628		1.953125
4629		5.859375
4630		-1.953125
4631		3.906250
4632		-3.906250
4633		0.000000
4634		-7.812500
4635		-1.953125
4636		-9.765625
4637		-5.859375
4638		-11.718750
4639		-7.812500
4640		-15.625000
4641		-9.765625
4642		-17.578125
4643		-11.718750
4644		-19.531250
4645		-15.625000
4646		-23.437500
4647		-17.578125
4648		-25.390625
4649		-21.484375
4650		-27.343750
4651		-23.437500
4652		-29.296875
4653		-25.390625
4654		-31.250000
4655		-27.343750
4656		-33.203125
4657		-29.296875
4658		-35.156250
4659		-31.250000
4660		-37.109375
4661		-33.203125
4662		-39.062500
4663		-35.156250
4664		-39.062500
4665		-35.156250
4666		-41.015625
4667		-37.109375
4668		-42.968750
4669		-39.062500
4670		-42.968750
4671		-41.015625
4672		-44.921875
4673		-41.015625
4674		-44.921875
4675		-42.968750
4676		-46.875000
4677		-42.968750
4678		-46.875000
4679		-42.968750
4680		-46.875000
4681		-42.968750
4682		-46.875000
4683		-44.921875
4684		-46.875000
4685		-44.921875
4686		-46.875000
4687		-44.921875
4688		-46.875000
4689		-44.921875
4690		-46.875000
4691		-42.968750
4692		-46.875000
4693		-42.968750
4694		-46.875000
4695		-41.015625
4696		-44.921875
4697		-41.015625
4698		-42.968750
4699		-41.015625
4700		-42.968750
4701		-39.062500
4702		-42.968750
4703		-39.062500
4704		-41.015625
4705		-37.109375
4706		-39.062500
4707		-35.156250
4708		-37.109375
4709		-33.203125
4710		-35.156250
4711		-31.250000
4712		-33.203125
4713		-31.250000
4714		-33.203125
4715		-27.343750
4716		-31.250000
4717		-25.390625
4718		-27.343750
4719		-23.437500
4720		-25.390625
4721		-21.484375
4722		-23.437500
4723		-19.531250
4724		-21.484375
4725		-17.578125
4726		-19.531250
4727		-13.671875
4728		-15.625000
4729		-11.718750
4730		-13.671875
4731		-9.765625
4732		-11.718750
4733		-5.859375
4734		-9.765625
4735		-3.906250
4736		-5.859375
4737		-1.953125
4738		-1.953125
4739		1.953125
4740		0.000000
4741		3.906250
4742		3.906250
4743		7.812500
4744		5.859375
4745		9.765625
4746		7.812500
4747		13.671875
4748		11.718750
4749		15.625000
4750		13.671875
4751		19.531250
4752		17.578125
4753		21.484375
4754		19.531250
4755		25.390625
4756		23.437500
4757		27.343750
4758		25.390625
4759		29.296875
4760		27.343750
4761		31.250000
4762		31.250000
4763		35.156250
4764		33.203125
4765		37.109375
4766		35.156250
4767		41.015625
4768		37.109375
4769		42.968750
4770		41.015625
4771		44.921875
4772		42.968750
4773		46.875000
4774		44.921875
4775		48.828125
4776		46.875000
4777		50.781250
4778		48.828125
4779		52.734375
4780		50.781250
4781		54.687500
4782		52.734375
4783		56.640625
4784		54.687500
4785		58.593750
4786		54.687500
4787		60.546875
4788		58.593750
4789		60.546875
4790		58.593750
4791		62.500000
4792		60.546875
4793		64.453125
4794		62.500000
4795		66.406250
4796		62.500000
4797		66.406250
4798		62.500000
4799		66.406250
4800		64.453125
4801		68.359375
4802		64.453125
4803		68.359375
4804		66.406250
4805		68.359375
4806		66.406250
4807		68.359375
4808		66.406250
4809		70.312500
4810		66.406250
4811		70.312500
4812		66.406250
4813		70.312500
4814		66.406250
4815		70.312500
4816		66.406250
4817		70.312500
4818		66.406250
4819		68.359375
4820		64.453125
4821		68.359375
4822		64.453125
4823		68.359375
4824		64.453125
4825		66.406250
4826		62.500000
4827		66.406250
4828		62.500000
4829		64.453125
4830		60.546875
4831		64.453125
4832		60.546875
4833		62.500000
4834		58.593750
4835		62.500000
4836		56.640625
4837		60.546875
4838		54.687500
4839		58.593750
4840		52.734375
4841		56.640625
4842		50.781250
4843		54.687500
4844		50.781250
4845		52.734375
4846		48.828125
4847		52.734375
4848		44.921875
4849		48.828125
4850		42.968750
4851		48.828125
4852		41.015625
4853		44.921875
4854		39.062500
4855		42.968750
4856		37.109375
4857		41.015625
4858		33.203125
4859		39.062500
4860		31.250000
4861		35.156250
4862		27.343750
4863		33.203125
4864		25.390625
4865		29.296875
4866		23.437500
4867		27.343750
4868		21.484375
4869		25.390625
4870		17.578125
4871		23.437500
4872		13.671875
4873		19.531250
4874		11.718750
4875		15.625000
4876		7.812500
4877		13.671875
4878		5.859375
4879		11.718750
4880		3.906250
4881		7.812500
4882		0.000000
4883		5.859375
4884		-1.953125
4885		1.953125
4886		-5.859375
4887		0.000000
4888		-7.812500
4889		-3.906250
4890		-9.765625
4891		-5.859375
4892		-13.671875
4893		-7.812500
4894		-15.625000
4895		-11.718750
4896		-17.578125
4897		-13.671875
4898		-21.484375
4899		-17.578125
4900		-23.437500
4901		-19.531250
4902		-25.390625
4903		-21.484375
4904		-27.343750
4905		-23.437500
4906		-29.296875
4907		-25.390625
4908		-31.250000
4909		-27.343750
4910		-33.203125
4911		-29.296875
4912		-35.156250
4913		-31.250000
4914		-37.109375
4915		-33.203125
4916		-39.062500
4917		-35.156250
4918		-41.015625
4919		-37.109375
4920		-42.968750
4921		-37.109375
4922		-42.968750
4923		-39.062500
4924		-42.968750
4925		-41.015625
4926		-44.921875
4927		-41.015625
4928		-44.921875
4929		-42.968750
4930		-46.875000
4931		-42.968750
4932		-46.875000
4933		-42.968750
4934		-46.875000
4935		-42.968750
4936		-48.828125
4937		-42.968750
4938		-46.875000
4939		-44.921875
4940		-46.875000
4941		-44.921875
4942		-48.828125
4943		-42.968750
4944		-46.875000
4945		-42.968750
4946		-46.875000
4947		-42.968750
4948		-44.921875
4949		-42.968750
4950		-44.921875
4951		-41.015625
4952		-42.968750
4953		-39.062500
4954		-42.968750
4955		-39.062500
4956		-41.015625
4957		-37.109375
4958		-39.062500
4959		-35.156250
4960		-39.062500
4961		-35.156250
4962		-37.109375
4963		-33.203125
4964		-35.156250
4965		-31.250000
4966		-33.203125
4967		-29.296875
4968		-31.250000
4969		-27.343750
4970		-29.296875
4971		-25.390625
4972		-27.343750
4973		-23.437500
4974		-25.390625
4975		-21.484375
4976		-23.437500
4977		-17.578125
4978		-19.531250
4979		-15.625000
4980		-17.578125
4981		-13.671875
4982		-15.625000
4983		-11.718750
4984		-11.718750
4985		-7.812500
4986		-9.765625
4987		-5.859375
4988		-7.812500
4989		-1.953125
4990		-5.859375
4991		0.000000
4992		-1.953125
4993		1.953125
4994		1.953125
4995		5.859375
4996		3.906250
4997		9.765625
4998		5.859375
4999		11.718750
5000		9.765625
5001		13.671875
5002		11.718750
5003		17.578125
5004		15.625000
5005		19.531250
5006		17.578125
5007		23.437500
5008		21.484375
5009		27.343750
5010		23.437500
5011		29.296875
5012		25.390625
5013		31.250000
5014		29.296875
5015		33.203125
5016		31.250000
5017		37.109375
5018		35.156250
5019		39.062500
5020		37.109375
5021		41.015625
5022		39.062500
5023		42.968750
5024		41.015625
5025		44.921875
5026		42.968750
5027		48.828125
5028		44.921875
5029		50.781250
5030		48.828125
5031		52.734375
5032		50.781250
5033		54.687500
5034		52.734375
5035		56.640625
5036		52.734375
5037		58.593750
5038		54.687500
5039		58.593750
5040		56.640625
5041		60.546875
5042		58.593750
5043		62.500000
5044		60.546875
5045		64.453125
5046		60.546875
5047		64.453125
5048		62.500000
5049		64.453125
5050		62.500000
5051		66.406250
5052		64.453125
5053		68.359375
5054		64.453125
5055		68.359375
5056		66.406250
5057		68.359375
5058		66.406250
5059		68.359375
5060		66.406250
5061		70.312500
5062		66.406250
5063		70.312500
5064		66.406250
5065		70.312500
5066		66.406250
5067		70.312500
5068		66.406250
5069		70.312500
5070		66.406250
5071		70.312500
5072		64.453125
5073		70.312500
5074		64.453125
5075		68.359375
5076		64.453125
5077		68.359375
5078		64.453125
5079		66.406250
5080		62.500000
5081		66.406250
5082		62.500000
5083		64.453125
5084		60.546875
5085		64.453125
5086		58.593750
5087		62.500000
5088		58.593750
5089		60.546875
5090		56.640625
5091		60.546875
5092		54.687500
5093		58.593750
5094		52.734375
5095		56.640625
5096		50.781250
5097		54.687500
5098		48.828125
5099		52.734375
5100		46.875000
5101		50.781250
5102		44.921875
5103		48.828125
5104		41.015625
5105		46.875000
5106		41.015625
5107		44.921875
5108		39.062500
5109		42.968750
5110		35.156250
5111		39.062500
5112		33.203125
5113		37.109375
5114		29.296875
5115		35.156250
5116		27.343750
5117		33.203125
5118		25.390625
5119		29.296875
5120		21.484375
5121		27.343750
5122		19.531250
5123		23.437500
5124		15.625000
5125		21.484375
5126		13.671875
5127		17.578125
5128		9.765625
5129		15.625000
5130		7.812500
5131		11.718750
5132		5.859375
5133		9.765625
5134		1.953125
5135		7.812500
5136		0.000000
5137		3.906250
5138		-3.906250
5139		1.953125
5140		-5.859375
5141		-1.953125
5142		-7.812500
5143		-3.906250
5144		-11.718750
5145		-7.812500
5146		-13.671875
5147		-9.765625
5148		-17.578125
5149		-11.718750
5150		-19.531250
5151		-15.625000
5152		-21.484375
5153		-17.578125
5154		-23.437500
5155		-19.531250
5156		-25.390625
5157		-21.484375
5158		-29.296875
5159		-25.390625
5160		-31.250000
5161		-27.343750
5162		-33.203125
5163		-29.296875
5164		-35.156250
5165		-31.250000
5166		-37.109375
5167		-33.203125
5168		-39.062500
5169		-35.156250
5170		-41.015625
5171		-35.156250
5172		-41.015625
5173		-37.109375
5174		-41.015625
5175		-39.062500
5176		-42.968750
5177		-41.015625
5178		-44.921875
5179		-41.015625
5180		-44.921875
5181		-42.968750
5182		-46.875000
5183		-42.968750
5184		-46.875000
5185		-42.968750
5186		-46.875000
5187		-44.921875
5188		-48.828125
5189		-44.921875
5190		-46.875000
5191		-44.921875
5192		-46.875000
5193		-44.921875
5194		-46.875000
5195		-42.968750
5196		-46.875000
5197		-44.921875
5198		-46.875000
5199		-42.968750
5200		-44.921875
5201		-42.968750
5202		-44.921875
5203		-41.015625
5204		-44.921875
5205		-41.015625
5206		-44.921875
5207		-39.062500
5208		-42.968750
5209		-39.062500
5210		-41.015625
5211		-37.109375
5212		-39.062500
5213		-35.156250
5214		-37.109375
5215		-35.156250
5216		-37.109375
5217		-33.203125
5218		-35.156250
5219		-31.250000
5220		-33.203125
5221		-29.296875
5222		-31.250000
5223		-25.390625
5224		-29.296875
5225		-25.390625
5226		-25.390625
5227		-21.484375
5228		-25.390625
5229		-19.531250
5230		-21.484375
5231		-17.578125
5232		-19.531250
5233		-15.625000
5234		-17.578125
5235		-13.671875
5236		-13.671875
5237		-9.765625
5238		-11.718750
5239		-5.859375
5240		-9.765625
5241		-3.906250
5242		-5.859375
5243		-1.953125
5244		-3.906250
5245		1.953125
5246		0.000000
5247		3.906250
5248		1.953125
5249		5.859375
5250		5.859375
5251		9.765625
5252		7.812500
5253		11.718750
5254		9.765625
5255		15.625000
5256		13.671875
5257		17.578125
5258		17.578125
5259		21.484375
5260		19.531250
5261		23.437500
5262		21.484375
5263		25.390625
5264		25.390625
5265		29.296875
5266		27.343750
5267		31.250000
5268		29.296875
5269		35.156250
5270		33.203125
5271		37.109375
5272		35.156250
5273		39.062500
5274		35.156250
5275		41.015625
5276		41.015625
5277		42.968750
5278		42.968750
5279		46.875000
5280		44.921875
5281		48.828125
5282		46.875000
5283		50.781250
5284		48.828125
5285		52.734375
5286		50.781250
5287		54.687500
5288		52.734375
5289		56.640625
5290		54.687500
5291		58.593750
5292		56.640625
5293		58.593750
5294		56.640625
5295		62.500000
5296		58.593750
5297		62.500000
5298		60.546875
5299		64.453125
5300		60.546875
5301		64.453125
5302		62.500000
5303		66.406250
5304		62.500000
5305		66.406250
5306		64.453125
5307		68.359375
5308		64.453125
5309		68.359375
5310		66.406250
5311		68.359375
5312		66.406250
5313		70.312500
5314		66.406250
5315		68.359375
5316		66.406250
5317		70.312500
5318		66.406250
5319		70.312500
5320		66.406250
5321		70.312500
5322		66.406250
5323		70.312500
5324		64.453125
5325		70.312500
5326		66.406250
5327		68.359375
5328		64.453125
5329		68.359375
5330		64.453125
5331		66.406250
5332		62.500000
5333		66.406250
5334		62.500000
5335		66.406250
5336		60.546875
5337		64.453125
5338		60.546875
5339		64.453125
5340		58.593750
5341		62.500000
5342		56.640625
5343		60.546875
5344		56.640625
5345		58.593750
5346		54.687500
5347		58.593750
5348		52.734375
5349		56.640625
5350		50.781250
5351		54.687500
5352		48.828125
5353		52.734375
5354		46.875000
5355		48.828125
5356		44.921875
5357		48.828125
5358		41.015625
5359		46.875000
5360		39.062500
5361		42.968750
5362		37.109375
5363		41.015625
5364		35.156250
5365		39.062500
5366		33.203125
5367		35.156250
5368		29.296875
5369		33.203125
5370		27.343750
5371		31.250000
5372		23.437500
5373		29.296875
5374		21.484375
5375		25.390625
5376		17.578125
5377		23.437500
5378		13.671875
5379		19.531250
5380		11.718750
5381		17.578125
5382		9.765625
5383		13.671875
5384		7.812500
5385		11.718750
5386		3.906250
5387		7.812500
5388		1.953125
5389		5.859375
5390		-1.953125
5391		1.953125
5392		-3.906250
5393		0.000000
5394		-7.812500
5395		-3.906250
5396		-9.765625
5397		-5.859375
5398		-11.718750
5399		-7.812500
5400		-15.625000
5401		-11.718750
5402		-17.578125
5403		-13.671875
5404		-19.531250
5405		-15.625000
5406		-23.437500
5407		-17.578125
5408		-25.390625
5409		-21.484375
5410		-27.343750
5411		-23.437500
5412		-29.296875
5413		-25.390625
5414		-31.250000
5415		-27.343750
5416		-33.203125
5417		-29.296875
5418		-35.156250
5419		-31.250000
5420		-37.109375
5421		-33.203125
5422		-39.062500
5423		-35.156250
5424		-41.015625
5425		-37.109375
5426		-41.015625
5427		-39.062500
5428		-42.968750
5429		-39.062500
5430		-44.921875
5431		-41.015625
5432		-44.921875
5433		-41.015625
5434		-46.875000
5435		-42.968750
5436		-46.875000
5437		-42.968750
5438		-46.875000
5439		-42.968750
5440		-46.875000
5441		-44.921875
5442		-46.875000
5443		-44.921875
5444		-46.875000
5445		-44.921875
5446		-48.828125
5447		-44.921875
5448		-46.875000
5449		-42.968750
5450		-46.875000
5451		-44.921875
5452		-46.875000
5453		-42.968750
5454		-46.875000
5455		-42.968750
5456		-44.921875
5457		-41.015625
5458		-44.921875
5459		-41.015625
5460		-42.968750
5461		-41.015625
5462		-41.015625
5463		-37.109375
5464		-41.015625
5465		-37.109375
5466		-39.062500
5467		-35.156250
5468		-37.109375
5469		-35.156250
5470		-35.156250
5471		-31.250000
5472		-35.156250
5473		-29.296875
5474		-33.203125
5475		-27.343750
5476		-29.296875
5477		-25.390625
5478		-27.343750
5479		-23.437500
5480		-25.390625
5481		-21.484375
5482		-23.437500
5483		-19.531250
5484		-21.484375
5485		-15.625000
5486		-17.578125
5487		-13.671875
5488		-17.578125
5489		-11.718750
5490		-13.671875
5491		-9.765625
5492		-11.718750
5493		-5.859375
5494		-7.812500
5495		-3.906250
5496		-5.859375
5497		0.000000
5498		-1.953125
5499		1.953125
5500		0.000000
5501		5.859375
5502		3.906250
5503		7.812500
5504		5.859375
5505		11.718750
5506		7.812500
5507		13.671875
5508		11.718750
5509		17.578125
5510		15.625000
5511		19.531250
5512		17.578125
5513		21.484375
5514		19.531250
5515		25.390625
5516		23.437500
5517		27.343750
5518		25.390625
5519		29.296875
5520		27.343750
5521		33.203125
5522		31.250000
5523		35.156250
5524		33.203125
5525		39.062500
5526		35.156250
5527		39.062500
5528		37.109375
5529		42.968750
5530		41.015625
5531		44.921875
5532		42.968750
5533		46.875000
5534		44.921875
5535		48.828125
5536		46.875000
5537		50.781250
5538		48.828125
5539		52.734375
5540		50.781250
5541		54.687500
5542		52.734375
5543		56.640625
5544		54.687500
5545		58.593750
5546		56.640625
5547		60.546875
5548		58.593750
5549		62.500000
5550		58.593750
5551		64.453125
5552		60.546875
5553		64.453125
5554		62.500000
5555		64.453125
5556		62.500000
5557		66.406250
5558		64.453125
5559		68.359375
5560		64.453125
5561		68.359375
5562		66.406250
5563		68.359375
5564		64.453125
5565		70.312500
5566		66.406250
5567		70.312500
5568		66.406250
5569		70.312500
5570		66.406250
5571		70.312500
5572		66.406250
5573		70.312500
5574		66.406250
5575		68.359375
5576		66.406250
5577		70.312500
5578		66.406250
5579		68.359375
5580		64.453125
5581		68.359375
5582		64.453125
5583		68.359375
5584		64.453125
5585		68.359375
5586		62.500000
5587		66.406250
5588		62.500000
5589		66.406250
5590		60.546875
5591		64.453125
5592		58.593750
5593		64.453125
5594		58.593750
5595		60.546875
5596		56.640625
5597		60.546875
5598		54.687500
5599		58.593750
5600		52.734375
5601		58.593750
5602		52.734375
5603		54.687500
5604		48.828125
5605		52.734375
5606		46.875000
5607		50.781250
5608		44.921875
5609		50.781250
5610		42.968750
5611		46.875000
5612		41.015625
5613		44.921875
5614		39.062500
5615		42.968750
5616		35.156250
5617		41.015625
5618		33.203125
5619		37.109375
5620		29.296875
5621		35.156250
5622		29.296875
5623		33.203125
5624		25.390625
5625		31.250000
5626		23.437500
5627		27.343750
5628		19.531250
5629		25.390625
5630		15.625000
5631		21.484375
5632		13.671875
5633		19.531250
5634		11.718750
5635		17.578125
5636		9.765625
5637		13.671875
5638		5.859375
5639		9.765625
5640		1.953125
5641		7.812500
5642		0.000000
5643		3.906250
5644		-1.953125
5645		1.953125
5646		-5.859375
5647		-1.953125
5648		-7.812500
5649		-3.906250
5650		-11.718750
5651		-5.859375
5652		-13.671875
5653		-9.765625
5654		-15.625000
5655		-11.718750
5656		-19.531250
5657		-13.671875
5658		-21.484375
5659		-17.578125
5660		-23.437500
5661		-19.531250
5662		-25.390625
5663		-21.484375
5664		-27.343750
5665		-23.437500
5666		-29.296875
5667		-25.390625
5668		-33.203125
5669		-29.296875
5670		-33.203125
5671		-29.296875
5672		-35.156250
5673		-31.250000
5674		-37.109375
5675		-33.203125
5676		-41.015625
5677		-35.156250
5678		-41.015625
5679		-37.109375
5680		-41.015625
5681		-39.062500
5682		-42.968750
5683		-39.062500
5684		-44.921875
5685		-41.015625
5686		-44.921875
5687		-42.968750
5688		-46.875000
5689		-42.968750
5690		-46.875000
5691		-42.968750
5692		-46.875000
5693		-42.968750
5694		-48.828125
5695		-44.921875
5696		-46.875000
5697		-44.921875
5698		-48.828125
5699		-44.921875
5700		-46.875000
5701		-44.921875
5702		-46.875000
5703		-42.968750
5704		-46.875000
5705		-42.968750
5706		-46.875000
5707		-42.968750
5708		-46.875000
5709		-42.968750
5710		-44.921875
5711		-41.015625
5712		-42.968750
5713		-41.015625
5714		-42.968750
5715		-39.062500
5716		-42.968750
5717		-39.062500
5718		-41.015625
5719		-37.109375
5720		-39.062500
5721		-35.156250
5722		-37.109375
5723		-33.203125
5724		-35.156250
5725		-31.250000
5726		-33.203125
5727		-29.296875
5728		-31.250000
5729		-27.343750
5730		-29.296875
5731		-25.390625
5732		-27.343750
5733		-23.437500
5734		-25.390625
5735		-19.531250
5736		-23.437500
5737		-17.578125
5738		-19.531250
5739		-15.625000
5740		-17.578125
5741		-13.671875
5742		-15.625000
5743		-11.718750
5744		-13.671875
5745		-7.812500
5746		-9.765625
5747		-5.859375
5748		-7.812500
5749		-1.953125
5750		-3.906250
5751		0.000000
5752		-1.953125
5753		3.906250
5754		1.953125
5755		5.859375
5756		3.906250
5757		9.765625
5758		5.859375
5759		11.718750
5760		9.765625
5761		15.625000
5762		13.671875
5763		17.578125
5764		15.625000
5765		19.531250
5766		17.578125
5767		23.437500
5768		21.484375
5769		25.390625
5770		23.437500
5771		29.296875
5772		27.343750
5773		31.250000
5774		29.296875
5775		33.203125
5776		31.250000
5777		35.156250
5778		35.156250
5779		39.062500
5780		37.109375
5781		41.015625
5782		39.062500
5783		44.921875
5784		41.015625
5785		44.921875
5786		42.968750
5787		46.875000
5788		44.921875
5789		48.828125
5790		48.828125
5791		52.734375
5792		50.781250
5793		54.687500
5794		52.734375
5795		54.687500
5796		54.687500
5797		56.640625
5798		54.687500
5799		58.593750
5800		56.640625
5801		60.546875
5802		58.593750
5803		62.500000
5804		60.546875
5805		62.500000
5806		60.546875
5807		64.453125
5808		62.500000
5809		64.453125
5810		62.500000
5811		66.406250
5812		64.453125
5813		66.406250
5814		64.453125
5815		68.359375
5816		64.453125
5817		68.359375
5818		66.406250
5819		68.359375
5820		66.406250
5821		68.359375
5822		66.406250
5823		70.312500
5824		66.406250
5825		70.312500
5826		66.406250
5827		70.312500
5828		66.406250
5829		70.312500
5830		66.406250
5831		68.359375
5832		64.453125
5833		68.359375
5834		64.453125
5835		68.359375
5836		64.453125
5837		68.359375
5838		64.453125
5839		66.406250
5840		62.500000
5841		66.406250
5842		60.546875
5843		64.453125
5844		60.546875
5845		64.453125
5846		58.593750
5847		62.500000
5848		58.593750
5849		60.546875
5850		56.640625
5851		60.546875
5852		54.687500
5853		58.593750
5854		52.734375
5855		56.640625
5856		50.781250
5857		54.687500
5858		48.828125
5859		52.734375
5860		46.875000
5861		50.781250
5862		44.921875
5863		48.828125
5864		42.968750
5865		46.875000
5866		39.062500
5867		44.921875
5868		37.109375
5869		42.968750
5870		35.156250
5871		41.015625
5872		33.203125
5873		37.109375
5874		29.296875
5875		35.156250
5876		27.343750
5877		33.203125
5878		23.437500
5879		29.296875
5880		21.484375
5881		27.343750
5882		19.531250
5883		23.437500
5884		15.625000
5885		21.484375
5886		11.718750
5887		19.531250
5888		9.765625
5889		15.625000
5890		7.812500
5891		13.671875
5892		3.906250
5893		9.765625
5894		1.953125
5895		7.812500
5896		0.000000
5897		5.859375
5898		-3.906250
5899		0.000000
5900		-5.859375
5901		-1.953125
5902		-9.765625
5903		-3.906250
5904		-11.718750
5905		-7.812500
5906		-15.625000
5907		-9.765625
5908		-17.578125
5909		-11.718750
5910		-19.531250
5911		-13.671875
5912		-21.484375
5913		-17.578125
5914		-23.437500
5915		-19.531250
5916		-27.343750
5917		-23.437500
5918		-29.296875
5919		-23.437500
5920		-31.250000
5921		-25.390625
5922		-33.203125
5923		-27.343750
5924		-37.109375
5925		-29.296875
5926		-37.109375
5927		-31.250000
5928		-39.062500
5929		-33.203125
5930		-39.062500
5931		-37.109375
5932		-41.015625
5933		-37.109375
5934		-42.968750
5935		-39.062500
5936		-44.921875
5937		-39.062500
5938		-44.921875
5939		-41.015625
5940		-46.875000
5941		-41.015625
5942		-46.875000
5943		-42.968750
5944		-46.875000
5945		-42.968750
5946		-48.828125
5947		-42.968750
5948		-46.875000
5949		-44.921875
5950		-46.875000
5951		-44.921875
5952		-48.828125
5953		-42.968750
5954		-48.828125
5955		-42.968750
5956		-48.828125
5957		-42.968750
5958		-46.875000
5959		-42.968750
5960		-46.875000
5961		-42.968750
5962		-46.875000
5963		-41.015625
5964		-44.921875
5965		-41.015625
5966		-42.968750
5967		-41.015625
5968		-42.968750
5969		-37.109375
5970		-42.968750
5971		-37.109375
5972		-41.015625
5973		-35.156250
5974		-39.062500
5975		-33.203125
5976		-37.109375
5977		-31.250000
5978		-35.156250
5979		-29.296875
5980		-33.203125
5981		-29.296875
5982		-31.250000
5983		-27.343750
5984		-29.296875
5985		-25.390625
5986		-27.343750
5987		-23.437500
5988		-23.437500
5989		-19.531250
5990		-21.484375
5991		-17.578125
5992		-19.531250
5993		-15.625000
5994		-17.578125
5995		-13.671875
5996		-15.625000
5997		-9.765625
5998		-11.718750
5999		-5.859375
6000		-7.812500
6001		-3.906250
6002		-5.859375
6003		-1.953125
6004		-3.906250
6005		1.953125
6006		0.000000
6007		3.906250
6008		1.953125
6009		5.859375
6010		5.859375
6011		9.765625
6012		7.812500
6013		13.671875
6014		11.718750
6015		15.625000
6016		13.671875
6017		17.578125
6018		17.578125
6019		21.484375
6020		19.531250
6021		23.437500
6022		21.484375
6023		27.343750
6024		25.390625
6025		29.296875
6026		27.343750
6027		31.250000
6028		29.296875
6029		35.156250
6030		33.203125
6031		37.109375
6032		35.156250
6033		39.062500
6034		37.109375
6035		41.015625
6036		39.062500
6037		44.921875
6038		42.968750
6039		46.875000
6040		44.921875
6041		48.828125
6042		46.875000
6043		50.781250
6044		48.828125
6045		52.734375
6046		50.781250
6047		54.687500
6048		52.734375
6049		56.640625
6050		54.687500
6051		58.593750
6052		56.640625
6053		58.593750
6054		58.593750
6055		60.546875
6056		58.593750
6057		62.500000
6058		60.546875
6059		64.453125
6060		62.500000
6061		64.453125
6062		62.500000
6063		66.406250
6064		64.453125
6065		66.406250
6066		64.453125
6067		66.406250
6068		66.406250
6069		68.359375
6070		66.406250
6071		68.359375
6072		66.406250
6073		68.359375
6074		66.406250
6075		70.312500
6076		66.406250
6077		70.312500
6078		66.406250
6079		68.359375
6080		66.406250
6081		68.359375
6082		66.406250
6083		70.312500
6084		64.453125
6085		72.265625
6086		62.500000
6087		70.312500
6088		62.500000
6089		72.265625
6090		62.500000
6091		70.312500
6092		64.453125
6093		66.406250
6094		62.500000
6095		66.406250
6096		60.546875
6097		64.453125
6098		60.546875
6099		62.500000
6100		58.593750
6101		62.500000
6102		54.687500
6103		62.500000
6104		52.734375
6105		62.500000
6106		50.781250
6107		60.546875
6108		52.734375
6109		56.640625
6110		50.781250
6111		54.687500
6112		48.828125
6113		52.734375
6114		46.875000
6115		50.781250
6116		44.921875
6117		48.828125
6118		39.062500
6119		46.875000
6120		37.109375
6121		46.875000
6122		33.203125
6123		44.921875
6124		33.203125
6125		42.968750
6126		31.250000
6127		37.109375
6128		29.296875
6129		33.203125
6130		27.343750
6131		31.250000
6132		23.437500
6133		29.296875
6134		21.484375
6135		25.390625
6136		15.625000
6137		27.343750
6138		13.671875
6139		23.437500
6140		11.718750
6141		19.531250
6142		9.765625
6143		13.671875
6144		7.812500
6145		11.718750
6146		3.906250
6147		7.812500
6148		1.953125
6149		5.859375
6150		-1.953125
6151		1.953125
6152		-7.812500
6153		1.953125
6154		-9.765625
6155		0.000000
6156		-13.671875
6157		-1.953125
6158		-13.671875
6159		-7.812500
6160		-15.625000
6161		-11.718750
6162		-17.578125
6163		-13.671875
6164		-19.531250
6165		-15.625000
6166		-23.437500
6167		-19.531250
6168		-27.343750
6169		-19.531250
6170		-29.296875
6171		-19.531250
6172		-33.203125
6173		-21.484375
6174		-33.203125
6175		-23.437500
6176		-33.203125
6177		-29.296875
6178		-35.156250
6179		-31.250000
6180		-37.109375
6181		-33.203125
6182		-39.062500
6183		-35.156250
6184		-41.015625
6185		-37.109375
6186		-44.921875
6187		-35.156250
6188		-46.875000
6189		-37.109375
6190		-48.828125
6191		-37.109375
6192		-44.921875
6193		-41.015625
6194		-44.921875
6195		-42.968750
6196		-44.921875
6197		-42.968750
6198		-46.875000
6199		-44.921875
6200		-46.875000
6201		-44.921875
6202		-50.781250
6203		-41.015625
6204		-50.781250
6205		-41.015625
6206		-50.781250
6207		-41.015625
6208		-50.781250
6209		-41.015625
6210		-46.875000
6211		-44.921875
6212		-46.875000
6213		-42.968750
6214		-44.921875
6215		-42.968750
6216		-44.921875
6217		-42.968750
6218		-42.968750
6219		-41.015625
6220		-46.875000
6221		-37.109375
6222		-44.921875
6223		-35.156250
6224		-42.968750
6225		-35.156250
6226		-39.062500
6227		-35.156250
6228		-37.109375
6229		-35.156250
6230		-35.156250
6231		-33.203125
6232		-33.203125
6233		-31.250000
6234		-31.250000
6235		-29.296875
6236		-31.250000
6237		-23.437500
6238		-31.250000
6239		-21.484375
6240		-29.296875
6241		-17.578125
6242		-23.437500
6243		-19.531250
6244		-21.484375
6245		-17.578125
6246		-17.578125
6247		-13.671875
6248		-15.625000
6249		-11.718750
6250		-13.671875
6251		-9.765625
6252		-11.718750
6253		-3.906250
6254		-11.718750
6255		0.000000
6256		-7.812500
6257		1.953125
6258		-5.859375
6259		3.906250
6260		0.000000
6261		3.906250
6262		3.906250
6263		7.812500
6264		5.859375
6265		9.765625
6266		7.812500
6267		13.671875
6268		11.718750
6269		15.625000
6270		15.625000
6271		19.531250
6272		15.625000
6273		25.390625
6274		19.531250
6275		25.390625
6276		23.437500
6277		27.343750
6278		25.390625
6279		29.296875
6280		29.296875
6281		33.203125
6282		31.250000
6283		35.156250
6284		33.203125
6285		37.109375
6286		37.109375
6287		41.015625
6288		37.109375
6289		44.921875
6290		39.062500
6291		46.875000
6292		42.968750
6293		46.875000
6294		44.921875
6295		48.828125
6296		46.875000
6297		50.781250
6298		50.781250
6299		52.734375
6300		50.781250
6301		54.687500
6302		52.734375
6303		56.640625
6304		54.687500
6305		58.593750
6306		54.687500
6307		62.500000
6308		56.640625
6309		62.500000
6310		60.546875
6311		62.500000
6312		60.546875
6313		64.453125
6314		62.500000
6315		64.453125
6316		62.500000
6317		66.406250
6318		64.453125
6319		66.406250
6320		64.453125
6321		68.359375
6322		66.406250
6323		68.359375
6324		66.406250
6325		68.359375
6326		66.406250
6327		68.359375
6328		66.406250
6329		68.359375
6330		66.406250
6331		70.312500
6332		66.406250
6333		70.312500
6334		66.406250
6335		68.359375
6336		66.406250
6337		70.312500
6338		66.406250
6339		68.359375
6340		66.406250
6341		68.359375
6342		64.453125
6343		68.359375
6344		64.453125
6345		66.406250
6346		62.500000
6347		66.406250
6348		62.500000
6349		64.453125
6350		60.546875
6351		64.453125
6352		60.546875
6353		62.500000
6354		58.593750
6355		62.500000
6356		56.640625
6357		60.546875
6358		54.687500
6359		58.593750
6360		52.734375
6361		56.640625
6362		50.781250
6363		54.687500
6364		48.828125
6365		52.734375
6366		48.828125
6367		50.781250
6368		44.921875
6369		48.828125
6370		42.968750
6371		46.875000
6372		41.015625
6373		44.921875
6374		39.062500
6375		42.968750
6376		35.156250
6377		41.015625
6378		33.203125
6379		39.062500
6380		31.250000
6381		35.156250
6382		29.296875
6383		33.203125
6384		25.390625
6385		29.296875
6386		23.437500
6387		27.343750
6388		19.531250
6389		25.390625
6390		17.578125
6391		21.484375
6392		13.671875
6393		19.531250
6394		11.718750
6395		15.625000
6396		7.812500
6397		13.671875
6398		5.859375
6399		9.765625
6400		3.906250
6401		7.812500
6402		0.000000
6403		3.906250
6404		-1.953125
6405		1.953125
6406		-5.859375
6407		0.000000
6408		-7.812500
6409		-3.906250
6410		-11.718750
6411		-5.859375
6412		-13.671875
6413		-7.812500
6414		-15.625000
6415		-11.718750
6416		-19.531250
6417		-13.671875
6418		-21.484375
6419		-17.578125
6420		-25.390625
6421		-19.531250
6422		-25.390625
6423		-21.484375
6424		-27.343750
6425		-23.437500
6426		-29.296875
6427		-27.343750
6428		-33.203125
6429		-27.343750
6430		-35.156250
6431		-29.296875
6432		-35.156250
6433		-33.203125
6434		-37.109375
6435		-35.156250
6436		-39.062500
6437		-37.109375
6438		-42.968750
6439		-37.109375
6440		-42.968750
6441		-39.062500
6442		-42.968750
6443		-41.015625
6444		-44.921875
6445		-41.015625
6446		-44.921875
6447		-41.015625
6448		-46.875000
6449		-42.968750
6450		-46.875000
6451		-42.968750
6452		-46.875000
6453		-44.921875
6454		-46.875000
6455		-42.968750
6456		-46.875000
6457		-44.921875
6458		-46.875000
6459		-44.921875
6460		-46.875000
6461		-44.921875
6462		-46.875000
6463		-42.968750
6464		-46.875000
6465		-42.968750
6466		-46.875000
6467		-42.968750
6468		-44.921875
6469		-41.015625
6470		-44.921875
6471		-41.015625
6472		-44.921875
6473		-39.062500
6474		-42.968750
6475		-39.062500
6476		-41.015625
6477		-39.062500
6478		-41.015625
6479		-37.109375
6480		-39.062500
6481		-35.156250
6482		-37.109375
6483		-33.203125
6484		-35.156250
6485		-31.250000
6486		-33.203125
6487		-29.296875
6488		-31.250000
6489		-25.390625
6490		-29.296875
6491		-25.390625
6492		-27.343750
6493		-23.437500
6494		-25.390625
6495		-19.531250
6496		-23.437500
6497		-17.578125
6498		-19.531250
6499		-15.625000
6500		-17.578125
6501		-13.671875
6502		-15.625000
6503		-9.765625
6504		-11.718750
6505		-7.812500
6506		-9.765625
6507		-5.859375
6508		-7.812500
6509		-1.953125
6510		-3.906250
6511		0.000000
6512		-1.953125
6513		3.906250
6514		0.000000
6515		5.859375
6516		3.906250
6517		7.812500
6518		7.812500
6519		11.718750
6520		9.765625
6521		15.625000
6522		13.671875
6523		17.578125
6524		15.625000
6525		19.531250
6526		19.531250
6527		23.437500
6528		21.484375
6529		25.390625
6530		23.437500
6531		29.296875
6532		25.390625
6533		31.250000
6534		29.296875
6535		33.203125
6536		31.250000
6537		37.109375
6538		35.156250
6539		39.062500
6540		37.109375
6541		42.968750
6542		39.062500
6543		42.968750
6544		41.015625
6545		44.921875
6546		42.968750
6547		48.828125
6548		44.921875
6549		50.781250
6550		48.828125
6551		50.781250
6552		50.781250
6553		54.687500
6554		52.734375
6555		54.687500
6556		54.687500
6557		56.640625
6558		56.640625
6559		58.593750
6560		56.640625
6561		60.546875
6562		58.593750
6563		62.500000
6564		60.546875
6565		62.500000
6566		62.500000
6567		64.453125
6568		62.500000
6569		64.453125
6570		62.500000
6571		66.406250
6572		64.453125
6573		66.406250
6574		64.453125
6575		68.359375
6576		66.406250
6577		68.359375
6578		66.406250
6579		68.359375
6580		66.406250
6581		68.359375
6582		66.406250
6583		70.312500
6584		66.406250
6585		70.312500
6586		66.406250
6587		70.312500
6588		66.406250
6589		68.359375
6590		66.406250
6591		68.359375
6592		66.406250
6593		68.359375
6594		64.453125
6595		68.359375
6596		64.453125
6597		66.406250
6598		64.453125
6599		66.406250
6600		62.500000
6601		66.406250
6602		62.500000
6603		64.453125
6604		60.546875
6605		62.500000
6606		58.593750
6607		62.500000
6608		56.640625
6609		60.546875
6610		54.687500
6611		60.546875
6612		54.687500
6613		58.593750
6614		52.734375
6615		56.640625
6616		50.781250
6617		54.687500
6618		48.828125
6619		52.734375
6620		46.875000
6621		50.781250
6622		44.921875
6623		48.828125
6624		42.968750
6625		46.875000
6626		41.015625
6627		44.921875
6628		37.109375
6629		41.015625
6630		35.156250
6631		39.062500
6632		33.203125
6633		37.109375
6634		29.296875
6635		33.203125
6636		27.343750
6637		31.250000
6638		25.390625
6639		29.296875
6640		21.484375
6641		25.390625
6642		19.531250
6643		23.437500
6644		15.625000
6645		19.531250
6646		13.671875
6647		17.578125
6648		9.765625
6649		15.625000
6650		7.812500
6651		11.718750
6652		5.859375
6653		9.765625
6654		1.953125
6655		5.859375
6656		0.000000
6657		3.906250
6658		-3.906250
6659		0.000000
6660		-5.859375
6661		-1.953125
6662		-9.765625
6663		-5.859375
6664		-11.718750
6665		-7.812500
6666		-13.671875
6667		-9.765625
6668		-17.578125
6669		-13.671875
6670		-19.531250
6671		-15.625000
6672		-23.437500
6673		-17.578125
6674		-23.437500
6675		-19.531250
6676		-27.343750
6677		-23.437500
6678		-29.296875
6679		-25.390625
6680		-31.250000
6681		-27.343750
6682		-33.203125
6683		-29.296875
6684		-35.156250
6685		-31.250000
6686		-37.109375
6687		-33.203125
6688		-39.062500
6689		-35.156250
6690		-41.015625
6691		-35.156250
6692		-41.015625
6693		-39.062500
6694		-42.968750
6695		-39.062500
6696		-42.968750
6697		-41.015625
6698		-44.921875
6699		-41.015625
6700		-44.921875
6701		-42.968750
6702		-46.875000
6703		-42.968750
6704		-46.875000
6705		-44.921875
6706		-48.828125
6707		-42.968750
6708		-48.828125
6709		-42.968750
6710		-46.875000
6711		-44.921875
6712		-46.875000
6713		-44.921875
6714		-46.875000
6715		-44.921875
6716		-46.875000
6717		-44.921875
6718		-46.875000
6719		-44.921875
6720		-46.875000
6721		-42.968750
6722		-44.921875
6723		-42.968750
6724		-44.921875
6725		-41.015625
6726		-44.921875
6727		-39.062500
6728		-42.968750
6729		-39.062500
6730		-41.015625
6731		-37.109375
6732		-39.062500
6733		-35.156250
6734		-39.062500
6735		-35.156250
6736		-37.109375
6737		-33.203125
6738		-35.156250
6739		-31.250000
6740		-33.203125
6741		-27.343750
6742		-31.250000
6743		-25.390625
6744		-29.296875
6745		-25.390625
6746		-27.343750
6747		-23.437500
6748		-23.437500
6749		-19.531250
6750		-21.484375
6751		-17.578125
6752		-19.531250
6753		-15.625000
6754		-17.578125
6755		-13.671875
6756		-13.671875
6757		-9.765625
6758		-13.671875
6759		-5.859375
6760		-9.765625
6761		-3.906250
6762		-5.859375
6763		-1.953125
6764		-3.906250
6765		0.000000
6766		0.000000
6767		3.906250
6768		1.953125
6769		5.859375
6770		5.859375
6771		9.765625
6772		7.812500
6773		11.718750
6774		9.765625
6775		15.625000
6776		13.671875
6777		19.531250
6778		17.578125
6779		21.484375
6780		19.531250
6781		23.437500
6782		21.484375
6783		27.343750
6784		25.390625
6785		29.296875
6786		27.343750
6787		31.250000
6788		29.296875
6789		35.156250
6790		33.203125
6791		39.062500
6792		33.203125
6793		41.015625
6794		35.156250
6795		41.015625
6796		41.015625
6797		42.968750
6798		42.968750
6799		46.875000
6800		44.921875
6801		48.828125
6802		46.875000
6803		50.781250
6804		48.828125
6805		52.734375
6806		50.781250
6807		54.687500
6808		50.781250
6809		56.640625
6810		52.734375
6811		58.593750
6812		56.640625
6813		58.593750
6814		58.593750
6815		60.546875
6816		58.593750
6817		62.500000
6818		60.546875
6819		62.500000
6820		62.500000
6821		64.453125
6822		62.500000
6823		66.406250
6824		62.500000
6825		68.359375
6826		62.500000
6827		68.359375
6828		66.406250
6829		68.359375
6830		66.406250
6831		68.359375
6832		66.406250
6833		68.359375
6834		66.406250
6835		68.359375
6836		66.406250
6837		68.359375
6838		66.406250
6839		68.359375
6840		66.406250
6841		68.359375
6842		64.453125
6843		70.312500
6844		64.453125
6845		70.312500
6846		66.406250
6847		68.359375
6848		64.453125
6849		68.359375
6850		64.453125
6851		66.406250
6852		64.453125
6853		66.406250
6854		62.500000
6855		64.453125
6856		60.546875
6857		64.453125
6858		58.593750
6859		64.453125
6860		58.593750
6861		62.500000
6862		56.640625
6863		60.546875
6864		56.640625
6865		58.593750
6866		54.687500
6867		56.640625
6868		50.781250
6869		56.640625
6870		50.781250
6871		54.687500
6872		48.828125
6873		50.781250
6874		44.921875
6875		48.828125
6876		42.968750
6877		48.828125
6878		41.015625
6879		46.875000
6880		39.062500
6881		42.968750
6882		37.109375
6883		41.015625
6884		35.156250
6885		39.062500
6886		31.250000
6887		35.156250
6888		29.296875
6889		33.203125
6890		25.390625
6891		31.250000
6892		23.437500
6893		29.296875
6894		21.484375
6895		25.390625
6896		17.578125
6897		23.437500
6898		15.625000
6899		19.531250
6900		11.718750
6901		17.578125
6902		9.765625
6903		13.671875
6904		5.859375
6905		11.718750
6906		3.906250
6907		7.812500
6908		0.000000
6909		5.859375
6910		-1.953125
6911		1.953125
6912		-3.906250
6913		0.000000
6914		-7.812500
6915		-3.906250
6916		-9.765625
6917		-5.859375
6918		-13.671875
6919		-9.765625
6920		-15.625000
6921		-11.718750
6922		-17.578125
6923		-13.671875
6924		-19.531250
6925		-15.625000
6926		-23.437500
6927		-19.531250
6928		-25.390625
6929		-21.484375
6930		-27.343750
6931		-23.437500
6932		-29.296875
6933		-25.390625
6934		-31.250000
6935		-27.343750
6936		-33.203125
6937		-29.296875
6938		-35.156250
6939		-31.250000
6940		-37.109375
6941		-33.203125
6942		-39.062500
6943		-35.156250
6944		-41.015625
6945		-37.109375
6946		-41.015625
6947		-39.062500
6948		-42.968750
6949		-41.015625
6950		-44.921875
6951		-41.015625
6952		-44.921875
6953		-42.968750
6954		-44.921875
6955		-42.968750
6956		-46.875000
6957		-44.921875
6958		-46.875000
6959		-44.921875
6960		-46.875000
6961		-44.921875
6962		-46.875000
6963		-44.921875
6964		-46.875000
6965		-44.921875
6966		-46.875000
6967		-44.921875
6968		-46.875000
6969		-44.921875
6970		-46.875000
6971		-44.921875
6972		-46.875000
6973		-44.921875
6974		-46.875000
6975		-42.968750
6976		-44.921875
6977		-42.968750
6978		-44.921875
6979		-41.015625
6980		-42.968750
6981		-41.015625
6982		-41.015625
6983		-39.062500
6984		-41.015625
6985		-37.109375
6986		-39.062500
6987		-35.156250
6988		-37.109375
6989		-35.156250
6990		-35.156250
6991		-33.203125
6992		-33.203125
6993		-31.250000
6994		-33.203125
6995		-29.296875
6996		-29.296875
6997		-27.343750
6998		-27.343750
6999		-25.390625
7000		-25.390625
7001		-21.484375
7002		-23.437500
7003		-19.531250
7004		-21.484375
7005		-17.578125
7006		-19.531250
7007		-13.671875
7008		-15.625000
7009		-11.718750
7010		-13.671875
7011		-9.765625
7012		-9.765625
7013		-5.859375
7014		-7.812500
7015		-3.906250
7016		-5.859375
7017		0.000000
7018		-1.953125
7019		1.953125
7020		0.000000
7021		3.906250
7022		3.906250
7023		7.812500
7024		5.859375
7025		9.765625
7026		9.765625
7027		13.671875
7028		11.718750
7029		15.625000
7030		15.625000
7031		19.531250
7032		17.578125
7033		21.484375
7034		19.531250
7035		23.437500
7036		23.437500
7037		27.343750
7038		25.390625
7039		29.296875
7040		29.296875
7041		33.203125
7042		31.250000
7043		35.156250
7044		33.203125
7045		37.109375
7046		37.109375
7047		41.015625
7048		39.062500
7049		42.968750
7050		41.015625
7051		44.921875
7052		42.968750
7053		46.875000
7054		44.921875
7055		48.828125
7056		46.875000
7057		50.781250
7058		48.828125
7059		52.734375
7060		50.781250
7061		54.687500
7062		52.734375
7063		56.640625
7064		54.687500
7065		58.593750
7066		56.640625
7067		60.546875
7068		58.593750
7069		60.546875
7070		58.593750
7071		62.500000
7072		60.546875
7073		62.500000
7074		62.500000
7075		64.453125
7076		62.500000
7077		66.406250
7078		64.453125
7079		66.406250
7080		64.453125
7081		66.406250
7082		64.453125
7083		68.359375
7084		66.406250
7085		68.359375
7086		66.406250
7087		68.359375
7088		66.406250
7089		68.359375
7090		66.406250
7091		68.359375
7092		66.406250
7093		68.359375
7094		66.406250
7095		68.359375
7096		66.406250
7097		68.359375
7098		66.406250
7099		68.359375
7100		64.453125
7101		68.359375
7102		64.453125
7103		66.406250
7104		64.453125
7105		66.406250
7106		62.500000
7107		66.406250
7108		62.500000
7109		64.453125
7110		60.546875
7111		64.453125
7112		58.593750
7113		62.500000
7114		58.593750
7115		60.546875
7116		56.640625
7117		60.546875
7118		54.687500
7119		58.593750
7120		52.734375
7121		56.640625
7122		50.781250
7123		54.687500
7124		48.828125
7125		52.734375
7126		46.875000
7127		50.781250
7128		44.921875
7129		48.828125
7130		42.968750
7131		46.875000
7132		41.015625
7133		44.921875
7134		39.062500
7135		42.968750
7136		35.156250
7137		39.062500
7138		33.203125
7139		37.109375
7140		31.250000
7141		35.156250
7142		27.343750
7143		31.250000
7144		25.390625
7145		29.296875
7146		21.484375
7147		27.343750
7148		19.531250
7149		23.437500
7150		17.578125
7151		21.484375
7152		13.671875
7153		17.578125
7154		11.718750
7155		15.625000
7156		7.812500
7157		11.718750
7158		5.859375
7159		9.765625
7160		1.953125
7161		7.812500
7162		0.000000
7163		3.906250
7164		-3.906250
7165		1.953125
7166		-5.859375
7167		-1.953125
7168		-7.812500
7169		-3.906250
7170		-11.718750
7171		-7.812500
7172		-13.671875
7173		-9.765625
7174		-17.578125
7175		-11.718750
7176		-19.531250
7177		-15.625000
7178		-21.484375
7179		-17.578125
7180		-23.437500
7181		-19.531250
7182		-25.390625
7183		-23.437500
7184		-29.296875
7185		-25.390625
7186		-31.250000
7187		-27.343750
7188		-33.203125
7189		-29.296875
7190		-35.156250
7191		-31.250000
7192		-37.109375
7193		-33.203125
7194		-37.109375
7195		-35.156250
7196		-39.062500
7197		-37.109375
7198		-41.015625
7199		-39.062500
7200		-42.968750
7201		-39.062500
7202		-42.968750
7203		-41.015625
7204		-44.921875
7205		-41.015625
7206		-46.875000
7207		-42.968750
7208		-44.921875
7209		-42.968750
7210		-46.875000
7211		-44.921875
7212		-46.875000
7213		-44.921875
7214		-46.875000
7215		-44.921875
7216		-46.875000
7217		-44.921875
7218		-48.828125
7219		-44.921875
7220		-46.875000
7221		-44.921875
7222		-46.875000
7223		-44.921875
7224		-46.875000
7225		-44.921875
7226		-46.875000
7227		-44.921875
7228		-46.875000
7229		-42.968750
7230		-44.921875
7231		-42.968750
7232		-44.921875
7233		-41.015625
7234		-42.968750
7235		-39.062500
7236		-41.015625
7237		-39.062500
7238		-41.015625
7239		-37.109375
7240		-39.062500
7241		-35.156250
7242		-37.109375
7243		-33.203125
7244		-35.156250
7245		-31.250000
7246		-33.203125
7247		-29.296875
7248		-31.250000
7249		-27.343750
7250		-29.296875
7251		-25.390625
7252		-27.343750
7253		-23.437500
7254		-25.390625
7255		-21.484375
7256		-21.484375
7257		-19.531250
7258		-19.531250
7259		-15.625000
7260		-17.578125
7261		-13.671875
7262		-15.625000
7263		-11.718750
7264		-11.718750
7265		-7.812500
7266		-9.765625
7267		-5.859375
7268		-7.812500
7269		-1.953125
7270		-3.906250
7271		0.000000
7272		-1.953125
7273		1.953125
7274		1.953125
7275		5.859375
7276		3.906250
7277		7.812500
7278		7.812500
7279		11.718750
7280		9.765625
7281		13.671875
7282		11.718750
7283		17.578125
7284		15.625000
7285		19.531250
7286		17.578125
7287		23.437500
7288		21.484375
7289		25.390625
7290		23.437500
7291		27.343750
7292		27.343750
7293		31.250000
7294		29.296875
7295		33.203125
7296		31.250000
7297		35.156250
7298		35.156250
7299		39.062500
7300		37.109375
7301		41.015625
7302		39.062500
7303		42.968750
7304		41.015625
7305		44.921875
7306		42.968750
7307		46.875000
7308		46.875000
7309		48.828125
7310		48.828125
7311		50.781250
7312		50.781250
7313		52.734375
7314		52.734375
7315		54.687500
7316		52.734375
7317		56.640625
7318		54.687500
7319		58.593750
7320		56.640625
7321		60.546875
7322		58.593750
7323		60.546875
7324		60.546875
7325		62.500000
7326		60.546875
7327		64.453125
7328		62.500000
7329		64.453125
7330		62.500000
7331		66.406250
7332		64.453125
7333		66.406250
7334		64.453125
7335		68.359375
7336		64.453125
7337		68.359375
7338		66.406250
7339		68.359375
7340		66.406250
7341		68.359375
7342		66.406250
7343		68.359375
7344		66.406250
7345		68.359375
7346		66.406250
7347		68.359375
7348		66.406250
7349		68.359375
7350		66.406250
7351		68.359375
7352		66.406250
7353		68.359375
7354		64.453125
7355		68.359375
7356		64.453125
7357		66.406250
7358		62.500000
7359		66.406250
7360		62.500000
7361		64.453125
7362		60.546875
7363		64.453125
7364		60.546875
7365		62.500000
7366		58.593750
7367		62.500000
7368		56.640625
7369		60.546875
7370		56.640625
7371		58.593750
7372		54.687500
7373		56.640625
7374		52.734375
7375		56.640625
7376		50.781250
7377		54.687500
7378		48.828125
7379		52.734375
7380		46.875000
7381		50.781250
7382		44.921875
7383		48.828125
7384		42.968750
7385		44.921875
7386		39.062500
7387		42.968750
7388		37.109375
7389		41.015625
7390		35.156250
7391		39.062500
7392		33.203125
7393		35.156250
7394		29.296875
7395		33.203125
7396		27.343750
7397		31.250000
7398		23.437500
7399		27.343750
7400		21.484375
7401		25.390625
7402		19.531250
7403		23.437500
7404		15.625000
7405		19.531250
7406		13.671875
7407		17.578125
7408		9.765625
7409		13.671875
7410		7.812500
7411		11.718750
7412		3.906250
7413		7.812500
7414		1.953125
7415		5.859375
7416		-1.953125
7417		3.906250
7418		-3.906250
7419		0.000000
7420		-7.812500
7421		-1.953125
7422		-9.765625
7423		-5.859375
7424		-11.718750
7425		-7.812500
7426		-15.625000
7427		-11.718750
7428		-19.531250
7429		-13.671875
7430		-19.531250
7431		-15.625000
7432		-23.437500
7433		-19.531250
7434		-25.390625
7435		-21.484375
7436		-27.343750
7437		-23.437500
7438		-29.296875
7439		-25.390625
7440		-31.250000
7441		-27.343750
7442		-33.203125
7443		-29.296875
7444		-35.156250
7445		-33.203125
7446		-37.109375
7447		-33.203125
7448		-39.062500
7449		-35.156250
7450		-41.015625
7451		-37.109375
7452		-42.968750
7453		-39.062500
7454		-42.968750
7455		-39.062500
7456		-44.921875
7457		-41.015625
7458		-44.921875
7459		-42.968750
7460		-46.875000
7461		-42.968750
7462		-46.875000
7463		-44.921875
7464		-46.875000
7465		-44.921875
7466		-46.875000
7467		-44.921875
7468		-48.828125
7469		-44.921875
7470		-48.828125
7471		-46.875000
7472		-48.828125
7473		-44.921875
7474		-46.875000
7475		-44.921875
7476		-46.875000
7477		-44.921875
7478		-46.875000
7479		-44.921875
7480		-46.875000
7481		-44.921875
7482		-46.875000
7483		-42.968750
7484		-44.921875
7485		-42.968750
7486		-42.968750
7487		-41.015625
7488		-42.968750
7489		-39.062500
7490		-41.015625
7491		-39.062500
7492		-41.015625
7493		-37.109375
7494		-39.062500
7495		-35.156250
7496		-37.109375
7497		-33.203125
7498		-35.156250
7499		-31.250000
7500		-33.203125
7501		-29.296875
7502		-31.250000
7503		-27.343750
7504		-29.296875
7505		-25.390625
7506		-27.343750
7507		-23.437500
7508		-25.390625
7509		-21.484375
7510		-21.484375
7511		-17.578125
7512		-19.531250
7513		-15.625000
7514		-17.578125
7515		-13.671875
7516		-13.671875
7517		-9.765625
7518		-11.718750
7519		-7.812500
7520		-9.765625
7521		-5.859375
7522		-5.859375
7523		-1.953125
7524		-3.906250
7525		0.000000
7526		0.000000
7527		3.906250
7528		1.953125
7529		5.859375
7530		3.906250
7531		9.765625
7532		7.812500
7533		11.718750
7534		9.765625
7535		15.625000
7536		13.671875
7537		17.578125
7538		15.625000
7539		19.531250
7540		19.531250
7541		23.437500
7542		21.484375
7543		25.390625
7544		23.437500
7545		29.296875
7546		27.343750
7547		31.250000
7548		29.296875
7549		33.203125
7550		33.203125
7551		37.109375
7552		35.156250
7553		39.062500
7554		37.109375
7555		41.015625
7556		39.062500
7557		42.968750
7558		42.968750
7559		44.921875
7560		44.921875
7561		48.828125
7562		46.875000
7563		50.781250
7564		48.828125
7565		52.734375
7566		50.781250
7567		54.687500
7568		52.734375
7569		54.687500
7570		54.687500
7571		56.640625
7572		56.640625
7573		58.593750
7574		56.640625
7575		60.546875
7576		58.593750
7577		60.546875
7578		60.546875
7579		62.500000
7580		60.546875
7581		64.453125
7582		62.500000
7583		64.453125
7584		62.500000
7585		66.406250
7586		64.453125
7587		66.406250
7588		64.453125
7589		66.406250
7590		64.453125
7591		68.359375
7592		66.406250
7593		68.359375
7594		66.406250
7595		68.359375
7596		66.406250
7597		68.359375
7598		66.406250
7599		68.359375
7600		66.406250
7601		68.359375
7602		66.406250
7603		68.359375
7604		66.406250
7605		68.359375
7606		64.453125
7607		68.359375
7608		64.453125
7609		66.406250
7610		64.453125
7611		66.406250
7612		62.500000
7613		66.406250
7614		62.500000
7615		64.453125
7616		60.546875
7617		64.453125
7618		58.593750
7619		62.500000
7620		58.593750
7621		60.546875
7622		56.640625
7623		60.546875
7624		54.687500
7625		58.593750
7626		52.734375
7627		56.640625
7628		50.781250
7629		54.687500
7630		48.828125
7631		52.734375
7632		46.875000
7633		50.781250
7634		44.921875
7635		48.828125
7636		42.968750
7637		46.875000
7638		41.015625
7639		44.921875
7640		39.062500
7641		42.968750
7642		35.156250
7643		41.015625
7644		33.203125
7645		37.109375
7646		31.250000
7647		35.156250
7648		29.296875
7649		31.250000
7650		25.390625
7651		29.296875
7652		23.437500
7653		27.343750
7654		19.531250
7655		23.437500
7656		17.578125
7657		21.484375
7658		13.671875
7659		19.531250
7660		11.718750
7661		15.625000
7662		9.765625
7663		13.671875
7664		5.859375
7665		9.765625
7666		3.906250
7667		7.812500
7668		0.000000
7669		3.906250
7670		-1.953125
7671		1.953125
7672		-5.859375
7673		-1.953125
7674		-7.812500
7675		-3.906250
7676		-11.718750
7677		-5.859375
7678		-13.671875
7679		-9.765625
7680		-15.625000
7681		-11.718750
7682		-19.531250
7683		-15.625000
7684		-21.484375
7685		-17.578125
7686		-23.437500
7687		-19.531250
7688		-27.343750
7689		-21.484375
7690		-29.296875
7691		-25.390625
7692		-31.250000
7693		-27.343750
7694		-33.203125
7695		-29.296875
7696		-35.156250
7697		-31.250000
7698		-37.109375
7699		-33.203125
7700		-39.062500
7701		-35.156250
7702		-39.062500
7703		-37.109375
7704		-41.015625
7705		-37.109375
7706		-42.968750
7707		-39.062500
7708		-42.968750
7709		-41.015625
7710		-44.921875
7711		-41.015625
7712		-44.921875
7713		-42.968750
7714		-46.875000
7715		-44.921875
7716		-46.875000
7717		-44.921875
7718		-46.875000
7719		-44.921875
7720		-48.828125
7721		-44.921875
7722		-48.828125
7723		-46.875000
7724		-48.828125
7725		-46.875000
7726		-48.828125
7727		-46.875000
7728		-48.828125
7729		-44.921875
7730		-46.875000
7731		-44.921875
7732		-48.828125
7733		-44.921875
7734		-46.875000
7735		-42.968750
7736		-46.875000
7737		-41.015625
7738		-44.921875
7739		-42.968750
7740		-44.921875
7741		-39.062500
7742		-42.968750
7743		-39.062500
7744		-41.015625
7745		-39.062500
7746		-39.062500
7747		-35.156250
7748		-39.062500
7749		-35.156250
7750		-37.109375
7751		-33.203125
7752		-35.156250
7753		-29.296875
7754		-33.203125
7755		-29.296875
7756		-31.250000
7757		-25.390625
7758		-29.296875
7759		-25.390625
7760		-27.343750
7761		-19.531250
7762		-23.437500
7763		-19.531250
7764		-21.484375
7765		-17.578125
7766		-19.531250
7767		-13.671875
7768		-17.578125
7769		-13.671875
7770		-13.671875
7771		-9.765625
7772		-11.718750
7773		-7.812500
7774		-9.765625
7775		-3.906250
7776		-5.859375
7777		-1.953125
7778		-3.906250
7779		1.953125
7780		0.000000
7781		3.906250
7782		1.953125
7783		7.812500
7784		3.906250
7785		9.765625
7786		7.812500
7787		13.671875
7788		9.765625
7789		15.625000
7790		13.671875
7791		17.578125
7792		13.671875
7793		21.484375
7794		19.531250
7795		25.390625
7796		21.484375
7797		27.343750
7798		25.390625
7799		29.296875
7800		27.343750
7801		33.203125
7802		27.343750
7803		35.156250
7804		31.250000
7805		37.109375
7806		35.156250
7807		39.062500
7808		37.109375
7809		42.968750
7810		41.015625
7811		44.921875
7812		39.062500
7813		46.875000
7814		44.921875
7815		48.828125
7816		46.875000
7817		50.781250
7818		46.875000
7819		54.687500
7820		48.828125
7821		54.687500
7822		52.734375
7823		56.640625
7824		52.734375
7825		60.546875
7826		52.734375
7827		60.546875
7828		54.687500
7829		62.500000
7830		58.593750
7831		62.500000
7832		60.546875
7833		62.500000
7834		60.546875
7835		66.406250
7836		60.546875
7837		66.406250
7838		62.500000
7839		66.406250
7840		64.453125
7841		68.359375
7842		62.500000
7843		70.312500
7844		60.546875
7845		70.312500
7846		66.406250
7847		68.359375
7848		66.406250
7849		68.359375
7850		64.453125
7851		70.312500
7852		62.500000
7853		72.265625
7854		64.453125
7855		70.312500
7856		66.406250
7857		68.359375
7858		60.546875
7859		70.312500
7860		62.500000
7861		70.312500
7862		60.546875
7863		70.312500
7864		64.453125
7865		66.406250
7866		60.546875
7867		64.453125
7868		56.640625
7869		66.406250
7870		58.593750
7871		66.406250
7872		58.593750
7873		62.500000
7874		56.640625
7875		60.546875
7876		52.734375
7877		62.500000
7878		50.781250
7879		60.546875
7880		52.734375
7881		54.687500
7882		50.781250
7883		54.687500
7884		48.828125
7885		52.734375
7886		42.968750
7887		52.734375
7888		44.921875
7889		50.781250
7890		42.968750
7891		44.921875
7892		37.109375
7893		46.875000
7894		35.156250
7895		44.921875
7896		33.203125
7897		41.015625
7898		33.203125
7899		37.109375
7900		29.296875
7901		33.203125
7902		23.437500
7903		33.203125
7904		23.437500
7905		29.296875
7906		21.484375
7907		25.390625
7908		17.578125
7909		23.437500
7910		13.671875
7911		23.437500
7912		11.718750
7913		19.531250
7914		9.765625
7915		13.671875
7916		7.812500
7917		11.718750
7918		3.906250
7919		9.765625
7920		0.000000
7921		9.765625
7922		0.000000
7923		3.906250
7924		-5.859375
7925		0.000000
7926		-9.765625
7927		0.000000
7928		-11.718750
7929		-5.859375
7930		-11.718750
7931		-7.812500
7932		-13.671875
7933		-11.718750
7934		-17.578125
7935		-13.671875
7936		-21.484375
7937		-13.671875
7938		-23.437500
7939		-17.578125
7940		-25.390625
7941		-21.484375
7942		-29.296875
7943		-21.484375
7944		-31.250000
7945		-21.484375
7946		-33.203125
7947		-25.390625
7948		-33.203125
7949		-29.296875
7950		-37.109375
7951		-33.203125
7952		-39.062500
7953		-33.203125
7954		-41.015625
7955		-33.203125
7956		-41.015625
7957		-35.156250
7958		-41.015625
7959		-39.062500
7960		-46.875000
7961		-37.109375
7962		-46.875000
7963		-39.062500
7964		-44.921875
7965		-42.968750
7966		-46.875000
7967		-42.968750
7968		-48.828125
7969		-42.968750
7970		-50.781250
7971		-42.968750
7972		-48.828125
7973		-44.921875
7974		-48.828125
7975		-44.921875
7976		-50.781250
7977		-42.968750
7978		-52.734375
7979		-42.968750
7980		-50.781250
7981		-44.921875
7982		-48.828125
7983		-44.921875
7984		-48.828125
7985		-44.921875
7986		-48.828125
7987		-41.015625
7988		-48.828125
7989		-42.968750
7990		-46.875000
7991		-42.968750
7992		-46.875000
7993		-39.062500
7994		-46.875000
7995		-39.062500
7996		-44.921875
7997		-37.109375
7998		-41.015625
7999		-39.062500
8000		-39.062500
8001		-37.109375
8002		-39.062500
8003		-33.203125
8004		-39.062500
8005		-29.296875
8006		-35.156250
8007		-31.250000
8008		-33.203125
8009		-27.343750
8010		-33.203125
8011		-27.343750
8012		-29.296875
8013		-21.484375
8014		-25.390625
8015		-21.484375
8016		-23.437500
8017		-19.531250
8018		-21.484375
8019		-17.578125
8020		-19.531250
8021		-11.718750
8022		-17.578125
8023		-11.718750
8024		-13.671875
8025		-9.765625
8026		-11.718750
8027		-3.906250
8028		-7.812500
8029		-3.906250
8030		-5.859375
8031		-1.953125
8032		-1.953125
8033		1.953125
8034		0.000000
8035		3.906250
8036		3.906250
8037		7.812500
8038		5.859375
8039		11.718750
8040		7.812500
8041		13.671875
8042		11.718750
8043		17.578125
8044		13.671875
8045		19.531250
8046		17.578125
8047		21.484375
8048		19.531250
8049		23.437500
8050		23.437500
8051		27.343750
8052		25.390625
8053		29.296875
8054		27.343750
8055		33.203125
8056		31.250000
8057		35.156250
8058		33.203125
8059		37.109375
8060		35.156250
8061		39.062500
8062		39.062500
8063		42.968750
8064		41.015625
8065		44.921875
8066		42.968750
8067		46.875000
8068		44.921875
8069		48.828125
8070		46.875000
8071		50.781250
8072		48.828125
8073		52.734375
8074		50.781250
8075		54.687500
8076		52.734375
8077		56.640625
8078		54.687500
8079		56.640625
8080		56.640625
8081		58.593750
8082		58.593750
8083		60.546875
8084		58.593750
8085		62.500000
8086		58.593750
8087		64.453125
8088		60.546875
8089		66.406250
8090		60.546875
8091		66.406250
8092		62.500000
8093		66.406250
8094		62.500000
8095		68.359375
8096		64.453125
8097		68.359375
8098		64.453125
8099		68.359375
8100		66.406250
8101		68.359375
8102		64.453125
8103		68.359375
8104		64.453125
8105		70.312500
8106		64.453125
8107		68.359375
8108		64.453125
8109		70.312500
8110		64.453125
8111		68.359375
8112		64.453125
8113		68.359375
8114		64.453125
8115		68.359375
8116		64.453125
8117		66.406250
8118		62.500000
8119		64.453125
8120		60.546875
8121		66.406250
8122		60.546875
8123		64.453125
8124		58.593750
8125		62.500000
8126		56.640625
8127		62.500000
8128		54.687500
8129		60.546875
8130		54.687500
8131		58.593750
8132		52.734375
8133		56.640625
8134		50.781250
8135		54.687500
8136		48.828125
8137		54.687500
8138		46.875000
8139		52.734375
8140		44.921875
8141		50.781250
8142		42.968750
8143		48.828125
8144		39.062500
8145		44.921875
8146		37.109375
8147		42.968750
8148		37.109375
8149		41.015625
8150		33.203125
8151		37.109375
8152		31.250000
8153		35.156250
8154		27.343750
8155		33.203125
8156		25.390625
8157		31.250000
8158		21.484375
8159		27.343750
8160		19.531250
8161		25.390625
8162		17.578125
8163		21.484375
8164		13.671875
8165		19.531250
8166		11.718750
8167		15.625000
8168		9.765625
8169		13.671875
8170		5.859375
8171		11.718750
8172		3.906250
8173		7.812500
8174		0.000000
8175		5.859375
8176		-3.906250
8177		3.906250
8178		-5.859375
8179		0.000000
8180		-7.812500
8181		-1.953125
8182		-11.718750
8183		-5.859375
8184		-13.671875
8185		-9.765625
8186		-17.578125
8187		-11.718750
8188		-19.531250
8189		-13.671875
8190		-21.484375
8191		-15.625000
8192		-25.390625
8193		-19.531250
8194		-27.343750
8195		-21.484375
8196		-29.296875
8197		-23.437500
8198		-31.250000
8199		-27.343750
8200		-33.203125
8201		-29.296875
8202		-35.156250
8203		-31.250000
8204		-37.109375
8205		-31.250000
8206		-39.062500
8207		-35.156250
8208		-42.968750
8209		-37.109375
8210		-42.968750
8211		-37.109375
8212		-42.968750
8213		-39.062500
8214		-44.921875
8215		-41.015625
8216		-44.921875
8217		-42.968750
8218		-46.875000
8219		-42.968750
8220		-46.875000
8221		-42.968750
8222		-48.828125
8223		-44.921875
8224		-48.828125
8225		-44.921875
8226		-50.781250
8227		-44.921875
8228		-48.828125
8229		-46.875000
8230		-48.828125
8231		-46.875000
8232		-48.828125
8233		-44.921875
8234		-48.828125
8235		-46.875000
8236		-48.828125
8237		-44.921875
8238		-48.828125
8239		-44.921875
8240		-46.875000
8241		-44.921875
8242		-48.828125
8243		-42.968750
8244		-46.875000
8245		-42.968750
8246		-44.921875
8247		-41.015625
8248		-44.921875
8249		-41.015625
8250		-42.968750
8251		-39.062500
8252		-41.015625
8253		-37.109375
8254		-41.015625
8255		-37.109375
8256		-39.062500
8257		-33.203125
8258		-37.109375
8259		-31.250000
8260		-35.156250
8261		-29.296875
8262		-33.203125
8263		-29.296875
8264		-31.250000
8265		-25.390625
8266		-29.296875
8267		-23.437500
8268		-25.390625
8269		-21.484375
8270		-23.437500
8271		-17.578125
8272		-21.484375
8273		-17.578125
8274		-19.531250
8275		-13.671875
8276		-15.625000
8277		-11.718750
8278		-13.671875
8279		-7.812500
8280		-9.765625
8281		-5.859375
8282		-7.812500
8283		-3.906250
8284		-3.906250
8285		0.000000
8286		-1.953125
8287		1.953125
8288		0.000000
8289		5.859375
8290		3.906250
8291		9.765625
8292		5.859375
8293		11.718750
8294		7.812500
8295		13.671875
8296		11.718750
8297		17.578125
8298		15.625000
8299		21.484375
8300		17.578125
8301		21.484375
8302		21.484375
8303		25.390625
8304		23.437500
8305		27.343750
8306		25.390625
8307		31.250000
8308		29.296875
8309		33.203125
8310		31.250000
8311		35.156250
8312		33.203125
8313		39.062500
8314		37.109375
8315		41.015625
8316		39.062500
8317		42.968750
8318		41.015625
8319		44.921875
8320		42.968750
8321		46.875000
8322		44.921875
8323		48.828125
8324		46.875000
8325		50.781250
8326		48.828125
8327		54.687500
8328		50.781250
8329		54.687500
8330		52.734375
8331		56.640625
8332		54.687500
8333		58.593750
8334		56.640625
8335		58.593750
8336		58.593750
8337		60.546875
8338		58.593750
8339		62.500000
8340		60.546875
8341		62.500000
8342		60.546875
8343		64.453125
8344		62.500000
8345		64.453125
8346		62.500000
8347		66.406250
8348		64.453125
8349		66.406250
8350		64.453125
8351		66.406250
8352		64.453125
8353		66.406250
8354		64.453125
8355		68.359375
8356		64.453125
8357		68.359375
8358		64.453125
8359		68.359375
8360		64.453125
8361		68.359375
8362		64.453125
8363		68.359375
8364		64.453125
8365		68.359375
8366		62.500000
8367		66.406250
8368		62.500000
8369		66.406250
8370		62.500000
8371		64.453125
8372		62.500000
8373		66.406250
8374		60.546875
8375		64.453125
8376		58.593750
8377		62.500000
8378		58.593750
8379		60.546875
8380		56.640625
8381		60.546875
8382		54.687500
8383		58.593750
8384		54.687500
8385		58.593750
8386		52.734375
8387		56.640625
8388		50.781250
8389		54.687500
8390		46.875000
8391		52.734375
8392		46.875000
8393		50.781250
8394		44.921875
8395		48.828125
8396		42.968750
8397		46.875000
8398		39.062500
8399		44.921875
8400		37.109375
8401		41.015625
8402		35.156250
8403		39.062500
8404		31.250000
8405		37.109375
8406		29.296875
8407		35.156250
8408		27.343750
8409		31.250000
8410		23.437500
8411		29.296875
8412		21.484375
8413		25.390625
8414		19.531250
8415		23.437500
8416		15.625000
8417		21.484375
8418		13.671875
8419		17.578125
8420		9.765625
8421		15.625000
8422		7.812500
8423		13.671875
8424		3.906250
8425		9.765625
8426		1.953125
8427		5.859375
8428		-1.953125
8429		3.906250
8430		-3.906250
8431		1.953125
8432		-5.859375
8433		-1.953125
8434		-9.765625
8435		-3.906250
8436		-11.718750
8437		-7.812500
8438		-15.625000
8439		-9.765625
8440		-17.578125
8441		-13.671875
8442		-21.484375
8443		-15.625000
8444		-23.437500
8445		-17.578125
8446		-25.390625
8447		-19.531250
8448		-27.343750
8449		-23.437500
8450		-29.296875
8451		-25.390625
8452		-31.250000
8453		-27.343750
8454		-33.203125
8455		-29.296875
8456		-35.156250
8457		-31.250000
8458		-37.109375
8459		-33.203125
8460		-39.062500
8461		-35.156250
8462		-41.015625
8463		-37.109375
8464		-42.968750
8465		-39.062500
8466		-42.968750
8467		-41.015625
8468		-44.921875
8469		-41.015625
8470		-46.875000
8471		-42.968750
8472		-46.875000
8473		-42.968750
8474		-48.828125
8475		-44.921875
8476		-48.828125
8477		-44.921875
8478		-48.828125
8479		-44.921875
8480		-48.828125
8481		-46.875000
8482		-48.828125
8483		-46.875000
8484		-50.781250
8485		-46.875000
8486		-48.828125
8487		-46.875000
8488		-50.781250
8489		-44.921875
8490		-48.828125
8491		-46.875000
8492		-48.828125
8493		-44.921875
8494		-48.828125
8495		-44.921875
8496		-46.875000
8497		-44.921875
8498		-46.875000
8499		-42.968750
8500		-44.921875
8501		-41.015625
8502		-42.968750
8503		-41.015625
8504		-42.968750
8505		-39.062500
8506		-41.015625
8507		-37.109375
8508		-39.062500
8509		-35.156250
8510		-37.109375
8511		-33.203125
8512		-35.156250
8513		-31.250000
8514		-35.156250
8515		-29.296875
8516		-31.250000
8517		-27.343750
8518		-29.296875
8519		-25.390625
8520		-27.343750
8521		-23.437500
8522		-25.390625
8523		-19.531250
8524		-21.484375
8525		-17.578125
8526		-21.484375
8527		-15.625000
8528		-17.578125
8529		-13.671875
8530		-15.625000
8531		-9.765625
8532		-11.718750
8533		-7.812500
8534		-9.765625
8535		-5.859375
8536		-5.859375
8537		-1.953125
8538		-3.906250
8539		0.000000
8540		-1.953125
8541		3.906250
8542		1.953125
8543		5.859375
8544		3.906250
8545		9.765625
8546		7.812500
8547		11.718750
8548		9.765625
8549		13.671875
8550		11.718750
8551		17.578125
8552		15.625000
8553		19.531250
8554		19.531250
8555		23.437500
8556		21.484375
8557		25.390625
8558		23.437500
8559		29.296875
8560		27.343750
8561		31.250000
8562		29.296875
8563		33.203125
8564		31.250000
8565		37.109375
8566		33.203125
8567		39.062500
8568		37.109375
8569		41.015625
8570		39.062500
8571		42.968750
8572		41.015625
8573		46.875000
8574		44.921875
8575		48.828125
8576		46.875000
8577		48.828125
8578		46.875000
8579		52.734375
8580		48.828125
8581		52.734375
8582		50.781250
8583		54.687500
8584		52.734375
8585		58.593750
8586		54.687500
8587		58.593750
8588		56.640625
8589		60.546875
8590		58.593750
8591		60.546875
8592		58.593750
8593		62.500000
8594		60.546875
8595		64.453125
8596		60.546875
8597		64.453125
8598		62.500000
8599		66.406250
8600		62.500000
8601		66.406250
8602		62.500000
8603		66.406250
8604		64.453125
8605		66.406250
8606		64.453125
8607		68.359375
8608		64.453125
8609		68.359375
8610		64.453125
8611		68.359375
8612		64.453125
8613		68.359375
8614		64.453125
8615		68.359375
8616		64.453125
8617		68.359375
8618		64.453125
8619		68.359375
8620		62.500000
8621		66.406250
8622		62.500000
8623		66.406250
8624		62.500000
8625		66.406250
8626		60.546875
8627		64.453125
8628		60.546875
8629		62.500000
8630		58.593750
8631		62.500000
8632		56.640625
8633		60.546875
8634		56.640625
8635		60.546875
8636		54.687500
8637		58.593750
8638		52.734375
8639		56.640625
8640		50.781250
8641		54.687500
8642		48.828125
8643		52.734375
8644		46.875000
8645		50.781250
8646		44.921875
8647		48.828125
8648		42.968750
8649		46.875000
8650		41.015625
8651		44.921875
8652		39.062500
8653		42.968750
8654		35.156250
8655		41.015625
8656		33.203125
8657		39.062500
8658		31.250000
8659		35.156250
8660		29.296875
8661		33.203125
8662		27.343750
8663		31.250000
8664		23.437500
8665		27.343750
8666		19.531250
8667		25.390625
8668		17.578125
8669		21.484375
8670		15.625000
8671		19.531250
8672		11.718750
8673		15.625000
8674		9.765625
8675		13.671875
8676		5.859375
8677		11.718750
8678		3.906250
8679		7.812500
8680		1.953125
8681		3.906250
8682		-1.953125
8683		1.953125
8684		-3.906250
8685		0.000000
8686		-7.812500
8687		-3.906250
8688		-9.765625
8689		-5.859375
8690		-13.671875
8691		-9.765625
8692		-15.625000
8693		-9.765625
8694		-17.578125
8695		-13.671875
8696		-21.484375
8697		-17.578125
8698		-23.437500
8699		-17.578125
8700		-25.390625
8701		-21.484375
8702		-29.296875
8703		-23.437500
8704		-29.296875
8705		-27.343750
8706		-33.203125
8707		-29.296875
8708		-35.156250
8709		-31.250000
8710		-37.109375
8711		-33.203125
8712		-37.109375
8713		-35.156250
8714		-39.062500
8715		-37.109375
8716		-41.015625
8717		-39.062500
8718		-42.968750
8719		-39.062500
8720		-44.921875
8721		-39.062500
8722		-44.921875
8723		-42.968750
8724		-46.875000
8725		-42.968750
8726		-46.875000
8727		-42.968750
8728		-48.828125
8729		-44.921875
8730		-48.828125
8731		-44.921875
8732		-48.828125
8733		-46.875000
8734		-48.828125
8735		-46.875000
8736		-50.781250
8737		-46.875000
8738		-48.828125
8739		-46.875000
8740		-48.828125
8741		-46.875000
8742		-50.781250
8743		-46.875000
8744		-48.828125
8745		-44.921875
8746		-48.828125
8747		-44.921875
8748		-46.875000
8749		-44.921875
8750		-46.875000
8751		-42.968750
8752		-44.921875
8753		-41.015625
8754		-44.921875
8755		-41.015625
8756		-42.968750
8757		-41.015625
8758		-42.968750
8759		-37.109375
8760		-41.015625
8761		-37.109375
8762		-39.062500
8763		-35.156250
8764		-37.109375
8765		-33.203125
8766		-35.156250
8767		-31.250000
8768		-33.203125
8769		-29.296875
8770		-31.250000
8771		-27.343750
8772		-29.296875
8773		-25.390625
8774		-27.343750
8775		-21.484375
8776		-25.390625
8777		-19.531250
8778		-21.484375
8779		-17.578125
8780		-19.531250
8781		-15.625000
8782		-17.578125
8783		-11.718750
8784		-13.671875
8785		-9.765625
8786		-11.718750
8787		-5.859375
8788		-7.812500
8789		-3.906250
8790		-5.859375
8791		-1.953125
8792		-3.906250
8793		1.953125
8794		0.000000
8795		3.906250
8796		1.953125
8797		7.812500
8798		5.859375
8799		11.718750
8800		7.812500
8801		13.671875
8802		11.718750
8803		15.625000
8804		13.671875
8805		17.578125
8806		17.578125
8807		21.484375
8808		19.531250
8809		23.437500
8810		23.437500
8811		27.343750
8812		25.390625
8813		29.296875
8814		27.343750
8815		31.250000
8816		29.296875
8817		35.156250
8818		33.203125
8819		37.109375
8820		35.156250
8821		39.062500
8822		37.109375
8823		41.015625
8824		41.015625
8825		44.921875
8826		41.015625
8827		46.875000
8828		44.921875
8829		48.828125
8830		46.875000
8831		50.781250
8832		48.828125
8833		52.734375
8834		50.781250
8835		54.687500
8836		52.734375
8837		56.640625
8838		54.687500
8839		56.640625
8840		56.640625
8841		58.593750
8842		56.640625
8843		60.546875
8844		56.640625
8845		62.500000
8846		58.593750
8847		62.500000
8848		60.546875
8849		64.453125
8850		62.500000
8851		64.453125
8852		62.500000
8853		66.406250
8854		62.500000
8855		66.406250
8856		64.453125
8857		68.359375
8858		64.453125
8859		68.359375
8860		64.453125
8861		68.359375
8862		64.453125
8863		68.359375
8864		64.453125
8865		68.359375
8866		64.453125
8867		68.359375
8868		64.453125
8869		68.359375
8870		62.500000
8871		68.359375
8872		64.453125
8873		66.406250
8874		62.500000
8875		66.406250
8876		62.500000
8877		66.406250
8878		62.500000
8879		64.453125
8880		60.546875
8881		64.453125
8882		60.546875
8883		62.500000
8884		58.593750
8885		62.500000
8886		56.640625
8887		60.546875
8888		54.687500
8889		58.593750
8890		54.687500
8891		56.640625
8892		52.734375
8893		56.640625
8894		50.781250
8895		54.687500
8896		48.828125
8897		52.734375
8898		46.875000
8899		50.781250
8900		44.921875
8901		48.828125
8902		42.968750
8903		46.875000
8904		39.062500
8905		44.921875
8906		37.109375
8907		41.015625
8908		35.156250
8909		39.062500
8910		33.203125
8911		37.109375
8912		29.296875
8913		35.156250
8914		27.343750
8915		31.250000
8916		25.390625
8917		29.296875
8918		21.484375
8919		27.343750
8920		19.531250
8921		23.437500
8922		17.578125
8923		21.484375
8924		13.671875
8925		17.578125
8926		11.718750
8927		15.625000
8928		7.812500
8929		11.718750
8930		5.859375
8931		9.765625
8932		1.953125
8933		7.812500
8934		0.000000
8935		3.906250
8936		-3.906250
8937		1.953125
8938		-5.859375
8939		-1.953125
8940		-7.812500
8941		-3.906250
8942		-11.718750
8943		-7.812500
8944		-15.625000
8945		-9.765625
8946		-17.578125
8947		-13.671875
8948		-19.531250
8949		-15.625000
8950		-23.437500
8951		-17.578125
8952		-25.390625
8953		-19.531250
8954		-27.343750
8955		-21.484375
8956		-29.296875
8957		-25.390625
8958		-31.250000
8959		-27.343750
8960		-33.203125
8961		-29.296875
8962		-35.156250
8963		-31.250000
8964		-37.109375
8965		-33.203125
8966		-39.062500
8967		-35.156250
8968		-41.015625
8969		-37.109375
8970		-42.968750
8971		-39.062500
8972		-42.968750
8973		-39.062500
8974		-44.921875
8975		-41.015625
8976		-46.875000
8977		-42.968750
8978		-46.875000
8979		-42.968750
8980		-48.828125
8981		-44.921875
8982		-48.828125
8983		-46.875000
8984		-48.828125
8985		-44.921875
8986		-48.828125
8987		-46.875000
8988		-50.781250
8989		-46.875000
8990		-48.828125
8991		-46.875000
8992		-48.828125
8993		-46.875000
8994		-50.781250
8995		-46.875000
8996		-50.781250
8997		-46.875000
8998		-48.828125
8999		-44.921875
9000		-48.828125
9001		-44.921875
9002		-46.875000
9003		-44.921875
9004		-46.875000
9005		-42.968750
9006		-46.875000
9007		-42.968750
9008		-44.921875
9009		-41.015625
9010		-42.968750
9011		-39.062500
9012		-42.968750
9013		-37.109375
9014		-39.062500
9015		-37.109375
9016		-39.062500
9017		-35.156250
9018		-37.109375
9019		-33.203125
9020		-35.156250
9021		-31.250000
9022		-33.203125
9023		-29.296875
9024		-31.250000
9025		-27.343750
9026		-27.343750
9027		-23.437500
9028		-27.343750
9029		-21.484375
9030		-23.437500
9031		-19.531250
9032		-21.484375
9033		-17.578125
9034		-17.578125
9035		-15.625000
9036		-17.578125
9037		-11.718750
9038		-13.671875
9039		-9.765625
9040		-9.765625
9041		-5.859375
9042		-7.812500
9043		-3.906250
9044		-5.859375
9045		0.000000
9046		-1.953125
9047		1.953125
9048		0.000000
9049		5.859375
9050		3.906250
9051		7.812500
9052		5.859375
9053		9.765625
9054		9.765625
9055		13.671875
9056		11.718750
9057		15.625000
9058		15.625000
9059		19.531250
9060		17.578125
9061		23.437500
9062		19.531250
9063		25.390625
9064		23.437500
9065		27.343750
9066		25.390625
9067		29.296875
9068		27.343750
9069		33.203125
9070		29.296875
9071		35.156250
9072		33.203125
9073		37.109375
9074		35.156250
9075		39.062500
9076		39.062500
9077		42.968750
9078		41.015625
9079		44.921875
9080		42.968750
9081		46.875000
9082		44.921875
9083		48.828125
9084		46.875000
9085		50.781250
9086		48.828125
9087		52.734375
9088		50.781250
9089		54.687500
9090		52.734375
9091		56.640625
9092		54.687500
9093		56.640625
9094		56.640625
9095		58.593750
9096		56.640625
9097		60.546875
9098		58.593750
9099		62.500000
9100		58.593750
9101		64.453125
9102		60.546875
9103		64.453125
9104		62.500000
9105		64.453125
9106		62.500000
9107		66.406250
9108		62.500000
9109		66.406250
9110		62.500000
9111		68.359375
9112		64.453125
9113		66.406250
9114		64.453125
9115		68.359375
9116		64.453125
9117		66.406250
9118		64.453125
9119		68.359375
9120		64.453125
9121		68.359375
9122		64.453125
9123		68.359375
9124		64.453125
9125		66.406250
9126		64.453125
9127		66.406250
9128		62.500000
9129		66.406250
9130		62.500000
9131		64.453125
9132		60.546875
9133		64.453125
9134		60.546875
9135		62.500000
9136		58.593750
9137		62.500000
9138		58.593750
9139		60.546875
9140		56.640625
9141		60.546875
9142		54.687500
9143		58.593750
9144		52.734375
9145		56.640625
9146		50.781250
9147		54.687500
9148		48.828125
9149		52.734375
9150		48.828125
9151		50.781250
9152		44.921875
9153		48.828125
9154		42.968750
9155		46.875000
9156		41.015625
9157		46.875000
9158		39.062500
9159		42.968750
9160		37.109375
9161		41.015625
9162		35.156250
9163		39.062500
9164		31.250000
9165		37.109375
9166		29.296875
9167		33.203125
9168		27.343750
9169		31.250000
9170		23.437500
9171		27.343750
9172		21.484375
9173		25.390625
9174		17.578125
9175		23.437500
9176		15.625000
9177		19.531250
9178		11.718750
9179		17.578125
9180		9.765625
9181		13.671875
9182		7.812500
9183		11.718750
9184		3.906250
9185		7.812500
9186		1.953125
9187		5.859375
9188		-1.953125
9189		3.906250
9190		-3.906250
9191		0.000000
9192		-7.812500
9193		-3.906250
9194		-9.765625
9195		-5.859375
9196		-13.671875
9197		-7.812500
9198		-15.625000
9199		-11.718750
9200		-17.578125
9201		-13.671875
9202		-21.484375
9203		-15.625000
9204		-23.437500
9205		-19.531250
9206		-27.343750
9207		-21.484375
9208		-27.343750
9209		-23.437500
9210		-29.296875
9211		-25.390625
9212		-33.203125
9213		-27.343750
9214		-35.156250
9215		-31.250000
9216		-37.109375
9217		-33.203125
9218		-39.062500
9219		-35.156250
9220		-41.015625
9221		-37.109375
9222		-41.015625
9223		-37.109375
9224		-42.968750
9225		-39.062500
9226		-44.921875
9227		-41.015625
9228		-46.875000
9229		-42.968750
9230		-46.875000
9231		-42.968750
9232		-48.828125
9233		-44.921875
9234		-48.828125
9235		-44.921875
9236		-48.828125
9237		-46.875000
9238		-48.828125
9239		-46.875000
9240		-50.781250
9241		-46.875000
9242		-50.781250
9243		-46.875000
9244		-50.781250
9245		-46.875000
9246		-50.781250
9247		-46.875000
9248		-50.781250
9249		-46.875000
9250		-48.828125
9251		-46.875000
9252		-48.828125
9253		-46.875000
9254		-48.828125
9255		-44.921875
9256		-48.828125
9257		-44.921875
9258		-46.875000
9259		-42.968750
9260		-44.921875
9261		-42.968750
9262		-44.921875
9263		-41.015625
9264		-42.968750
9265		-39.062500
9266		-41.015625
9267		-37.109375
9268		-41.015625
9269		-35.156250
9270		-37.109375
9271		-35.156250
9272		-37.109375
9273		-33.203125
9274		-35.156250
9275		-31.250000
9276		-31.250000
9277		-29.296875
9278		-29.296875
9279		-25.390625
9280		-27.343750
9281		-23.437500
9282		-25.390625
9283		-21.484375
9284		-23.437500
9285		-19.531250
9286		-21.484375
9287		-17.578125
9288		-17.578125
9289		-13.671875
9290		-15.625000
9291		-9.765625
9292		-11.718750
9293		-7.812500
9294		-9.765625
9295		-5.859375
9296		-7.812500
9297		-1.953125
9298		-3.906250
9299		0.000000
9300		-1.953125
9301		3.906250
9302		1.953125
9303		5.859375
9304		3.906250
9305		9.765625
9306		7.812500
9307		11.718750
9308		9.765625
9309		13.671875
9310		13.671875
9311		17.578125
9312		15.625000
9313		19.531250
9314		17.578125
9315		23.437500
9316		21.484375
9317		25.390625
9318		23.437500
9319		27.343750
9320		25.390625
9321		31.250000
9322		29.296875
9323		33.203125
9324		31.250000
9325		35.156250
9326		35.156250
9327		39.062500
9328		37.109375
9329		41.015625
9330		39.062500
9331		42.968750
9332		41.015625
9333		44.921875
9334		42.968750
9335		46.875000
9336		44.921875
9337		48.828125
9338		46.875000
9339		52.734375
9340		48.828125
9341		52.734375
9342		50.781250
9343		54.687500
9344		52.734375
9345		56.640625
9346		54.687500
9347		58.593750
9348		56.640625
9349		58.593750
9350		56.640625
9351		60.546875
9352		58.593750
9353		62.500000
9354		60.546875
9355		62.500000
9356		60.546875
9357		64.453125
9358		62.500000
9359		64.453125
9360		62.500000
9361		66.406250
9362		62.500000
9363		66.406250
9364		62.500000
9365		66.406250
9366		64.453125
9367		66.406250
9368		64.453125
9369		66.406250
9370		64.453125
9371		66.406250
9372		64.453125
9373		68.359375
9374		64.453125
9375		66.406250
9376		64.453125
9377		66.406250
9378		64.453125
9379		66.406250
9380		62.500000
9381		66.406250
9382		62.500000
9383		64.453125
9384		60.546875
9385		66.406250
9386		60.546875
9387		64.453125
9388		58.593750
9389		62.500000
9390		58.593750
9391		60.546875
9392		56.640625
9393		60.546875
9394		56.640625
9395		58.593750
9396		52.734375
9397		58.593750
9398		52.734375
9399		56.640625
9400		50.781250
9401		54.687500
9402		48.828125
9403		52.734375
9404		46.875000
9405		50.781250
9406		44.921875
9407		48.828125
9408		42.968750
9409		46.875000
9410		41.015625
9411		44.921875
9412		39.062500
9413		42.968750
9414		35.156250
9415		39.062500
9416		33.203125
9417		37.109375
9418		31.250000
9419		35.156250
9420		27.343750
9421		33.203125
9422		25.390625
9423		29.296875
9424		23.437500
9425		27.343750
9426		19.531250
9427		25.390625
9428		17.578125
9429		21.484375
9430		13.671875
9431		19.531250
9432		11.718750
9433		15.625000
9434		7.812500
9435		13.671875
9436		5.859375
9437		9.765625
9438		1.953125
9439		7.812500
9440		0.000000
9441		3.906250
9442		-3.906250
9443		1.953125
9444		-5.859375
9445		-1.953125
9446		-7.812500
9447		-3.906250
9448		-11.718750
9449		-5.859375
9450		-13.671875
9451		-9.765625
9452		-15.625000
9453		-11.718750
9454		-19.531250
9455		-15.625000
9456		-21.484375
9457		-17.578125
9458		-25.390625
9459		-19.531250
9460		-27.343750
9461		-21.484375
9462		-29.296875
9463		-25.390625
9464		-31.250000
9465		-27.343750
9466		-33.203125
9467		-29.296875
9468		-35.156250
9469		-31.250000
9470		-37.109375
9471		-33.203125
9472		-39.062500
9473		-35.156250
9474		-41.015625
9475		-37.109375
9476		-42.968750
9477		-39.062500
9478		-42.968750
9479		-41.015625
9480		-44.921875
9481		-42.968750
9482		-46.875000
9483		-42.968750
9484		-46.875000
9485		-44.921875
9486		-48.828125
9487		-44.921875
9488		-48.828125
9489		-44.921875
9490		-50.781250
9491		-46.875000
9492		-50.781250
9493		-46.875000
9494		-48.828125
9495		-46.875000
9496		-50.781250
9497		-48.828125
9498		-52.734375
9499		-46.875000
9500		-50.781250
9501		-46.875000
9502		-50.781250
9503		-46.875000
9504		-48.828125
9505		-46.875000
9506		-50.781250
9507		-44.921875
9508		-48.828125
9509		-44.921875
9510		-46.875000
9511		-44.921875
9512		-46.875000
9513		-42.968750
9514		-44.921875
9515		-41.015625
9516		-44.921875
9517		-41.015625
9518		-42.968750
9519		-39.062500
9520		-41.015625
9521		-39.062500
9522		-39.062500
9523		-37.109375
9524		-37.109375
9525		-33.203125
9526		-35.156250
9527		-33.203125
9528		-35.156250
9529		-31.250000
9530		-31.250000
9531		-27.343750
9532		-31.250000
9533		-25.390625
9534		-27.343750
9535		-23.437500
9536		-25.390625
9537		-21.484375
9538		-23.437500
9539		-17.578125
9540		-19.531250
9541		-15.625000
9542		-17.578125
9543		-11.718750
9544		-15.625000
9545		-11.718750
9546		-11.718750
9547		-7.812500
9548		-9.765625
9549		-3.906250
9550		-7.812500
9551		-1.953125
9552		-3.906250
9553		0.000000
9554		-1.953125
9555		3.906250
9556		1.953125
9557		5.859375
9558		3.906250
9559		9.765625
9560		7.812500
9561		11.718750
9562		9.765625
9563		15.625000
9564		13.671875
9565		17.578125
9566		15.625000
9567		21.484375
9568		19.531250
9569		23.437500
9570		21.484375
9571		25.390625
9572		23.437500
9573		29.296875
9574		27.343750
9575		31.250000
9576		29.296875
9577		35.156250
9578		31.250000
9579		35.156250
9580		35.156250
9581		39.062500
9582		35.156250
9583		41.015625
9584		39.062500
9585		42.968750
9586		41.015625
9587		44.921875
9588		42.968750
9589		46.875000
9590		44.921875
9591		48.828125
9592		46.875000
9593		52.734375
9594		48.828125
9595		52.734375
9596		50.781250
9597		54.687500
9598		52.734375
9599		56.640625
9600		54.687500
9601		58.593750
9602		56.640625
9603		60.546875
9604		58.593750
9605		60.546875
9606		58.593750
9607		62.500000
9608		58.593750
9609		62.500000
9610		60.546875
9611		64.453125
9612		62.500000
9613		64.453125
9614		62.500000
9615		64.453125
9616		62.500000
9617		66.406250
9618		62.500000
9619		66.406250
9620		64.453125
9621		66.406250
9622		64.453125
9623		66.406250
9624		64.453125
9625		66.406250
9626		62.500000
9627		66.406250
9628		62.500000
9629		68.359375
9630		64.453125
9631		66.406250
9632		62.500000
9633		66.406250
9634		62.500000
9635		66.406250
9636		62.500000
9637		64.453125
9638		60.546875
9639		64.453125
9640		60.546875
9641		62.500000
9642		58.593750
9643		62.500000
9644		58.593750
9645		60.546875
9646		56.640625
9647		60.546875
9648		54.687500
9649		58.593750
9650		52.734375
9651		56.640625
9652		52.734375
9653		54.687500
9654		50.781250
9655		52.734375
9656		48.828125
9657		52.734375
9658		46.875000
9659		50.781250
9660		42.968750
9661		48.828125
9662		41.015625
9663		44.921875
9664		39.062500
9665		42.968750
9666		37.109375
9667		41.015625
9668		35.156250
9669		39.062500
9670		31.250000
9671		37.109375
9672		29.296875
9673		35.156250
9674		27.343750
9675		31.250000
9676		25.390625
9677		29.296875
9678		21.484375
9679		27.343750
9680		19.531250
9681		23.437500
9682		15.625000
9683		21.484375
9684		13.671875
9685		17.578125
9686		9.765625
9687		15.625000
9688		7.812500
9689		11.718750
9690		3.906250
9691		9.765625
9692		1.953125
9693		5.859375
9694		-1.953125
9695		3.906250
9696		-3.906250
9697		0.000000
9698		-5.859375
9699		-1.953125
9700		-9.765625
9701		-3.906250
9702		-11.718750
9703		-7.812500
9704		-15.625000
9705		-11.718750
9706		-17.578125
9707		-13.671875
9708		-19.531250
9709		-15.625000
9710		-23.437500
9711		-17.578125
9712		-25.390625
9713		-19.531250
9714		-27.343750
9715		-23.437500
9716		-29.296875
9717		-25.390625
9718		-33.203125
9719		-27.343750
9720		-33.203125
9721		-31.250000
9722		-37.109375
9723		-31.250000
9724		-39.062500
9725		-35.156250
9726		-41.015625
9727		-35.156250
9728		-41.015625
9729		-37.109375
9730		-42.968750
9731		-39.062500
9732		-44.921875
9733		-41.015625
9734		-44.921875
9735		-42.968750
9736		-46.875000
9737		-42.968750
9738		-48.828125
9739		-44.921875
9740		-48.828125
9741		-44.921875
9742		-48.828125
9743		-44.921875
9744		-50.781250
9745		-46.875000
9746		-50.781250
9747		-46.875000
9748		-50.781250
9749		-48.828125
9750		-50.781250
9751		-46.875000
9752		-50.781250
9753		-48.828125
9754		-50.781250
9755		-46.875000
9756		-50.781250
9757		-46.875000
9758		-48.828125
9759		-46.875000
9760		-48.828125
9761		-46.875000
9762		-48.828125
9763		-44.921875
9764		-46.875000
9765		-44.921875
9766		-46.875000
9767		-42.968750
9768		-44.921875
9769		-42.968750
9770		-42.968750
9771		-41.015625
9772		-42.968750
9773		-39.062500
9774		-41.015625
9775		-37.109375
9776		-39.062500
9777		-35.156250
9778		-37.109375
9779		-33.203125
9780		-35.156250
9781		-31.250000
9782		-33.203125
9783		-29.296875
9784		-33.203125
9785		-27.343750
9786		-29.296875
9787		-25.390625
9788		-27.343750
9789		-23.437500
9790		-23.437500
9791		-19.531250
9792		-21.484375
9793		-17.578125
9794		-19.531250
9795		-15.625000
9796		-17.578125
9797		-11.718750
9798		-13.671875
9799		-9.765625
9800		-11.718750
9801		-5.859375
9802		-9.765625
9803		-3.906250
9804		-5.859375
9805		0.000000
9806		-3.906250
9807		1.953125
9808		0.000000
9809		3.906250
9810		1.953125
9811		7.812500
9812		5.859375
9813		9.765625
9814		9.765625
9815		13.671875
9816		11.718750
9817		15.625000
9818		13.671875
9819		19.531250
9820		17.578125
9821		21.484375
9822		19.531250
9823		23.437500
9824		23.437500
9825		27.343750
9826		25.390625
9827		29.296875
9828		27.343750
9829		33.203125
9830		31.250000
9831		35.156250
9832		33.203125
9833		37.109375
9834		35.156250
9835		41.015625
9836		37.109375
9837		41.015625
9838		41.015625
9839		44.921875
9840		42.968750
9841		46.875000
9842		42.968750
9843		48.828125
9844		46.875000
9845		50.781250
9846		48.828125
9847		52.734375
9848		50.781250
9849		54.687500
9850		52.734375
9851		56.640625
9852		52.734375
9853		56.640625
9854		54.687500
9855		58.593750
9856		56.640625
9857		60.546875
9858		58.593750
9859		62.500000
9860		58.593750
9861		62.500000
9862		60.546875
9863		64.453125
9864		62.500000
9865		64.453125
9866		62.500000
9867		64.453125
9868		62.500000
9869		66.406250
9870		62.500000
9871		66.406250
9872		64.453125
9873		66.406250
9874		64.453125
9875		66.406250
9876		64.453125
9877		68.359375
9878		64.453125
9879		66.406250
9880		62.500000
9881		66.406250
9882		64.453125
9883		66.406250
9884		62.500000
9885		66.406250
9886		62.500000
9887		66.406250
9888		62.500000
9889		66.406250
9890		60.546875
9891		64.453125
9892		60.546875
9893		64.453125
9894		60.546875
9895		64.453125
9896		56.640625
9897		62.500000
9898		56.640625
9899		60.546875
9900		54.687500
9901		58.593750
9902		54.687500
9903		58.593750
9904		52.734375
9905		56.640625
9906		50.781250
9907		54.687500
9908		48.828125
9909		52.734375
9910		46.875000
9911		50.781250
9912		44.921875
9913		48.828125
9914		42.968750
9915		46.875000
9916		41.015625
9917		44.921875
9918		39.062500
9919		42.968750
9920		35.156250
9921		41.015625
9922		33.203125
9923		37.109375
9924		31.250000
9925		35.156250
9926		29.296875
9927		33.203125
9928		25.390625
9929		29.296875
9930		23.437500
9931		27.343750
9932		21.484375
9933		25.390625
9934		17.578125
9935		21.484375
9936		15.625000
9937		19.531250
9938		11.718750
9939		15.625000
9940		7.812500
9941		13.671875
9942		5.859375
9943		11.718750
9944		3.906250
9945		7.812500
9946		0.000000
9947		5.859375
9948		-1.953125
9949		1.953125
9950		-5.859375
9951		0.000000
9952		-7.812500
9953		-1.953125
9954		-11.718750
9955		-5.859375
9956		-13.671875
9957		-7.812500
9958		-15.625000
9959		-11.718750
9960		-19.531250
9961		-13.671875
9962		-21.484375
9963		-17.578125
9964		-23.437500
9965		-17.578125
9966		-25.390625
9967		-21.484375
9968		-29.296875
9969		-25.390625
9970		-31.250000
9971		-27.343750
9972		-33.203125
9973		-29.296875
9974		-35.156250
9975		-31.250000
9976		-37.109375
9977		-33.203125
9978		-39.062500
9979		-35.156250
9980		-41.015625
9981		-37.109375
9982		-41.015625
9983		-39.062500
9984		-42.968750
9985		-41.015625
9986		-44.921875
9987		-41.015625
9988		-46.875000
9989		-42.968750
9990		-46.875000
9991		-42.968750
9992		-48.828125
9993		-44.921875
9994		-48.828125
9995		-44.921875
9996		-50.781250
9997		-46.875000
9998		-50.781250
9999		-46.875000
10000		-50.781250
