Channel              :		CH1
Frequency            :		1.982kHz
Period               :		0.505ms
PK-PK                :		152.3mV
Probe attenuation    :		1X
Voltage per ADC value:		0.122070mV
Time interval        :		2.00000us

index		CH1_Voltage(mV)
1		76.171875
2		76.171875
3		70.312500
4		78.125000
5		72.265625
6		78.125000
7		74.218750
8		78.125000
9		74.218750
10		80.078125
11		74.218750
12		82.031250
13		74.218750
14		80.078125
15		74.218750
16		82.031250
17		74.218750
18		82.031250
19		74.218750
20		80.078125
21		74.218750
22		80.078125
23		76.171875
24		78.125000
25		76.171875
26		78.125000
27		70.312500
28		80.078125
29		70.312500
30		78.125000
31		70.312500
32		76.171875
33		68.359375
34		76.171875
35		68.359375
36		74.218750
37		66.406250
38		74.218750
39		66.406250
40		70.312500
41		64.453125
42		68.359375
43		60.546875
44		68.359375
45		58.593750
46		66.406250
47		54.687500
48		64.453125
49		52.734375
50		60.546875
51		50.781250
52		58.593750
53		48.828125
54		56.640625
55		46.875000
56		54.687500
57		44.921875
58		48.828125
59		39.062500
60		46.875000
61		37.109375
62		46.875000
63		33.203125
64		42.968750
65		31.250000
66		39.062500
67		27.343750
68		37.109375
69		23.437500
70		33.203125
71		21.484375
72		29.296875
73		19.531250
74		23.437500
75		15.625000
76		21.484375
77		9.765625
78		19.531250
79		5.859375
80		15.625000
81		1.953125
82		11.718750
83		0.000000
84		9.765625
85		-3.906250
86		5.859375
87		-7.812500
88		1.953125
89		-9.765625
90		-1.953125
91		-11.718750
92		-7.812500
93		-17.578125
94		-9.765625
95		-21.484375
96		-13.671875
97		-25.390625
98		-15.625000
99		-27.343750
100		-17.578125
101		-31.250000
102		-21.484375
103		-33.203125
104		-25.390625
105		-35.156250
106		-27.343750
107		-37.109375
108		-33.203125
109		-41.015625
110		-35.156250
111		-44.921875
112		-37.109375
113		-46.875000
114		-39.062500
115		-48.828125
116		-41.015625
117		-52.734375
118		-42.968750
119		-54.687500
120		-44.921875
121		-56.640625
122		-46.875000
123		-54.687500
124		-50.781250
125		-56.640625
126		-52.734375
127		-60.546875
128		-52.734375
129		-60.546875
130		-54.687500
131		-62.500000
132		-54.687500
133		-62.500000
134		-56.640625
135		-64.453125
136		-56.640625
137		-64.453125
138		-56.640625
139		-64.453125
140		-58.593750
141		-62.500000
142		-60.546875
143		-64.453125
144		-58.593750
145		-64.453125
146		-56.640625
147		-64.453125
148		-56.640625
149		-64.453125
150		-56.640625
151		-62.500000
152		-54.687500
153		-62.500000
154		-54.687500
155		-60.546875
156		-54.687500
157		-56.640625
158		-54.687500
159		-56.640625
160		-52.734375
161		-56.640625
162		-48.828125
163		-54.687500
164		-46.875000
165		-52.734375
166		-44.921875
167		-50.781250
168		-42.968750
169		-48.828125
170		-41.015625
171		-46.875000
172		-39.062500
173		-44.921875
174		-37.109375
175		-39.062500
176		-35.156250
177		-37.109375
178		-29.296875
179		-35.156250
180		-27.343750
181		-33.203125
182		-23.437500
183		-29.296875
184		-21.484375
185		-25.390625
186		-17.578125
187		-23.437500
188		-13.671875
189		-19.531250
190		-11.718750
191		-15.625000
192		-9.765625
193		-11.718750
194		-5.859375
195		-9.765625
196		0.000000
197		-5.859375
198		1.953125
199		-1.953125
200		5.859375
201		0.000000
202		9.765625
203		3.906250
204		13.671875
205		7.812500
206		17.578125
207		11.718750
208		17.578125
209		17.578125
210		21.484375
211		19.531250
212		27.343750
213		21.484375
214		31.250000
215		23.437500
216		33.203125
217		27.343750
218		37.109375
219		31.250000
220		39.062500
221		33.203125
222		42.968750
223		37.109375
224		44.921875
225		42.968750
226		46.875000
227		44.921875
228		50.781250
229		44.921875
230		54.687500
231		48.828125
232		56.640625
233		50.781250
234		58.593750
235		52.734375
236		62.500000
237		56.640625
238		64.453125
239		58.593750
240		66.406250
241		62.500000
242		66.406250
243		64.453125
244		68.359375
245		64.453125
246		72.265625
247		66.406250
248		74.218750
249		66.406250
250		74.218750
251		68.359375
252		76.171875
253		70.312500
254		78.125000
255		70.312500
256		78.125000
257		72.265625
258		78.125000
259		76.171875
260		78.125000
261		76.171875
262		80.078125
263		74.218750
264		80.078125
265		76.171875
266		80.078125
267		76.171875
268		82.031250
269		76.171875
270		80.078125
271		76.171875
272		80.078125
273		76.171875
274		80.078125
275		74.218750
276		78.125000
277		76.171875
278		78.125000
279		72.265625
280		80.078125
281		72.265625
282		78.125000
283		70.312500
284		78.125000
285		68.359375
286		78.125000
287		68.359375
288		76.171875
289		66.406250
290		74.218750
291		66.406250
292		70.312500
293		64.453125
294		68.359375
295		60.546875
296		68.359375
297		58.593750
298		66.406250
299		56.640625
300		64.453125
301		54.687500
302		62.500000
303		50.781250
304		60.546875
305		48.828125
306		56.640625
307		46.875000
308		54.687500
309		44.921875
310		50.781250
311		41.015625
312		46.875000
313		37.109375
314		46.875000
315		33.203125
316		42.968750
317		31.250000
318		39.062500
319		29.296875
320		37.109375
321		25.390625
322		33.203125
323		21.484375
324		29.296875
325		19.531250
326		25.390625
327		15.625000
328		21.484375
329		11.718750
330		19.531250
331		7.812500
332		15.625000
333		3.906250
334		13.671875
335		0.000000
336		9.765625
337		-3.906250
338		5.859375
339		-7.812500
340		1.953125
341		-7.812500
342		-1.953125
343		-11.718750
344		-5.859375
345		-17.578125
346		-9.765625
347		-19.531250
348		-11.718750
349		-23.437500
350		-13.671875
351		-27.343750
352		-17.578125
353		-29.296875
354		-21.484375
355		-33.203125
356		-23.437500
357		-35.156250
358		-27.343750
359		-37.109375
360		-31.250000
361		-39.062500
362		-35.156250
363		-42.968750
364		-35.156250
365		-46.875000
366		-39.062500
367		-48.828125
368		-41.015625
369		-52.734375
370		-42.968750
371		-52.734375
372		-44.921875
373		-54.687500
374		-46.875000
375		-54.687500
376		-48.828125
377		-56.640625
378		-52.734375
379		-60.546875
380		-52.734375
381		-60.546875
382		-52.734375
383		-60.546875
384		-54.687500
385		-62.500000
386		-56.640625
387		-64.453125
388		-56.640625
389		-64.453125
390		-56.640625
391		-64.453125
392		-58.593750
393		-62.500000
394		-60.546875
395		-64.453125
396		-58.593750
397		-64.453125
398		-56.640625
399		-64.453125
400		-56.640625
401		-64.453125
402		-56.640625
403		-62.500000
404		-56.640625
405		-62.500000
406		-54.687500
407		-60.546875
408		-54.687500
409		-56.640625
410		-54.687500
411		-56.640625
412		-52.734375
413		-56.640625
414		-48.828125
415		-54.687500
416		-46.875000
417		-52.734375
418		-44.921875
419		-50.781250
420		-42.968750
421		-50.781250
422		-41.015625
423		-46.875000
424		-37.109375
425		-44.921875
426		-37.109375
427		-39.062500
428		-35.156250
429		-37.109375
430		-29.296875
431		-37.109375
432		-27.343750
433		-33.203125
434		-25.390625
435		-29.296875
436		-21.484375
437		-27.343750
438		-17.578125
439		-23.437500
440		-15.625000
441		-21.484375
442		-13.671875
443		-15.625000
444		-9.765625
445		-11.718750
446		-5.859375
447		-9.765625
448		-1.953125
449		-5.859375
450		1.953125
451		-3.906250
452		5.859375
453		0.000000
454		7.812500
455		3.906250
456		11.718750
457		7.812500
458		15.625000
459		9.765625
460		17.578125
461		15.625000
462		21.484375
463		19.531250
464		25.390625
465		19.531250
466		31.250000
467		23.437500
468		33.203125
469		27.343750
470		37.109375
471		31.250000
472		39.062500
473		33.203125
474		42.968750
475		37.109375
476		44.921875
477		41.015625
478		46.875000
479		44.921875
480		50.781250
481		44.921875
482		54.687500
483		48.828125
484		56.640625
485		50.781250
486		58.593750
487		52.734375
488		60.546875
489		56.640625
490		64.453125
491		58.593750
492		66.406250
493		62.500000
494		66.406250
495		64.453125
496		68.359375
497		64.453125
498		72.265625
499		64.453125
500		72.265625
501		66.406250
502		74.218750
503		68.359375
504		76.171875
505		70.312500
506		78.125000
507		70.312500
508		80.078125
509		72.265625
510		80.078125
511		76.171875
512		78.125000
513		74.218750
514		80.078125
515		74.218750
516		82.031250
517		74.218750
518		82.031250
519		74.218750
520		82.031250
521		76.171875
522		82.031250
523		74.218750
524		82.031250
525		74.218750
526		82.031250
527		76.171875
528		78.125000
529		76.171875
530		78.125000
531		72.265625
532		80.078125
533		72.265625
534		80.078125
535		70.312500
536		78.125000
537		70.312500
538		78.125000
539		68.359375
540		76.171875
541		66.406250
542		74.218750
543		66.406250
544		72.265625
545		66.406250
546		68.359375
547		60.546875
548		68.359375
549		58.593750
550		66.406250
551		56.640625
552		64.453125
553		54.687500
554		62.500000
555		52.734375
556		60.546875
557		50.781250
558		58.593750
559		48.828125
560		54.687500
561		46.875000
562		50.781250
563		42.968750
564		48.828125
565		39.062500
566		46.875000
567		35.156250
568		42.968750
569		33.203125
570		41.015625
571		29.296875
572		39.062500
573		25.390625
574		35.156250
575		21.484375
576		31.250000
577		21.484375
578		27.343750
579		17.578125
580		23.437500
581		11.718750
582		19.531250
583		9.765625
584		17.578125
585		5.859375
586		13.671875
587		1.953125
588		11.718750
589		-1.953125
590		7.812500
591		-5.859375
592		3.906250
593		-5.859375
594		0.000000
595		-9.765625
596		-5.859375
597		-15.625000
598		-7.812500
599		-19.531250
600		-9.765625
601		-23.437500
602		-13.671875
603		-25.390625
604		-15.625000
605		-29.296875
606		-19.531250
607		-31.250000
608		-23.437500
609		-33.203125
610		-25.390625
611		-35.156250
612		-31.250000
613		-39.062500
614		-33.203125
615		-42.968750
616		-35.156250
617		-44.921875
618		-37.109375
619		-46.875000
620		-39.062500
621		-50.781250
622		-41.015625
623		-52.734375
624		-44.921875
625		-54.687500
626		-46.875000
627		-54.687500
628		-46.875000
629		-54.687500
630		-52.734375
631		-58.593750
632		-52.734375
633		-60.546875
634		-52.734375
635		-62.500000
636		-54.687500
637		-62.500000
638		-54.687500
639		-62.500000
640		-56.640625
641		-64.453125
642		-56.640625
643		-64.453125
644		-56.640625
645		-62.500000
646		-58.593750
647		-62.500000
648		-58.593750
649		-64.453125
650		-56.640625
651		-64.453125
652		-56.640625
653		-64.453125
654		-56.640625
655		-62.500000
656		-54.687500
657		-62.500000
658		-54.687500
659		-60.546875
660		-52.734375
661		-58.593750
662		-54.687500
663		-56.640625
664		-52.734375
665		-56.640625
666		-48.828125
667		-54.687500
668		-46.875000
669		-52.734375
670		-44.921875
671		-50.781250
672		-42.968750
673		-48.828125
674		-41.015625
675		-46.875000
676		-39.062500
677		-44.921875
678		-37.109375
679		-39.062500
680		-35.156250
681		-37.109375
682		-31.250000
683		-37.109375
684		-27.343750
685		-33.203125
686		-25.390625
687		-29.296875
688		-21.484375
689		-27.343750
690		-17.578125
691		-23.437500
692		-15.625000
693		-19.531250
694		-11.718750
695		-15.625000
696		-9.765625
697		-11.718750
698		-7.812500
699		-9.765625
700		-1.953125
701		-7.812500
702		1.953125
703		-3.906250
704		5.859375
705		-1.953125
706		7.812500
707		1.953125
708		11.718750
709		5.859375
710		15.625000
711		11.718750
712		17.578125
713		15.625000
714		21.484375
715		19.531250
716		27.343750
717		19.531250
718		29.296875
719		23.437500
720		33.203125
721		27.343750
722		35.156250
723		31.250000
724		39.062500
725		33.203125
726		42.968750
727		37.109375
728		44.921875
729		41.015625
730		46.875000
731		44.921875
732		48.828125
733		44.921875
734		54.687500
735		46.875000
736		56.640625
737		50.781250
738		58.593750
739		52.734375
740		60.546875
741		56.640625
742		64.453125
743		58.593750
744		66.406250
745		62.500000
746		66.406250
747		64.453125
748		68.359375
749		64.453125
750		72.265625
751		66.406250
752		74.218750
753		68.359375
754		74.218750
755		68.359375
756		76.171875
757		70.312500
758		78.125000
759		70.312500
760		78.125000
761		72.265625
762		80.078125
763		76.171875
764		78.125000
765		76.171875
766		80.078125
767		74.218750
768		82.031250
769		74.218750
770		82.031250
771		76.171875
772		82.031250
773		74.218750
774		82.031250
775		74.218750
776		82.031250
777		74.218750
778		82.031250
779		78.125000
780		80.078125
781		76.171875
782		78.125000
783		74.218750
784		80.078125
785		72.265625
786		80.078125
787		72.265625
788		78.125000
789		70.312500
790		78.125000
791		68.359375
792		76.171875
793		68.359375
794		76.171875
795		66.406250
796		74.218750
797		66.406250
798		70.312500
799		62.500000
800		68.359375
801		60.546875
802		68.359375
803		58.593750
804		66.406250
805		56.640625
806		64.453125
807		52.734375
808		62.500000
809		50.781250
810		58.593750
811		48.828125
812		56.640625
813		46.875000
814		50.781250
815		44.921875
816		48.828125
817		39.062500
818		48.828125
819		37.109375
820		44.921875
821		33.203125
822		41.015625
823		31.250000
824		39.062500
825		27.343750
826		35.156250
827		23.437500
828		33.203125
829		21.484375
830		27.343750
831		19.531250
832		23.437500
833		13.671875
834		19.531250
835		9.765625
836		17.578125
837		5.859375
838		15.625000
839		1.953125
840		11.718750
841		-1.953125
842		7.812500
843		-3.906250
844		3.906250
845		-5.859375
846		1.953125
847		-9.765625
848		-3.906250
849		-15.625000
850		-7.812500
851		-17.578125
852		-7.812500
853		-21.484375
854		-11.718750
855		-23.437500
856		-15.625000
857		-27.343750
858		-19.531250
859		-31.250000
860		-21.484375
861		-33.203125
862		-25.390625
863		-35.156250
864		-29.296875
865		-37.109375
866		-33.203125
867		-41.015625
868		-33.203125
869		-44.921875
870		-37.109375
871		-46.875000
872		-39.062500
873		-48.828125
874		-41.015625
875		-52.734375
876		-42.968750
877		-52.734375
878		-44.921875
879		-54.687500
880		-46.875000
881		-54.687500
882		-50.781250
883		-58.593750
884		-52.734375
885		-60.546875
886		-52.734375
887		-60.546875
888		-52.734375
889		-62.500000
890		-54.687500
891		-62.500000
892		-54.687500
893		-64.453125
894		-56.640625
895		-64.453125
896		-56.640625
897		-62.500000
898		-58.593750
899		-62.500000
900		-58.593750
901		-64.453125
902		-56.640625
903		-64.453125
904		-56.640625
905		-62.500000
906		-56.640625
907		-62.500000
908		-54.687500
909		-62.500000
910		-54.687500
911		-60.546875
912		-52.734375
913		-60.546875
914		-54.687500
915		-56.640625
916		-52.734375
917		-56.640625
918		-48.828125
919		-54.687500
920		-46.875000
921		-54.687500
922		-44.921875
923		-52.734375
924		-42.968750
925		-48.828125
926		-41.015625
927		-46.875000
928		-39.062500
929		-44.921875
930		-39.062500
931		-39.062500
932		-35.156250
933		-37.109375
934		-33.203125
935		-37.109375
936		-27.343750
937		-35.156250
938		-25.390625
939		-31.250000
940		-23.437500
941		-27.343750
942		-19.531250
943		-23.437500
944		-15.625000
945		-21.484375
946		-13.671875
947		-15.625000
948		-11.718750
949		-11.718750
950		-7.812500
951		-9.765625
952		-1.953125
953		-7.812500
954		1.953125
955		-3.906250
956		3.906250
957		0.000000
958		7.812500
959		1.953125
960		11.718750
961		5.859375
962		15.625000
963		9.765625
964		15.625000
965		15.625000
966		19.531250
967		19.531250
968		25.390625
969		19.531250
970		29.296875
971		23.437500
972		31.250000
973		27.343750
974		35.156250
975		29.296875
976		39.062500
977		33.203125
978		42.968750
979		35.156250
980		42.968750
981		41.015625
982		44.921875
983		44.921875
984		48.828125
985		44.921875
986		52.734375
987		48.828125
988		56.640625
989		50.781250
990		58.593750
991		52.734375
992		60.546875
993		54.687500
994		64.453125
995		56.640625
996		66.406250
997		60.546875
998		66.406250
999		64.453125
1000		68.359375
1001		64.453125
1002		72.265625
1003		64.453125
1004		74.218750
1005		66.406250
1006		74.218750
1007		68.359375
1008		76.171875
1009		70.312500
1010		78.125000
1011		72.265625
1012		78.125000
1013		72.265625
1014		80.078125
1015		76.171875
1016		78.125000
1017		74.218750
1018		80.078125
1019		74.218750
1020		82.031250
1021		76.171875
1022		82.031250
1023		76.171875
1024		82.031250
1025		76.171875
1026		82.031250
1027		76.171875
1028		82.031250
1029		74.218750
1030		82.031250
1031		76.171875
1032		80.078125
1033		76.171875
1034		80.078125
1035		74.218750
1036		80.078125
1037		72.265625
1038		80.078125
1039		72.265625
1040		80.078125
1041		70.312500
1042		78.125000
1043		70.312500
1044		76.171875
1045		68.359375
1046		76.171875
1047		68.359375
1048		74.218750
1049		66.406250
1050		70.312500
1051		62.500000
1052		68.359375
1053		60.546875
1054		68.359375
1055		58.593750
1056		66.406250
1057		56.640625
1058		64.453125
1059		54.687500
1060		62.500000
1061		50.781250
1062		60.546875
1063		48.828125
1064		56.640625
1065		48.828125
1066		52.734375
1067		44.921875
1068		48.828125
1069		39.062500
1070		48.828125
1071		37.109375
1072		44.921875
1073		33.203125
1074		42.968750
1075		31.250000
1076		39.062500
1077		27.343750
1078		37.109375
1079		23.437500
1080		33.203125
1081		23.437500
1082		29.296875
1083		19.531250
1084		25.390625
1085		13.671875
1086		21.484375
1087		9.765625
1088		19.531250
1089		7.812500
1090		15.625000
1091		3.906250
1092		11.718750
1093		0.000000
1094		7.812500
1095		-3.906250
1096		5.859375
1097		-5.859375
1098		1.953125
1099		-7.812500
1100		-3.906250
1101		-13.671875
1102		-7.812500
1103		-17.578125
1104		-9.765625
1105		-21.484375
1106		-11.718750
1107		-23.437500
1108		-15.625000
1109		-27.343750
1110		-19.531250
1111		-31.250000
1112		-21.484375
1113		-33.203125
1114		-23.437500
1115		-33.203125
1116		-29.296875
1117		-37.109375
1118		-33.203125
1119		-42.968750
1120		-35.156250
1121		-44.921875
1122		-37.109375
1123		-46.875000
1124		-39.062500
1125		-48.828125
1126		-41.015625
1127		-50.781250
1128		-42.968750
1129		-52.734375
1130		-44.921875
1131		-54.687500
1132		-46.875000
1133		-54.687500
1134		-50.781250
1135		-58.593750
1136		-50.781250
1137		-60.546875
1138		-52.734375
1139		-60.546875
1140		-52.734375
1141		-62.500000
1142		-54.687500
1143		-62.500000
1144		-54.687500
1145		-62.500000
1146		-56.640625
1147		-62.500000
1148		-56.640625
1149		-60.546875
1150		-58.593750
1151		-60.546875
1152		-58.593750
1153		-64.453125
1154		-56.640625
1155		-64.453125
1156		-56.640625
1157		-62.500000
1158		-56.640625
1159		-62.500000
1160		-54.687500
1161		-62.500000
1162		-54.687500
1163		-60.546875
1164		-52.734375
1165		-58.593750
1166		-52.734375
1167		-56.640625
1168		-52.734375
1169		-54.687500
1170		-48.828125
1171		-54.687500
1172		-46.875000
1173		-52.734375
1174		-46.875000
1175		-52.734375
1176		-42.968750
1177		-50.781250
1178		-41.015625
1179		-46.875000
1180		-39.062500
1181		-44.921875
1182		-39.062500
1183		-41.015625
1184		-35.156250
1185		-37.109375
1186		-33.203125
1187		-37.109375
1188		-29.296875
1189		-33.203125
1190		-25.390625
1191		-31.250000
1192		-21.484375
1193		-27.343750
1194		-19.531250
1195		-23.437500
1196		-15.625000
1197		-21.484375
1198		-11.718750
1199		-15.625000
1200		-11.718750
1201		-13.671875
1202		-7.812500
1203		-9.765625
1204		-1.953125
1205		-7.812500
1206		1.953125
1207		-3.906250
1208		3.906250
1209		-1.953125
1210		7.812500
1211		1.953125
1212		11.718750
1213		5.859375
1214		15.625000
1215		9.765625
1216		17.578125
1217		15.625000
1218		19.531250
1219		17.578125
1220		25.390625
1221		19.531250
1222		29.296875
1223		23.437500
1224		31.250000
1225		25.390625
1226		35.156250
1227		29.296875
1228		39.062500
1229		33.203125
1230		41.015625
1231		35.156250
1232		42.968750
1233		41.015625
1234		44.921875
1235		44.921875
1236		48.828125
1237		44.921875
1238		52.734375
1239		46.875000
1240		56.640625
1241		50.781250
1242		58.593750
1243		52.734375
1244		60.546875
1245		54.687500
1246		64.453125
1247		56.640625
1248		64.453125
1249		60.546875
1250		66.406250
1251		64.453125
1252		68.359375
1253		64.453125
1254		72.265625
1255		66.406250
1256		74.218750
1257		66.406250
1258		74.218750
1259		68.359375
1260		76.171875
1261		70.312500
1262		78.125000
1263		72.265625
1264		78.125000
1265		72.265625
1266		80.078125
1267		76.171875
1268		78.125000
1269		76.171875
1270		78.125000
1271		74.218750
1272		82.031250
1273		76.171875
1274		82.031250
1275		76.171875
1276		82.031250
1277		76.171875
1278		82.031250
1279		76.171875
1280		82.031250
1281		76.171875
1282		82.031250
1283		78.125000
1284		80.078125
1285		76.171875
1286		80.078125
1287		74.218750
1288		80.078125
1289		74.218750
1290		80.078125
1291		72.265625
1292		80.078125
1293		72.265625
1294		78.125000
1295		70.312500
1296		78.125000
1297		68.359375
1298		76.171875
1299		68.359375
1300		74.218750
1301		66.406250
1302		70.312500
1303		64.453125
1304		68.359375
1305		60.546875
1306		70.312500
1307		58.593750
1308		66.406250
1309		56.640625
1310		64.453125
1311		54.687500
1312		62.500000
1313		50.781250
1314		60.546875
1315		50.781250
1316		56.640625
1317		48.828125
1318		52.734375
1319		46.875000
1320		50.781250
1321		41.015625
1322		48.828125
1323		37.109375
1324		46.875000
1325		35.156250
1326		42.968750
1327		31.250000
1328		41.015625
1329		27.343750
1330		37.109375
1331		25.390625
1332		33.203125
1333		23.437500
1334		31.250000
1335		19.531250
1336		25.390625
1337		13.671875
1338		21.484375
1339		11.718750
1340		19.531250
1341		7.812500
1342		17.578125
1343		3.906250
1344		13.671875
1345		0.000000
1346		9.765625
1347		-3.906250
1348		5.859375
1349		-5.859375
1350		3.906250
1351		-7.812500
1352		-1.953125
1353		-11.718750
1354		-5.859375
1355		-17.578125
1356		-7.812500
1357		-19.531250
1358		-9.765625
1359		-23.437500
1360		-13.671875
1361		-27.343750
1362		-17.578125
1363		-29.296875
1364		-21.484375
1365		-33.203125
1366		-23.437500
1367		-33.203125
1368		-27.343750
1369		-35.156250
1370		-31.250000
1371		-41.015625
1372		-33.203125
1373		-42.968750
1374		-35.156250
1375		-44.921875
1376		-37.109375
1377		-48.828125
1378		-39.062500
1379		-50.781250
1380		-42.968750
1381		-52.734375
1382		-44.921875
1383		-52.734375
1384		-46.875000
1385		-54.687500
1386		-50.781250
1387		-54.687500
1388		-52.734375
1389		-58.593750
1390		-50.781250
1391		-60.546875
1392		-52.734375
1393		-60.546875
1394		-54.687500
1395		-62.500000
1396		-54.687500
1397		-62.500000
1398		-56.640625
1399		-62.500000
1400		-56.640625
1401		-60.546875
1402		-58.593750
1403		-60.546875
1404		-58.593750
1405		-62.500000
1406		-56.640625
1407		-62.500000
1408		-56.640625
1409		-62.500000
1410		-54.687500
1411		-62.500000
1412		-54.687500
1413		-60.546875
1414		-54.687500
1415		-60.546875
1416		-52.734375
1417		-58.593750
1418		-52.734375
1419		-56.640625
1420		-52.734375
1421		-54.687500
1422		-48.828125
1423		-56.640625
1424		-46.875000
1425		-52.734375
1426		-44.921875
1427		-50.781250
1428		-44.921875
1429		-48.828125
1430		-41.015625
1431		-46.875000
1432		-39.062500
1433		-44.921875
1434		-37.109375
1435		-41.015625
1436		-35.156250
1437		-37.109375
1438		-33.203125
1439		-37.109375
1440		-29.296875
1441		-35.156250
1442		-25.390625
1443		-31.250000
1444		-23.437500
1445		-29.296875
1446		-19.531250
1447		-25.390625
1448		-15.625000
1449		-21.484375
1450		-13.671875
1451		-17.578125
1452		-11.718750
1453		-13.671875
1454		-7.812500
1455		-9.765625
1456		-1.953125
1457		-7.812500
1458		0.000000
1459		-5.859375
1460		3.906250
1461		-1.953125
1462		7.812500
1463		0.000000
1464		11.718750
1465		5.859375
1466		15.625000
1467		7.812500
1468		15.625000
1469		13.671875
1470		19.531250
1471		17.578125
1472		23.437500
1473		19.531250
1474		27.343750
1475		21.484375
1476		31.250000
1477		25.390625
1478		33.203125
1479		29.296875
1480		37.109375
1481		33.203125
1482		41.015625
1483		35.156250
1484		42.968750
1485		41.015625
1486		44.921875
1487		42.968750
1488		48.828125
1489		44.921875
1490		52.734375
1491		46.875000
1492		54.687500
1493		48.828125
1494		58.593750
1495		52.734375
1496		60.546875
1497		54.687500
1498		62.500000
1499		56.640625
1500		66.406250
1501		60.546875
1502		66.406250
1503		62.500000
1504		66.406250
1505		66.406250
1506		70.312500
1507		64.453125
1508		72.265625
1509		66.406250
1510		74.218750
1511		68.359375
1512		76.171875
1513		70.312500
1514		78.125000
1515		70.312500
1516		78.125000
1517		72.265625
1518		78.125000
1519		76.171875
1520		78.125000
1521		76.171875
1522		78.125000
1523		74.218750
1524		82.031250
1525		76.171875
1526		82.031250
1527		76.171875
1528		82.031250
1529		76.171875
1530		82.031250
1531		74.218750
1532		82.031250
1533		76.171875
1534		83.984375
1535		76.171875
1536		82.031250
1537		78.125000
1538		80.078125
1539		74.218750
1540		80.078125
1541		74.218750
1542		80.078125
1543		72.265625
1544		80.078125
1545		70.312500
1546		78.125000
1547		70.312500
1548		78.125000
1549		68.359375
1550		76.171875
1551		68.359375
1552		74.218750
1553		68.359375
1554		70.312500
1555		64.453125
1556		70.312500
1557		60.546875
1558		70.312500
1559		58.593750
1560		66.406250
1561		56.640625
1562		66.406250
1563		54.687500
1564		62.500000
1565		52.734375
1566		60.546875
1567		50.781250
1568		58.593750
1569		48.828125
1570		52.734375
1571		46.875000
1572		50.781250
1573		41.015625
1574		48.828125
1575		39.062500
1576		46.875000
1577		35.156250
1578		44.921875
1579		31.250000
1580		41.015625
1581		29.296875
1582		37.109375
1583		25.390625
1584		35.156250
1585		25.390625
1586		31.250000
1587		21.484375
1588		25.390625
1589		15.625000
1590		23.437500
1591		11.718750
1592		21.484375
1593		9.765625
1594		17.578125
1595		5.859375
1596		13.671875
1597		1.953125
1598		9.765625
1599		-1.953125
1600		5.859375
1601		-5.859375
1602		3.906250
1603		-5.859375
1604		-1.953125
1605		-9.765625
1606		-5.859375
1607		-15.625000
1608		-7.812500
1609		-19.531250
1610		-9.765625
1611		-23.437500
1612		-13.671875
1613		-25.390625
1614		-17.578125
1615		-29.296875
1616		-19.531250
1617		-31.250000
1618		-23.437500
1619		-33.203125
1620		-25.390625
1621		-35.156250
1622		-31.250000
1623		-41.015625
1624		-33.203125
1625		-42.968750
1626		-35.156250
1627		-44.921875
1628		-37.109375
1629		-48.828125
1630		-39.062500
1631		-50.781250
1632		-42.968750
1633		-52.734375
1634		-44.921875
1635		-52.734375
1636		-46.875000
1637		-52.734375
1638		-50.781250
1639		-56.640625
1640		-50.781250
1641		-58.593750
1642		-50.781250
1643		-60.546875
1644		-52.734375
1645		-60.546875
1646		-54.687500
1647		-62.500000
1648		-54.687500
1649		-62.500000
1650		-56.640625
1651		-64.453125
1652		-56.640625
1653		-60.546875
1654		-58.593750
1655		-60.546875
1656		-58.593750
1657		-62.500000
1658		-56.640625
1659		-62.500000
1660		-56.640625
1661		-62.500000
1662		-56.640625
1663		-62.500000
1664		-54.687500
1665		-62.500000
1666		-54.687500
1667		-60.546875
1668		-52.734375
1669		-60.546875
1670		-52.734375
1671		-56.640625
1672		-52.734375
1673		-56.640625
1674		-48.828125
1675		-56.640625
1676		-48.828125
1677		-54.687500
1678		-46.875000
1679		-52.734375
1680		-44.921875
1681		-50.781250
1682		-42.968750
1683		-46.875000
1684		-41.015625
1685		-44.921875
1686		-37.109375
1687		-41.015625
1688		-37.109375
1689		-39.062500
1690		-35.156250
1691		-37.109375
1692		-29.296875
1693		-35.156250
1694		-25.390625
1695		-33.203125
1696		-23.437500
1697		-29.296875
1698		-21.484375
1699		-25.390625
1700		-17.578125
1701		-23.437500
1702		-13.671875
1703		-19.531250
1704		-11.718750
1705		-13.671875
1706		-9.765625
1707		-11.718750
1708		-3.906250
1709		-7.812500
1710		0.000000
1711		-5.859375
1712		3.906250
1713		-1.953125
1714		5.859375
1715		0.000000
1716		9.765625
1717		3.906250
1718		13.671875
1719		7.812500
1720		15.625000
1721		13.671875
1722		17.578125
1723		17.578125
1724		23.437500
1725		19.531250
1726		27.343750
1727		21.484375
1728		31.250000
1729		25.390625
1730		33.203125
1731		29.296875
1732		37.109375
1733		31.250000
1734		41.015625
1735		35.156250
1736		42.968750
1737		39.062500
1738		44.921875
1739		42.968750
1740		46.875000
1741		44.921875
1742		52.734375
1743		46.875000
1744		54.687500
1745		48.828125
1746		58.593750
1747		52.734375
1748		60.546875
1749		54.687500
1750		62.500000
1751		56.640625
1752		64.453125
1753		58.593750
1754		66.406250
1755		62.500000
1756		66.406250
1757		64.453125
1758		70.312500
1759		64.453125
1760		72.265625
1761		66.406250
1762		74.218750
1763		68.359375
1764		76.171875
1765		70.312500
1766		76.171875
1767		70.312500
1768		78.125000
1769		72.265625
1770		80.078125
1771		76.171875
1772		78.125000
1773		76.171875
1774		78.125000
1775		74.218750
1776		82.031250
1777		74.218750
1778		82.031250
1779		76.171875
1780		82.031250
1781		76.171875
1782		82.031250
1783		76.171875
1784		82.031250
1785		76.171875
1786		82.031250
1787		76.171875
1788		82.031250
1789		78.125000
1790		80.078125
1791		74.218750
1792		80.078125
1793		74.218750
1794		80.078125
1795		72.265625
1796		80.078125
1797		72.265625
1798		78.125000
1799		68.359375
1800		78.125000
1801		68.359375
1802		76.171875
1803		68.359375
1804		74.218750
1805		68.359375
1806		72.265625
1807		66.406250
1808		70.312500
1809		62.500000
1810		70.312500
1811		60.546875
1812		68.359375
1813		56.640625
1814		66.406250
1815		54.687500
1816		62.500000
1817		52.734375
1818		60.546875
1819		50.781250
1820		58.593750
1821		48.828125
1822		54.687500
1823		46.875000
1824		50.781250
1825		41.015625
1826		48.828125
1827		39.062500
1828		48.828125
1829		35.156250
1830		44.921875
1831		33.203125
1832		42.968750
1833		29.296875
1834		39.062500
1835		25.390625
1836		35.156250
1837		23.437500
1838		31.250000
1839		21.484375
1840		27.343750
1841		15.625000
1842		23.437500
1843		13.671875
1844		21.484375
1845		9.765625
1846		19.531250
1847		5.859375
1848		13.671875
1849		1.953125
1850		11.718750
1851		-1.953125
1852		7.812500
1853		-3.906250
1854		3.906250
1855		-5.859375
1856		-1.953125
1857		-9.765625
1858		-3.906250
1859		-15.625000
1860		-7.812500
1861		-19.531250
1862		-9.765625
1863		-21.484375
1864		-11.718750
1865		-25.390625
1866		-15.625000
1867		-29.296875
1868		-19.531250
1869		-31.250000
1870		-23.437500
1871		-31.250000
1872		-25.390625
1873		-35.156250
1874		-31.250000
1875		-39.062500
1876		-33.203125
1877		-42.968750
1878		-35.156250
1879		-44.921875
1880		-37.109375
1881		-46.875000
1882		-39.062500
1883		-50.781250
1884		-41.015625
1885		-52.734375
1886		-42.968750
1887		-52.734375
1888		-44.921875
1889		-52.734375
1890		-48.828125
1891		-54.687500
1892		-50.781250
1893		-58.593750
1894		-50.781250
1895		-58.593750
1896		-52.734375
1897		-60.546875
1898		-52.734375
1899		-62.500000
1900		-54.687500
1901		-62.500000
1902		-54.687500
1903		-62.500000
1904		-56.640625
1905		-60.546875
1906		-58.593750
1907		-60.546875
1908		-58.593750
1909		-64.453125
1910		-56.640625
1911		-64.453125
1912		-56.640625
1913		-62.500000
1914		-56.640625
1915		-62.500000
1916		-54.687500
1917		-62.500000
1918		-54.687500
1919		-60.546875
1920		-54.687500
1921		-60.546875
1922		-54.687500
1923		-56.640625
1924		-52.734375
1925		-56.640625
1926		-50.781250
1927		-56.640625
1928		-48.828125
1929		-54.687500
1930		-46.875000
1931		-52.734375
1932		-44.921875
1933		-50.781250
1934		-41.015625
1935		-48.828125
1936		-41.015625
1937		-44.921875
1938		-37.109375
1939		-41.015625
1940		-37.109375
1941		-39.062500
1942		-33.203125
1943		-37.109375
1944		-31.250000
1945		-35.156250
1946		-27.343750
1947		-31.250000
1948		-23.437500
1949		-27.343750
1950		-21.484375
1951		-25.390625
1952		-17.578125
1953		-21.484375
1954		-15.625000
1955		-19.531250
1956		-13.671875
1957		-13.671875
1958		-9.765625
1959		-11.718750
1960		-3.906250
1961		-9.765625
1962		0.000000
1963		-5.859375
1964		3.906250
1965		-3.906250
1966		5.859375
1967		0.000000
1968		9.765625
1969		3.906250
1970		13.671875
1971		7.812500
1972		15.625000
1973		13.671875
1974		17.578125
1975		17.578125
1976		21.484375
1977		19.531250
1978		27.343750
1979		21.484375
1980		31.250000
1981		23.437500
1982		33.203125
1983		29.296875
1984		37.109375
1985		31.250000
1986		41.015625
1987		35.156250
1988		42.968750
1989		37.109375
1990		44.921875
1991		42.968750
1992		46.875000
1993		44.921875
1994		52.734375
1995		46.875000
1996		54.687500
1997		48.828125
1998		56.640625
1999		52.734375
2000		60.546875
2001		54.687500
2002		62.500000
2003		54.687500
2004		64.453125
2005		58.593750
2006		66.406250
2007		62.500000
2008		66.406250
2009		64.453125
2010		70.312500
2011		64.453125
2012		74.218750
2013		66.406250
2014		74.218750
2015		68.359375
2016		76.171875
2017		70.312500
2018		76.171875
2019		72.265625
2020		78.125000
2021		72.265625
2022		80.078125
2023		76.171875
2024		78.125000
2025		76.171875
2026		80.078125
2027		74.218750
2028		82.031250
2029		76.171875
2030		82.031250
2031		76.171875
2032		83.984375
2033		76.171875
2034		83.984375
2035		76.171875
2036		82.031250
2037		76.171875
2038		83.984375
2039		76.171875
2040		82.031250
2041		78.125000
2042		80.078125
2043		74.218750
2044		80.078125
2045		74.218750
2046		82.031250
2047		74.218750
2048		80.078125
2049		72.265625
2050		80.078125
2051		70.312500
2052		78.125000
2053		70.312500
2054		76.171875
2055		68.359375
2056		76.171875
2057		68.359375
2058		72.265625
2059		66.406250
2060		70.312500
2061		62.500000
2062		70.312500
2063		60.546875
2064		68.359375
2065		58.593750
2066		66.406250
2067		56.640625
2068		64.453125
2069		52.734375
2070		62.500000
2071		50.781250
2072		60.546875
2073		50.781250
2074		56.640625
2075		48.828125
2076		52.734375
2077		42.968750
2078		48.828125
2079		41.015625
2080		46.875000
2081		37.109375
2082		44.921875
2083		33.203125
2084		42.968750
2085		31.250000
2086		39.062500
2087		27.343750
2088		37.109375
2089		25.390625
2090		33.203125
2091		23.437500
2092		27.343750
2093		17.578125
2094		23.437500
2095		13.671875
2096		23.437500
2097		9.765625
2098		19.531250
2099		5.859375
2100		15.625000
2101		3.906250
2102		11.718750
2103		0.000000
2104		7.812500
2105		-1.953125
2106		5.859375
2107		-5.859375
2108		0.000000
2109		-7.812500
2110		-3.906250
2111		-13.671875
2112		-5.859375
2113		-17.578125
2114		-9.765625
2115		-19.531250
2116		-11.718750
2117		-23.437500
2118		-15.625000
2119		-27.343750
2120		-17.578125
2121		-29.296875
2122		-21.484375
2123		-31.250000
2124		-25.390625
2125		-33.203125
2126		-29.296875
2127		-39.062500
2128		-33.203125
2129		-41.015625
2130		-33.203125
2131		-44.921875
2132		-35.156250
2133		-46.875000
2134		-39.062500
2135		-48.828125
2136		-41.015625
2137		-50.781250
2138		-42.968750
2139		-52.734375
2140		-44.921875
2141		-52.734375
2142		-48.828125
2143		-54.687500
2144		-50.781250
2145		-56.640625
2146		-50.781250
2147		-58.593750
2148		-50.781250
2149		-60.546875
2150		-52.734375
2151		-60.546875
2152		-54.687500
2153		-60.546875
2154		-54.687500
2155		-62.500000
2156		-54.687500
2157		-62.500000
2158		-56.640625
2159		-60.546875
2160		-58.593750
2161		-64.453125
2162		-56.640625
2163		-62.500000
2164		-56.640625
2165		-62.500000
2166		-56.640625
2167		-62.500000
2168		-54.687500
2169		-60.546875
2170		-54.687500
2171		-58.593750
2172		-54.687500
2173		-58.593750
2174		-54.687500
2175		-56.640625
2176		-52.734375
2177		-54.687500
2178		-50.781250
2179		-56.640625
2180		-48.828125
2181		-54.687500
2182		-46.875000
2183		-52.734375
2184		-44.921875
2185		-50.781250
2186		-42.968750
2187		-46.875000
2188		-42.968750
2189		-44.921875
2190		-39.062500
2191		-41.015625
2192		-37.109375
2193		-39.062500
2194		-35.156250
2195		-37.109375
2196		-31.250000
2197		-35.156250
2198		-27.343750
2199		-33.203125
2200		-25.390625
2201		-31.250000
2202		-23.437500
2203		-27.343750
2204		-19.531250
2205		-21.484375
2206		-17.578125
2207		-19.531250
2208		-13.671875
2209		-15.625000
2210		-9.765625
2211		-11.718750
2212		-5.859375
2213		-9.765625
2214		-1.953125
2215		-5.859375
2216		1.953125
2217		-1.953125
2218		3.906250
2219		1.953125
2220		7.812500
2221		5.859375
2222		9.765625
2223		9.765625
2224		13.671875
2225		11.718750
2226		17.578125
2227		15.625000
2228		21.484375
2229		19.531250
2230		23.437500
2231		21.484375
2232		29.296875
2233		25.390625
2234		31.250000
2235		29.296875
2236		35.156250
2237		33.203125
2238		37.109375
2239		35.156250
2240		41.015625
2241		39.062500
2242		42.968750
2243		41.015625
2244		46.875000
2245		44.921875
2246		50.781250
2247		48.828125
2248		54.687500
2249		50.781250
2250		54.687500
2251		52.734375
2252		56.640625
2253		56.640625
2254		60.546875
2255		58.593750
2256		62.500000
2257		60.546875
2258		64.453125
2259		62.500000
2260		66.406250
2261		64.453125
2262		68.359375
2263		66.406250
2264		70.312500
2265		68.359375
2266		72.265625
2267		70.312500
2268		74.218750
2269		72.265625
2270		76.171875
2271		72.265625
2272		76.171875
2273		74.218750
2274		78.125000
2275		76.171875
2276		78.125000
2277		76.171875
2278		78.125000
2279		76.171875
2280		80.078125
2281		76.171875
2282		80.078125
2283		78.125000
2284		80.078125
2285		78.125000
2286		82.031250
2287		78.125000
2288		82.031250
2289		78.125000
2290		82.031250
2291		78.125000
2292		80.078125
2293		78.125000
2294		80.078125
2295		78.125000
2296		80.078125
2297		76.171875
2298		80.078125
2299		74.218750
2300		78.125000
2301		74.218750
2302		78.125000
2303		72.265625
2304		76.171875
2305		72.265625
2306		76.171875
2307		70.312500
2308		74.218750
2309		68.359375
2310		72.265625
2311		66.406250
2312		70.312500
2313		64.453125
2314		70.312500
2315		62.500000
2316		66.406250
2317		60.546875
2318		66.406250
2319		58.593750
2320		62.500000
2321		56.640625
2322		60.546875
2323		52.734375
2324		58.593750
2325		50.781250
2326		56.640625
2327		48.828125
2328		52.734375
2329		44.921875
2330		50.781250
2331		42.968750
2332		46.875000
2333		39.062500
2334		44.921875
2335		35.156250
2336		41.015625
2337		33.203125
2338		37.109375
2339		29.296875
2340		35.156250
2341		27.343750
2342		31.250000
2343		23.437500
2344		27.343750
2345		19.531250
2346		25.390625
2347		17.578125
2348		23.437500
2349		13.671875
2350		17.578125
2351		9.765625
2352		13.671875
2353		5.859375
2354		11.718750
2355		1.953125
2356		7.812500
2357		-1.953125
2358		3.906250
2359		-3.906250
2360		0.000000
2361		-7.812500
2362		-3.906250
2363		-11.718750
2364		-5.859375
2365		-15.625000
2366		-9.765625
2367		-19.531250
2368		-13.671875
2369		-21.484375
2370		-15.625000
2371		-25.390625
2372		-19.531250
2373		-27.343750
2374		-23.437500
2375		-31.250000
2376		-25.390625
2377		-33.203125
2378		-29.296875
2379		-37.109375
2380		-31.250000
2381		-39.062500
2382		-35.156250
2383		-41.015625
2384		-37.109375
2385		-44.921875
2386		-39.062500
2387		-46.875000
2388		-42.968750
2389		-48.828125
2390		-44.921875
2391		-50.781250
2392		-46.875000
2393		-52.734375
2394		-48.828125
2395		-54.687500
2396		-50.781250
2397		-54.687500
2398		-50.781250
2399		-56.640625
2400		-52.734375
2401		-58.593750
2402		-54.687500
2403		-60.546875
2404		-56.640625
2405		-60.546875
2406		-56.640625
2407		-60.546875
2408		-56.640625
2409		-60.546875
2410		-56.640625
2411		-60.546875
2412		-58.593750
2413		-62.500000
2414		-58.593750
2415		-60.546875
2416		-58.593750
2417		-62.500000
2418		-58.593750
2419		-60.546875
2420		-58.593750
2421		-60.546875
2422		-56.640625
2423		-60.546875
2424		-56.640625
2425		-58.593750
2426		-54.687500
2427		-56.640625
2428		-54.687500
2429		-56.640625
2430		-52.734375
2431		-54.687500
2432		-50.781250
2433		-52.734375
2434		-48.828125
2435		-50.781250
2436		-46.875000
2437		-48.828125
2438		-44.921875
2439		-46.875000
2440		-42.968750
2441		-44.921875
2442		-41.015625
2443		-42.968750
2444		-39.062500
2445		-39.062500
2446		-35.156250
2447		-37.109375
2448		-33.203125
2449		-35.156250
2450		-29.296875
2451		-31.250000
2452		-27.343750
2453		-29.296875
2454		-23.437500
2455		-25.390625
2456		-21.484375
2457		-23.437500
2458		-17.578125
2459		-19.531250
2460		-15.625000
2461		-15.625000
2462		-11.718750
2463		-11.718750
2464		-7.812500
2465		-9.765625
2466		-3.906250
2467		-5.859375
2468		0.000000
2469		-1.953125
2470		1.953125
2471		0.000000
2472		5.859375
2473		3.906250
2474		9.765625
2475		7.812500
2476		13.671875
2477		11.718750
2478		15.625000
2479		15.625000
2480		19.531250
2481		17.578125
2482		23.437500
2483		21.484375
2484		27.343750
2485		23.437500
2486		31.250000
2487		29.296875
2488		33.203125
2489		31.250000
2490		37.109375
2491		35.156250
2492		41.015625
2493		37.109375
2494		42.968750
2495		41.015625
2496		46.875000
2497		44.921875
2498		48.828125
2499		46.875000
2500		50.781250
2501		48.828125
2502		54.687500
2503		52.734375
2504		56.640625
2505		54.687500
2506		58.593750
2507		56.640625
2508		62.500000
2509		60.546875
2510		64.453125
2511		62.500000
2512		66.406250
2513		64.453125
2514		68.359375
2515		66.406250
2516		70.312500
2517		66.406250
2518		70.312500
2519		68.359375
2520		72.265625
2521		70.312500
2522		74.218750
2523		72.265625
2524		76.171875
2525		74.218750
2526		78.125000
2527		74.218750
2528		78.125000
2529		76.171875
2530		78.125000
2531		76.171875
2532		78.125000
2533		76.171875
2534		80.078125
2535		78.125000
2536		80.078125
2537		78.125000
2538		80.078125
2539		78.125000
2540		80.078125
2541		78.125000
2542		80.078125
2543		78.125000
2544		82.031250
2545		78.125000
2546		80.078125
2547		76.171875
2548		80.078125
2549		76.171875
2550		80.078125
2551		74.218750
2552		78.125000
2553		74.218750
2554		78.125000
2555		72.265625
2556		76.171875
2557		72.265625
2558		74.218750
2559		68.359375
2560		74.218750
2561		68.359375
2562		72.265625
2563		66.406250
2564		70.312500
2565		64.453125
2566		70.312500
2567		62.500000
2568		66.406250
2569		60.546875
2570		64.453125
2571		58.593750
2572		62.500000
2573		56.640625
2574		60.546875
2575		52.734375
2576		58.593750
2577		50.781250
2578		56.640625
2579		48.828125
2580		52.734375
2581		44.921875
2582		50.781250
2583		42.968750
2584		46.875000
2585		39.062500
2586		44.921875
2587		37.109375
2588		41.015625
2589		33.203125
2590		39.062500
2591		29.296875
2592		35.156250
2593		27.343750
2594		33.203125
2595		23.437500
2596		27.343750
2597		19.531250
2598		25.390625
2599		15.625000
2600		21.484375
2601		11.718750
2602		19.531250
2603		9.765625
2604		13.671875
2605		5.859375
2606		11.718750
2607		1.953125
2608		7.812500
2609		0.000000
2610		3.906250
2611		-3.906250
2612		1.953125
2613		-7.812500
2614		-1.953125
2615		-11.718750
2616		-5.859375
2617		-15.625000
2618		-9.765625
2619		-17.578125
2620		-13.671875
2621		-21.484375
2622		-15.625000
2623		-23.437500
2624		-19.531250
2625		-27.343750
2626		-21.484375
2627		-31.250000
2628		-25.390625
2629		-33.203125
2630		-29.296875
2631		-37.109375
2632		-31.250000
2633		-39.062500
2634		-35.156250
2635		-42.968750
2636		-37.109375
2637		-44.921875
2638		-39.062500
2639		-46.875000
2640		-42.968750
2641		-48.828125
2642		-44.921875
2643		-50.781250
2644		-46.875000
2645		-52.734375
2646		-48.828125
2647		-54.687500
2648		-50.781250
2649		-56.640625
2650		-50.781250
2651		-56.640625
2652		-52.734375
2653		-58.593750
2654		-54.687500
2655		-58.593750
2656		-56.640625
2657		-60.546875
2658		-56.640625
2659		-60.546875
2660		-58.593750
2661		-60.546875
2662		-58.593750
2663		-62.500000
2664		-58.593750
2665		-62.500000
2666		-58.593750
2667		-62.500000
2668		-58.593750
2669		-62.500000
2670		-58.593750
2671		-60.546875
2672		-58.593750
2673		-60.546875
2674		-56.640625
2675		-60.546875
2676		-56.640625
2677		-60.546875
2678		-56.640625
2679		-58.593750
2680		-54.687500
2681		-56.640625
2682		-52.734375
2683		-56.640625
2684		-50.781250
2685		-52.734375
2686		-48.828125
2687		-50.781250
2688		-48.828125
2689		-48.828125
2690		-46.875000
2691		-48.828125
2692		-42.968750
2693		-44.921875
2694		-41.015625
2695		-44.921875
2696		-39.062500
2697		-41.015625
2698		-37.109375
2699		-37.109375
2700		-33.203125
2701		-35.156250
2702		-31.250000
2703		-33.203125
2704		-27.343750
2705		-29.296875
2706		-25.390625
2707		-25.390625
2708		-21.484375
2709		-23.437500
2710		-19.531250
2711		-19.531250
2712		-15.625000
2713		-17.578125
2714		-11.718750
2715		-13.671875
2716		-7.812500
2717		-9.765625
2718		-3.906250
2719		-7.812500
2720		-1.953125
2721		-3.906250
2722		1.953125
2723		0.000000
2724		5.859375
2725		3.906250
2726		9.765625
2727		7.812500
2728		13.671875
2729		9.765625
2730		15.625000
2731		13.671875
2732		19.531250
2733		17.578125
2734		23.437500
2735		21.484375
2736		25.390625
2737		23.437500
2738		29.296875
2739		27.343750
2740		33.203125
2741		29.296875
2742		35.156250
2743		33.203125
2744		39.062500
2745		37.109375
2746		42.968750
2747		41.015625
2748		44.921875
2749		42.968750
2750		48.828125
2751		46.875000
2752		50.781250
2753		48.828125
2754		54.687500
2755		52.734375
2756		56.640625
2757		52.734375
2758		58.593750
2759		56.640625
2760		60.546875
2761		58.593750
2762		62.500000
2763		60.546875
2764		64.453125
2765		62.500000
2766		66.406250
2767		64.453125
2768		68.359375
2769		66.406250
2770		70.312500
2771		68.359375
2772		72.265625
2773		70.312500
2774		74.218750
2775		72.265625
2776		76.171875
2777		72.265625
2778		76.171875
2779		74.218750
2780		78.125000
2781		76.171875
2782		78.125000
2783		76.171875
2784		80.078125
2785		76.171875
2786		80.078125
2787		78.125000
2788		80.078125
2789		78.125000
2790		80.078125
2791		78.125000
2792		80.078125
2793		78.125000
2794		80.078125
2795		76.171875
2796		80.078125
2797		78.125000
2798		80.078125
2799		76.171875
2800		80.078125
2801		76.171875
2802		80.078125
2803		74.218750
2804		78.125000
2805		74.218750
2806		78.125000
2807		72.265625
2808		76.171875
2809		72.265625
2810		76.171875
2811		70.312500
2812		74.218750
2813		68.359375
2814		72.265625
2815		66.406250
2816		70.312500
2817		64.453125
2818		70.312500
2819		62.500000
2820		68.359375
2821		60.546875
2822		66.406250
2823		58.593750
2824		62.500000
2825		56.640625
2826		60.546875
2827		54.687500
2828		58.593750
2829		50.781250
2830		56.640625
2831		48.828125
2832		52.734375
2833		44.921875
2834		50.781250
2835		42.968750
2836		48.828125
2837		41.015625
2838		44.921875
2839		37.109375
2840		41.015625
2841		33.203125
2842		39.062500
2843		31.250000
2844		35.156250
2845		27.343750
2846		31.250000
2847		23.437500
2848		29.296875
2849		21.484375
2850		25.390625
2851		17.578125
2852		23.437500
2853		13.671875
2854		19.531250
2855		9.765625
2856		15.625000
2857		5.859375
2858		11.718750
2859		3.906250
2860		7.812500
2861		0.000000
2862		3.906250
2863		-3.906250
2864		1.953125
2865		-7.812500
2866		-1.953125
2867		-11.718750
2868		-5.859375
2869		-13.671875
2870		-9.765625
2871		-17.578125
2872		-11.718750
2873		-21.484375
2874		-15.625000
2875		-23.437500
2876		-19.531250
2877		-27.343750
2878		-21.484375
2879		-29.296875
2880		-25.390625
2881		-33.203125
2882		-29.296875
2883		-37.109375
2884		-31.250000
2885		-39.062500
2886		-33.203125
2887		-41.015625
2888		-37.109375
2889		-42.968750
2890		-39.062500
2891		-46.875000
2892		-42.968750
2893		-48.828125
2894		-42.968750
2895		-50.781250
2896		-46.875000
2897		-52.734375
2898		-48.828125
2899		-54.687500
2900		-50.781250
2901		-56.640625
2902		-50.781250
2903		-56.640625
2904		-52.734375
2905		-58.593750
2906		-54.687500
2907		-60.546875
2908		-56.640625
2909		-60.546875
2910		-56.640625
2911		-60.546875
2912		-58.593750
2913		-62.500000
2914		-56.640625
2915		-62.500000
2916		-58.593750
2917		-62.500000
2918		-58.593750
2919		-62.500000
2920		-58.593750
2921		-62.500000
2922		-58.593750
2923		-60.546875
2924		-58.593750
2925		-60.546875
2926		-56.640625
2927		-60.546875
2928		-56.640625
2929		-60.546875
2930		-54.687500
2931		-58.593750
2932		-54.687500
2933		-56.640625
2934		-52.734375
2935		-56.640625
2936		-52.734375
2937		-54.687500
2938		-50.781250
2939		-52.734375
2940		-48.828125
2941		-50.781250
2942		-46.875000
2943		-48.828125
2944		-44.921875
2945		-46.875000
2946		-42.968750
2947		-44.921875
2948		-39.062500
2949		-41.015625
2950		-37.109375
2951		-39.062500
2952		-35.156250
2953		-37.109375
2954		-31.250000
2955		-33.203125
2956		-29.296875
2957		-31.250000
2958		-25.390625
2959		-27.343750
2960		-21.484375
2961		-23.437500
2962		-19.531250
2963		-21.484375
2964		-15.625000
2965		-17.578125
2966		-13.671875
2967		-13.671875
2968		-7.812500
2969		-11.718750
2970		-5.859375
2971		-7.812500
2972		-1.953125
2973		-3.906250
2974		0.000000
2975		0.000000
2976		3.906250
2977		1.953125
2978		7.812500
2979		5.859375
2980		11.718750
2981		9.765625
2982		15.625000
2983		13.671875
2984		17.578125
2985		17.578125
2986		21.484375
2987		19.531250
2988		25.390625
2989		23.437500
2990		29.296875
2991		27.343750
2992		31.250000
2993		29.296875
2994		35.156250
2995		33.203125
2996		37.109375
2997		35.156250
2998		41.015625
2999		39.062500
3000		44.921875
3001		42.968750
3002		46.875000
3003		44.921875
3004		50.781250
3005		48.828125
3006		52.734375
3007		50.781250
3008		54.687500
3009		52.734375
3010		58.593750
3011		56.640625
3012		60.546875
3013		58.593750
3014		62.500000
3015		60.546875
3016		64.453125
3017		62.500000
3018		66.406250
3019		64.453125
3020		68.359375
3021		66.406250
3022		70.312500
3023		68.359375
3024		72.265625
3025		70.312500
3026		74.218750
3027		70.312500
3028		74.218750
3029		72.265625
3030		76.171875
3031		72.265625
3032		76.171875
3033		74.218750
3034		78.125000
3035		74.218750
3036		80.078125
3037		76.171875
3038		80.078125
3039		76.171875
3040		80.078125
3041		78.125000
3042		80.078125
3043		76.171875
3044		80.078125
3045		78.125000
3046		80.078125
3047		76.171875
3048		80.078125
3049		76.171875
3050		80.078125
3051		76.171875
3052		80.078125
3053		76.171875
3054		78.125000
3055		74.218750
3056		78.125000
3057		74.218750
3058		78.125000
3059		72.265625
3060		76.171875
3061		70.312500
3062		74.218750
3063		68.359375
3064		74.218750
3065		68.359375
3066		72.265625
3067		66.406250
3068		70.312500
3069		66.406250
3070		70.312500
3071		62.500000
3072		68.359375
3073		60.546875
3074		66.406250
3075		58.593750
3076		62.500000
3077		56.640625
3078		60.546875
3079		54.687500
3080		58.593750
3081		50.781250
3082		56.640625
3083		48.828125
3084		52.734375
3085		44.921875
3086		50.781250
3087		42.968750
3088		48.828125
3089		41.015625
3090		44.921875
3091		37.109375
3092		42.968750
3093		33.203125
3094		39.062500
3095		31.250000
3096		37.109375
3097		27.343750
3098		33.203125
3099		23.437500
3100		29.296875
3101		21.484375
3102		25.390625
3103		17.578125
3104		23.437500
3105		13.671875
3106		19.531250
3107		9.765625
3108		15.625000
3109		5.859375
3110		11.718750
3111		3.906250
3112		9.765625
3113		-1.953125
3114		3.906250
3115		-3.906250
3116		1.953125
3117		-7.812500
3118		-1.953125
3119		-11.718750
3120		-5.859375
3121		-13.671875
3122		-9.765625
3123		-17.578125
3124		-11.718750
3125		-21.484375
3126		-15.625000
3127		-25.390625
3128		-17.578125
3129		-27.343750
3130		-21.484375
3131		-29.296875
3132		-25.390625
3133		-33.203125
3134		-29.296875
3135		-35.156250
3136		-31.250000
3137		-39.062500
3138		-33.203125
3139		-41.015625
3140		-37.109375
3141		-42.968750
3142		-39.062500
3143		-46.875000
3144		-42.968750
3145		-48.828125
3146		-44.921875
3147		-50.781250
3148		-46.875000
3149		-52.734375
3150		-46.875000
3151		-54.687500
3152		-50.781250
3153		-56.640625
3154		-52.734375
3155		-58.593750
3156		-52.734375
3157		-58.593750
3158		-54.687500
3159		-58.593750
3160		-56.640625
3161		-60.546875
3162		-56.640625
3163		-62.500000
3164		-58.593750
3165		-62.500000
3166		-58.593750
3167		-62.500000
3168		-58.593750
3169		-64.453125
3170		-60.546875
3171		-62.500000
3172		-58.593750
3173		-62.500000
3174		-58.593750
3175		-62.500000
3176		-58.593750
3177		-60.546875
3178		-58.593750
3179		-62.500000
3180		-58.593750
3181		-60.546875
3182		-56.640625
3183		-58.593750
3184		-56.640625
3185		-58.593750
3186		-54.687500
3187		-56.640625
3188		-52.734375
3189		-54.687500
3190		-50.781250
3191		-54.687500
3192		-48.828125
3193		-50.781250
3194		-46.875000
3195		-50.781250
3196		-44.921875
3197		-46.875000
3198		-42.968750
3199		-44.921875
3200		-41.015625
3201		-42.968750
3202		-37.109375
3203		-39.062500
3204		-35.156250
3205		-37.109375
3206		-33.203125
3207		-35.156250
3208		-29.296875
3209		-31.250000
3210		-27.343750
3211		-29.296875
3212		-23.437500
3213		-25.390625
3214		-21.484375
3215		-23.437500
3216		-17.578125
3217		-19.531250
3218		-13.671875
3219		-15.625000
3220		-9.765625
3221		-13.671875
3222		-7.812500
3223		-9.765625
3224		-3.906250
3225		-5.859375
3226		0.000000
3227		-1.953125
3228		3.906250
3229		1.953125
3230		5.859375
3231		3.906250
3232		9.765625
3233		7.812500
3234		13.671875
3235		11.718750
3236		17.578125
3237		15.625000
3238		21.484375
3239		17.578125
3240		25.390625
3241		21.484375
3242		27.343750
3243		25.390625
3244		31.250000
3245		29.296875
3246		33.203125
3247		31.250000
3248		37.109375
3249		35.156250
3250		41.015625
3251		39.062500
3252		42.968750
3253		41.015625
3254		46.875000
3255		44.921875
3256		48.828125
3257		46.875000
3258		50.781250
3259		48.828125
3260		54.687500
3261		52.734375
3262		56.640625
3263		54.687500
3264		58.593750
3265		58.593750
3266		62.500000
3267		60.546875
3268		64.453125
3269		62.500000
3270		66.406250
3271		64.453125
3272		68.359375
3273		66.406250
3274		70.312500
3275		66.406250
3276		72.265625
3277		68.359375
3278		72.265625
3279		70.312500
3280		74.218750
3281		70.312500
3282		76.171875
3283		72.265625
3284		76.171875
3285		74.218750
3286		78.125000
3287		74.218750
3288		78.125000
3289		76.171875
3290		78.125000
3291		76.171875
3292		80.078125
3293		76.171875
3294		80.078125
3295		76.171875
3296		80.078125
3297		76.171875
3298		80.078125
3299		76.171875
3300		80.078125
3301		76.171875
3302		80.078125
3303		76.171875
3304		78.125000
3305		74.218750
3306		80.078125
3307		74.218750
3308		78.125000
3309		74.218750
3310		78.125000
3311		72.265625
3312		76.171875
3313		72.265625
3314		76.171875
3315		70.312500
3316		74.218750
3317		68.359375
3318		72.265625
3319		66.406250
3320		70.312500
3321		64.453125
3322		70.312500
3323		62.500000
3324		68.359375
3325		60.546875
3326		64.453125
3327		58.593750
3328		62.500000
3329		56.640625
3330		60.546875
3331		54.687500
3332		58.593750
3333		50.781250
3334		56.640625
3335		48.828125
3336		52.734375
3337		44.921875
3338		50.781250
3339		42.968750
3340		48.828125
3341		41.015625
3342		44.921875
3343		37.109375
3344		42.968750
3345		33.203125
3346		39.062500
3347		31.250000
3348		37.109375
3349		27.343750
3350		33.203125
3351		23.437500
3352		29.296875
3353		21.484375
3354		25.390625
3355		17.578125
3356		21.484375
3357		13.671875
3358		19.531250
3359		9.765625
3360		15.625000
3361		7.812500
3362		11.718750
3363		3.906250
3364		9.765625
3365		0.000000
3366		5.859375
3367		-3.906250
3368		1.953125
3369		-7.812500
3370		-1.953125
3371		-11.718750
3372		-5.859375
3373		-13.671875
3374		-9.765625
3375		-17.578125
3376		-11.718750
3377		-21.484375
3378		-15.625000
3379		-23.437500
3380		-17.578125
3381		-27.343750
3382		-21.484375
3383		-31.250000
3384		-25.390625
3385		-33.203125
3386		-27.343750
3387		-35.156250
3388		-31.250000
3389		-39.062500
3390		-33.203125
3391		-41.015625
3392		-37.109375
3393		-42.968750
3394		-39.062500
3395		-46.875000
3396		-41.015625
3397		-48.828125
3398		-44.921875
3399		-50.781250
3400		-46.875000
3401		-52.734375
3402		-48.828125
3403		-54.687500
3404		-50.781250
3405		-56.640625
3406		-52.734375
3407		-58.593750
3408		-54.687500
3409		-58.593750
3410		-54.687500
3411		-60.546875
3412		-56.640625
3413		-60.546875
3414		-56.640625
3415		-62.500000
3416		-58.593750
3417		-62.500000
3418		-58.593750
3419		-62.500000
3420		-60.546875
3421		-62.500000
3422		-60.546875
3423		-62.500000
3424		-60.546875
3425		-62.500000
3426		-60.546875
3427		-62.500000
3428		-58.593750
3429		-62.500000
3430		-58.593750
3431		-62.500000
3432		-58.593750
3433		-60.546875
3434		-56.640625
3435		-60.546875
3436		-56.640625
3437		-58.593750
3438		-54.687500
3439		-58.593750
3440		-54.687500
3441		-56.640625
3442		-52.734375
3443		-54.687500
3444		-50.781250
3445		-52.734375
3446		-48.828125
3447		-50.781250
3448		-44.921875
3449		-48.828125
3450		-42.968750
3451		-46.875000
3452		-41.015625
3453		-42.968750
3454		-39.062500
3455		-41.015625
3456		-35.156250
3457		-39.062500
3458		-33.203125
3459		-35.156250
3460		-29.296875
3461		-33.203125
3462		-27.343750
3463		-31.250000
3464		-23.437500
3465		-27.343750
3466		-21.484375
3467		-23.437500
3468		-17.578125
3469		-19.531250
3470		-15.625000
3471		-15.625000
3472		-11.718750
3473		-13.671875
3474		-7.812500
3475		-9.765625
3476		-3.906250
3477		-5.859375
3478		-1.953125
3479		-1.953125
3480		1.953125
3481		0.000000
3482		5.859375
3483		3.906250
3484		9.765625
3485		5.859375
3486		11.718750
3487		11.718750
3488		15.625000
3489		15.625000
3490		19.531250
3491		17.578125
3492		23.437500
3493		21.484375
3494		25.390625
3495		23.437500
3496		31.250000
3497		27.343750
3498		33.203125
3499		31.250000
3500		37.109375
3501		35.156250
3502		39.062500
3503		37.109375
3504		42.968750
3505		41.015625
3506		46.875000
3507		42.968750
3508		48.828125
3509		46.875000
3510		50.781250
3511		48.828125
3512		54.687500
3513		50.781250
3514		56.640625
3515		52.734375
3516		58.593750
3517		56.640625
3518		60.546875
3519		58.593750
3520		62.500000
3521		60.546875
3522		64.453125
3523		62.500000
3524		66.406250
3525		64.453125
3526		70.312500
3527		66.406250
3528		70.312500
3529		68.359375
3530		72.265625
3531		70.312500
3532		74.218750
3533		72.265625
3534		74.218750
3535		72.265625
3536		76.171875
3537		74.218750
3538		76.171875
3539		74.218750
3540		78.125000
3541		74.218750
3542		78.125000
3543		76.171875
3544		80.078125
3545		76.171875
3546		78.125000
3547		76.171875
3548		80.078125
3549		76.171875
3550		80.078125
3551		76.171875
3552		80.078125
3553		76.171875
3554		78.125000
3555		76.171875
3556		78.125000
3557		74.218750
3558		78.125000
3559		74.218750
3560		78.125000
3561		72.265625
3562		76.171875
3563		72.265625
3564		76.171875
3565		70.312500
3566		74.218750
3567		70.312500
3568		74.218750
3569		68.359375
3570		72.265625
3571		66.406250
3572		70.312500
3573		64.453125
3574		68.359375
3575		64.453125
3576		66.406250
3577		60.546875
3578		66.406250
3579		58.593750
3580		62.500000
3581		56.640625
3582		60.546875
3583		52.734375
3584		58.593750
3585		50.781250
3586		56.640625
3587		48.828125
3588		52.734375
3589		46.875000
3590		50.781250
3591		42.968750
3592		48.828125
3593		41.015625
3594		44.921875
3595		37.109375
3596		41.015625
3597		33.203125
3598		39.062500
3599		31.250000
3600		35.156250
3601		25.390625
3602		33.203125
3603		25.390625
3604		29.296875
3605		21.484375
3606		25.390625
3607		17.578125
3608		23.437500
3609		13.671875
3610		19.531250
3611		11.718750
3612		15.625000
3613		7.812500
3614		11.718750
3615		3.906250
3616		7.812500
3617		0.000000
3618		5.859375
3619		-3.906250
3620		1.953125
3621		-5.859375
3622		-1.953125
3623		-9.765625
3624		-5.859375
3625		-13.671875
3626		-7.812500
3627		-17.578125
3628		-11.718750
3629		-19.531250
3630		-15.625000
3631		-23.437500
3632		-17.578125
3633		-27.343750
3634		-21.484375
3635		-29.296875
3636		-25.390625
3637		-33.203125
3638		-27.343750
3639		-35.156250
3640		-31.250000
3641		-39.062500
3642		-33.203125
3643		-41.015625
3644		-37.109375
3645		-44.921875
3646		-39.062500
3647		-46.875000
3648		-42.968750
3649		-48.828125
3650		-44.921875
3651		-50.781250
3652		-46.875000
3653		-52.734375
3654		-48.828125
3655		-54.687500
3656		-50.781250
3657		-56.640625
3658		-52.734375
3659		-58.593750
3660		-54.687500
3661		-58.593750
3662		-54.687500
3663		-60.546875
3664		-56.640625
3665		-60.546875
3666		-58.593750
3667		-62.500000
3668		-58.593750
3669		-64.453125
3670		-58.593750
3671		-62.500000
3672		-60.546875
3673		-62.500000
3674		-60.546875
3675		-62.500000
3676		-60.546875
3677		-64.453125
3678		-60.546875
3679		-64.453125
3680		-60.546875
3681		-62.500000
3682		-58.593750
3683		-62.500000
3684		-58.593750
3685		-62.500000
3686		-56.640625
3687		-60.546875
3688		-56.640625
3689		-58.593750
3690		-56.640625
3691		-58.593750
3692		-54.687500
3693		-56.640625
3694		-50.781250
3695		-54.687500
3696		-50.781250
3697		-52.734375
3698		-48.828125
3699		-50.781250
3700		-46.875000
3701		-48.828125
3702		-44.921875
3703		-46.875000
3704		-42.968750
3705		-44.921875
3706		-39.062500
3707		-41.015625
3708		-37.109375
3709		-39.062500
3710		-35.156250
3711		-37.109375
3712		-31.250000
3713		-33.203125
3714		-29.296875
3715		-31.250000
3716		-25.390625
3717		-27.343750
3718		-23.437500
3719		-25.390625
3720		-19.531250
3721		-21.484375
3722		-15.625000
3723		-17.578125
3724		-13.671875
3725		-13.671875
3726		-9.765625
3727		-11.718750
3728		-5.859375
3729		-7.812500
3730		-1.953125
3731		-3.906250
3732		1.953125
3733		0.000000
3734		3.906250
3735		3.906250
3736		7.812500
3737		5.859375
3738		11.718750
3739		9.765625
3740		15.625000
3741		13.671875
3742		19.531250
3743		17.578125
3744		21.484375
3745		19.531250
3746		25.390625
3747		23.437500
3748		29.296875
3749		27.343750
3750		33.203125
3751		31.250000
3752		35.156250
3753		33.203125
3754		39.062500
3755		37.109375
3756		41.015625
3757		39.062500
3758		44.921875
3759		41.015625
3760		46.875000
3761		44.921875
3762		50.781250
3763		48.828125
3764		52.734375
3765		50.781250
3766		54.687500
3767		52.734375
3768		58.593750
3769		56.640625
3770		60.546875
3771		56.640625
3772		62.500000
3773		60.546875
3774		64.453125
3775		62.500000
3776		66.406250
3777		64.453125
3778		68.359375
3779		66.406250
3780		70.312500
3781		66.406250
3782		72.265625
3783		68.359375
3784		72.265625
3785		70.312500
3786		74.218750
3787		72.265625
3788		76.171875
3789		74.218750
3790		76.171875
3791		74.218750
3792		78.125000
3793		74.218750
3794		78.125000
3795		74.218750
3796		78.125000
3797		74.218750
3798		80.078125
3799		76.171875
3800		78.125000
3801		76.171875
3802		80.078125
3803		76.171875
3804		80.078125
3805		76.171875
3806		78.125000
3807		76.171875
3808		78.125000
3809		74.218750
3810		78.125000
3811		74.218750
3812		78.125000
3813		74.218750
3814		76.171875
3815		72.265625
3816		76.171875
3817		70.312500
3818		76.171875
3819		70.312500
3820		74.218750
3821		68.359375
3822		72.265625
3823		68.359375
3824		70.312500
3825		64.453125
3826		68.359375
3827		64.453125
3828		68.359375
3829		60.546875
3830		66.406250
3831		58.593750
3832		62.500000
3833		56.640625
3834		62.500000
3835		54.687500
3836		58.593750
3837		52.734375
3838		56.640625
3839		48.828125
3840		54.687500
3841		46.875000
3842		50.781250
3843		44.921875
3844		48.828125
3845		41.015625
3846		44.921875
3847		37.109375
3848		42.968750
3849		35.156250
3850		39.062500
3851		31.250000
3852		37.109375
3853		27.343750
3854		33.203125
3855		25.390625
3856		31.250000
3857		21.484375
3858		27.343750
3859		17.578125
3860		23.437500
3861		13.671875
3862		19.531250
3863		11.718750
3864		15.625000
3865		7.812500
3866		13.671875
3867		3.906250
3868		9.765625
3869		0.000000
3870		5.859375
3871		-1.953125
3872		1.953125
3873		-5.859375
3874		-1.953125
3875		-9.765625
3876		-5.859375
3877		-13.671875
3878		-7.812500
3879		-17.578125
3880		-11.718750
3881		-19.531250
3882		-15.625000
3883		-23.437500
3884		-17.578125
3885		-27.343750
3886		-21.484375
3887		-31.250000
3888		-25.390625
3889		-33.203125
3890		-27.343750
3891		-35.156250
3892		-31.250000
3893		-39.062500
3894		-33.203125
3895		-41.015625
3896		-37.109375
3897		-42.968750
3898		-39.062500
3899		-46.875000
3900		-41.015625
3901		-48.828125
3902		-42.968750
3903		-50.781250
3904		-46.875000
3905		-52.734375
3906		-48.828125
3907		-54.687500
3908		-50.781250
3909		-56.640625
3910		-52.734375
3911		-56.640625
3912		-54.687500
3913		-58.593750
3914		-54.687500
3915		-60.546875
3916		-56.640625
3917		-60.546875
3918		-58.593750
3919		-62.500000
3920		-58.593750
3921		-62.500000
3922		-58.593750
3923		-62.500000
3924		-60.546875
3925		-62.500000
3926		-60.546875
3927		-64.453125
3928		-60.546875
3929		-64.453125
3930		-60.546875
3931		-64.453125
3932		-60.546875
3933		-62.500000
3934		-60.546875
3935		-62.500000
3936		-58.593750
3937		-62.500000
3938		-58.593750
3939		-62.500000
3940		-56.640625
3941		-58.593750
3942		-56.640625
3943		-58.593750
3944		-54.687500
3945		-58.593750
3946		-52.734375
3947		-54.687500
3948		-50.781250
3949		-52.734375
3950		-48.828125
3951		-50.781250
3952		-46.875000
3953		-48.828125
3954		-44.921875
3955		-46.875000
3956		-42.968750
3957		-44.921875
3958		-41.015625
3959		-42.968750
3960		-37.109375
3961		-39.062500
3962		-33.203125
3963		-37.109375
3964		-33.203125
3965		-35.156250
3966		-27.343750
3967		-31.250000
3968		-25.390625
3969		-27.343750
3970		-23.437500
3971		-25.390625
3972		-19.531250
3973		-21.484375
3974		-17.578125
3975		-17.578125
3976		-13.671875
3977		-15.625000
3978		-9.765625
3979		-11.718750
3980		-5.859375
3981		-7.812500
3982		-1.953125
3983		-3.906250
3984		0.000000
3985		-1.953125
3986		3.906250
3987		1.953125
3988		7.812500
3989		5.859375
3990		11.718750
3991		9.765625
3992		13.671875
3993		13.671875
3994		17.578125
3995		15.625000
3996		21.484375
3997		19.531250
3998		25.390625
3999		23.437500
4000		27.343750
4001		25.390625
4002		31.250000
4003		29.296875
4004		35.156250
4005		33.203125
4006		37.109375
4007		35.156250
4008		41.015625
4009		39.062500
4010		42.968750
4011		41.015625
4012		46.875000
4013		44.921875
4014		50.781250
4015		46.875000
4016		52.734375
4017		50.781250
4018		54.687500
4019		52.734375
4020		56.640625
4021		54.687500
4022		60.546875
4023		56.640625
4024		62.500000
4025		58.593750
4026		64.453125
4027		62.500000
4028		66.406250
4029		64.453125
4030		68.359375
4031		66.406250
4032		70.312500
4033		66.406250
4034		72.265625
4035		68.359375
4036		74.218750
4037		70.312500
4038		74.218750
4039		72.265625
4040		76.171875
4041		72.265625
4042		76.171875
4043		72.265625
4044		78.125000
4045		74.218750
4046		78.125000
4047		76.171875
4048		78.125000
4049		76.171875
4050		78.125000
4051		76.171875
4052		80.078125
4053		76.171875
4054		80.078125
4055		76.171875
4056		80.078125
4057		76.171875
4058		78.125000
4059		76.171875
4060		78.125000
4061		74.218750
4062		78.125000
4063		74.218750
4064		78.125000
4065		74.218750
4066		76.171875
4067		72.265625
4068		76.171875
4069		70.312500
4070		76.171875
4071		70.312500
4072		74.218750
4073		68.359375
4074		72.265625
4075		66.406250
4076		70.312500
4077		64.453125
4078		68.359375
4079		62.500000
4080		68.359375
4081		60.546875
4082		64.453125
4083		58.593750
4084		62.500000
4085		56.640625
4086		60.546875
4087		54.687500
4088		58.593750
4089		52.734375
4090		56.640625
4091		48.828125
4092		54.687500
4093		46.875000
4094		50.781250
4095		42.968750
4096		48.828125
4097		41.015625
4098		46.875000
4099		39.062500
4100		42.968750
4101		35.156250
4102		39.062500
4103		31.250000
4104		37.109375
4105		29.296875
4106		33.203125
4107		25.390625
4108		31.250000
4109		21.484375
4110		27.343750
4111		17.578125
4112		23.437500
4113		13.671875
4114		19.531250
4115		11.718750
4116		17.578125
4117		7.812500
4118		13.671875
4119		3.906250
4120		9.765625
4121		0.000000
4122		5.859375
4123		-1.953125
4124		1.953125
4125		-5.859375
4126		0.000000
4127		-9.765625
4128		-3.906250
4129		-11.718750
4130		-7.812500
4131		-15.625000
4132		-9.765625
4133		-21.484375
4134		-13.671875
4135		-23.437500
4136		-17.578125
4137		-25.390625
4138		-21.484375
4139		-29.296875
4140		-25.390625
4141		-33.203125
4142		-27.343750
4143		-35.156250
4144		-31.250000
4145		-37.109375
4146		-33.203125
4147		-41.015625
4148		-35.156250
4149		-42.968750
4150		-39.062500
4151		-46.875000
4152		-41.015625
4153		-48.828125
4154		-44.921875
4155		-50.781250
4156		-46.875000
4157		-52.734375
4158		-46.875000
4159		-54.687500
4160		-50.781250
4161		-56.640625
4162		-52.734375
4163		-58.593750
4164		-52.734375
4165		-60.546875
4166		-56.640625
4167		-60.546875
4168		-56.640625
4169		-62.500000
4170		-56.640625
4171		-62.500000
4172		-58.593750
4173		-64.453125
4174		-60.546875
4175		-62.500000
4176		-60.546875
4177		-64.453125
4178		-60.546875
4179		-64.453125
4180		-60.546875
4181		-64.453125
4182		-60.546875
4183		-64.453125
4184		-60.546875
4185		-62.500000
4186		-60.546875
4187		-62.500000
4188		-58.593750
4189		-62.500000
4190		-58.593750
4191		-62.500000
4192		-58.593750
4193		-60.546875
4194		-56.640625
4195		-60.546875
4196		-54.687500
4197		-58.593750
4198		-54.687500
4199		-56.640625
4200		-52.734375
4201		-54.687500
4202		-50.781250
4203		-52.734375
4204		-46.875000
4205		-50.781250
4206		-44.921875
4207		-48.828125
4208		-44.921875
4209		-46.875000
4210		-41.015625
4211		-42.968750
4212		-39.062500
4213		-41.015625
4214		-37.109375
4215		-39.062500
4216		-33.203125
4217		-35.156250
4218		-31.250000
4219		-31.250000
4220		-27.343750
4221		-29.296875
4222		-23.437500
4223		-25.390625
4224		-19.531250
4225		-23.437500
4226		-17.578125
4227		-19.531250
4228		-13.671875
4229		-15.625000
4230		-11.718750
4231		-13.671875
4232		-7.812500
4233		-9.765625
4234		-3.906250
4235		-5.859375
4236		0.000000
4237		-1.953125
4238		3.906250
4239		1.953125
4240		5.859375
4241		3.906250
4242		9.765625
4243		7.812500
4244		13.671875
4245		11.718750
4246		17.578125
4247		13.671875
4248		21.484375
4249		19.531250
4250		23.437500
4251		21.484375
4252		27.343750
4253		25.390625
4254		29.296875
4255		29.296875
4256		33.203125
4257		31.250000
4258		37.109375
4259		35.156250
4260		39.062500
4261		39.062500
4262		42.968750
4263		39.062500
4264		46.875000
4265		42.968750
4266		48.828125
4267		46.875000
4268		50.781250
4269		48.828125
4270		54.687500
4271		52.734375
4272		56.640625
4273		54.687500
4274		58.593750
4275		56.640625
4276		60.546875
4277		58.593750
4278		62.500000
4279		60.546875
4280		66.406250
4281		62.500000
4282		66.406250
4283		64.453125
4284		70.312500
4285		66.406250
4286		70.312500
4287		68.359375
4288		72.265625
4289		70.312500
4290		74.218750
4291		70.312500
4292		74.218750
4293		72.265625
4294		76.171875
4295		74.218750
4296		76.171875
4297		74.218750
4298		78.125000
4299		74.218750
4300		78.125000
4301		76.171875
4302		78.125000
4303		74.218750
4304		78.125000
4305		76.171875
4306		80.078125
4307		76.171875
4308		78.125000
4309		74.218750
4310		78.125000
4311		76.171875
4312		78.125000
4313		74.218750
4314		78.125000
4315		74.218750
4316		78.125000
4317		74.218750
4318		76.171875
4319		72.265625
4320		76.171875
4321		72.265625
4322		76.171875
4323		70.312500
4324		74.218750
4325		68.359375
4326		72.265625
4327		66.406250
4328		70.312500
4329		64.453125
4330		70.312500
4331		64.453125
4332		68.359375
4333		62.500000
4334		66.406250
4335		60.546875
4336		64.453125
4337		56.640625
4338		62.500000
4339		54.687500
4340		60.546875
4341		52.734375
4342		56.640625
4343		50.781250
4344		54.687500
4345		46.875000
4346		50.781250
4347		44.921875
4348		48.828125
4349		41.015625
4350		46.875000
4351		39.062500
4352		44.921875
4353		35.156250
4354		41.015625
4355		31.250000
4356		37.109375
4357		29.296875
4358		35.156250
4359		25.390625
4360		31.250000
4361		21.484375
4362		27.343750
4363		19.531250
4364		23.437500
4365		15.625000
4366		21.484375
4367		11.718750
4368		17.578125
4369		7.812500
4370		13.671875
4371		3.906250
4372		11.718750
4373		1.953125
4374		7.812500
4375		-1.953125
4376		3.906250
4377		-5.859375
4378		0.000000
4379		-7.812500
4380		-3.906250
4381		-11.718750
4382		-7.812500
4383		-15.625000
4384		-9.765625
4385		-19.531250
4386		-13.671875
4387		-23.437500
4388		-17.578125
4389		-25.390625
4390		-21.484375
4391		-29.296875
4392		-23.437500
4393		-31.250000
4394		-25.390625
4395		-35.156250
4396		-31.250000
4397		-39.062500
4398		-33.203125
4399		-41.015625
4400		-35.156250
4401		-44.921875
4402		-37.109375
4403		-44.921875
4404		-39.062500
4405		-48.828125
4406		-42.968750
4407		-50.781250
4408		-44.921875
4409		-52.734375
4410		-46.875000
4411		-54.687500
4412		-50.781250
4413		-56.640625
4414		-52.734375
4415		-58.593750
4416		-52.734375
4417		-60.546875
4418		-54.687500
4419		-62.500000
4420		-56.640625
4421		-62.500000
4422		-56.640625
4423		-62.500000
4424		-58.593750
4425		-64.453125
4426		-58.593750
4427		-64.453125
4428		-60.546875
4429		-64.453125
4430		-60.546875
4431		-64.453125
4432		-60.546875
4433		-64.453125
4434		-60.546875
4435		-64.453125
4436		-60.546875
4437		-64.453125
4438		-60.546875
4439		-64.453125
4440		-58.593750
4441		-64.453125
4442		-58.593750
4443		-62.500000
4444		-58.593750
4445		-60.546875
4446		-56.640625
4447		-58.593750
4448		-54.687500
4449		-58.593750
4450		-52.734375
4451		-56.640625
4452		-50.781250
4453		-54.687500
4454		-48.828125
4455		-54.687500
4456		-48.828125
4457		-52.734375
4458		-46.875000
4459		-48.828125
4460		-44.921875
4461		-46.875000
4462		-42.968750
4463		-44.921875
4464		-39.062500
4465		-42.968750
4466		-37.109375
4467		-39.062500
4468		-33.203125
4469		-35.156250
4470		-31.250000
4471		-33.203125
4472		-29.296875
4473		-29.296875
4474		-25.390625
4475		-27.343750
4476		-21.484375
4477		-23.437500
4478		-19.531250
4479		-19.531250
4480		-15.625000
4481		-17.578125
4482		-11.718750
4483		-13.671875
4484		-7.812500
4485		-9.765625
4486		-5.859375
4487		-7.812500
4488		-1.953125
4489		-3.906250
4490		1.953125
4491		0.000000
4492		5.859375
4493		3.906250
4494		9.765625
4495		7.812500
4496		11.718750
4497		11.718750
4498		15.625000
4499		13.671875
4500		19.531250
4501		17.578125
4502		23.437500
4503		21.484375
4504		25.390625
4505		25.390625
4506		29.296875
4507		27.343750
4508		33.203125
4509		31.250000
4510		35.156250
4511		33.203125
4512		39.062500
4513		37.109375
4514		41.015625
4515		41.015625
4516		44.921875
4517		42.968750
4518		46.875000
4519		46.875000
4520		50.781250
4521		48.828125
4522		52.734375
4523		50.781250
4524		54.687500
4525		54.687500
4526		58.593750
4527		56.640625
4528		60.546875
4529		58.593750
4530		62.500000
4531		60.546875
4532		64.453125
4533		62.500000
4534		66.406250
4535		64.453125
4536		68.359375
4537		66.406250
4538		70.312500
4539		68.359375
4540		70.312500
4541		70.312500
4542		72.265625
4543		70.312500
4544		74.218750
4545		72.265625
4546		76.171875
4547		72.265625
4548		76.171875
4549		74.218750
4550		76.171875
4551		74.218750
4552		78.125000
4553		74.218750
4554		78.125000
4555		74.218750
4556		78.125000
4557		76.171875
4558		78.125000
4559		76.171875
4560		78.125000
4561		76.171875
4562		78.125000
4563		76.171875
4564		78.125000
4565		72.265625
4566		80.078125
4567		70.312500
4568		80.078125
4569		70.312500
4570		80.078125
4571		72.265625
4572		76.171875
4573		72.265625
4574		74.218750
4575		70.312500
4576		74.218750
4577		68.359375
4578		72.265625
4579		66.406250
4580		70.312500
4581		62.500000
4582		70.312500
4583		60.546875
4584		70.312500
4585		58.593750
4586		70.312500
4587		58.593750
4588		66.406250
4589		58.593750
4590		62.500000
4591		54.687500
4592		58.593750
4593		52.734375
4594		56.640625
4595		50.781250
4596		54.687500
4597		46.875000
4598		52.734375
4599		42.968750
4600		50.781250
4601		39.062500
4602		48.828125
4603		35.156250
4604		46.875000
4605		35.156250
4606		41.015625
4607		33.203125
4608		37.109375
4609		29.296875
4610		35.156250
4611		25.390625
4612		31.250000
4613		23.437500
4614		27.343750
4615		15.625000
4616		25.390625
4617		13.671875
4618		25.390625
4619		7.812500
4620		21.484375
4621		7.812500
4622		17.578125
4623		5.859375
4624		9.765625
4625		1.953125
4626		7.812500
4627		-1.953125
4628		3.906250
4629		-5.859375
4630		0.000000
4631		-7.812500
4632		-3.906250
4633		-13.671875
4634		-3.906250
4635		-17.578125
4636		-7.812500
4637		-21.484375
4638		-9.765625
4639		-21.484375
4640		-17.578125
4641		-25.390625
4642		-19.531250
4643		-29.296875
4644		-23.437500
4645		-31.250000
4646		-27.343750
4647		-35.156250
4648		-29.296875
4649		-41.015625
4650		-31.250000
4651		-44.921875
4652		-33.203125
4653		-46.875000
4654		-35.156250
4655		-44.921875
4656		-41.015625
4657		-46.875000
4658		-42.968750
4659		-50.781250
4660		-46.875000
4661		-52.734375
4662		-48.828125
4663		-54.687500
4664		-50.781250
4665		-58.593750
4666		-50.781250
4667		-60.546875
4668		-50.781250
4669		-62.500000
4670		-52.734375
4671		-62.500000
4672		-54.687500
4673		-62.500000
4674		-58.593750
4675		-62.500000
4676		-60.546875
4677		-62.500000
4678		-60.546875
4679		-64.453125
4680		-60.546875
4681		-64.453125
4682		-62.500000
4683		-68.359375
4684		-58.593750
4685		-68.359375
4686		-58.593750
4687		-66.406250
4688		-58.593750
4689		-64.453125
4690		-62.500000
4691		-64.453125
4692		-60.546875
4693		-62.500000
4694		-60.546875
4695		-62.500000
4696		-58.593750
4697		-60.546875
4698		-58.593750
4699		-62.500000
4700		-52.734375
4701		-62.500000
4702		-52.734375
4703		-60.546875
4704		-50.781250
4705		-58.593750
4706		-50.781250
4707		-54.687500
4708		-50.781250
4709		-50.781250
4710		-48.828125
4711		-48.828125
4712		-44.921875
4713		-46.875000
4714		-42.968750
4715		-44.921875
4716		-41.015625
4717		-44.921875
4718		-35.156250
4719		-42.968750
4720		-33.203125
4721		-41.015625
4722		-29.296875
4723		-33.203125
4724		-29.296875
4725		-31.250000
4726		-25.390625
4727		-27.343750
4728		-23.437500
4729		-25.390625
4730		-19.531250
4731		-21.484375
4732		-15.625000
4733		-19.531250
4734		-9.765625
4735		-17.578125
4736		-5.859375
4737		-15.625000
4738		-3.906250
4739		-7.812500
4740		-1.953125
4741		-3.906250
4742		0.000000
4743		0.000000
4744		3.906250
4745		1.953125
4746		7.812500
4747		5.859375
4748		11.718750
4749		9.765625
4750		15.625000
4751		13.671875
4752		19.531250
4753		15.625000
4754		21.484375
4755		17.578125
4756		25.390625
4757		23.437500
4758		27.343750
4759		27.343750
4760		31.250000
4761		29.296875
4762		35.156250
4763		33.203125
4764		37.109375
4765		37.109375
4766		41.015625
4767		39.062500
4768		42.968750
4769		41.015625
4770		48.828125
4771		42.968750
4772		50.781250
4773		48.828125
4774		52.734375
4775		50.781250
4776		54.687500
4777		52.734375
4778		56.640625
4779		54.687500
4780		60.546875
4781		58.593750
4782		62.500000
4783		60.546875
4784		64.453125
4785		60.546875
4786		68.359375
4787		62.500000
4788		70.312500
4789		66.406250
4790		68.359375
4791		68.359375
4792		70.312500
4793		68.359375
4794		72.265625
4795		70.312500
4796		74.218750
4797		72.265625
4798		74.218750
4799		72.265625
4800		76.171875
4801		74.218750
4802		76.171875
4803		74.218750
4804		76.171875
4805		74.218750
4806		78.125000
4807		76.171875
4808		78.125000
4809		76.171875
4810		78.125000
4811		76.171875
4812		78.125000
4813		76.171875
4814		78.125000
4815		76.171875
4816		78.125000
4817		74.218750
4818		78.125000
4819		74.218750
4820		76.171875
4821		74.218750
4822		76.171875
4823		72.265625
4824		76.171875
4825		72.265625
4826		74.218750
4827		70.312500
4828		74.218750
4829		68.359375
4830		72.265625
4831		66.406250
4832		70.312500
4833		64.453125
4834		68.359375
4835		64.453125
4836		68.359375
4837		62.500000
4838		66.406250
4839		60.546875
4840		64.453125
4841		56.640625
4842		62.500000
4843		54.687500
4844		60.546875
4845		52.734375
4846		56.640625
4847		50.781250
4848		54.687500
4849		48.828125
4850		52.734375
4851		44.921875
4852		48.828125
4853		42.968750
4854		46.875000
4855		39.062500
4856		42.968750
4857		35.156250
4858		41.015625
4859		33.203125
4860		37.109375
4861		29.296875
4862		35.156250
4863		27.343750
4864		31.250000
4865		23.437500
4866		27.343750
4867		19.531250
4868		25.390625
4869		15.625000
4870		21.484375
4871		13.671875
4872		17.578125
4873		9.765625
4874		13.671875
4875		5.859375
4876		11.718750
4877		1.953125
4878		7.812500
4879		-1.953125
4880		3.906250
4881		-5.859375
4882		0.000000
4883		-7.812500
4884		-3.906250
4885		-11.718750
4886		-5.859375
4887		-15.625000
4888		-9.765625
4889		-17.578125
4890		-13.671875
4891		-21.484375
4892		-17.578125
4893		-25.390625
4894		-19.531250
4895		-27.343750
4896		-23.437500
4897		-31.250000
4898		-27.343750
4899		-35.156250
4900		-29.296875
4901		-37.109375
4902		-33.203125
4903		-41.015625
4904		-35.156250
4905		-42.968750
4906		-39.062500
4907		-44.921875
4908		-41.015625
4909		-48.828125
4910		-42.968750
4911		-50.781250
4912		-46.875000
4913		-52.734375
4914		-48.828125
4915		-54.687500
4916		-50.781250
4917		-58.593750
4918		-52.734375
4919		-58.593750
4920		-52.734375
4921		-58.593750
4922		-54.687500
4923		-60.546875
4924		-56.640625
4925		-62.500000
4926		-58.593750
4927		-62.500000
4928		-58.593750
4929		-62.500000
4930		-60.546875
4931		-64.453125
4932		-60.546875
4933		-64.453125
4934		-62.500000
4935		-64.453125
4936		-60.546875
4937		-66.406250
4938		-60.546875
4939		-64.453125
4940		-62.500000
4941		-64.453125
4942		-60.546875
4943		-64.453125
4944		-60.546875
4945		-62.500000
4946		-60.546875
4947		-62.500000
4948		-60.546875
4949		-60.546875
4950		-58.593750
4951		-60.546875
4952		-56.640625
4953		-60.546875
4954		-54.687500
4955		-58.593750
4956		-54.687500
4957		-56.640625
4958		-52.734375
4959		-54.687500
4960		-48.828125
4961		-52.734375
4962		-48.828125
4963		-50.781250
4964		-46.875000
4965		-48.828125
4966		-44.921875
4967		-44.921875
4968		-41.015625
4969		-42.968750
4970		-39.062500
4971		-41.015625
4972		-35.156250
4973		-37.109375
4974		-33.203125
4975		-35.156250
4976		-29.296875
4977		-33.203125
4978		-27.343750
4979		-29.296875
4980		-23.437500
4981		-25.390625
4982		-21.484375
4983		-21.484375
4984		-17.578125
4985		-19.531250
4986		-13.671875
4987		-15.625000
4988		-9.765625
4989		-11.718750
4990		-7.812500
4991		-7.812500
4992		-1.953125
4993		-5.859375
4994		0.000000
4995		-1.953125
4996		3.906250
4997		1.953125
4998		7.812500
4999		5.859375
5000		9.765625
5001		9.765625
5002		15.625000
5003		11.718750
5004		17.578125
5005		15.625000
5006		21.484375
5007		19.531250
5008		23.437500
5009		21.484375
5010		29.296875
5011		25.390625
5012		31.250000
5013		29.296875
5014		33.203125
5015		33.203125
5016		37.109375
5017		35.156250
5018		41.015625
5019		39.062500
5020		42.968750
5021		41.015625
5022		46.875000
5023		44.921875
5024		48.828125
5025		46.875000
5026		52.734375
5027		48.828125
5028		54.687500
5029		52.734375
5030		56.640625
5031		54.687500
5032		58.593750
5033		56.640625
5034		60.546875
5035		60.546875
5036		64.453125
5037		62.500000
5038		64.453125
5039		64.453125
5040		66.406250
5041		64.453125
5042		68.359375
5043		66.406250
5044		70.312500
5045		68.359375
5046		72.265625
5047		70.312500
5048		72.265625
5049		70.312500
5050		74.218750
5051		72.265625
5052		74.218750
5053		72.265625
5054		76.171875
5055		74.218750
5056		76.171875
5057		74.218750
5058		78.125000
5059		74.218750
5060		78.125000
5061		74.218750
5062		78.125000
5063		76.171875
5064		78.125000
5065		76.171875
5066		78.125000
5067		74.218750
5068		78.125000
5069		74.218750
5070		78.125000
5071		74.218750
5072		76.171875
5073		74.218750
5074		76.171875
5075		72.265625
5076		76.171875
5077		72.265625
5078		74.218750
5079		70.312500
5080		74.218750
5081		68.359375
5082		72.265625
5083		68.359375
5084		70.312500
5085		66.406250
5086		70.312500
5087		64.453125
5088		68.359375
5089		62.500000
5090		66.406250
5091		60.546875
5092		64.453125
5093		58.593750
5094		62.500000
5095		56.640625
5096		60.546875
5097		52.734375
5098		56.640625
5099		50.781250
5100		54.687500
5101		48.828125
5102		52.734375
5103		44.921875
5104		48.828125
5105		42.968750
5106		46.875000
5107		39.062500
5108		44.921875
5109		37.109375
5110		41.015625
5111		33.203125
5112		39.062500
5113		29.296875
5114		35.156250
5115		27.343750
5116		31.250000
5117		23.437500
5118		29.296875
5119		19.531250
5120		25.390625
5121		17.578125
5122		21.484375
5123		13.671875
5124		17.578125
5125		9.765625
5126		13.671875
5127		5.859375
5128		11.718750
5129		1.953125
5130		7.812500
5131		0.000000
5132		3.906250
5133		-3.906250
5134		0.000000
5135		-7.812500
5136		-3.906250
5137		-11.718750
5138		-5.859375
5139		-13.671875
5140		-9.765625
5141		-17.578125
5142		-13.671875
5143		-21.484375
5144		-15.625000
5145		-25.390625
5146		-19.531250
5147		-27.343750
5148		-23.437500
5149		-31.250000
5150		-27.343750
5151		-33.203125
5152		-29.296875
5153		-37.109375
5154		-33.203125
5155		-39.062500
5156		-35.156250
5157		-42.968750
5158		-39.062500
5159		-44.921875
5160		-41.015625
5161		-46.875000
5162		-42.968750
5163		-48.828125
5164		-44.921875
5165		-52.734375
5166		-48.828125
5167		-54.687500
5168		-50.781250
5169		-56.640625
5170		-52.734375
5171		-56.640625
5172		-52.734375
5173		-58.593750
5174		-56.640625
5175		-60.546875
5176		-56.640625
5177		-60.546875
5178		-58.593750
5179		-62.500000
5180		-60.546875
5181		-62.500000
5182		-60.546875
5183		-64.453125
5184		-60.546875
5185		-64.453125
5186		-62.500000
5187		-66.406250
5188		-60.546875
5189		-66.406250
5190		-60.546875
5191		-64.453125
5192		-62.500000
5193		-64.453125
5194		-62.500000
5195		-64.453125
5196		-62.500000
5197		-64.453125
5198		-60.546875
5199		-62.500000
5200		-60.546875
5201		-62.500000
5202		-58.593750
5203		-62.500000
5204		-56.640625
5205		-60.546875
5206		-54.687500
5207		-58.593750
5208		-54.687500
5209		-56.640625
5210		-52.734375
5211		-54.687500
5212		-50.781250
5213		-52.734375
5214		-48.828125
5215		-50.781250
5216		-46.875000
5217		-48.828125
5218		-44.921875
5219		-46.875000
5220		-42.968750
5221		-44.921875
5222		-39.062500
5223		-42.968750
5224		-37.109375
5225		-39.062500
5226		-33.203125
5227		-35.156250
5228		-31.250000
5229		-33.203125
5230		-27.343750
5231		-29.296875
5232		-25.390625
5233		-25.390625
5234		-21.484375
5235		-23.437500
5236		-17.578125
5237		-19.531250
5238		-11.718750
5239		-17.578125
5240		-9.765625
5241		-13.671875
5242		-7.812500
5243		-9.765625
5244		-3.906250
5245		-5.859375
5246		-1.953125
5247		-1.953125
5248		1.953125
5249		1.953125
5250		5.859375
5251		3.906250
5252		9.765625
5253		7.812500
5254		13.671875
5255		9.765625
5256		17.578125
5257		13.671875
5258		19.531250
5259		17.578125
5260		23.437500
5261		21.484375
5262		27.343750
5263		25.390625
5264		29.296875
5265		27.343750
5266		33.203125
5267		31.250000
5268		37.109375
5269		35.156250
5270		39.062500
5271		37.109375
5272		44.921875
5273		41.015625
5274		46.875000
5275		42.968750
5276		48.828125
5277		46.875000
5278		50.781250
5279		48.828125
5280		52.734375
5281		50.781250
5282		56.640625
5283		54.687500
5284		58.593750
5285		56.640625
5286		60.546875
5287		58.593750
5288		64.453125
5289		58.593750
5290		66.406250
5291		60.546875
5292		66.406250
5293		64.453125
5294		68.359375
5295		66.406250
5296		70.312500
5297		68.359375
5298		70.312500
5299		70.312500
5300		72.265625
5301		70.312500
5302		74.218750
5303		72.265625
5304		74.218750
5305		70.312500
5306		76.171875
5307		72.265625
5308		78.125000
5309		74.218750
5310		76.171875
5311		74.218750
5312		76.171875
5313		74.218750
5314		78.125000
5315		76.171875
5316		78.125000
5317		74.218750
5318		78.125000
5319		76.171875
5320		78.125000
5321		72.265625
5322		78.125000
5323		72.265625
5324		78.125000
5325		74.218750
5326		76.171875
5327		72.265625
5328		76.171875
5329		72.265625
5330		74.218750
5331		70.312500
5332		74.218750
5333		68.359375
5334		72.265625
5335		68.359375
5336		70.312500
5337		66.406250
5338		70.312500
5339		62.500000
5340		70.312500
5341		60.546875
5342		68.359375
5343		60.546875
5344		64.453125
5345		58.593750
5346		62.500000
5347		56.640625
5348		60.546875
5349		52.734375
5350		58.593750
5351		50.781250
5352		54.687500
5353		48.828125
5354		52.734375
5355		44.921875
5356		50.781250
5357		42.968750
5358		46.875000
5359		39.062500
5360		44.921875
5361		37.109375
5362		41.015625
5363		33.203125
5364		39.062500
5365		31.250000
5366		35.156250
5367		27.343750
5368		31.250000
5369		23.437500
5370		29.296875
5371		19.531250
5372		25.390625
5373		17.578125
5374		21.484375
5375		13.671875
5376		19.531250
5377		9.765625
5378		15.625000
5379		5.859375
5380		11.718750
5381		3.906250
5382		7.812500
5383		0.000000
5384		3.906250
5385		-3.906250
5386		1.953125
5387		-7.812500
5388		-1.953125
5389		-9.765625
5390		-5.859375
5391		-13.671875
5392		-9.765625
5393		-17.578125
5394		-13.671875
5395		-21.484375
5396		-15.625000
5397		-25.390625
5398		-19.531250
5399		-27.343750
5400		-23.437500
5401		-31.250000
5402		-25.390625
5403		-33.203125
5404		-29.296875
5405		-37.109375
5406		-31.250000
5407		-39.062500
5408		-35.156250
5409		-42.968750
5410		-37.109375
5411		-44.921875
5412		-41.015625
5413		-46.875000
5414		-42.968750
5415		-48.828125
5416		-44.921875
5417		-50.781250
5418		-48.828125
5419		-54.687500
5420		-50.781250
5421		-56.640625
5422		-52.734375
5423		-56.640625
5424		-54.687500
5425		-58.593750
5426		-54.687500
5427		-60.546875
5428		-56.640625
5429		-62.500000
5430		-58.593750
5431		-62.500000
5432		-60.546875
5433		-62.500000
5434		-60.546875
5435		-64.453125
5436		-62.500000
5437		-64.453125
5438		-62.500000
5439		-64.453125
5440		-62.500000
5441		-64.453125
5442		-62.500000
5443		-64.453125
5444		-62.500000
5445		-64.453125
5446		-62.500000
5447		-64.453125
5448		-62.500000
5449		-64.453125
5450		-62.500000
5451		-64.453125
5452		-60.546875
5453		-62.500000
5454		-58.593750
5455		-60.546875
5456		-58.593750
5457		-60.546875
5458		-56.640625
5459		-58.593750
5460		-54.687500
5461		-56.640625
5462		-52.734375
5463		-54.687500
5464		-52.734375
5465		-52.734375
5466		-48.828125
5467		-50.781250
5468		-46.875000
5469		-48.828125
5470		-44.921875
5471		-46.875000
5472		-42.968750
5473		-44.921875
5474		-41.015625
5475		-41.015625
5476		-37.109375
5477		-39.062500
5478		-35.156250
5479		-37.109375
5480		-31.250000
5481		-33.203125
5482		-29.296875
5483		-29.296875
5484		-25.390625
5485		-27.343750
5486		-21.484375
5487		-23.437500
5488		-19.531250
5489		-19.531250
5490		-15.625000
5491		-17.578125
5492		-11.718750
5493		-13.671875
5494		-9.765625
5495		-9.765625
5496		-5.859375
5497		-7.812500
5498		-1.953125
5499		-3.906250
5500		1.953125
5501		0.000000
5502		5.859375
5503		3.906250
5504		7.812500
5505		7.812500
5506		13.671875
5507		9.765625
5508		15.625000
5509		13.671875
5510		19.531250
5511		17.578125
5512		23.437500
5513		21.484375
5514		27.343750
5515		25.390625
5516		29.296875
5517		27.343750
5518		33.203125
5519		31.250000
5520		35.156250
5521		33.203125
5522		39.062500
5523		37.109375
5524		41.015625
5525		39.062500
5526		44.921875
5527		42.968750
5528		48.828125
5529		44.921875
5530		50.781250
5531		48.828125
5532		52.734375
5533		50.781250
5534		54.687500
5535		52.734375
5536		58.593750
5537		56.640625
5538		60.546875
5539		58.593750
5540		62.500000
5541		60.546875
5542		64.453125
5543		62.500000
5544		66.406250
5545		64.453125
5546		68.359375
5547		66.406250
5548		68.359375
5549		66.406250
5550		70.312500
5551		68.359375
5552		72.265625
5553		70.312500
5554		74.218750
5555		72.265625
5556		74.218750
5557		72.265625
5558		74.218750
5559		74.218750
5560		76.171875
5561		72.265625
5562		76.171875
5563		74.218750
5564		76.171875
5565		74.218750
5566		78.125000
5567		76.171875
5568		78.125000
5569		74.218750
5570		78.125000
5571		74.218750
5572		78.125000
5573		74.218750
5574		78.125000
5575		74.218750
5576		76.171875
5577		74.218750
5578		76.171875
5579		72.265625
5580		76.171875
5581		70.312500
5582		74.218750
5583		70.312500
5584		74.218750
5585		68.359375
5586		74.218750
5587		68.359375
5588		70.312500
5589		66.406250
5590		70.312500
5591		64.453125
5592		68.359375
5593		62.500000
5594		66.406250
5595		60.546875
5596		64.453125
5597		58.593750
5598		62.500000
5599		56.640625
5600		60.546875
5601		54.687500
5602		58.593750
5603		50.781250
5604		54.687500
5605		48.828125
5606		52.734375
5607		46.875000
5608		50.781250
5609		42.968750
5610		46.875000
5611		41.015625
5612		44.921875
5613		37.109375
5614		42.968750
5615		33.203125
5616		39.062500
5617		31.250000
5618		35.156250
5619		27.343750
5620		33.203125
5621		23.437500
5622		29.296875
5623		21.484375
5624		25.390625
5625		17.578125
5626		23.437500
5627		13.671875
5628		19.531250
5629		11.718750
5630		15.625000
5631		7.812500
5632		11.718750
5633		3.906250
5634		7.812500
5635		0.000000
5636		5.859375
5637		-3.906250
5638		1.953125
5639		-7.812500
5640		-1.953125
5641		-9.765625
5642		-5.859375
5643		-13.671875
5644		-7.812500
5645		-17.578125
5646		-11.718750
5647		-19.531250
5648		-15.625000
5649		-23.437500
5650		-19.531250
5651		-27.343750
5652		-21.484375
5653		-29.296875
5654		-25.390625
5655		-33.203125
5656		-29.296875
5657		-37.109375
5658		-31.250000
5659		-39.062500
5660		-35.156250
5661		-41.015625
5662		-37.109375
5663		-44.921875
5664		-41.015625
5665		-46.875000
5666		-42.968750
5667		-48.828125
5668		-44.921875
5669		-50.781250
5670		-46.875000
5671		-52.734375
5672		-48.828125
5673		-54.687500
5674		-52.734375
5675		-56.640625
5676		-52.734375
5677		-58.593750
5678		-54.687500
5679		-60.546875
5680		-56.640625
5681		-62.500000
5682		-58.593750
5683		-62.500000
5684		-58.593750
5685		-64.453125
5686		-60.546875
5687		-64.453125
5688		-60.546875
5689		-64.453125
5690		-62.500000
5691		-64.453125
5692		-62.500000
5693		-66.406250
5694		-62.500000
5695		-64.453125
5696		-62.500000
5697		-64.453125
5698		-62.500000
5699		-64.453125
5700		-62.500000
5701		-64.453125
5702		-60.546875
5703		-64.453125
5704		-60.546875
5705		-62.500000
5706		-60.546875
5707		-60.546875
5708		-58.593750
5709		-60.546875
5710		-56.640625
5711		-58.593750
5712		-54.687500
5713		-56.640625
5714		-54.687500
5715		-56.640625
5716		-52.734375
5717		-54.687500
5718		-50.781250
5719		-50.781250
5720		-48.828125
5721		-48.828125
5722		-44.921875
5723		-46.875000
5724		-42.968750
5725		-44.921875
5726		-41.015625
5727		-41.015625
5728		-37.109375
5729		-39.062500
5730		-35.156250
5731		-37.109375
5732		-31.250000
5733		-33.203125
5734		-29.296875
5735		-31.250000
5736		-25.390625
5737		-27.343750
5738		-23.437500
5739		-23.437500
5740		-19.531250
5741		-21.484375
5742		-15.625000
5743		-17.578125
5744		-11.718750
5745		-13.671875
5746		-9.765625
5747		-11.718750
5748		-5.859375
5749		-7.812500
5750		-1.953125
5751		-3.906250
5752		1.953125
5753		0.000000
5754		3.906250
5755		3.906250
5756		7.812500
5757		5.859375
5758		11.718750
5759		9.765625
5760		15.625000
5761		13.671875
5762		17.578125
5763		17.578125
5764		21.484375
5765		21.484375
5766		25.390625
5767		23.437500
5768		29.296875
5769		27.343750
5770		31.250000
5771		31.250000
5772		35.156250
5773		33.203125
5774		37.109375
5775		37.109375
5776		41.015625
5777		39.062500
5778		44.921875
5779		42.968750
5780		46.875000
5781		44.921875
5782		50.781250
5783		48.828125
5784		52.734375
5785		50.781250
5786		54.687500
5787		52.734375
5788		56.640625
5789		56.640625
5790		60.546875
5791		58.593750
5792		60.546875
5793		60.546875
5794		64.453125
5795		62.500000
5796		66.406250
5797		64.453125
5798		66.406250
5799		66.406250
5800		68.359375
5801		68.359375
5802		70.312500
5803		68.359375
5804		72.265625
5805		70.312500
5806		74.218750
5807		72.265625
5808		74.218750
5809		72.265625
5810		74.218750
5811		72.265625
5812		76.171875
5813		74.218750
5814		76.171875
5815		74.218750
5816		76.171875
5817		74.218750
5818		76.171875
5819		74.218750
5820		78.125000
5821		76.171875
5822		78.125000
5823		74.218750
5824		78.125000
5825		74.218750
5826		78.125000
5827		74.218750
5828		76.171875
5829		74.218750
5830		76.171875
5831		72.265625
5832		76.171875
5833		72.265625
5834		74.218750
5835		70.312500
5836		74.218750
5837		68.359375
5838		72.265625
5839		68.359375
5840		72.265625
5841		66.406250
5842		70.312500
5843		64.453125
5844		68.359375
5845		62.500000
5846		66.406250
5847		60.546875
5848		64.453125
5849		58.593750
5850		62.500000
5851		56.640625
5852		60.546875
5853		54.687500
5854		58.593750
5855		50.781250
5856		56.640625
5857		48.828125
5858		52.734375
5859		46.875000
5860		50.781250
5861		44.921875
5862		48.828125
5863		41.015625
5864		44.921875
5865		37.109375
5866		42.968750
5867		35.156250
5868		39.062500
5869		31.250000
5870		37.109375
5871		29.296875
5872		33.203125
5873		25.390625
5874		29.296875
5875		21.484375
5876		27.343750
5877		17.578125
5878		23.437500
5879		15.625000
5880		19.531250
5881		11.718750
5882		15.625000
5883		7.812500
5884		13.671875
5885		3.906250
5886		9.765625
5887		1.953125
5888		5.859375
5889		-1.953125
5890		1.953125
5891		-5.859375
5892		-1.953125
5893		-9.765625
5894		-3.906250
5895		-13.671875
5896		-7.812500
5897		-17.578125
5898		-11.718750
5899		-19.531250
5900		-15.625000
5901		-23.437500
5902		-17.578125
5903		-27.343750
5904		-21.484375
5905		-29.296875
5906		-25.390625
5907		-33.203125
5908		-27.343750
5909		-35.156250
5910		-31.250000
5911		-39.062500
5912		-33.203125
5913		-41.015625
5914		-37.109375
5915		-42.968750
5916		-39.062500
5917		-46.875000
5918		-42.968750
5919		-48.828125
5920		-44.921875
5921		-50.781250
5922		-46.875000
5923		-52.734375
5924		-48.828125
5925		-54.687500
5926		-50.781250
5927		-56.640625
5928		-52.734375
5929		-58.593750
5930		-54.687500
5931		-60.546875
5932		-56.640625
5933		-60.546875
5934		-58.593750
5935		-62.500000
5936		-60.546875
5937		-62.500000
5938		-60.546875
5939		-64.453125
5940		-60.546875
5941		-64.453125
5942		-62.500000
5943		-64.453125
5944		-62.500000
5945		-66.406250
5946		-62.500000
5947		-64.453125
5948		-62.500000
5949		-64.453125
5950		-62.500000
5951		-64.453125
5952		-62.500000
5953		-64.453125
5954		-62.500000
5955		-64.453125
5956		-60.546875
5957		-62.500000
5958		-60.546875
5959		-62.500000
5960		-58.593750
5961		-60.546875
5962		-58.593750
5963		-60.546875
5964		-56.640625
5965		-58.593750
5966		-54.687500
5967		-56.640625
5968		-52.734375
5969		-54.687500
5970		-50.781250
5971		-52.734375
5972		-48.828125
5973		-50.781250
5974		-46.875000
5975		-48.828125
5976		-44.921875
5977		-44.921875
5978		-41.015625
5979		-42.968750
5980		-39.062500
5981		-41.015625
5982		-37.109375
5983		-37.109375
5984		-33.203125
5985		-35.156250
5986		-29.296875
5987		-31.250000
5988		-27.343750
5989		-29.296875
5990		-23.437500
5991		-25.390625
5992		-21.484375
5993		-21.484375
5994		-17.578125
5995		-17.578125
5996		-13.671875
5997		-15.625000
5998		-9.765625
5999		-11.718750
6000		-7.812500
6001		-7.812500
6002		-3.906250
6003		-5.859375
6004		0.000000
6005		-1.953125
6006		3.906250
6007		1.953125
6008		7.812500
6009		5.859375
6010		9.765625
6011		9.765625
6012		13.671875
6013		11.718750
6014		17.578125
6015		15.625000
6016		21.484375
6017		19.531250
6018		23.437500
6019		21.484375
6020		27.343750
6021		25.390625
6022		31.250000
6023		29.296875
6024		33.203125
6025		31.250000
6026		37.109375
6027		35.156250
6028		41.015625
6029		39.062500
6030		42.968750
6031		41.015625
6032		44.921875
6033		44.921875
6034		48.828125
6035		46.875000
6036		50.781250
6037		48.828125
6038		54.687500
6039		52.734375
6040		56.640625
6041		54.687500
6042		58.593750
6043		56.640625
6044		60.546875
6045		58.593750
6046		62.500000
6047		60.546875
6048		64.453125
6049		62.500000
6050		66.406250
6051		64.453125
6052		68.359375
6053		66.406250
6054		70.312500
6055		68.359375
6056		70.312500
6057		70.312500
6058		72.265625
6059		70.312500
6060		74.218750
6061		72.265625
6062		74.218750
6063		72.265625
6064		74.218750
6065		74.218750
6066		76.171875
6067		74.218750
6068		76.171875
6069		74.218750
6070		76.171875
6071		74.218750
6072		76.171875
6073		74.218750
6074		76.171875
6075		74.218750
6076		76.171875
6077		74.218750
6078		76.171875
6079		74.218750
6080		76.171875
6081		72.265625
6082		76.171875
6083		72.265625
6084		74.218750
6085		72.265625
6086		74.218750
6087		70.312500
6088		74.218750
6089		68.359375
6090		72.265625
6091		66.406250
6092		70.312500
6093		66.406250
6094		70.312500
6095		64.453125
6096		68.359375
6097		62.500000
6098		66.406250
6099		60.546875
6100		64.453125
6101		58.593750
6102		62.500000
6103		56.640625
6104		60.546875
6105		54.687500
6106		58.593750
6107		52.734375
6108		56.640625
6109		48.828125
6110		52.734375
6111		46.875000
6112		50.781250
6113		42.968750
6114		48.828125
6115		41.015625
6116		44.921875
6117		39.062500
6118		42.968750
6119		35.156250
6120		39.062500
6121		31.250000
6122		37.109375
6123		27.343750
6124		33.203125
6125		25.390625
6126		29.296875
6127		21.484375
6128		27.343750
6129		17.578125
6130		23.437500
6131		15.625000
6132		19.531250
6133		11.718750
6134		15.625000
6135		7.812500
6136		13.671875
6137		3.906250
6138		9.765625
6139		1.953125
6140		5.859375
6141		-1.953125
6142		1.953125
6143		-5.859375
6144		0.000000
6145		-9.765625
6146		-3.906250
6147		-13.671875
6148		-7.812500
6149		-15.625000
6150		-11.718750
6151		-19.531250
6152		-15.625000
6153		-23.437500
6154		-19.531250
6155		-25.390625
6156		-21.484375
6157		-29.296875
6158		-25.390625
6159		-33.203125
6160		-27.343750
6161		-35.156250
6162		-31.250000
6163		-39.062500
6164		-35.156250
6165		-41.015625
6166		-37.109375
6167		-44.921875
6168		-39.062500
6169		-46.875000
6170		-42.968750
6171		-48.828125
6172		-44.921875
6173		-50.781250
6174		-46.875000
6175		-52.734375
6176		-50.781250
6177		-54.687500
6178		-52.734375
6179		-56.640625
6180		-54.687500
6181		-58.593750
6182		-54.687500
6183		-60.546875
6184		-56.640625
6185		-62.500000
6186		-58.593750
6187		-62.500000
6188		-60.546875
6189		-64.453125
6190		-60.546875
6191		-64.453125
6192		-62.500000
6193		-64.453125
6194		-62.500000
6195		-66.406250
6196		-62.500000
6197		-66.406250
6198		-64.453125
6199		-66.406250
6200		-62.500000
6201		-66.406250
6202		-64.453125
6203		-66.406250
6204		-64.453125
6205		-64.453125
6206		-62.500000
6207		-64.453125
6208		-62.500000
6209		-64.453125
6210		-60.546875
6211		-62.500000
6212		-60.546875
6213		-64.453125
6214		-58.593750
6215		-60.546875
6216		-56.640625
6217		-60.546875
6218		-56.640625
6219		-58.593750
6220		-54.687500
6221		-58.593750
6222		-50.781250
6223		-54.687500
6224		-50.781250
6225		-50.781250
6226		-46.875000
6227		-48.828125
6228		-44.921875
6229		-46.875000
6230		-42.968750
6231		-44.921875
6232		-39.062500
6233		-42.968750
6234		-35.156250
6235		-39.062500
6236		-35.156250
6237		-37.109375
6238		-31.250000
6239		-33.203125
6240		-29.296875
6241		-31.250000
6242		-23.437500
6243		-27.343750
6244		-21.484375
6245		-23.437500
6246		-19.531250
6247		-19.531250
6248		-15.625000
6249		-15.625000
6250		-9.765625
6251		-13.671875
6252		-7.812500
6253		-11.718750
6254		-3.906250
6255		-5.859375
6256		-1.953125
6257		-1.953125
6258		5.859375
6259		0.000000
6260		5.859375
6261		3.906250
6262		9.765625
6263		7.812500
6264		13.671875
6265		9.765625
6266		15.625000
6267		13.671875
6268		19.531250
6269		17.578125
6270		23.437500
6271		21.484375
6272		27.343750
6273		25.390625
6274		29.296875
6275		27.343750
6276		33.203125
6277		31.250000
6278		35.156250
6279		35.156250
6280		39.062500
6281		35.156250
6282		44.921875
6283		39.062500
6284		46.875000
6285		41.015625
6286		48.828125
6287		44.921875
6288		50.781250
6289		46.875000
6290		52.734375
6291		48.828125
6292		58.593750
6293		54.687500
6294		58.593750
6295		56.640625
6296		60.546875
6297		58.593750
6298		62.500000
6299		58.593750
6300		66.406250
6301		60.546875
6302		66.406250
6303		64.453125
6304		68.359375
6305		62.500000
6306		72.265625
6307		66.406250
6308		70.312500
6309		66.406250
6310		74.218750
6311		70.312500
6312		72.265625
6313		70.312500
6314		74.218750
6315		70.312500
6316		76.171875
6317		72.265625
6318		76.171875
6319		72.265625
6320		76.171875
6321		72.265625
6322		78.125000
6323		72.265625
6324		80.078125
6325		72.265625
6326		80.078125
6327		74.218750
6328		76.171875
6329		74.218750
6330		76.171875
6331		72.265625
6332		78.125000
6333		70.312500
6334		78.125000
6335		72.265625
6336		76.171875
6337		70.312500
6338		74.218750
6339		68.359375
6340		76.171875
6341		66.406250
6342		76.171875
6343		68.359375
6344		70.312500
6345		66.406250
6346		70.312500
6347		64.453125
6348		68.359375
6349		60.546875
6350		68.359375
6351		60.546875
6352		66.406250
6353		58.593750
6354		62.500000
6355		54.687500
6356		62.500000
6357		52.734375
6358		62.500000
6359		50.781250
6360		58.593750
6361		50.781250
6362		54.687500
6363		46.875000
6364		50.781250
6365		41.015625
6366		48.828125
6367		41.015625
6368		48.828125
6369		39.062500
6370		42.968750
6371		35.156250
6372		39.062500
6373		29.296875
6374		41.015625
6375		27.343750
6376		35.156250
6377		25.390625
6378		31.250000
6379		21.484375
6380		27.343750
6381		19.531250
6382		23.437500
6383		13.671875
6384		23.437500
6385		11.718750
6386		19.531250
6387		9.765625
6388		13.671875
6389		1.953125
6390		11.718750
6391		1.953125
6392		9.765625
6393		-1.953125
6394		5.859375
6395		-5.859375
6396		0.000000
6397		-9.765625
6398		-3.906250
6399		-15.625000
6400		-5.859375
6401		-15.625000
6402		-11.718750
6403		-19.531250
6404		-13.671875
6405		-25.390625
6406		-17.578125
6407		-27.343750
6408		-17.578125
6409		-29.296875
6410		-23.437500
6411		-33.203125
6412		-27.343750
6413		-35.156250
6414		-29.296875
6415		-39.062500
6416		-33.203125
6417		-42.968750
6418		-33.203125
6419		-42.968750
6420		-39.062500
6421		-48.828125
6422		-41.015625
6423		-52.734375
6424		-41.015625
6425		-54.687500
6426		-46.875000
6427		-52.734375
6428		-48.828125
6429		-54.687500
6430		-50.781250
6431		-58.593750
6432		-52.734375
6433		-60.546875
6434		-52.734375
6435		-62.500000
6436		-54.687500
6437		-62.500000
6438		-58.593750
6439		-66.406250
6440		-56.640625
6441		-66.406250
6442		-56.640625
6443		-66.406250
6444		-58.593750
6445		-64.453125
6446		-62.500000
6447		-66.406250
6448		-62.500000
6449		-68.359375
6450		-60.546875
6451		-68.359375
6452		-60.546875
6453		-66.406250
6454		-62.500000
6455		-66.406250
6456		-62.500000
6457		-68.359375
6458		-58.593750
6459		-66.406250
6460		-60.546875
6461		-64.453125
6462		-60.546875
6463		-62.500000
6464		-60.546875
6465		-62.500000
6466		-58.593750
6467		-62.500000
6468		-54.687500
6469		-60.546875
6470		-54.687500
6471		-58.593750
6472		-54.687500
6473		-58.593750
6474		-48.828125
6475		-56.640625
6476		-48.828125
6477		-52.734375
6478		-46.875000
6479		-48.828125
6480		-46.875000
6481		-46.875000
6482		-42.968750
6483		-44.921875
6484		-37.109375
6485		-42.968750
6486		-37.109375
6487		-39.062500
6488		-35.156250
6489		-37.109375
6490		-29.296875
6491		-33.203125
6492		-29.296875
6493		-31.250000
6494		-23.437500
6495		-27.343750
6496		-21.484375
6497		-23.437500
6498		-19.531250
6499		-21.484375
6500		-15.625000
6501		-19.531250
6502		-9.765625
6503		-15.625000
6504		-9.765625
6505		-9.765625
6506		-3.906250
6507		-9.765625
6508		-1.953125
6509		-3.906250
6510		1.953125
6511		0.000000
6512		5.859375
6513		3.906250
6514		7.812500
6515		7.812500
6516		11.718750
6517		9.765625
6518		15.625000
6519		13.671875
6520		19.531250
6521		17.578125
6522		21.484375
6523		21.484375
6524		27.343750
6525		23.437500
6526		29.296875
6527		27.343750
6528		33.203125
6529		31.250000
6530		35.156250
6531		33.203125
6532		39.062500
6533		37.109375
6534		41.015625
6535		39.062500
6536		44.921875
6537		42.968750
6538		46.875000
6539		44.921875
6540		50.781250
6541		48.828125
6542		52.734375
6543		50.781250
6544		54.687500
6545		52.734375
6546		56.640625
6547		56.640625
6548		60.546875
6549		58.593750
6550		62.500000
6551		60.546875
6552		64.453125
6553		62.500000
6554		66.406250
6555		64.453125
6556		66.406250
6557		66.406250
6558		68.359375
6559		66.406250
6560		70.312500
6561		68.359375
6562		72.265625
6563		70.312500
6564		74.218750
6565		70.312500
6566		76.171875
6567		70.312500
6568		76.171875
6569		72.265625
6570		76.171875
6571		72.265625
6572		78.125000
6573		72.265625
6574		78.125000
6575		72.265625
6576		78.125000
6577		72.265625
6578		78.125000
6579		74.218750
6580		76.171875
6581		74.218750
6582		76.171875
6583		72.265625
6584		78.125000
6585		72.265625
6586		76.171875
6587		72.265625
6588		76.171875
6589		70.312500
6590		76.171875
6591		68.359375
6592		74.218750
6593		68.359375
6594		74.218750
6595		68.359375
6596		72.265625
6597		66.406250
6598		70.312500
6599		64.453125
6600		68.359375
6601		62.500000
6602		68.359375
6603		60.546875
6604		66.406250
6605		58.593750
6606		64.453125
6607		56.640625
6608		62.500000
6609		54.687500
6610		60.546875
6611		52.734375
6612		58.593750
6613		50.781250
6614		54.687500
6615		46.875000
6616		52.734375
6617		42.968750
6618		50.781250
6619		41.015625
6620		48.828125
6621		37.109375
6622		44.921875
6623		35.156250
6624		42.968750
6625		33.203125
6626		39.062500
6627		27.343750
6628		35.156250
6629		27.343750
6630		31.250000
6631		23.437500
6632		27.343750
6633		19.531250
6634		25.390625
6635		15.625000
6636		21.484375
6637		13.671875
6638		17.578125
6639		9.765625
6640		15.625000
6641		3.906250
6642		11.718750
6643		1.953125
6644		7.812500
6645		-1.953125
6646		5.859375
6647		-3.906250
6648		0.000000
6649		-7.812500
6650		-3.906250
6651		-11.718750
6652		-5.859375
6653		-15.625000
6654		-9.765625
6655		-21.484375
6656		-11.718750
6657		-21.484375
6658		-15.625000
6659		-25.390625
6660		-19.531250
6661		-29.296875
6662		-23.437500
6663		-31.250000
6664		-27.343750
6665		-35.156250
6666		-29.296875
6667		-39.062500
6668		-33.203125
6669		-41.015625
6670		-35.156250
6671		-44.921875
6672		-39.062500
6673		-46.875000
6674		-39.062500
6675		-48.828125
6676		-42.968750
6677		-50.781250
6678		-44.921875
6679		-52.734375
6680		-48.828125
6681		-54.687500
6682		-50.781250
6683		-58.593750
6684		-52.734375
6685		-58.593750
6686		-54.687500
6687		-60.546875
6688		-56.640625
6689		-62.500000
6690		-56.640625
6691		-62.500000
6692		-58.593750
6693		-64.453125
6694		-60.546875
6695		-64.453125
6696		-60.546875
6697		-64.453125
6698		-62.500000
6699		-64.453125
6700		-62.500000
6701		-66.406250
6702		-62.500000
6703		-66.406250
6704		-62.500000
6705		-66.406250
6706		-62.500000
6707		-68.359375
6708		-60.546875
6709		-64.453125
6710		-62.500000
6711		-66.406250
6712		-60.546875
6713		-64.453125
6714		-60.546875
6715		-62.500000
6716		-60.546875
6717		-62.500000
6718		-58.593750
6719		-62.500000
6720		-56.640625
6721		-60.546875
6722		-56.640625
6723		-60.546875
6724		-52.734375
6725		-56.640625
6726		-50.781250
6727		-54.687500
6728		-50.781250
6729		-52.734375
6730		-46.875000
6731		-48.828125
6732		-44.921875
6733		-46.875000
6734		-42.968750
6735		-44.921875
6736		-41.015625
6737		-42.968750
6738		-37.109375
6739		-41.015625
6740		-33.203125
6741		-37.109375
6742		-31.250000
6743		-33.203125
6744		-29.296875
6745		-31.250000
6746		-25.390625
6747		-27.343750
6748		-23.437500
6749		-23.437500
6750		-19.531250
6751		-21.484375
6752		-15.625000
6753		-17.578125
6754		-11.718750
6755		-13.671875
6756		-9.765625
6757		-11.718750
6758		-5.859375
6759		-7.812500
6760		-1.953125
6761		-3.906250
6762		1.953125
6763		0.000000
6764		3.906250
6765		3.906250
6766		7.812500
6767		5.859375
6768		11.718750
6769		9.765625
6770		15.625000
6771		13.671875
6772		19.531250
6773		17.578125
6774		23.437500
6775		19.531250
6776		25.390625
6777		23.437500
6778		29.296875
6779		27.343750
6780		31.250000
6781		31.250000
6782		35.156250
6783		33.203125
6784		37.109375
6785		35.156250
6786		41.015625
6787		39.062500
6788		44.921875
6789		42.968750
6790		46.875000
6791		44.921875
6792		50.781250
6793		48.828125
6794		52.734375
6795		50.781250
6796		54.687500
6797		52.734375
6798		56.640625
6799		54.687500
6800		58.593750
6801		58.593750
6802		62.500000
6803		60.546875
6804		64.453125
6805		62.500000
6806		66.406250
6807		62.500000
6808		68.359375
6809		66.406250
6810		68.359375
6811		66.406250
6812		70.312500
6813		68.359375
6814		72.265625
6815		70.312500
6816		72.265625
6817		70.312500
6818		74.218750
6819		72.265625
6820		76.171875
6821		72.265625
6822		76.171875
6823		72.265625
6824		76.171875
6825		74.218750
6826		78.125000
6827		74.218750
6828		78.125000
6829		74.218750
6830		78.125000
6831		74.218750
6832		76.171875
6833		74.218750
6834		76.171875
6835		74.218750
6836		78.125000
6837		74.218750
6838		76.171875
6839		72.265625
6840		76.171875
6841		72.265625
6842		74.218750
6843		70.312500
6844		74.218750
6845		68.359375
6846		72.265625
6847		68.359375
6848		72.265625
6849		68.359375
6850		70.312500
6851		64.453125
6852		68.359375
6853		64.453125
6854		68.359375
6855		60.546875
6856		66.406250
6857		60.546875
6858		64.453125
6859		58.593750
6860		62.500000
6861		56.640625
6862		60.546875
6863		52.734375
6864		58.593750
6865		50.781250
6866		54.687500
6867		48.828125
6868		52.734375
6869		44.921875
6870		50.781250
6871		42.968750
6872		48.828125
6873		39.062500
6874		44.921875
6875		37.109375
6876		41.015625
6877		33.203125
6878		39.062500
6879		31.250000
6880		35.156250
6881		27.343750
6882		33.203125
6883		23.437500
6884		29.296875
6885		19.531250
6886		25.390625
6887		17.578125
6888		21.484375
6889		13.671875
6890		19.531250
6891		9.765625
6892		15.625000
6893		5.859375
6894		11.718750
6895		1.953125
6896		7.812500
6897		0.000000
6898		5.859375
6899		-3.906250
6900		1.953125
6901		-7.812500
6902		-1.953125
6903		-11.718750
6904		-5.859375
6905		-15.625000
6906		-9.765625
6907		-19.531250
6908		-13.671875
6909		-21.484375
6910		-15.625000
6911		-23.437500
6912		-17.578125
6913		-27.343750
6914		-23.437500
6915		-31.250000
6916		-25.390625
6917		-33.203125
6918		-29.296875
6919		-37.109375
6920		-31.250000
6921		-39.062500
6922		-35.156250
6923		-42.968750
6924		-37.109375
6925		-44.921875
6926		-41.015625
6927		-48.828125
6928		-42.968750
6929		-48.828125
6930		-46.875000
6931		-52.734375
6932		-46.875000
6933		-54.687500
6934		-50.781250
6935		-56.640625
6936		-52.734375
6937		-58.593750
6938		-54.687500
6939		-60.546875
6940		-56.640625
6941		-60.546875
6942		-56.640625
6943		-62.500000
6944		-58.593750
6945		-64.453125
6946		-60.546875
6947		-64.453125
6948		-60.546875
6949		-66.406250
6950		-62.500000
6951		-64.453125
6952		-62.500000
6953		-66.406250
6954		-62.500000
6955		-66.406250
6956		-62.500000
6957		-66.406250
6958		-62.500000
6959		-66.406250
6960		-62.500000
6961		-66.406250
6962		-62.500000
6963		-64.453125
6964		-62.500000
6965		-64.453125
6966		-60.546875
6967		-64.453125
6968		-60.546875
6969		-62.500000
6970		-58.593750
6971		-60.546875
6972		-56.640625
6973		-60.546875
6974		-56.640625
6975		-58.593750
6976		-54.687500
6977		-56.640625
6978		-52.734375
6979		-54.687500
6980		-50.781250
6981		-52.734375
6982		-48.828125
6983		-50.781250
6984		-46.875000
6985		-48.828125
6986		-42.968750
6987		-44.921875
6988		-41.015625
6989		-42.968750
6990		-39.062500
6991		-41.015625
6992		-35.156250
6993		-37.109375
6994		-33.203125
6995		-35.156250
6996		-29.296875
6997		-31.250000
6998		-25.390625
6999		-27.343750
7000		-23.437500
7001		-25.390625
7002		-19.531250
7003		-21.484375
7004		-15.625000
7005		-17.578125
7006		-13.671875
7007		-15.625000
7008		-9.765625
7009		-11.718750
7010		-5.859375
7011		-7.812500
7012		-1.953125
7013		-3.906250
7014		0.000000
7015		-1.953125
7016		3.906250
7017		1.953125
7018		7.812500
7019		5.859375
7020		11.718750
7021		9.765625
7022		13.671875
7023		13.671875
7024		19.531250
7025		15.625000
7026		21.484375
7027		19.531250
7028		25.390625
7029		21.484375
7030		27.343750
7031		25.390625
7032		31.250000
7033		29.296875
7034		35.156250
7035		33.203125
7036		37.109375
7037		35.156250
7038		41.015625
7039		39.062500
7040		44.921875
7041		42.968750
7042		46.875000
7043		44.921875
7044		50.781250
7045		46.875000
7046		50.781250
7047		50.781250
7048		54.687500
7049		50.781250
7050		56.640625
7051		54.687500
7052		58.593750
7053		56.640625
7054		60.546875
7055		58.593750
7056		64.453125
7057		60.546875
7058		64.453125
7059		62.500000
7060		68.359375
7061		64.453125
7062		68.359375
7063		66.406250
7064		70.312500
7065		68.359375
7066		72.265625
7067		70.312500
7068		72.265625
7069		70.312500
7070		74.218750
7071		72.265625
7072		76.171875
7073		72.265625
7074		76.171875
7075		72.265625
7076		76.171875
7077		74.218750
7078		76.171875
7079		74.218750
7080		76.171875
7081		74.218750
7082		78.125000
7083		74.218750
7084		76.171875
7085		74.218750
7086		76.171875
7087		72.265625
7088		76.171875
7089		74.218750
7090		76.171875
7091		72.265625
7092		76.171875
7093		72.265625
7094		74.218750
7095		70.312500
7096		74.218750
7097		68.359375
7098		74.218750
7099		68.359375
7100		72.265625
7101		68.359375
7102		70.312500
7103		64.453125
7104		70.312500
7105		64.453125
7106		68.359375
7107		62.500000
7108		66.406250
7109		60.546875
7110		64.453125
7111		58.593750
7112		62.500000
7113		56.640625
7114		60.546875
7115		52.734375
7116		58.593750
7117		50.781250
7118		54.687500
7119		48.828125
7120		52.734375
7121		44.921875
7122		50.781250
7123		42.968750
7124		46.875000
7125		41.015625
7126		44.921875
7127		37.109375
7128		41.015625
7129		33.203125
7130		39.062500
7131		31.250000
7132		35.156250
7133		27.343750
7134		33.203125
7135		25.390625
7136		29.296875
7137		21.484375
7138		25.390625
7139		17.578125
7140		23.437500
7141		13.671875
7142		19.531250
7143		9.765625
7144		15.625000
7145		7.812500
7146		11.718750
7147		3.906250
7148		7.812500
7149		0.000000
7150		3.906250
7151		-3.906250
7152		1.953125
7153		-9.765625
7154		-1.953125
7155		-9.765625
7156		-3.906250
7157		-13.671875
7158		-7.812500
7159		-17.578125
7160		-11.718750
7161		-21.484375
7162		-15.625000
7163		-25.390625
7164		-19.531250
7165		-27.343750
7166		-21.484375
7167		-31.250000
7168		-25.390625
7169		-33.203125
7170		-29.296875
7171		-37.109375
7172		-31.250000
7173		-39.062500
7174		-35.156250
7175		-42.968750
7176		-37.109375
7177		-44.921875
7178		-41.015625
7179		-46.875000
7180		-42.968750
7181		-48.828125
7182		-44.921875
7183		-52.734375
7184		-46.875000
7185		-54.687500
7186		-50.781250
7187		-56.640625
7188		-52.734375
7189		-58.593750
7190		-54.687500
7191		-58.593750
7192		-54.687500
7193		-60.546875
7194		-56.640625
7195		-62.500000
7196		-58.593750
7197		-64.453125
7198		-60.546875
7199		-64.453125
7200		-60.546875
7201		-64.453125
7202		-62.500000
7203		-64.453125
7204		-62.500000
7205		-66.406250
7206		-62.500000
7207		-66.406250
7208		-62.500000
7209		-66.406250
7210		-62.500000
7211		-66.406250
7212		-62.500000
7213		-66.406250
7214		-62.500000
7215		-66.406250
7216		-62.500000
7217		-66.406250
7218		-60.546875
7219		-62.500000
7220		-60.546875
7221		-62.500000
7222		-58.593750
7223		-62.500000
7224		-58.593750
7225		-60.546875
7226		-56.640625
7227		-58.593750
7228		-54.687500
7229		-56.640625
7230		-52.734375
7231		-54.687500
7232		-50.781250
7233		-54.687500
7234		-48.828125
7235		-50.781250
7236		-46.875000
7237		-48.828125
7238		-42.968750
7239		-46.875000
7240		-41.015625
7241		-42.968750
7242		-39.062500
7243		-41.015625
7244		-35.156250
7245		-37.109375
7246		-33.203125
7247		-35.156250
7248		-29.296875
7249		-31.250000
7250		-25.390625
7251		-29.296875
7252		-23.437500
7253		-25.390625
7254		-21.484375
7255		-21.484375
7256		-17.578125
7257		-19.531250
7258		-13.671875
7259		-15.625000
7260		-9.765625
7261		-13.671875
7262		-7.812500
7263		-7.812500
7264		-1.953125
7265		-5.859375
7266		0.000000
7267		-1.953125
7268		3.906250
7269		1.953125
7270		7.812500
7271		5.859375
7272		11.718750
7273		7.812500
7274		13.671875
7275		11.718750
7276		17.578125
7277		15.625000
7278		21.484375
7279		19.531250
7280		25.390625
7281		23.437500
7282		27.343750
7283		25.390625
7284		31.250000
7285		29.296875
7286		33.203125
7287		33.203125
7288		37.109375
7289		35.156250
7290		41.015625
7291		39.062500
7292		42.968750
7293		41.015625
7294		46.875000
7295		44.921875
7296		48.828125
7297		46.875000
7298		50.781250
7299		48.828125
7300		54.687500
7301		52.734375
7302		56.640625
7303		54.687500
7304		58.593750
7305		56.640625
7306		62.500000
7307		58.593750
7308		62.500000
7309		60.546875
7310		66.406250
7311		62.500000
7312		66.406250
7313		64.453125
7314		68.359375
7315		66.406250
7316		70.312500
7317		68.359375
7318		72.265625
7319		70.312500
7320		72.265625
7321		70.312500
7322		74.218750
7323		70.312500
7324		74.218750
7325		72.265625
7326		76.171875
7327		72.265625
7328		76.171875
7329		74.218750
7330		76.171875
7331		74.218750
7332		78.125000
7333		72.265625
7334		78.125000
7335		74.218750
7336		78.125000
7337		74.218750
7338		76.171875
7339		74.218750
7340		76.171875
7341		74.218750
7342		76.171875
7343		72.265625
7344		76.171875
7345		72.265625
7346		76.171875
7347		70.312500
7348		74.218750
7349		70.312500
7350		74.218750
7351		68.359375
7352		72.265625
7353		68.359375
7354		70.312500
7355		66.406250
7356		70.312500
7357		64.453125
7358		68.359375
7359		62.500000
7360		66.406250
7361		60.546875
7362		64.453125
7363		58.593750
7364		62.500000
7365		56.640625
7366		60.546875
7367		54.687500
7368		58.593750
7369		52.734375
7370		56.640625
7371		48.828125
7372		52.734375
7373		46.875000
7374		50.781250
7375		42.968750
7376		48.828125
7377		41.015625
7378		44.921875
7379		37.109375
7380		42.968750
7381		35.156250
7382		39.062500
7383		31.250000
7384		37.109375
7385		27.343750
7386		33.203125
7387		25.390625
7388		29.296875
7389		21.484375
7390		27.343750
7391		17.578125
7392		23.437500
7393		13.671875
7394		19.531250
7395		11.718750
7396		15.625000
7397		7.812500
7398		13.671875
7399		3.906250
7400		9.765625
7401		0.000000
7402		5.859375
7403		-1.953125
7404		1.953125
7405		-5.859375
7406		-1.953125
7407		-9.765625
7408		-3.906250
7409		-13.671875
7410		-7.812500
7411		-17.578125
7412		-11.718750
7413		-19.531250
7414		-15.625000
7415		-23.437500
7416		-19.531250
7417		-27.343750
7418		-21.484375
7419		-29.296875
7420		-23.437500
7421		-33.203125
7422		-29.296875
7423		-35.156250
7424		-31.250000
7425		-39.062500
7426		-33.203125
7427		-42.968750
7428		-37.109375
7429		-44.921875
7430		-39.062500
7431		-46.875000
7432		-42.968750
7433		-48.828125
7434		-44.921875
7435		-50.781250
7436		-46.875000
7437		-52.734375
7438		-50.781250
7439		-56.640625
7440		-52.734375
7441		-58.593750
7442		-52.734375
7443		-58.593750
7444		-54.687500
7445		-60.546875
7446		-56.640625
7447		-62.500000
7448		-58.593750
7449		-62.500000
7450		-58.593750
7451		-64.453125
7452		-60.546875
7453		-64.453125
7454		-62.500000
7455		-64.453125
7456		-62.500000
7457		-66.406250
7458		-62.500000
7459		-66.406250
7460		-62.500000
7461		-66.406250
7462		-62.500000
7463		-66.406250
7464		-62.500000
7465		-66.406250
7466		-62.500000
7467		-66.406250
7468		-62.500000
7469		-66.406250
7470		-62.500000
7471		-64.453125
7472		-60.546875
7473		-62.500000
7474		-58.593750
7475		-62.500000
7476		-58.593750
7477		-60.546875
7478		-56.640625
7479		-58.593750
7480		-54.687500
7481		-56.640625
7482		-52.734375
7483		-54.687500
7484		-50.781250
7485		-52.734375
7486		-48.828125
7487		-50.781250
7488		-46.875000
7489		-48.828125
7490		-44.921875
7491		-46.875000
7492		-41.015625
7493		-42.968750
7494		-39.062500
7495		-41.015625
7496		-37.109375
7497		-37.109375
7498		-33.203125
7499		-35.156250
7500		-31.250000
7501		-33.203125
7502		-27.343750
7503		-29.296875
7504		-25.390625
7505		-25.390625
7506		-21.484375
7507		-23.437500
7508		-17.578125
7509		-19.531250
7510		-13.671875
7511		-15.625000
7512		-9.765625
7513		-13.671875
7514		-7.812500
7515		-9.765625
7516		-3.906250
7517		-5.859375
7518		0.000000
7519		-1.953125
7520		1.953125
7521		1.953125
7522		5.859375
7523		3.906250
7524		9.765625
7525		7.812500
7526		13.671875
7527		11.718750
7528		15.625000
7529		15.625000
7530		19.531250
7531		19.531250
7532		23.437500
7533		21.484375
7534		27.343750
7535		25.390625
7536		31.250000
7537		29.296875
7538		33.203125
7539		31.250000
7540		37.109375
7541		35.156250
7542		41.015625
7543		39.062500
7544		42.968750
7545		41.015625
7546		44.921875
7547		42.968750
7548		48.828125
7549		46.875000
7550		50.781250
7551		48.828125
7552		52.734375
7553		50.781250
7554		56.640625
7555		54.687500
7556		58.593750
7557		56.640625
7558		60.546875
7559		58.593750
7560		62.500000
7561		60.546875
7562		64.453125
7563		62.500000
7564		66.406250
7565		64.453125
7566		68.359375
7567		66.406250
7568		70.312500
7569		66.406250
7570		72.265625
7571		68.359375
7572		72.265625
7573		70.312500
7574		74.218750
7575		70.312500
7576		74.218750
7577		72.265625
7578		76.171875
7579		72.265625
7580		76.171875
7581		72.265625
7582		76.171875
7583		74.218750
7584		76.171875
7585		74.218750
7586		78.125000
7587		74.218750
7588		78.125000
7589		74.218750
7590		76.171875
7591		74.218750
7592		78.125000
7593		72.265625
7594		76.171875
7595		72.265625
7596		76.171875
7597		72.265625
7598		76.171875
7599		72.265625
7600		74.218750
7601		70.312500
7602		74.218750
7603		68.359375
7604		72.265625
7605		68.359375
7606		70.312500
7607		64.453125
7608		70.312500
7609		64.453125
7610		68.359375
7611		62.500000
7612		66.406250
7613		60.546875
7614		66.406250
7615		58.593750
7616		62.500000
7617		56.640625
7618		60.546875
7619		52.734375
7620		58.593750
7621		52.734375
7622		56.640625
7623		48.828125
7624		54.687500
7625		46.875000
7626		50.781250
7627		44.921875
7628		48.828125
7629		41.015625
7630		44.921875
7631		37.109375
7632		42.968750
7633		35.156250
7634		41.015625
7635		31.250000
7636		37.109375
7637		29.296875
7638		35.156250
7639		25.390625
7640		29.296875
7641		21.484375
7642		27.343750
7643		17.578125
7644		23.437500
7645		15.625000
7646		19.531250
7647		11.718750
7648		15.625000
7649		7.812500
7650		13.671875
7651		3.906250
7652		9.765625
7653		1.953125
7654		7.812500
7655		-1.953125
7656		1.953125
7657		-5.859375
7658		0.000000
7659		-9.765625
7660		-3.906250
7661		-13.671875
7662		-7.812500
7663		-15.625000
7664		-11.718750
7665		-19.531250
7666		-15.625000
7667		-23.437500
7668		-17.578125
7669		-27.343750
7670		-19.531250
7671		-29.296875
7672		-23.437500
7673		-33.203125
7674		-27.343750
7675		-35.156250
7676		-31.250000
7677		-39.062500
7678		-33.203125
7679		-41.015625
7680		-37.109375
7681		-44.921875
7682		-39.062500
7683		-46.875000
7684		-42.968750
7685		-48.828125
7686		-44.921875
7687		-50.781250
7688		-46.875000
7689		-52.734375
7690		-48.828125
7691		-56.640625
7692		-50.781250
7693		-56.640625
7694		-52.734375
7695		-58.593750
7696		-54.687500
7697		-60.546875
7698		-56.640625
7699		-62.500000
7700		-58.593750
7701		-62.500000
7702		-58.593750
7703		-64.453125
7704		-60.546875
7705		-64.453125
7706		-62.500000
7707		-64.453125
7708		-62.500000
7709		-66.406250
7710		-62.500000
7711		-66.406250
7712		-62.500000
7713		-66.406250
7714		-62.500000
7715		-66.406250
7716		-62.500000
7717		-66.406250
7718		-62.500000
7719		-66.406250
7720		-62.500000
7721		-64.453125
7722		-60.546875
7723		-64.453125
7724		-60.546875
7725		-62.500000
7726		-58.593750
7727		-62.500000
7728		-58.593750
7729		-62.500000
7730		-56.640625
7731		-58.593750
7732		-56.640625
7733		-56.640625
7734		-52.734375
7735		-56.640625
7736		-50.781250
7737		-54.687500
7738		-48.828125
7739		-50.781250
7740		-46.875000
7741		-48.828125
7742		-44.921875
7743		-46.875000
7744		-42.968750
7745		-44.921875
7746		-39.062500
7747		-41.015625
7748		-37.109375
7749		-39.062500
7750		-35.156250
7751		-35.156250
7752		-31.250000
7753		-33.203125
7754		-27.343750
7755		-31.250000
7756		-25.390625
7757		-27.343750
7758		-21.484375
7759		-23.437500
7760		-19.531250
7761		-19.531250
7762		-15.625000
7763		-17.578125
7764		-11.718750
7765		-13.671875
7766		-7.812500
7767		-9.765625
7768		-3.906250
7769		-7.812500
7770		-1.953125
7771		-3.906250
7772		1.953125
7773		0.000000
7774		5.859375
7775		3.906250
7776		9.765625
7777		7.812500
7778		11.718750
7779		9.765625
7780		15.625000
7781		13.671875
7782		19.531250
7783		17.578125
7784		23.437500
7785		21.484375
7786		27.343750
7787		25.390625
7788		29.296875
7789		29.296875
7790		33.203125
7791		31.250000
7792		35.156250
7793		35.156250
7794		39.062500
7795		37.109375
7796		42.968750
7797		41.015625
7798		44.921875
7799		42.968750
7800		48.828125
7801		46.875000
7802		50.781250
7803		48.828125
7804		52.734375
7805		50.781250
7806		54.687500
7807		54.687500
7808		58.593750
7809		56.640625
7810		60.546875
7811		58.593750
7812		62.500000
7813		60.546875
7814		64.453125
7815		62.500000
7816		66.406250
7817		64.453125
7818		68.359375
7819		66.406250
7820		70.312500
7821		66.406250
7822		70.312500
7823		68.359375
7824		72.265625
7825		70.312500
7826		72.265625
7827		70.312500
7828		74.218750
7829		72.265625
7830		76.171875
7831		72.265625
7832		76.171875
7833		74.218750
7834		76.171875
7835		74.218750
7836		78.125000
7837		74.218750
7838		78.125000
7839		74.218750
7840		78.125000
7841		74.218750
7842		76.171875
7843		74.218750
7844		78.125000
7845		74.218750
7846		78.125000
7847		72.265625
7848		76.171875
7849		72.265625
7850		76.171875
7851		72.265625
7852		74.218750
7853		70.312500
7854		74.218750
7855		70.312500
7856		74.218750
7857		68.359375
7858		72.265625
7859		68.359375
7860		70.312500
7861		64.453125
7862		70.312500
7863		64.453125
7864		68.359375
7865		62.500000
7866		66.406250
7867		60.546875
7868		62.500000
7869		56.640625
7870		62.500000
7871		54.687500
7872		58.593750
7873		52.734375
7874		56.640625
7875		50.781250
7876		54.687500
7877		48.828125
7878		52.734375
7879		44.921875
7880		50.781250
7881		42.968750
7882		46.875000
7883		39.062500
7884		44.921875
7885		35.156250
7886		41.015625
7887		33.203125
7888		37.109375
7889		29.296875
7890		35.156250
7891		27.343750
7892		31.250000
7893		23.437500
7894		27.343750
7895		19.531250
7896		25.390625
7897		15.625000
7898		21.484375
7899		13.671875
7900		17.578125
7901		9.765625
7902		13.671875
7903		5.859375
7904		11.718750
7905		1.953125
7906		7.812500
7907		-1.953125
7908		3.906250
7909		-3.906250
7910		0.000000
7911		-7.812500
7912		-3.906250
7913		-11.718750
7914		-7.812500
7915		-15.625000
7916		-9.765625
7917		-19.531250
7918		-13.671875
7919		-21.484375
7920		-17.578125
7921		-25.390625
7922		-19.531250
7923		-29.296875
7924		-23.437500
7925		-31.250000
7926		-27.343750
7927		-35.156250
7928		-29.296875
7929		-37.109375
7930		-33.203125
7931		-41.015625
7932		-35.156250
7933		-42.968750
7934		-39.062500
7935		-46.875000
7936		-41.015625
7937		-48.828125
7938		-42.968750
7939		-50.781250
7940		-46.875000
7941		-52.734375
7942		-48.828125
7943		-54.687500
7944		-50.781250
7945		-56.640625
7946		-50.781250
7947		-58.593750
7948		-54.687500
7949		-60.546875
7950		-56.640625
7951		-60.546875
7952		-58.593750
7953		-62.500000
7954		-58.593750
7955		-64.453125
7956		-60.546875
7957		-64.453125
7958		-60.546875
7959		-64.453125
7960		-62.500000
7961		-64.453125
7962		-62.500000
7963		-66.406250
7964		-62.500000
7965		-66.406250
7966		-62.500000
7967		-66.406250
7968		-62.500000
7969		-66.406250
7970		-62.500000
7971		-66.406250
7972		-62.500000
7973		-66.406250
7974		-60.546875
7975		-64.453125
7976		-60.546875
7977		-62.500000
7978		-58.593750
7979		-62.500000
7980		-58.593750
7981		-60.546875
7982		-56.640625
7983		-60.546875
7984		-56.640625
7985		-58.593750
7986		-54.687500
7987		-56.640625
7988		-50.781250
7989		-54.687500
7990		-48.828125
7991		-50.781250
7992		-46.875000
7993		-48.828125
7994		-44.921875
7995		-48.828125
7996		-42.968750
7997		-44.921875
7998		-39.062500
7999		-42.968750
8000		-37.109375
8001		-39.062500
8002		-35.156250
8003		-37.109375
8004		-31.250000
8005		-33.203125
8006		-29.296875
8007		-31.250000
8008		-25.390625
8009		-27.343750
8010		-21.484375
8011		-23.437500
8012		-17.578125
8013		-21.484375
8014		-15.625000
8015		-17.578125
8016		-11.718750
8017		-13.671875
8018		-9.765625
8019		-11.718750
8020		-3.906250
8021		-7.812500
8022		0.000000
8023		-3.906250
8024		1.953125
8025		0.000000
8026		5.859375
8027		3.906250
8028		7.812500
8029		5.859375
8030		11.718750
8031		9.765625
8032		15.625000
8033		13.671875
8034		19.531250
8035		17.578125
8036		23.437500
8037		21.484375
8038		25.390625
8039		23.437500
8040		29.296875
8041		25.390625
8042		33.203125
8043		31.250000
8044		35.156250
8045		33.203125
8046		39.062500
8047		37.109375
8048		41.015625
8049		39.062500
8050		44.921875
8051		42.968750
8052		46.875000
8053		44.921875
8054		50.781250
8055		48.828125
8056		52.734375
8057		50.781250
8058		54.687500
8059		52.734375
8060		58.593750
8061		56.640625
8062		60.546875
8063		56.640625
8064		62.500000
8065		60.546875
8066		64.453125
8067		62.500000
8068		66.406250
8069		64.453125
8070		68.359375
8071		64.453125
8072		70.312500
8073		66.406250
8074		72.265625
8075		68.359375
8076		72.265625
8077		70.312500
8078		72.265625
8079		70.312500
8080		74.218750
8081		72.265625
8082		74.218750
8083		72.265625
8084		76.171875
8085		72.265625
8086		76.171875
8087		74.218750
8088		78.125000
8089		74.218750
8090		78.125000
8091		74.218750
8092		78.125000
8093		74.218750
8094		78.125000
8095		74.218750
8096		78.125000
8097		74.218750
8098		76.171875
8099		74.218750
8100		76.171875
8101		72.265625
8102		76.171875
8103		72.265625
8104		76.171875
8105		72.265625
8106		74.218750
8107		70.312500
8108		74.218750
8109		68.359375
8110		72.265625
8111		68.359375
8112		70.312500
8113		66.406250
8114		70.312500
8115		64.453125
8116		68.359375
8117		62.500000
8118		66.406250
8119		60.546875
8120		64.453125
8121		58.593750
8122		62.500000
8123		56.640625
8124		60.546875
8125		52.734375
8126		58.593750
8127		50.781250
8128		54.687500
8129		48.828125
8130		52.734375
8131		44.921875
8132		50.781250
8133		42.968750
8134		46.875000
8135		39.062500
8136		44.921875
8137		37.109375
8138		41.015625
8139		33.203125
8140		39.062500
8141		31.250000
8142		35.156250
8143		27.343750
8144		31.250000
8145		23.437500
8146		29.296875
8147		19.531250
8148		25.390625
8149		17.578125
8150		21.484375
8151		13.671875
8152		19.531250
8153		9.765625
8154		15.625000
8155		5.859375
8156		11.718750
8157		1.953125
8158		7.812500
8159		0.000000
8160		3.906250
8161		-3.906250
8162		1.953125
8163		-9.765625
8164		-1.953125
8165		-11.718750
8166		-5.859375
8167		-13.671875
8168		-9.765625
8169		-17.578125
8170		-11.718750
8171		-21.484375
8172		-15.625000
8173		-25.390625
8174		-19.531250
8175		-27.343750
8176		-21.484375
8177		-31.250000
8178		-25.390625
8179		-33.203125
8180		-29.296875
8181		-37.109375
8182		-33.203125
8183		-41.015625
8184		-35.156250
8185		-42.968750
8186		-37.109375
8187		-44.921875
8188		-41.015625
8189		-46.875000
8190		-42.968750
8191		-50.781250
8192		-44.921875
8193		-52.734375
8194		-48.828125
8195		-54.687500
8196		-50.781250
8197		-56.640625
8198		-52.734375
8199		-58.593750
8200		-54.687500
8201		-58.593750
8202		-56.640625
8203		-60.546875
8204		-56.640625
8205		-62.500000
8206		-58.593750
8207		-62.500000
8208		-60.546875
8209		-64.453125
8210		-60.546875
8211		-64.453125
8212		-62.500000
8213		-66.406250
8214		-62.500000
8215		-66.406250
8216		-62.500000
8217		-66.406250
8218		-62.500000
8219		-66.406250
8220		-62.500000
8221		-66.406250
8222		-62.500000
8223		-66.406250
8224		-62.500000
8225		-66.406250
8226		-60.546875
8227		-64.453125
8228		-60.546875
8229		-62.500000
8230		-58.593750
8231		-62.500000
8232		-58.593750
8233		-60.546875
8234		-56.640625
8235		-58.593750
8236		-56.640625
8237		-56.640625
8238		-54.687500
8239		-56.640625
8240		-52.734375
8241		-54.687500
8242		-48.828125
8243		-52.734375
8244		-48.828125
8245		-50.781250
8246		-44.921875
8247		-46.875000
8248		-42.968750
8249		-44.921875
8250		-41.015625
8251		-42.968750
8252		-39.062500
8253		-39.062500
8254		-35.156250
8255		-37.109375
8256		-31.250000
8257		-33.203125
8258		-29.296875
8259		-31.250000
8260		-25.390625
8261		-27.343750
8262		-23.437500
8263		-25.390625
8264		-19.531250
8265		-21.484375
8266		-15.625000
8267		-17.578125
8268		-13.671875
8269		-13.671875
8270		-9.765625
8271		-11.718750
8272		-5.859375
8273		-7.812500
8274		-1.953125
8275		-3.906250
8276		1.953125
8277		0.000000
8278		3.906250
8279		1.953125
8280		7.812500
8281		5.859375
8282		11.718750
8283		9.765625
8284		15.625000
8285		13.671875
8286		17.578125
8287		17.578125
8288		21.484375
8289		19.531250
8290		25.390625
8291		23.437500
8292		29.296875
8293		25.390625
8294		31.250000
8295		29.296875
8296		35.156250
8297		33.203125
8298		39.062500
8299		37.109375
8300		42.968750
8301		39.062500
8302		42.968750
8303		42.968750
8304		46.875000
8305		44.921875
8306		48.828125
8307		46.875000
8308		52.734375
8309		48.828125
8310		54.687500
8311		52.734375
8312		56.640625
8313		54.687500
8314		60.546875
8315		56.640625
8316		62.500000
8317		60.546875
8318		64.453125
8319		60.546875
8320		64.453125
8321		64.453125
8322		66.406250
8323		64.453125
8324		70.312500
8325		66.406250
8326		72.265625
8327		68.359375
8328		72.265625
8329		70.312500
8330		72.265625
8331		70.312500
8332		74.218750
8333		72.265625
8334		76.171875
8335		72.265625
8336		76.171875
8337		74.218750
8338		76.171875
8339		74.218750
8340		78.125000
8341		74.218750
8342		78.125000
8343		74.218750
8344		78.125000
8345		74.218750
8346		78.125000
8347		74.218750
8348		78.125000
8349		74.218750
8350		78.125000
8351		74.218750
8352		76.171875
8353		74.218750
8354		76.171875
8355		72.265625
8356		76.171875
8357		72.265625
8358		74.218750
8359		70.312500
8360		74.218750
8361		68.359375
8362		72.265625
8363		68.359375
8364		70.312500
8365		66.406250
8366		70.312500
8367		64.453125
8368		68.359375
8369		62.500000
8370		66.406250
8371		60.546875
8372		64.453125
8373		58.593750
8374		62.500000
8375		56.640625
8376		60.546875
8377		54.687500
8378		58.593750
8379		50.781250
8380		56.640625
8381		48.828125
8382		52.734375
8383		46.875000
8384		50.781250
8385		42.968750
8386		48.828125
8387		41.015625
8388		44.921875
8389		37.109375
8390		42.968750
8391		35.156250
8392		39.062500
8393		31.250000
8394		37.109375
8395		27.343750
8396		33.203125
8397		25.390625
8398		29.296875
8399		21.484375
8400		27.343750
8401		17.578125
8402		23.437500
8403		13.671875
8404		19.531250
8405		11.718750
8406		15.625000
8407		7.812500
8408		13.671875
8409		3.906250
8410		9.765625
8411		0.000000
8412		5.859375
8413		-3.906250
8414		1.953125
8415		-5.859375
8416		-1.953125
8417		-9.765625
8418		-3.906250
8419		-13.671875
8420		-7.812500
8421		-17.578125
8422		-11.718750
8423		-19.531250
8424		-15.625000
8425		-23.437500
8426		-17.578125
8427		-27.343750
8428		-21.484375
8429		-29.296875
8430		-25.390625
8431		-33.203125
8432		-27.343750
8433		-37.109375
8434		-31.250000
8435		-39.062500
8436		-35.156250
8437		-41.015625
8438		-37.109375
8439		-44.921875
8440		-39.062500
8441		-46.875000
8442		-42.968750
8443		-48.828125
8444		-44.921875
8445		-50.781250
8446		-46.875000
8447		-52.734375
8448		-48.828125
8449		-56.640625
8450		-50.781250
8451		-56.640625
8452		-52.734375
8453		-58.593750
8454		-54.687500
8455		-60.546875
8456		-56.640625
8457		-60.546875
8458		-58.593750
8459		-62.500000
8460		-58.593750
8461		-64.453125
8462		-58.593750
8463		-64.453125
8464		-60.546875
8465		-64.453125
8466		-60.546875
8467		-64.453125
8468		-62.500000
8469		-64.453125
8470		-62.500000
8471		-64.453125
8472		-62.500000
8473		-64.453125
8474		-62.500000
8475		-64.453125
8476		-62.500000
8477		-64.453125
8478		-60.546875
8479		-64.453125
8480		-60.546875
8481		-62.500000
8482		-60.546875
8483		-62.500000
8484		-58.593750
8485		-60.546875
8486		-56.640625
8487		-58.593750
8488		-54.687500
8489		-58.593750
8490		-54.687500
8491		-56.640625
8492		-52.734375
8493		-54.687500
8494		-48.828125
8495		-52.734375
8496		-48.828125
8497		-50.781250
8498		-46.875000
8499		-48.828125
8500		-42.968750
8501		-46.875000
8502		-41.015625
8503		-42.968750
8504		-39.062500
8505		-41.015625
8506		-35.156250
8507		-37.109375
8508		-31.250000
8509		-35.156250
8510		-29.296875
8511		-31.250000
8512		-27.343750
8513		-27.343750
8514		-23.437500
8515		-25.390625
8516		-19.531250
8517		-21.484375
8518		-15.625000
8519		-17.578125
8520		-13.671875
8521		-15.625000
8522		-9.765625
8523		-11.718750
8524		-5.859375
8525		-7.812500
8526		-1.953125
8527		-5.859375
8528		1.953125
8529		0.000000
8530		3.906250
8531		1.953125
8532		7.812500
8533		5.859375
8534		11.718750
8535		7.812500
8536		13.671875
8537		13.671875
8538		17.578125
8539		15.625000
8540		21.484375
8541		19.531250
8542		25.390625
8543		21.484375
8544		29.296875
8545		25.390625
8546		31.250000
8547		29.296875
8548		35.156250
8549		33.203125
8550		39.062500
8551		35.156250
8552		41.015625
8553		39.062500
8554		42.968750
8555		42.968750
8556		46.875000
8557		44.921875
8558		48.828125
8559		44.921875
8560		54.687500
8561		48.828125
8562		54.687500
8563		52.734375
8564		56.640625
8565		54.687500
8566		58.593750
8567		56.640625
8568		62.500000
8569		58.593750
8570		66.406250
8571		62.500000
8572		66.406250
8573		62.500000
8574		68.359375
8575		64.453125
8576		70.312500
8577		64.453125
8578		72.265625
8579		68.359375
8580		72.265625
8581		70.312500
8582		72.265625
8583		70.312500
8584		76.171875
8585		70.312500
8586		76.171875
8587		70.312500
8588		78.125000
8589		72.265625
8590		78.125000
8591		72.265625
8592		80.078125
8593		72.265625
8594		80.078125
8595		72.265625
8596		80.078125
8597		76.171875
8598		78.125000
8599		74.218750
8600		80.078125
8601		72.265625
8602		80.078125
8603		72.265625
8604		80.078125
8605		70.312500
8606		78.125000
8607		70.312500
8608		78.125000
8609		70.312500
8610		78.125000
8611		70.312500
8612		76.171875
8613		70.312500
8614		72.265625
8615		68.359375
8616		72.265625
8617		64.453125
8618		72.265625
8619		64.453125
8620		70.312500
8621		62.500000
8622		68.359375
8623		60.546875
8624		66.406250
8625		58.593750
8626		64.453125
8627		54.687500
8628		64.453125
8629		54.687500
8630		60.546875
8631		52.734375
8632		56.640625
8633		48.828125
8634		54.687500
8635		44.921875
8636		52.734375
8637		42.968750
8638		50.781250
8639		39.062500
8640		48.828125
8641		37.109375
8642		44.921875
8643		35.156250
8644		42.968750
8645		31.250000
8646		39.062500
8647		29.296875
8648		33.203125
8649		25.390625
8650		31.250000
8651		21.484375
8652		29.296875
8653		17.578125
8654		25.390625
8655		15.625000
8656		21.484375
8657		9.765625
8658		19.531250
8659		5.859375
8660		15.625000
8661		3.906250
8662		13.671875
8663		1.953125
8664		7.812500
8665		-1.953125
8666		3.906250
8667		-7.812500
8668		0.000000
8669		-11.718750
8670		-1.953125
8671		-13.671875
8672		-5.859375
8673		-17.578125
8674		-9.765625
8675		-21.484375
8676		-11.718750
8677		-23.437500
8678		-15.625000
8679		-25.390625
8680		-17.578125
8681		-29.296875
8682		-23.437500
8683		-33.203125
8684		-27.343750
8685		-37.109375
8686		-29.296875
8687		-39.062500
8688		-31.250000
8689		-42.968750
8690		-33.203125
8691		-44.921875
8692		-37.109375
8693		-48.828125
8694		-39.062500
8695		-48.828125
8696		-41.015625
8697		-50.781250
8698		-46.875000
8699		-52.734375
8700		-48.828125
8701		-58.593750
8702		-48.828125
8703		-58.593750
8704		-50.781250
8705		-60.546875
8706		-52.734375
8707		-60.546875
8708		-54.687500
8709		-62.500000
8710		-54.687500
8711		-64.453125
8712		-56.640625
8713		-64.453125
8714		-58.593750
8715		-62.500000
8716		-60.546875
8717		-66.406250
8718		-60.546875
8719		-68.359375
8720		-60.546875
8721		-68.359375
8722		-58.593750
8723		-68.359375
8724		-60.546875
8725		-66.406250
8726		-60.546875
8727		-66.406250
8728		-58.593750
8729		-66.406250
8730		-58.593750
8731		-62.500000
8732		-60.546875
8733		-62.500000
8734		-60.546875
8735		-64.453125
8736		-56.640625
8737		-62.500000
8738		-54.687500
8739		-62.500000
8740		-52.734375
8741		-60.546875
8742		-52.734375
8743		-58.593750
8744		-50.781250
8745		-56.640625
8746		-48.828125
8747		-52.734375
8748		-48.828125
8749		-50.781250
8750		-46.875000
8751		-48.828125
8752		-41.015625
8753		-46.875000
8754		-39.062500
8755		-44.921875
8756		-37.109375
8757		-41.015625
8758		-33.203125
8759		-39.062500
8760		-31.250000
8761		-37.109375
8762		-27.343750
8763		-33.203125
8764		-27.343750
8765		-27.343750
8766		-23.437500
8767		-25.390625
8768		-17.578125
8769		-23.437500
8770		-15.625000
8771		-21.484375
8772		-11.718750
8773		-17.578125
8774		-7.812500
8775		-13.671875
8776		-3.906250
8777		-9.765625
8778		0.000000
8779		-5.859375
8780		1.953125
8781		0.000000
8782		3.906250
8783		1.953125
8784		7.812500
8785		3.906250
8786		13.671875
8787		7.812500
8788		17.578125
8789		9.765625
8790		19.531250
8791		13.671875
8792		23.437500
8793		17.578125
8794		27.343750
8795		21.484375
8796		29.296875
8797		25.390625
8798		31.250000
8799		29.296875
8800		35.156250
8801		33.203125
8802		39.062500
8803		33.203125
8804		42.968750
8805		37.109375
8806		44.921875
8807		41.015625
8808		48.828125
8809		42.968750
8810		52.734375
8811		44.921875
8812		54.687500
8813		48.828125
8814		54.687500
8815		52.734375
8816		56.640625
8817		54.687500
8818		58.593750
8819		56.640625
8820		64.453125
8821		58.593750
8822		66.406250
8823		58.593750
8824		66.406250
8825		62.500000
8826		68.359375
8827		64.453125
8828		72.265625
8829		64.453125
8830		72.265625
8831		68.359375
8832		72.265625
8833		70.312500
8834		72.265625
8835		68.359375
8836		76.171875
8837		70.312500
8838		78.125000
8839		70.312500
8840		78.125000
8841		72.265625
8842		80.078125
8843		72.265625
8844		80.078125
8845		72.265625
8846		80.078125
8847		72.265625
8848		80.078125
8849		76.171875
8850		78.125000
8851		74.218750
8852		80.078125
8853		72.265625
8854		80.078125
8855		72.265625
8856		80.078125
8857		72.265625
8858		78.125000
8859		70.312500
8860		78.125000
8861		70.312500
8862		78.125000
8863		70.312500
8864		76.171875
8865		70.312500
8866		74.218750
8867		68.359375
8868		72.265625
8869		64.453125
8870		72.265625
8871		62.500000
8872		70.312500
8873		60.546875
8874		68.359375
8875		60.546875
8876		68.359375
8877		56.640625
8878		66.406250
8879		56.640625
8880		64.453125
8881		54.687500
8882		62.500000
8883		52.734375
8884		56.640625
8885		48.828125
8886		54.687500
8887		44.921875
8888		54.687500
8889		42.968750
8890		50.781250
8891		39.062500
8892		48.828125
8893		37.109375
8894		46.875000
8895		33.203125
8896		42.968750
8897		33.203125
8898		39.062500
8899		29.296875
8900		35.156250
8901		27.343750
8902		31.250000
8903		21.484375
8904		29.296875
8905		17.578125
8906		27.343750
8907		13.671875
8908		23.437500
8909		11.718750
8910		19.531250
8911		7.812500
8912		15.625000
8913		3.906250
8914		11.718750
8915		1.953125
8916		7.812500
8917		0.000000
8918		3.906250
8919		-5.859375
8920		0.000000
8921		-9.765625
8922		0.000000
8923		-13.671875
8924		-3.906250
8925		-17.578125
8926		-7.812500
8927		-21.484375
8928		-11.718750
8929		-23.437500
8930		-15.625000
8931		-25.390625
8932		-17.578125
8933		-27.343750
8934		-23.437500
8935		-31.250000
8936		-25.390625
8937		-37.109375
8938		-27.343750
8939		-39.062500
8940		-31.250000
8941		-41.015625
8942		-33.203125
8943		-44.921875
8944		-37.109375
8945		-48.828125
8946		-39.062500
8947		-48.828125
8948		-41.015625
8949		-50.781250
8950		-44.921875
8951		-52.734375
8952		-48.828125
8953		-56.640625
8954		-48.828125
8955		-58.593750
8956		-50.781250
8957		-60.546875
8958		-52.734375
8959		-62.500000
8960		-52.734375
8961		-62.500000
8962		-54.687500
8963		-64.453125
8964		-56.640625
8965		-64.453125
8966		-58.593750
8967		-62.500000
8968		-60.546875
8969		-66.406250
8970		-60.546875
8971		-66.406250
8972		-58.593750
8973		-66.406250
8974		-60.546875
8975		-66.406250
8976		-60.546875
8977		-66.406250
8978		-60.546875
8979		-66.406250
8980		-58.593750
8981		-66.406250
8982		-58.593750
8983		-62.500000
8984		-60.546875
8985		-62.500000
8986		-60.546875
8987		-64.453125
8988		-56.640625
8989		-62.500000
8990		-54.687500
8991		-60.546875
8992		-52.734375
8993		-58.593750
8994		-52.734375
8995		-58.593750
8996		-50.781250
8997		-56.640625
8998		-48.828125
8999		-54.687500
9000		-48.828125
9001		-50.781250
9002		-46.875000
9003		-48.828125
9004		-42.968750
9005		-46.875000
9006		-39.062500
9007		-44.921875
9008		-37.109375
9009		-42.968750
9010		-35.156250
9011		-39.062500
9012		-31.250000
9013		-37.109375
9014		-29.296875
9015		-33.203125
9016		-27.343750
9017		-29.296875
9018		-23.437500
9019		-25.390625
9020		-21.484375
9021		-23.437500
9022		-15.625000
9023		-21.484375
9024		-11.718750
9025		-17.578125
9026		-9.765625
9027		-13.671875
9028		-3.906250
9029		-9.765625
9030		-1.953125
9031		-7.812500
9032		1.953125
9033		-1.953125
9034		3.906250
9035		1.953125
9036		5.859375
9037		3.906250
9038		11.718750
9039		5.859375
9040		15.625000
9041		9.765625
9042		19.531250
9043		13.671875
9044		23.437500
9045		17.578125
9046		25.390625
9047		19.531250
9048		29.296875
9049		23.437500
9050		31.250000
9051		29.296875
9052		33.203125
9053		33.203125
9054		39.062500
9055		33.203125
9056		42.968750
9057		35.156250
9058		44.921875
9059		39.062500
9060		48.828125
9061		41.015625
9062		50.781250
9063		44.921875
9064		52.734375
9065		48.828125
9066		54.687500
9067		52.734375
9068		56.640625
9069		54.687500
9070		58.593750
9071		54.687500
9072		64.453125
9073		56.640625
9074		64.453125
9075		58.593750
9076		66.406250
9077		60.546875
9078		68.359375
9079		62.500000
9080		70.312500
9081		64.453125
9082		72.265625
9083		68.359375
9084		72.265625
9085		70.312500
9086		74.218750
9087		70.312500
9088		76.171875
9089		70.312500
9090		76.171875
9091		72.265625
9092		76.171875
9093		72.265625
9094		78.125000
9095		74.218750
9096		78.125000
9097		74.218750
9098		80.078125
9099		74.218750
9100		78.125000
9101		76.171875
9102		78.125000
9103		76.171875
9104		78.125000
9105		72.265625
9106		80.078125
9107		72.265625
9108		80.078125
9109		72.265625
9110		80.078125
9111		72.265625
9112		78.125000
9113		70.312500
9114		78.125000
9115		70.312500
9116		78.125000
9117		70.312500
9118		74.218750
9119		70.312500
9120		72.265625
9121		64.453125
9122		72.265625
9123		64.453125
9124		72.265625
9125		62.500000
9126		70.312500
9127		60.546875
9128		68.359375
9129		58.593750
9130		66.406250
9131		56.640625
9132		64.453125
9133		56.640625
9134		62.500000
9135		54.687500
9136		58.593750
9137		48.828125
9138		54.687500
9139		46.875000
9140		54.687500
9141		44.921875
9142		52.734375
9143		41.015625
9144		48.828125
9145		37.109375
9146		46.875000
9147		35.156250
9148		44.921875
9149		33.203125
9150		41.015625
9151		31.250000
9152		35.156250
9153		27.343750
9154		33.203125
9155		21.484375
9156		31.250000
9157		17.578125
9158		27.343750
9159		15.625000
9160		25.390625
9161		11.718750
9162		21.484375
9163		7.812500
9164		17.578125
9165		3.906250
9166		13.671875
9167		3.906250
9168		11.718750
9169		0.000000
9170		3.906250
9171		-5.859375
9172		1.953125
9173		-9.765625
9174		0.000000
9175		-11.718750
9176		-3.906250
9177		-15.625000
9178		-7.812500
9179		-19.531250
9180		-9.765625
9181		-23.437500
9182		-13.671875
9183		-25.390625
9184		-17.578125
9185		-27.343750
9186		-21.484375
9187		-31.250000
9188		-25.390625
9189		-35.156250
9190		-27.343750
9191		-39.062500
9192		-29.296875
9193		-41.015625
9194		-33.203125
9195		-44.921875
9196		-35.156250
9197		-46.875000
9198		-37.109375
9199		-48.828125
9200		-41.015625
9201		-48.828125
9202		-44.921875
9203		-50.781250
9204		-46.875000
9205		-54.687500
9206		-48.828125
9207		-58.593750
9208		-48.828125
9209		-60.546875
9210		-52.734375
9211		-60.546875
9212		-52.734375
9213		-62.500000
9214		-54.687500
9215		-62.500000
9216		-54.687500
9217		-64.453125
9218		-56.640625
9219		-62.500000
9220		-60.546875
9221		-66.406250
9222		-58.593750
9223		-66.406250
9224		-58.593750
9225		-66.406250
9226		-58.593750
9227		-66.406250
9228		-60.546875
9229		-66.406250
9230		-60.546875
9231		-66.406250
9232		-58.593750
9233		-66.406250
9234		-58.593750
9235		-64.453125
9236		-60.546875
9237		-62.500000
9238		-60.546875
9239		-64.453125
9240		-56.640625
9241		-62.500000
9242		-56.640625
9243		-62.500000
9244		-54.687500
9245		-60.546875
9246		-52.734375
9247		-58.593750
9248		-50.781250
9249		-56.640625
9250		-48.828125
9251		-54.687500
9252		-48.828125
9253		-50.781250
9254		-46.875000
9255		-48.828125
9256		-42.968750
9257		-48.828125
9258		-39.062500
9259		-44.921875
9260		-37.109375
9261		-44.921875
9262		-35.156250
9263		-41.015625
9264		-31.250000
9265		-37.109375
9266		-29.296875
9267		-33.203125
9268		-25.390625
9269		-29.296875
9270		-25.390625
9271		-25.390625
9272		-21.484375
9273		-23.437500
9274		-15.625000
9275		-21.484375
9276		-11.718750
9277		-17.578125
9278		-9.765625
9279		-15.625000
9280		-5.859375
9281		-11.718750
9282		-1.953125
9283		-7.812500
9284		1.953125
9285		-3.906250
9286		1.953125
9287		1.953125
9288		7.812500
9289		3.906250
9290		11.718750
9291		5.859375
9292		15.625000
9293		9.765625
9294		19.531250
9295		13.671875
9296		23.437500
9297		17.578125
9298		25.390625
9299		19.531250
9300		29.296875
9301		23.437500
9302		31.250000
9303		29.296875
9304		33.203125
9305		31.250000
9306		39.062500
9307		33.203125
9308		41.015625
9309		37.109375
9310		44.921875
9311		39.062500
9312		46.875000
9313		41.015625
9314		50.781250
9315		44.921875
9316		52.734375
9317		46.875000
9318		56.640625
9319		52.734375
9320		56.640625
9321		54.687500
9322		58.593750
9323		54.687500
9324		62.500000
9325		56.640625
9326		66.406250
9327		60.546875
9328		66.406250
9329		60.546875
9330		68.359375
9331		62.500000
9332		70.312500
9333		64.453125
9334		72.265625
9335		66.406250
9336		72.265625
9337		70.312500
9338		72.265625
9339		70.312500
9340		76.171875
9341		70.312500
9342		78.125000
9343		70.312500
9344		78.125000
9345		72.265625
9346		78.125000
9347		72.265625
9348		80.078125
9349		72.265625
9350		80.078125
9351		74.218750
9352		80.078125
9353		76.171875
9354		78.125000
9355		76.171875
9356		78.125000
9357		72.265625
9358		80.078125
9359		72.265625
9360		80.078125
9361		72.265625
9362		80.078125
9363		72.265625
9364		78.125000
9365		70.312500
9366		78.125000
9367		70.312500
9368		78.125000
9369		70.312500
9370		76.171875
9371		70.312500
9372		74.218750
9373		66.406250
9374		72.265625
9375		64.453125
9376		72.265625
9377		62.500000
9378		70.312500
9379		62.500000
9380		68.359375
9381		58.593750
9382		66.406250
9383		56.640625
9384		64.453125
9385		56.640625
9386		62.500000
9387		54.687500
9388		58.593750
9389		50.781250
9390		56.640625
9391		46.875000
9392		54.687500
9393		42.968750
9394		52.734375
9395		42.968750
9396		50.781250
9397		39.062500
9398		46.875000
9399		35.156250
9400		44.921875
9401		33.203125
9402		41.015625
9403		31.250000
9404		37.109375
9405		29.296875
9406		33.203125
9407		23.437500
9408		31.250000
9409		19.531250
9410		27.343750
9411		17.578125
9412		25.390625
9413		11.718750
9414		21.484375
9415		7.812500
9416		17.578125
9417		5.859375
9418		13.671875
9419		3.906250
9420		11.718750
9421		0.000000
9422		5.859375
9423		-5.859375
9424		1.953125
9425		-7.812500
9426		0.000000
9427		-11.718750
9428		-1.953125
9429		-15.625000
9430		-5.859375
9431		-19.531250
9432		-9.765625
9433		-21.484375
9434		-13.671875
9435		-23.437500
9436		-15.625000
9437		-27.343750
9438		-21.484375
9439		-31.250000
9440		-23.437500
9441		-35.156250
9442		-27.343750
9443		-37.109375
9444		-29.296875
9445		-41.015625
9446		-31.250000
9447		-42.968750
9448		-35.156250
9449		-46.875000
9450		-37.109375
9451		-48.828125
9452		-39.062500
9453		-48.828125
9454		-42.968750
9455		-50.781250
9456		-46.875000
9457		-54.687500
9458		-48.828125
9459		-56.640625
9460		-48.828125
9461		-58.593750
9462		-50.781250
9463		-60.546875
9464		-52.734375
9465		-62.500000
9466		-54.687500
9467		-62.500000
9468		-54.687500
9469		-62.500000
9470		-56.640625
9471		-62.500000
9472		-58.593750
9473		-64.453125
9474		-58.593750
9475		-66.406250
9476		-58.593750
9477		-66.406250
9478		-58.593750
9479		-66.406250
9480		-58.593750
9481		-66.406250
9482		-58.593750
9483		-66.406250
9484		-58.593750
9485		-66.406250
9486		-58.593750
9487		-64.453125
9488		-60.546875
9489		-62.500000
9490		-58.593750
9491		-64.453125
9492		-56.640625
9493		-62.500000
9494		-54.687500
9495		-62.500000
9496		-54.687500
9497		-60.546875
9498		-52.734375
9499		-58.593750
9500		-50.781250
9501		-56.640625
9502		-48.828125
9503		-52.734375
9504		-48.828125
9505		-50.781250
9506		-46.875000
9507		-48.828125
9508		-42.968750
9509		-48.828125
9510		-39.062500
9511		-44.921875
9512		-37.109375
9513		-42.968750
9514		-35.156250
9515		-41.015625
9516		-31.250000
9517		-37.109375
9518		-29.296875
9519		-33.203125
9520		-25.390625
9521		-29.296875
9522		-25.390625
9523		-25.390625
9524		-21.484375
9525		-25.390625
9526		-15.625000
9527		-21.484375
9528		-13.671875
9529		-17.578125
9530		-9.765625
9531		-15.625000
9532		-5.859375
9533		-11.718750
9534		-1.953125
9535		-7.812500
9536		1.953125
9537		-3.906250
9538		1.953125
9539		0.000000
9540		5.859375
9541		3.906250
9542		11.718750
9543		5.859375
9544		15.625000
9545		9.765625
9546		17.578125
9547		11.718750
9548		21.484375
9549		15.625000
9550		23.437500
9551		19.531250
9552		27.343750
9553		23.437500
9554		31.250000
9555		27.343750
9556		33.203125
9557		31.250000
9558		37.109375
9559		33.203125
9560		42.968750
9561		35.156250
9562		44.921875
9563		39.062500
9564		46.875000
9565		41.015625
9566		50.781250
9567		44.921875
9568		52.734375
9569		46.875000
9570		54.687500
9571		52.734375
9572		56.640625
9573		54.687500
9574		58.593750
9575		54.687500
9576		62.500000
9577		56.640625
9578		64.453125
9579		58.593750
9580		66.406250
9581		60.546875
9582		68.359375
9583		62.500000
9584		70.312500
9585		64.453125
9586		72.265625
9587		66.406250
9588		72.265625
9589		70.312500
9590		72.265625
9591		70.312500
9592		76.171875
9593		70.312500
9594		78.125000
9595		70.312500
9596		78.125000
9597		72.265625
9598		80.078125
9599		72.265625
9600		80.078125
9601		72.265625
9602		80.078125
9603		74.218750
9604		80.078125
9605		76.171875
9606		78.125000
9607		76.171875
9608		78.125000
9609		74.218750
9610		80.078125
9611		72.265625
9612		80.078125
9613		72.265625
9614		80.078125
9615		72.265625
9616		80.078125
9617		70.312500
9618		78.125000
9619		70.312500
9620		78.125000
9621		70.312500
9622		76.171875
9623		70.312500
9624		74.218750
9625		66.406250
9626		74.218750
9627		66.406250
9628		72.265625
9629		62.500000
9630		72.265625
9631		60.546875
9632		68.359375
9633		60.546875
9634		68.359375
9635		56.640625
9636		66.406250
9637		54.687500
9638		64.453125
9639		54.687500
9640		58.593750
9641		52.734375
9642		56.640625
9643		48.828125
9644		56.640625
9645		44.921875
9646		52.734375
9647		42.968750
9648		50.781250
9649		39.062500
9650		48.828125
9651		37.109375
9652		44.921875
9653		33.203125
9654		41.015625
9655		33.203125
9656		37.109375
9657		29.296875
9658		33.203125
9659		23.437500
9660		33.203125
9661		19.531250
9662		29.296875
9663		17.578125
9664		25.390625
9665		13.671875
9666		23.437500
9667		9.765625
9668		19.531250
9669		5.859375
9670		15.625000
9671		5.859375
9672		11.718750
9673		1.953125
9674		5.859375
9675		-1.953125
9676		3.906250
9677		-7.812500
9678		1.953125
9679		-11.718750
9680		-1.953125
9681		-13.671875
9682		-5.859375
9683		-17.578125
9684		-9.765625
9685		-21.484375
9686		-11.718750
9687		-23.437500
9688		-15.625000
9689		-25.390625
9690		-21.484375
9691		-29.296875
9692		-23.437500
9693		-33.203125
9694		-25.390625
9695		-37.109375
9696		-27.343750
9697		-39.062500
9698		-31.250000
9699		-42.968750
9700		-35.156250
9701		-44.921875
9702		-37.109375
9703		-48.828125
9704		-39.062500
9705		-48.828125
9706		-42.968750
9707		-50.781250
9708		-46.875000
9709		-54.687500
9710		-46.875000
9711		-56.640625
9712		-48.828125
9713		-58.593750
9714		-50.781250
9715		-60.546875
9716		-50.781250
9717		-62.500000
9718		-52.734375
9719		-62.500000
9720		-54.687500
9721		-62.500000
9722		-54.687500
9723		-62.500000
9724		-58.593750
9725		-62.500000
9726		-60.546875
9727		-66.406250
9728		-58.593750
9729		-66.406250
9730		-58.593750
9731		-66.406250
9732		-58.593750
9733		-66.406250
9734		-58.593750
9735		-66.406250
9736		-58.593750
9737		-66.406250
9738		-58.593750
9739		-62.500000
9740		-60.546875
9741		-62.500000
9742		-60.546875
9743		-64.453125
9744		-56.640625
9745		-62.500000
9746		-54.687500
9747		-62.500000
9748		-52.734375
9749		-60.546875
9750		-52.734375
9751		-58.593750
9752		-50.781250
9753		-56.640625
9754		-48.828125
9755		-54.687500
9756		-48.828125
9757		-50.781250
9758		-46.875000
9759		-48.828125
9760		-42.968750
9761		-48.828125
9762		-39.062500
9763		-44.921875
9764		-37.109375
9765		-42.968750
9766		-33.203125
9767		-41.015625
9768		-31.250000
9769		-37.109375
9770		-29.296875
9771		-35.156250
9772		-27.343750
9773		-29.296875
9774		-25.390625
9775		-27.343750
9776		-21.484375
9777		-25.390625
9778		-15.625000
9779		-21.484375
9780		-13.671875
9781		-19.531250
9782		-9.765625
9783		-15.625000
9784		-7.812500
9785		-11.718750
9786		-3.906250
9787		-7.812500
9788		0.000000
9789		-5.859375
9790		1.953125
9791		0.000000
9792		5.859375
9793		3.906250
9794		9.765625
9795		5.859375
9796		13.671875
9797		9.765625
9798		17.578125
9799		11.718750
9800		21.484375
9801		15.625000
9802		25.390625
9803		19.531250
9804		27.343750
9805		23.437500
9806		31.250000
9807		27.343750
9808		33.203125
9809		31.250000
9810		35.156250
9811		33.203125
9812		41.015625
9813		35.156250
9814		42.968750
9815		37.109375
9816		46.875000
9817		41.015625
9818		50.781250
9819		44.921875
9820		52.734375
9821		46.875000
9822		56.640625
9823		48.828125
9824		56.640625
9825		54.687500
9826		58.593750
9827		56.640625
9828		62.500000
9829		56.640625
9830		64.453125
9831		58.593750
9832		66.406250
9833		60.546875
9834		68.359375
9835		62.500000
9836		70.312500
9837		64.453125
9838		72.265625
9839		66.406250
9840		72.265625
9841		70.312500
9842		72.265625
9843		70.312500
9844		76.171875
9845		70.312500
9846		78.125000
9847		72.265625
9848		78.125000
9849		72.265625
9850		80.078125
9851		72.265625
9852		80.078125
9853		72.265625
9854		80.078125
9855		74.218750
9856		80.078125
9857		76.171875
9858		78.125000
9859		76.171875
9860		78.125000
9861		74.218750
9862		80.078125
9863		72.265625
9864		80.078125
9865		72.265625
9866		80.078125
9867		72.265625
9868		80.078125
9869		72.265625
9870		80.078125
9871		70.312500
9872		78.125000
9873		70.312500
9874		76.171875
9875		70.312500
9876		74.218750
9877		66.406250
9878		72.265625
9879		66.406250
9880		72.265625
9881		62.500000
9882		72.265625
9883		62.500000
9884		70.312500
9885		60.546875
9886		68.359375
9887		58.593750
9888		66.406250
9889		56.640625
9890		64.453125
9891		56.640625
9892		60.546875
9893		52.734375
9894		56.640625
9895		48.828125
9896		56.640625
9897		44.921875
9898		54.687500
9899		42.968750
9900		50.781250
9901		41.015625
9902		48.828125
9903		37.109375
9904		46.875000
9905		33.203125
9906		42.968750
9907		33.203125
9908		41.015625
9909		29.296875
9910		35.156250
9911		25.390625
9912		31.250000
9913		21.484375
9914		31.250000
9915		17.578125
9916		27.343750
9917		13.671875
9918		23.437500
9919		9.765625
9920		19.531250
9921		7.812500
9922		15.625000
9923		5.859375
9924		13.671875
9925		1.953125
9926		7.812500
9927		-1.953125
9928		3.906250
9929		-7.812500
9930		1.953125
9931		-9.765625
9932		-1.953125
9933		-13.671875
9934		-3.906250
9935		-17.578125
9936		-7.812500
9937		-19.531250
9938		-11.718750
9939		-23.437500
9940		-15.625000
9941		-25.390625
9942		-19.531250
9943		-27.343750
9944		-23.437500
9945		-33.203125
9946		-25.390625
9947		-37.109375
9948		-27.343750
9949		-41.015625
9950		-31.250000
9951		-41.015625
9952		-33.203125
9953		-44.921875
9954		-35.156250
9955		-46.875000
9956		-39.062500
9957		-46.875000
9958		-41.015625
9959		-48.828125
9960		-44.921875
9961		-54.687500
9962		-46.875000
9963		-54.687500
9964		-46.875000
9965		-56.640625
9966		-48.828125
9967		-58.593750
9968		-52.734375
9969		-60.546875
9970		-52.734375
9971		-62.500000
9972		-52.734375
9973		-62.500000
9974		-54.687500
9975		-62.500000
9976		-58.593750
9977		-62.500000
9978		-60.546875
9979		-66.406250
9980		-58.593750
9981		-66.406250
9982		-58.593750
9983		-66.406250
9984		-58.593750
9985		-66.406250
9986		-58.593750
9987		-66.406250
9988		-58.593750
9989		-66.406250
9990		-58.593750
9991		-64.453125
9992		-60.546875
9993		-62.500000
9994		-58.593750
9995		-64.453125
9996		-56.640625
9997		-62.500000
9998		-54.687500
9999		-62.500000
10000		-54.687500
