Channel              :		CH1
Frequency            :		1.973kHz
Period               :		0.507ms
PK-PK                :		105.5mV
Probe attenuation    :		1X
Voltage per ADC value:		0.122070mV
Time interval        :		2.00000us

index		CH1_Voltage(mV)
1		56.640625
2		56.640625
3		52.734375
4		54.687500
5		52.734375
6		54.687500
7		50.781250
8		54.687500
9		48.828125
10		54.687500
11		48.828125
12		52.734375
13		46.875000
14		50.781250
15		46.875000
16		50.781250
17		44.921875
18		48.828125
19		44.921875
20		48.828125
21		42.968750
22		46.875000
23		41.015625
24		44.921875
25		39.062500
26		42.968750
27		37.109375
28		41.015625
29		37.109375
30		41.015625
31		33.203125
32		39.062500
33		33.203125
34		37.109375
35		31.250000
36		33.203125
37		29.296875
38		33.203125
39		25.390625
40		29.296875
41		23.437500
42		29.296875
43		21.484375
44		25.390625
45		19.531250
46		23.437500
47		17.578125
48		21.484375
49		13.671875
50		19.531250
51		11.718750
52		15.625000
53		9.765625
54		13.671875
55		7.812500
56		11.718750
57		3.906250
58		9.765625
59		1.953125
60		7.812500
61		0.000000
62		3.906250
63		-1.953125
64		1.953125
65		-5.859375
66		0.000000
67		-7.812500
68		-1.953125
69		-9.765625
70		-3.906250
71		-11.718750
72		-7.812500
73		-13.671875
74		-9.765625
75		-15.625000
76		-11.718750
77		-19.531250
78		-13.671875
79		-19.531250
80		-15.625000
81		-23.437500
82		-17.578125
83		-25.390625
84		-21.484375
85		-27.343750
86		-21.484375
87		-29.296875
88		-25.390625
89		-31.250000
90		-27.343750
91		-31.250000
92		-27.343750
93		-33.203125
94		-29.296875
95		-35.156250
96		-31.250000
97		-37.109375
98		-31.250000
99		-37.109375
100		-33.203125
101		-39.062500
102		-35.156250
103		-39.062500
104		-35.156250
105		-41.015625
106		-37.109375
107		-42.968750
108		-37.109375
109		-42.968750
110		-39.062500
111		-42.968750
112		-39.062500
113		-42.968750
114		-39.062500
115		-42.968750
116		-41.015625
117		-42.968750
118		-41.015625
119		-42.968750
120		-39.062500
121		-42.968750
122		-41.015625
123		-42.968750
124		-39.062500
125		-42.968750
126		-39.062500
127		-42.968750
128		-39.062500
129		-41.015625
130		-39.062500
131		-41.015625
132		-37.109375
133		-41.015625
134		-37.109375
135		-39.062500
136		-35.156250
137		-39.062500
138		-35.156250
139		-37.109375
140		-33.203125
141		-35.156250
142		-33.203125
143		-35.156250
144		-31.250000
145		-33.203125
146		-29.296875
147		-31.250000
148		-27.343750
149		-31.250000
150		-25.390625
151		-29.296875
152		-25.390625
153		-27.343750
154		-21.484375
155		-23.437500
156		-19.531250
157		-21.484375
158		-17.578125
159		-19.531250
160		-15.625000
161		-17.578125
162		-13.671875
163		-15.625000
164		-11.718750
165		-13.671875
166		-9.765625
167		-11.718750
168		-7.812500
169		-9.765625
170		-5.859375
171		-5.859375
172		-1.953125
173		-3.906250
174		0.000000
175		-1.953125
176		1.953125
177		0.000000
178		3.906250
179		1.953125
180		7.812500
181		5.859375
182		9.765625
183		7.812500
184		11.718750
185		9.765625
186		13.671875
187		11.718750
188		17.578125
189		15.625000
190		19.531250
191		17.578125
192		21.484375
193		19.531250
194		23.437500
195		21.484375
196		25.390625
197		23.437500
198		27.343750
199		25.390625
200		31.250000
201		27.343750
202		33.203125
203		29.296875
204		35.156250
205		33.203125
206		37.109375
207		35.156250
208		37.109375
209		35.156250
210		39.062500
211		37.109375
212		41.015625
213		39.062500
214		42.968750
215		41.015625
216		44.921875
217		42.968750
218		46.875000
219		44.921875
220		48.828125
221		44.921875
222		48.828125
223		46.875000
224		50.781250
225		46.875000
226		50.781250
227		48.828125
228		52.734375
229		50.781250
230		52.734375
231		50.781250
232		54.687500
233		52.734375
234		54.687500
235		52.734375
236		56.640625
237		52.734375
238		56.640625
239		54.687500
240		56.640625
241		52.734375
242		56.640625
243		54.687500
244		56.640625
245		54.687500
246		56.640625
247		54.687500
248		56.640625
249		54.687500
250		56.640625
251		54.687500
252		56.640625
253		52.734375
254		56.640625
255		52.734375
256		54.687500
257		52.734375
258		54.687500
259		52.734375
260		54.687500
261		50.781250
262		54.687500
263		50.781250
264		52.734375
265		48.828125
266		52.734375
267		46.875000
268		50.781250
269		46.875000
270		50.781250
271		44.921875
272		48.828125
273		44.921875
274		46.875000
275		42.968750
276		46.875000
277		41.015625
278		44.921875
279		39.062500
280		42.968750
281		37.109375
282		41.015625
283		37.109375
284		39.062500
285		33.203125
286		37.109375
287		31.250000
288		35.156250
289		29.296875
290		33.203125
291		27.343750
292		31.250000
293		25.390625
294		31.250000
295		23.437500
296		27.343750
297		21.484375
298		25.390625
299		19.531250
300		23.437500
301		15.625000
302		21.484375
303		13.671875
304		17.578125
305		11.718750
306		15.625000
307		9.765625
308		13.671875
309		5.859375
310		11.718750
311		3.906250
312		9.765625
313		1.953125
314		5.859375
315		0.000000
316		3.906250
317		-3.906250
318		1.953125
319		-5.859375
320		-1.953125
321		-7.812500
322		-3.906250
323		-9.765625
324		-5.859375
325		-13.671875
326		-7.812500
327		-13.671875
328		-9.765625
329		-15.625000
330		-11.718750
331		-19.531250
332		-13.671875
333		-21.484375
334		-15.625000
335		-23.437500
336		-19.531250
337		-25.390625
338		-21.484375
339		-27.343750
340		-21.484375
341		-29.296875
342		-25.390625
343		-31.250000
344		-27.343750
345		-31.250000
346		-29.296875
347		-33.203125
348		-29.296875
349		-35.156250
350		-31.250000
351		-37.109375
352		-33.203125
353		-37.109375
354		-33.203125
355		-39.062500
356		-35.156250
357		-39.062500
358		-37.109375
359		-41.015625
360		-37.109375
361		-41.015625
362		-39.062500
363		-42.968750
364		-39.062500
365		-42.968750
366		-39.062500
367		-42.968750
368		-39.062500
369		-42.968750
370		-39.062500
371		-44.921875
372		-39.062500
373		-42.968750
374		-41.015625
375		-42.968750
376		-41.015625
377		-42.968750
378		-39.062500
379		-42.968750
380		-39.062500
381		-42.968750
382		-39.062500
383		-41.015625
384		-39.062500
385		-41.015625
386		-37.109375
387		-41.015625
388		-37.109375
389		-39.062500
390		-35.156250
391		-37.109375
392		-35.156250
393		-37.109375
394		-33.203125
395		-35.156250
396		-31.250000
397		-35.156250
398		-31.250000
399		-33.203125
400		-29.296875
401		-31.250000
402		-27.343750
403		-29.296875
404		-25.390625
405		-27.343750
406		-23.437500
407		-25.390625
408		-21.484375
409		-23.437500
410		-19.531250
411		-21.484375
412		-17.578125
413		-19.531250
414		-15.625000
415		-17.578125
416		-13.671875
417		-15.625000
418		-11.718750
419		-13.671875
420		-9.765625
421		-9.765625
422		-5.859375
423		-7.812500
424		-3.906250
425		-7.812500
426		-1.953125
427		-3.906250
428		0.000000
429		-1.953125
430		3.906250
431		0.000000
432		5.859375
433		3.906250
434		7.812500
435		5.859375
436		9.765625
437		7.812500
438		13.671875
439		9.765625
440		15.625000
441		13.671875
442		17.578125
443		15.625000
444		19.531250
445		17.578125
446		21.484375
447		19.531250
448		25.390625
449		21.484375
450		25.390625
451		25.390625
452		29.296875
453		27.343750
454		31.250000
455		29.296875
456		33.203125
457		31.250000
458		35.156250
459		33.203125
460		37.109375
461		33.203125
462		39.062500
463		37.109375
464		41.015625
465		39.062500
466		42.968750
467		41.015625
468		44.921875
469		42.968750
470		44.921875
471		42.968750
472		46.875000
473		44.921875
474		48.828125
475		46.875000
476		48.828125
477		46.875000
478		50.781250
479		48.828125
480		50.781250
481		48.828125
482		52.734375
483		50.781250
484		54.687500
485		50.781250
486		54.687500
487		52.734375
488		54.687500
489		52.734375
490		56.640625
491		54.687500
492		56.640625
493		54.687500
494		56.640625
495		54.687500
496		56.640625
497		54.687500
498		58.593750
499		54.687500
500		56.640625
501		54.687500
502		56.640625
503		54.687500
504		56.640625
505		52.734375
506		56.640625
507		52.734375
508		56.640625
509		52.734375
510		54.687500
511		52.734375
512		56.640625
513		52.734375
514		54.687500
515		50.781250
516		54.687500
517		50.781250
518		52.734375
519		48.828125
520		52.734375
521		46.875000
522		50.781250
523		46.875000
524		50.781250
525		44.921875
526		48.828125
527		42.968750
528		46.875000
529		42.968750
530		46.875000
531		41.015625
532		44.921875
533		39.062500
534		42.968750
535		37.109375
536		41.015625
537		35.156250
538		39.062500
539		33.203125
540		37.109375
541		31.250000
542		35.156250
543		29.296875
544		33.203125
545		27.343750
546		31.250000
547		25.390625
548		29.296875
549		23.437500
550		27.343750
551		21.484375
552		25.390625
553		17.578125
554		21.484375
555		15.625000
556		19.531250
557		13.671875
558		19.531250
559		11.718750
560		15.625000
561		7.812500
562		13.671875
563		5.859375
564		11.718750
565		3.906250
566		7.812500
567		0.000000
568		5.859375
569		0.000000
570		3.906250
571		-1.953125
572		1.953125
573		-5.859375
574		-1.953125
575		-7.812500
576		-3.906250
577		-11.718750
578		-5.859375
579		-13.671875
580		-7.812500
581		-15.625000
582		-11.718750
583		-17.578125
584		-13.671875
585		-19.531250
586		-15.625000
587		-21.484375
588		-17.578125
589		-23.437500
590		-19.531250
591		-25.390625
592		-21.484375
593		-27.343750
594		-23.437500
595		-29.296875
596		-25.390625
597		-31.250000
598		-27.343750
599		-33.203125
600		-27.343750
601		-33.203125
602		-29.296875
603		-35.156250
604		-31.250000
605		-37.109375
606		-33.203125
607		-37.109375
608		-33.203125
609		-39.062500
610		-35.156250
611		-41.015625
612		-35.156250
613		-41.015625
614		-37.109375
615		-41.015625
616		-37.109375
617		-41.015625
618		-39.062500
619		-42.968750
620		-39.062500
621		-42.968750
622		-39.062500
623		-42.968750
624		-39.062500
625		-42.968750
626		-41.015625
627		-42.968750
628		-41.015625
629		-42.968750
630		-39.062500
631		-42.968750
632		-39.062500
633		-42.968750
634		-39.062500
635		-41.015625
636		-39.062500
637		-41.015625
638		-37.109375
639		-41.015625
640		-37.109375
641		-41.015625
642		-37.109375
643		-39.062500
644		-35.156250
645		-37.109375
646		-33.203125
647		-37.109375
648		-33.203125
649		-35.156250
650		-31.250000
651		-33.203125
652		-29.296875
653		-31.250000
654		-27.343750
655		-29.296875
656		-25.390625
657		-29.296875
658		-25.390625
659		-27.343750
660		-23.437500
661		-25.390625
662		-19.531250
663		-23.437500
664		-19.531250
665		-21.484375
666		-17.578125
667		-19.531250
668		-15.625000
669		-15.625000
670		-11.718750
671		-13.671875
672		-9.765625
673		-11.718750
674		-7.812500
675		-9.765625
676		-5.859375
677		-7.812500
678		-3.906250
679		-5.859375
680		0.000000
681		-3.906250
682		1.953125
683		0.000000
684		3.906250
685		1.953125
686		5.859375
687		3.906250
688		9.765625
689		7.812500
690		11.718750
691		7.812500
692		13.671875
693		11.718750
694		15.625000
695		13.671875
696		17.578125
697		15.625000
698		19.531250
699		19.531250
700		23.437500
701		21.484375
702		25.390625
703		23.437500
704		27.343750
705		25.390625
706		29.296875
707		27.343750
708		33.203125
709		29.296875
710		33.203125
711		31.250000
712		35.156250
713		33.203125
714		37.109375
715		35.156250
716		39.062500
717		37.109375
718		41.015625
719		39.062500
720		42.968750
721		41.015625
722		44.921875
723		42.968750
724		46.875000
725		42.968750
726		46.875000
727		44.921875
728		48.828125
729		46.875000
730		50.781250
731		46.875000
732		50.781250
733		48.828125
734		52.734375
735		50.781250
736		52.734375
737		50.781250
738		54.687500
739		52.734375
740		54.687500
741		50.781250
742		56.640625
743		52.734375
744		56.640625
745		52.734375
746		56.640625
747		54.687500
748		56.640625
749		54.687500
750		56.640625
751		54.687500
752		56.640625
753		54.687500
754		56.640625
755		54.687500
756		56.640625
757		52.734375
758		56.640625
759		54.687500
760		56.640625
761		54.687500
762		56.640625
763		52.734375
764		56.640625
765		52.734375
766		54.687500
767		52.734375
768		54.687500
769		50.781250
770		52.734375
771		48.828125
772		52.734375
773		48.828125
774		50.781250
775		46.875000
776		50.781250
777		46.875000
778		48.828125
779		44.921875
780		48.828125
781		42.968750
782		46.875000
783		41.015625
784		46.875000
785		41.015625
786		44.921875
787		39.062500
788		42.968750
789		37.109375
790		41.015625
791		33.203125
792		39.062500
793		33.203125
794		37.109375
795		31.250000
796		35.156250
797		29.296875
798		33.203125
799		27.343750
800		31.250000
801		23.437500
802		29.296875
803		21.484375
804		25.390625
805		19.531250
806		23.437500
807		17.578125
808		21.484375
809		15.625000
810		19.531250
811		13.671875
812		17.578125
813		9.765625
814		15.625000
815		7.812500
816		11.718750
817		5.859375
818		9.765625
819		3.906250
820		7.812500
821		1.953125
822		5.859375
823		-1.953125
824		3.906250
825		-3.906250
826		0.000000
827		-5.859375
828		-1.953125
829		-7.812500
830		-3.906250
831		-11.718750
832		-5.859375
833		-13.671875
834		-9.765625
835		-15.625000
836		-11.718750
837		-17.578125
838		-13.671875
839		-19.531250
840		-15.625000
841		-23.437500
842		-17.578125
843		-23.437500
844		-19.531250
845		-25.390625
846		-21.484375
847		-27.343750
848		-23.437500
849		-31.250000
850		-25.390625
851		-31.250000
852		-27.343750
853		-33.203125
854		-29.296875
855		-35.156250
856		-31.250000
857		-35.156250
858		-31.250000
859		-37.109375
860		-33.203125
861		-37.109375
862		-35.156250
863		-39.062500
864		-35.156250
865		-41.015625
866		-37.109375
867		-41.015625
868		-37.109375
869		-41.015625
870		-37.109375
871		-42.968750
872		-39.062500
873		-42.968750
874		-39.062500
875		-42.968750
876		-39.062500
877		-42.968750
878		-41.015625
879		-42.968750
880		-41.015625
881		-42.968750
882		-39.062500
883		-42.968750
884		-39.062500
885		-42.968750
886		-39.062500
887		-42.968750
888		-39.062500
889		-41.015625
890		-39.062500
891		-41.015625
892		-37.109375
893		-41.015625
894		-37.109375
895		-39.062500
896		-35.156250
897		-39.062500
898		-35.156250
899		-37.109375
900		-33.203125
901		-35.156250
902		-31.250000
903		-35.156250
904		-31.250000
905		-33.203125
906		-29.296875
907		-31.250000
908		-27.343750
909		-29.296875
910		-25.390625
911		-27.343750
912		-25.390625
913		-25.390625
914		-23.437500
915		-25.390625
916		-21.484375
917		-23.437500
918		-17.578125
919		-19.531250
920		-15.625000
921		-19.531250
922		-13.671875
923		-15.625000
924		-11.718750
925		-13.671875
926		-9.765625
927		-11.718750
928		-7.812500
929		-9.765625
930		-5.859375
931		-7.812500
932		-1.953125
933		-3.906250
934		0.000000
935		-1.953125
936		1.953125
937		0.000000
938		3.906250
939		1.953125
940		7.812500
941		5.859375
942		9.765625
943		5.859375
944		11.718750
945		9.765625
946		13.671875
947		11.718750
948		17.578125
949		13.671875
950		19.531250
951		17.578125
952		21.484375
953		19.531250
954		23.437500
955		21.484375
956		27.343750
957		23.437500
958		27.343750
959		25.390625
960		29.296875
961		27.343750
962		31.250000
963		29.296875
964		35.156250
965		33.203125
966		37.109375
967		33.203125
968		37.109375
969		35.156250
970		41.015625
971		37.109375
972		41.015625
973		39.062500
974		42.968750
975		41.015625
976		44.921875
977		42.968750
978		46.875000
979		44.921875
980		48.828125
981		44.921875
982		48.828125
983		46.875000
984		50.781250
985		48.828125
986		50.781250
987		48.828125
988		52.734375
989		50.781250
990		52.734375
991		50.781250
992		54.687500
993		52.734375
994		56.640625
995		52.734375
996		54.687500
997		52.734375
998		56.640625
999		52.734375
1000		56.640625
1001		52.734375
1002		56.640625
1003		54.687500
1004		58.593750
1005		54.687500
1006		58.593750
1007		54.687500
1008		58.593750
1009		54.687500
1010		56.640625
1011		54.687500
1012		58.593750
1013		52.734375
1014		56.640625
1015		52.734375
1016		56.640625
1017		52.734375
1018		56.640625
1019		52.734375
1020		54.687500
1021		50.781250
1022		54.687500
1023		50.781250
1024		54.687500
1025		48.828125
1026		52.734375
1027		48.828125
1028		52.734375
1029		46.875000
1030		50.781250
1031		44.921875
1032		48.828125
1033		44.921875
1034		48.828125
1035		42.968750
1036		46.875000
1037		41.015625
1038		44.921875
1039		39.062500
1040		42.968750
1041		39.062500
1042		42.968750
1043		35.156250
1044		41.015625
1045		35.156250
1046		37.109375
1047		33.203125
1048		37.109375
1049		31.250000
1050		35.156250
1051		29.296875
1052		33.203125
1053		27.343750
1054		31.250000
1055		23.437500
1056		27.343750
1057		21.484375
1058		27.343750
1059		19.531250
1060		23.437500
1061		17.578125
1062		21.484375
1063		15.625000
1064		19.531250
1065		11.718750
1066		15.625000
1067		9.765625
1068		13.671875
1069		7.812500
1070		11.718750
1071		5.859375
1072		9.765625
1073		1.953125
1074		7.812500
1075		0.000000
1076		3.906250
1077		-1.953125
1078		1.953125
1079		-3.906250
1080		0.000000
1081		-7.812500
1082		-1.953125
1083		-9.765625
1084		-3.906250
1085		-11.718750
1086		-7.812500
1087		-13.671875
1088		-9.765625
1089		-15.625000
1090		-11.718750
1091		-17.578125
1092		-13.671875
1093		-19.531250
1094		-15.625000
1095		-21.484375
1096		-17.578125
1097		-23.437500
1098		-21.484375
1099		-25.390625
1100		-21.484375
1101		-29.296875
1102		-23.437500
1103		-29.296875
1104		-25.390625
1105		-31.250000
1106		-27.343750
1107		-33.203125
1108		-29.296875
1109		-35.156250
1110		-31.250000
1111		-37.109375
1112		-31.250000
1113		-37.109375
1114		-33.203125
1115		-39.062500
1116		-35.156250
1117		-39.062500
1118		-35.156250
1119		-41.015625
1120		-37.109375
1121		-41.015625
1122		-37.109375
1123		-41.015625
1124		-39.062500
1125		-42.968750
1126		-39.062500
1127		-42.968750
1128		-39.062500
1129		-42.968750
1130		-39.062500
1131		-42.968750
1132		-41.015625
1133		-42.968750
1134		-39.062500
1135		-42.968750
1136		-39.062500
1137		-42.968750
1138		-39.062500
1139		-42.968750
1140		-39.062500
1141		-42.968750
1142		-39.062500
1143		-41.015625
1144		-39.062500
1145		-41.015625
1146		-37.109375
1147		-39.062500
1148		-37.109375
1149		-39.062500
1150		-35.156250
1151		-37.109375
1152		-33.203125
1153		-37.109375
1154		-33.203125
1155		-35.156250
1156		-31.250000
1157		-33.203125
1158		-31.250000
1159		-33.203125
1160		-29.296875
1161		-31.250000
1162		-27.343750
1163		-29.296875
1164		-25.390625
1165		-27.343750
1166		-23.437500
1167		-25.390625
1168		-21.484375
1169		-23.437500
1170		-19.531250
1171		-21.484375
1172		-17.578125
1173		-19.531250
1174		-15.625000
1175		-17.578125
1176		-13.671875
1177		-15.625000
1178		-11.718750
1179		-13.671875
1180		-9.765625
1181		-11.718750
1182		-7.812500
1183		-7.812500
1184		-3.906250
1185		-5.859375
1186		-1.953125
1187		-3.906250
1188		0.000000
1189		-1.953125
1190		1.953125
1191		0.000000
1192		5.859375
1193		3.906250
1194		7.812500
1195		5.859375
1196		9.765625
1197		7.812500
1198		11.718750
1199		9.765625
1200		15.625000
1201		13.671875
1202		17.578125
1203		15.625000
1204		19.531250
1205		17.578125
1206		21.484375
1207		19.531250
1208		25.390625
1209		21.484375
1210		27.343750
1211		25.390625
1212		29.296875
1213		27.343750
1214		31.250000
1215		29.296875
1216		33.203125
1217		31.250000
1218		35.156250
1219		33.203125
1220		37.109375
1221		35.156250
1222		39.062500
1223		37.109375
1224		41.015625
1225		37.109375
1226		42.968750
1227		41.015625
1228		44.921875
1229		41.015625
1230		44.921875
1231		42.968750
1232		46.875000
1233		44.921875
1234		48.828125
1235		46.875000
1236		48.828125
1237		46.875000
1238		50.781250
1239		48.828125
1240		52.734375
1241		48.828125
1242		52.734375
1243		50.781250
1244		52.734375
1245		50.781250
1246		54.687500
1247		52.734375
1248		54.687500
1249		52.734375
1250		54.687500
1251		52.734375
1252		56.640625
1253		54.687500
1254		56.640625
1255		54.687500
1256		56.640625
1257		54.687500
1258		56.640625
1259		54.687500
1260		58.593750
1261		52.734375
1262		56.640625
1263		52.734375
1264		58.593750
1265		54.687500
1266		56.640625
1267		52.734375
1268		56.640625
1269		52.734375
1270		56.640625
1271		52.734375
1272		56.640625
1273		52.734375
1274		54.687500
1275		50.781250
1276		54.687500
1277		50.781250
1278		52.734375
1279		48.828125
1280		52.734375
1281		48.828125
1282		50.781250
1283		44.921875
1284		50.781250
1285		44.921875
1286		50.781250
1287		44.921875
1288		46.875000
1289		42.968750
1290		46.875000
1291		41.015625
1292		44.921875
1293		39.062500
1294		42.968750
1295		37.109375
1296		41.015625
1297		35.156250
1298		39.062500
1299		35.156250
1300		37.109375
1301		31.250000
1302		35.156250
1303		29.296875
1304		35.156250
1305		27.343750
1306		31.250000
1307		25.390625
1308		29.296875
1309		23.437500
1310		27.343750
1311		21.484375
1312		25.390625
1313		19.531250
1314		23.437500
1315		17.578125
1316		19.531250
1317		13.671875
1318		19.531250
1319		11.718750
1320		17.578125
1321		9.765625
1322		13.671875
1323		7.812500
1324		11.718750
1325		3.906250
1326		9.765625
1327		1.953125
1328		5.859375
1329		0.000000
1330		3.906250
1331		-1.953125
1332		1.953125
1333		-3.906250
1334		-1.953125
1335		-7.812500
1336		-1.953125
1337		-9.765625
1338		-5.859375
1339		-11.718750
1340		-7.812500
1341		-15.625000
1342		-9.765625
1343		-15.625000
1344		-11.718750
1345		-19.531250
1346		-13.671875
1347		-21.484375
1348		-15.625000
1349		-23.437500
1350		-19.531250
1351		-25.390625
1352		-21.484375
1353		-27.343750
1354		-23.437500
1355		-27.343750
1356		-23.437500
1357		-29.296875
1358		-25.390625
1359		-31.250000
1360		-27.343750
1361		-33.203125
1362		-29.296875
1363		-35.156250
1364		-31.250000
1365		-35.156250
1366		-33.203125
1367		-39.062500
1368		-33.203125
1369		-37.109375
1370		-35.156250
1371		-39.062500
1372		-35.156250
1373		-41.015625
1374		-37.109375
1375		-41.015625
1376		-37.109375
1377		-41.015625
1378		-37.109375
1379		-42.968750
1380		-39.062500
1381		-42.968750
1382		-39.062500
1383		-42.968750
1384		-41.015625
1385		-42.968750
1386		-39.062500
1387		-42.968750
1388		-39.062500
1389		-42.968750
1390		-39.062500
1391		-42.968750
1392		-39.062500
1393		-41.015625
1394		-39.062500
1395		-41.015625
1396		-39.062500
1397		-41.015625
1398		-37.109375
1399		-39.062500
1400		-37.109375
1401		-39.062500
1402		-37.109375
1403		-39.062500
1404		-35.156250
1405		-37.109375
1406		-33.203125
1407		-37.109375
1408		-33.203125
1409		-35.156250
1410		-31.250000
1411		-33.203125
1412		-29.296875
1413		-31.250000
1414		-27.343750
1415		-29.296875
1416		-27.343750
1417		-29.296875
1418		-25.390625
1419		-27.343750
1420		-21.484375
1421		-27.343750
1422		-19.531250
1423		-23.437500
1424		-17.578125
1425		-21.484375
1426		-15.625000
1427		-19.531250
1428		-15.625000
1429		-17.578125
1430		-11.718750
1431		-13.671875
1432		-9.765625
1433		-11.718750
1434		-7.812500
1435		-9.765625
1436		-5.859375
1437		-9.765625
1438		-1.953125
1439		-7.812500
1440		0.000000
1441		-1.953125
1442		1.953125
1443		-1.953125
1444		3.906250
1445		1.953125
1446		7.812500
1447		3.906250
1448		9.765625
1449		7.812500
1450		11.718750
1451		9.765625
1452		13.671875
1453		9.765625
1454		17.578125
1455		11.718750
1456		19.531250
1457		13.671875
1458		21.484375
1459		17.578125
1460		25.390625
1461		19.531250
1462		27.343750
1463		21.484375
1464		29.296875
1465		25.390625
1466		29.296875
1467		27.343750
1468		31.250000
1469		29.296875
1470		35.156250
1471		29.296875
1472		37.109375
1473		31.250000
1474		39.062500
1475		33.203125
1476		41.015625
1477		35.156250
1478		42.968750
1479		37.109375
1480		44.921875
1481		39.062500
1482		44.921875
1483		42.968750
1484		44.921875
1485		42.968750
1486		48.828125
1487		42.968750
1488		50.781250
1489		44.921875
1490		52.734375
1491		46.875000
1492		52.734375
1493		46.875000
1494		54.687500
1495		48.828125
1496		54.687500
1497		48.828125
1498		54.687500
1499		52.734375
1500		54.687500
1501		52.734375
1502		54.687500
1503		50.781250
1504		58.593750
1505		52.734375
1506		58.593750
1507		52.734375
1508		58.593750
1509		52.734375
1510		58.593750
1511		52.734375
1512		58.593750
1513		52.734375
1514		60.546875
1515		52.734375
1516		58.593750
1517		54.687500
1518		56.640625
1519		52.734375
1520		58.593750
1521		52.734375
1522		58.593750
1523		50.781250
1524		58.593750
1525		50.781250
1526		56.640625
1527		50.781250
1528		56.640625
1529		48.828125
1530		56.640625
1531		48.828125
1532		54.687500
1533		48.828125
1534		52.734375
1535		46.875000
1536		50.781250
1537		44.921875
1538		52.734375
1539		42.968750
1540		50.781250
1541		42.968750
1542		48.828125
1543		41.015625
1544		48.828125
1545		39.062500
1546		46.875000
1547		37.109375
1548		44.921875
1549		37.109375
1550		41.015625
1551		35.156250
1552		39.062500
1553		31.250000
1554		39.062500
1555		29.296875
1556		37.109375
1557		27.343750
1558		35.156250
1559		25.390625
1560		33.203125
1561		23.437500
1562		31.250000
1563		21.484375
1564		29.296875
1565		19.531250
1566		27.343750
1567		19.531250
1568		21.484375
1569		15.625000
1570		19.531250
1571		11.718750
1572		19.531250
1573		9.765625
1574		17.578125
1575		5.859375
1576		15.625000
1577		3.906250
1578		11.718750
1579		1.953125
1580		9.765625
1581		0.000000
1582		7.812500
1583		0.000000
1584		3.906250
1585		-1.953125
1586		1.953125
1587		-7.812500
1588		0.000000
1589		-9.765625
1590		-1.953125
1591		-11.718750
1592		-3.906250
1593		-13.671875
1594		-7.812500
1595		-17.578125
1596		-9.765625
1597		-19.531250
1598		-11.718750
1599		-19.531250
1600		-13.671875
1601		-21.484375
1602		-17.578125
1603		-23.437500
1604		-19.531250
1605		-27.343750
1606		-19.531250
1607		-27.343750
1608		-21.484375
1609		-29.296875
1610		-25.390625
1611		-31.250000
1612		-25.390625
1613		-33.203125
1614		-27.343750
1615		-35.156250
1616		-29.296875
1617		-35.156250
1618		-31.250000
1619		-35.156250
1620		-33.203125
1621		-39.062500
1622		-33.203125
1623		-41.015625
1624		-33.203125
1625		-41.015625
1626		-35.156250
1627		-42.968750
1628		-35.156250
1629		-42.968750
1630		-37.109375
1631		-42.968750
1632		-37.109375
1633		-41.015625
1634		-37.109375
1635		-42.968750
1636		-39.062500
1637		-44.921875
1638		-37.109375
1639		-44.921875
1640		-37.109375
1641		-44.921875
1642		-39.062500
1643		-44.921875
1644		-37.109375
1645		-44.921875
1646		-37.109375
1647		-42.968750
1648		-37.109375
1649		-42.968750
1650		-37.109375
1651		-41.015625
1652		-37.109375
1653		-41.015625
1654		-35.156250
1655		-41.015625
1656		-33.203125
1657		-39.062500
1658		-33.203125
1659		-39.062500
1660		-31.250000
1661		-37.109375
1662		-31.250000
1663		-37.109375
1664		-29.296875
1665		-35.156250
1666		-27.343750
1667		-31.250000
1668		-27.343750
1669		-29.296875
1670		-25.390625
1671		-29.296875
1672		-21.484375
1673		-27.343750
1674		-21.484375
1675		-25.390625
1676		-17.578125
1677		-23.437500
1678		-17.578125
1679		-23.437500
1680		-13.671875
1681		-19.531250
1682		-11.718750
1683		-17.578125
1684		-11.718750
1685		-13.671875
1686		-9.765625
1687		-11.718750
1688		-3.906250
1689		-9.765625
1690		-3.906250
1691		-7.812500
1692		0.000000
1693		-5.859375
1694		1.953125
1695		-3.906250
1696		3.906250
1697		-1.953125
1698		5.859375
1699		0.000000
1700		7.812500
1701		3.906250
1702		9.765625
1703		7.812500
1704		11.718750
1705		7.812500
1706		15.625000
1707		9.765625
1708		19.531250
1709		11.718750
1710		21.484375
1711		13.671875
1712		23.437500
1713		17.578125
1714		25.390625
1715		19.531250
1716		27.343750
1717		23.437500
1718		27.343750
1719		25.390625
1720		29.296875
1721		27.343750
1722		35.156250
1723		27.343750
1724		37.109375
1725		31.250000
1726		37.109375
1727		31.250000
1728		41.015625
1729		33.203125
1730		42.968750
1731		37.109375
1732		42.968750
1733		37.109375
1734		44.921875
1735		41.015625
1736		44.921875
1737		42.968750
1738		48.828125
1739		42.968750
1740		50.781250
1741		44.921875
1742		50.781250
1743		44.921875
1744		52.734375
1745		46.875000
1746		54.687500
1747		46.875000
1748		54.687500
1749		48.828125
1750		54.687500
1751		50.781250
1752		54.687500
1753		52.734375
1754		54.687500
1755		50.781250
1756		58.593750
1757		52.734375
1758		58.593750
1759		52.734375
1760		58.593750
1761		52.734375
1762		58.593750
1763		52.734375
1764		58.593750
1765		52.734375
1766		60.546875
1767		52.734375
1768		58.593750
1769		54.687500
1770		56.640625
1771		52.734375
1772		58.593750
1773		52.734375
1774		58.593750
1775		52.734375
1776		58.593750
1777		50.781250
1778		58.593750
1779		50.781250
1780		56.640625
1781		50.781250
1782		56.640625
1783		48.828125
1784		56.640625
1785		50.781250
1786		52.734375
1787		48.828125
1788		52.734375
1789		46.875000
1790		52.734375
1791		44.921875
1792		52.734375
1793		42.968750
1794		50.781250
1795		41.015625
1796		48.828125
1797		41.015625
1798		48.828125
1799		39.062500
1800		46.875000
1801		39.062500
1802		42.968750
1803		37.109375
1804		41.015625
1805		33.203125
1806		41.015625
1807		31.250000
1808		39.062500
1809		29.296875
1810		37.109375
1811		27.343750
1812		35.156250
1813		25.390625
1814		33.203125
1815		23.437500
1816		31.250000
1817		21.484375
1818		27.343750
1819		21.484375
1820		23.437500
1821		15.625000
1822		21.484375
1823		13.671875
1824		21.484375
1825		11.718750
1826		19.531250
1827		9.765625
1828		17.578125
1829		5.859375
1830		13.671875
1831		3.906250
1832		11.718750
1833		1.953125
1834		9.765625
1835		0.000000
1836		5.859375
1837		-1.953125
1838		3.906250
1839		-5.859375
1840		1.953125
1841		-7.812500
1842		0.000000
1843		-9.765625
1844		-1.953125
1845		-13.671875
1846		-5.859375
1847		-15.625000
1848		-5.859375
1849		-17.578125
1850		-9.765625
1851		-17.578125
1852		-11.718750
1853		-19.531250
1854		-15.625000
1855		-23.437500
1856		-17.578125
1857		-25.390625
1858		-17.578125
1859		-27.343750
1860		-19.531250
1861		-29.296875
1862		-21.484375
1863		-31.250000
1864		-23.437500
1865		-33.203125
1866		-25.390625
1867		-33.203125
1868		-27.343750
1869		-33.203125
1870		-31.250000
1871		-35.156250
1872		-31.250000
1873		-39.062500
1874		-31.250000
1875		-39.062500
1876		-33.203125
1877		-41.015625
1878		-33.203125
1879		-41.015625
1880		-35.156250
1881		-41.015625
1882		-35.156250
1883		-42.968750
1884		-37.109375
1885		-42.968750
1886		-37.109375
1887		-41.015625
1888		-39.062500
1889		-44.921875
1890		-37.109375
1891		-44.921875
1892		-37.109375
1893		-44.921875
1894		-37.109375
1895		-44.921875
1896		-37.109375
1897		-44.921875
1898		-37.109375
1899		-42.968750
1900		-37.109375
1901		-42.968750
1902		-37.109375
1903		-41.015625
1904		-39.062500
1905		-41.015625
1906		-37.109375
1907		-41.015625
1908		-35.156250
1909		-41.015625
1910		-33.203125
1911		-39.062500
1912		-31.250000
1913		-39.062500
1914		-31.250000
1915		-37.109375
1916		-29.296875
1917		-35.156250
1918		-29.296875
1919		-31.250000
1920		-29.296875
1921		-31.250000
1922		-27.343750
1923		-31.250000
1924		-23.437500
1925		-29.296875
1926		-21.484375
1927		-27.343750
1928		-19.531250
1929		-25.390625
1930		-17.578125
1931		-23.437500
1932		-15.625000
1933		-21.484375
1934		-13.671875
1935		-19.531250
1936		-13.671875
1937		-15.625000
1938		-11.718750
1939		-13.671875
1940		-7.812500
1941		-13.671875
1942		-3.906250
1943		-9.765625
1944		-1.953125
1945		-7.812500
1946		0.000000
1947		-5.859375
1948		1.953125
1949		-3.906250
1950		3.906250
1951		-1.953125
1952		5.859375
1953		3.906250
1954		7.812500
1955		5.859375
1956		9.765625
1957		5.859375
1958		13.671875
1959		9.765625
1960		15.625000
1961		11.718750
1962		19.531250
1963		13.671875
1964		21.484375
1965		15.625000
1966		25.390625
1967		17.578125
1968		25.390625
1969		19.531250
1970		25.390625
1971		25.390625
1972		29.296875
1973		25.390625
1974		33.203125
1975		27.343750
1976		35.156250
1977		29.296875
1978		37.109375
1979		31.250000
1980		39.062500
1981		33.203125
1982		41.015625
1983		35.156250
1984		42.968750
1985		37.109375
1986		42.968750
1987		39.062500
1988		42.968750
1989		42.968750
1990		46.875000
1991		41.015625
1992		48.828125
1993		42.968750
1994		50.781250
1995		44.921875
1996		50.781250
1997		44.921875
1998		52.734375
1999		46.875000
2000		54.687500
2001		48.828125
2002		54.687500
2003		50.781250
2004		54.687500
2005		52.734375
2006		54.687500
2007		50.781250
2008		56.640625
2009		50.781250
2010		58.593750
2011		50.781250
2012		58.593750
2013		52.734375
2014		58.593750
2015		52.734375
2016		60.546875
2017		52.734375
2018		58.593750
2019		52.734375
2020		58.593750
2021		54.687500
2022		56.640625
2023		52.734375
2024		58.593750
2025		52.734375
2026		58.593750
2027		52.734375
2028		58.593750
2029		52.734375
2030		60.546875
2031		50.781250
2032		58.593750
2033		50.781250
2034		56.640625
2035		50.781250
2036		56.640625
2037		50.781250
2038		54.687500
2039		50.781250
2040		52.734375
2041		46.875000
2042		52.734375
2043		44.921875
2044		52.734375
2045		44.921875
2046		50.781250
2047		42.968750
2048		50.781250
2049		41.015625
2050		48.828125
2051		39.062500
2052		46.875000
2053		39.062500
2054		44.921875
2055		39.062500
2056		42.968750
2057		35.156250
2058		41.015625
2059		33.203125
2060		41.015625
2061		31.250000
2062		39.062500
2063		29.296875
2064		37.109375
2065		25.390625
2066		35.156250
2067		25.390625
2068		33.203125
2069		23.437500
2070		29.296875
2071		21.484375
2072		25.390625
2073		19.531250
2074		23.437500
2075		15.625000
2076		23.437500
2077		13.671875
2078		21.484375
2079		9.765625
2080		19.531250
2081		7.812500
2082		15.625000
2083		5.859375
2084		13.671875
2085		3.906250
2086		11.718750
2087		3.906250
2088		7.812500
2089		1.953125
2090		3.906250
2091		-3.906250
2092		3.906250
2093		-5.859375
2094		1.953125
2095		-7.812500
2096		0.000000
2097		-11.718750
2098		-3.906250
2099		-13.671875
2100		-5.859375
2101		-15.625000
2102		-7.812500
2103		-15.625000
2104		-9.765625
2105		-17.578125
2106		-13.671875
2107		-23.437500
2108		-15.625000
2109		-23.437500
2110		-15.625000
2111		-25.390625
2112		-17.578125
2113		-27.343750
2114		-19.531250
2115		-29.296875
2116		-21.484375
2117		-31.250000
2118		-23.437500
2119		-33.203125
2120		-25.390625
2121		-33.203125
2122		-29.296875
2123		-33.203125
2124		-31.250000
2125		-37.109375
2126		-29.296875
2127		-39.062500
2128		-31.250000
2129		-39.062500
2130		-33.203125
2131		-41.015625
2132		-33.203125
2133		-42.968750
2134		-35.156250
2135		-42.968750
2136		-35.156250
2137		-42.968750
2138		-37.109375
2139		-41.015625
2140		-39.062500
2141		-42.968750
2142		-37.109375
2143		-44.921875
2144		-37.109375
2145		-44.921875
2146		-37.109375
2147		-44.921875
2148		-37.109375
2149		-44.921875
2150		-37.109375
2151		-44.921875
2152		-37.109375
2153		-42.968750
2154		-37.109375
2155		-41.015625
2156		-37.109375
2157		-41.015625
2158		-37.109375
2159		-41.015625
2160		-35.156250
2161		-41.015625
2162		-33.203125
2163		-39.062500
2164		-33.203125
2165		-39.062500
2166		-31.250000
2167		-37.109375
2168		-31.250000
2169		-37.109375
2170		-29.296875
2171		-33.203125
2172		-29.296875
2173		-31.250000
2174		-29.296875
2175		-31.250000
2176		-25.390625
2177		-29.296875
2178		-23.437500
2179		-29.296875
2180		-21.484375
2181		-27.343750
2182		-19.531250
2183		-25.390625
2184		-17.578125
2185		-23.437500
2186		-15.625000
2187		-19.531250
2188		-13.671875
2189		-15.625000
2190		-13.671875
2191		-15.625000
2192		-7.812500
2193		-13.671875
2194		-5.859375
2195		-11.718750
2196		-3.906250
2197		-9.765625
2198		0.000000
2199		-7.812500
2200		1.953125
2201		-3.906250
2202		1.953125
2203		-1.953125
2204		3.906250
2205		1.953125
2206		5.859375
2207		3.906250
2208		7.812500
2209		5.859375
2210		11.718750
2211		7.812500
2212		15.625000
2213		9.765625
2214		17.578125
2215		11.718750
2216		19.531250
2217		13.671875
2218		21.484375
2219		15.625000
2220		23.437500
2221		19.531250
2222		25.390625
2223		23.437500
2224		27.343750
2225		25.390625
2226		31.250000
2227		25.390625
2228		33.203125
2229		27.343750
2230		35.156250
2231		29.296875
2232		37.109375
2233		31.250000
2234		39.062500
2235		33.203125
2236		41.015625
2237		35.156250
2238		42.968750
2239		39.062500
2240		42.968750
2241		41.015625
2242		44.921875
2243		41.015625
2244		48.828125
2245		42.968750
2246		48.828125
2247		44.921875
2248		50.781250
2249		44.921875
2250		52.734375
2251		46.875000
2252		52.734375
2253		46.875000
2254		54.687500
2255		48.828125
2256		54.687500
2257		50.781250
2258		54.687500
2259		50.781250
2260		56.640625
2261		50.781250
2262		58.593750
2263		50.781250
2264		58.593750
2265		52.734375
2266		58.593750
2267		52.734375
2268		58.593750
2269		52.734375
2270		60.546875
2271		52.734375
2272		58.593750
2273		54.687500
2274		58.593750
2275		54.687500
2276		58.593750
2277		52.734375
2278		60.546875
2279		52.734375
2280		58.593750
2281		52.734375
2282		58.593750
2283		50.781250
2284		58.593750
2285		50.781250
2286		58.593750
2287		50.781250
2288		56.640625
2289		52.734375
2290		54.687500
2291		50.781250
2292		54.687500
2293		46.875000
2294		54.687500
2295		46.875000
2296		54.687500
2297		46.875000
2298		52.734375
2299		44.921875
2300		50.781250
2301		42.968750
2302		50.781250
2303		41.015625
2304		48.828125
2305		41.015625
2306		46.875000
2307		41.015625
2308		42.968750
2309		37.109375
2310		42.968750
2311		35.156250
2312		41.015625
2313		33.203125
2314		41.015625
2315		31.250000
2316		39.062500
2317		29.296875
2318		37.109375
2319		25.390625
2320		35.156250
2321		25.390625
2322		33.203125
2323		23.437500
2324		27.343750
2325		21.484375
2326		25.390625
2327		17.578125
2328		25.390625
2329		15.625000
2330		23.437500
2331		13.671875
2332		19.531250
2333		9.765625
2334		17.578125
2335		7.812500
2336		15.625000
2337		5.859375
2338		13.671875
2339		5.859375
2340		9.765625
2341		1.953125
2342		5.859375
2343		-1.953125
2344		3.906250
2345		-3.906250
2346		3.906250
2347		-5.859375
2348		1.953125
2349		-9.765625
2350		-1.953125
2351		-11.718750
2352		-3.906250
2353		-13.671875
2354		-5.859375
2355		-13.671875
2356		-7.812500
2357		-15.625000
2358		-11.718750
2359		-17.578125
2360		-13.671875
2361		-21.484375
2362		-13.671875
2363		-23.437500
2364		-15.625000
2365		-25.390625
2366		-17.578125
2367		-27.343750
2368		-21.484375
2369		-31.250000
2370		-23.437500
2371		-31.250000
2372		-23.437500
2373		-31.250000
2374		-27.343750
2375		-33.203125
2376		-29.296875
2377		-35.156250
2378		-29.296875
2379		-37.109375
2380		-29.296875
2381		-39.062500
2382		-31.250000
2383		-39.062500
2384		-31.250000
2385		-41.015625
2386		-33.203125
2387		-41.015625
2388		-35.156250
2389		-41.015625
2390		-35.156250
2391		-41.015625
2392		-39.062500
2393		-42.968750
2394		-37.109375
2395		-42.968750
2396		-37.109375
2397		-42.968750
2398		-37.109375
2399		-44.921875
2400		-37.109375
2401		-42.968750
2402		-37.109375
2403		-42.968750
2404		-37.109375
2405		-42.968750
2406		-37.109375
2407		-41.015625
2408		-39.062500
2409		-41.015625
2410		-37.109375
2411		-41.015625
2412		-35.156250
2413		-41.015625
2414		-35.156250
2415		-41.015625
2416		-33.203125
2417		-39.062500
2418		-33.203125
2419		-39.062500
2420		-31.250000
2421		-37.109375
2422		-29.296875
2423		-35.156250
2424		-31.250000
2425		-33.203125
2426		-29.296875
2427		-31.250000
2428		-25.390625
2429		-31.250000
2430		-23.437500
2431		-29.296875
2432		-21.484375
2433		-27.343750
2434		-19.531250
2435		-25.390625
2436		-17.578125
2437		-23.437500
2438		-15.625000
2439		-21.484375
2440		-15.625000
2441		-17.578125
2442		-13.671875
2443		-15.625000
2444		-11.718750
2445		-15.625000
2446		-7.812500
2447		-13.671875
2448		-5.859375
2449		-11.718750
2450		-3.906250
2451		-9.765625
2452		0.000000
2453		-5.859375
2454		1.953125
2455		-3.906250
2456		3.906250
2457		0.000000
2458		3.906250
2459		1.953125
2460		7.812500
2461		3.906250
2462		11.718750
2463		5.859375
2464		13.671875
2465		7.812500
2466		15.625000
2467		9.765625
2468		19.531250
2469		11.718750
2470		21.484375
2471		15.625000
2472		23.437500
2473		17.578125
2474		23.437500
2475		21.484375
2476		25.390625
2477		23.437500
2478		31.250000
2479		23.437500
2480		33.203125
2481		25.390625
2482		35.156250
2483		29.296875
2484		37.109375
2485		31.250000
2486		39.062500
2487		33.203125
2488		41.015625
2489		35.156250
2490		41.015625
2491		39.062500
2492		42.968750
2493		41.015625
2494		42.968750
2495		41.015625
2496		46.875000
2497		41.015625
2498		48.828125
2499		42.968750
2500		50.781250
2501		44.921875
2502		50.781250
2503		44.921875
2504		52.734375
2505		46.875000
2506		54.687500
2507		48.828125
2508		54.687500
2509		50.781250
2510		54.687500
2511		50.781250
2512		56.640625
2513		50.781250
2514		58.593750
2515		50.781250
2516		58.593750
2517		52.734375
2518		58.593750
2519		52.734375
2520		58.593750
2521		52.734375
2522		60.546875
2523		52.734375
2524		60.546875
2525		56.640625
2526		58.593750
2527		54.687500
2528		58.593750
2529		54.687500
2530		60.546875
2531		52.734375
2532		60.546875
2533		52.734375
2534		60.546875
2535		52.734375
2536		58.593750
2537		52.734375
2538		58.593750
2539		50.781250
2540		58.593750
2541		52.734375
2542		56.640625
2543		52.734375
2544		54.687500
2545		48.828125
2546		56.640625
2547		48.828125
2548		54.687500
2549		46.875000
2550		54.687500
2551		44.921875
2552		52.734375
2553		42.968750
2554		50.781250
2555		42.968750
2556		50.781250
2557		42.968750
2558		48.828125
2559		41.015625
2560		44.921875
2561		39.062500
2562		42.968750
2563		35.156250
2564		42.968750
2565		35.156250
2566		42.968750
2567		33.203125
2568		39.062500
2569		29.296875
2570		39.062500
2571		27.343750
2572		35.156250
2573		27.343750
2574		35.156250
2575		25.390625
2576		29.296875
2577		23.437500
2578		27.343750
2579		19.531250
2580		27.343750
2581		17.578125
2582		25.390625
2583		15.625000
2584		23.437500
2585		11.718750
2586		19.531250
2587		9.765625
2588		17.578125
2589		7.812500
2590		15.625000
2591		5.859375
2592		13.671875
2593		5.859375
2594		9.765625
2595		0.000000
2596		7.812500
2597		-1.953125
2598		5.859375
2599		-3.906250
2600		3.906250
2601		-5.859375
2602		1.953125
2603		-9.765625
2604		-1.953125
2605		-11.718750
2606		-1.953125
2607		-13.671875
2608		-5.859375
2609		-13.671875
2610		-9.765625
2611		-17.578125
2612		-11.718750
2613		-19.531250
2614		-11.718750
2615		-23.437500
2616		-13.671875
2617		-23.437500
2618		-17.578125
2619		-25.390625
2620		-17.578125
2621		-27.343750
2622		-21.484375
2623		-29.296875
2624		-21.484375
2625		-29.296875
2626		-25.390625
2627		-31.250000
2628		-27.343750
2629		-35.156250
2630		-27.343750
2631		-37.109375
2632		-29.296875
2633		-37.109375
2634		-29.296875
2635		-39.062500
2636		-31.250000
2637		-39.062500
2638		-33.203125
2639		-41.015625
2640		-33.203125
2641		-41.015625
2642		-35.156250
2643		-39.062500
2644		-37.109375
2645		-42.968750
2646		-37.109375
2647		-42.968750
2648		-37.109375
2649		-42.968750
2650		-35.156250
2651		-42.968750
2652		-37.109375
2653		-42.968750
2654		-37.109375
2655		-42.968750
2656		-37.109375
2657		-42.968750
2658		-37.109375
2659		-41.015625
2660		-37.109375
2661		-41.015625
2662		-37.109375
2663		-41.015625
2664		-35.156250
2665		-41.015625
2666		-35.156250
2667		-41.015625
2668		-33.203125
2669		-39.062500
2670		-33.203125
2671		-39.062500
2672		-31.250000
2673		-37.109375
2674		-29.296875
2675		-37.109375
2676		-29.296875
2677		-33.203125
2678		-29.296875
2679		-31.250000
2680		-25.390625
2681		-31.250000
2682		-25.390625
2683		-31.250000
2684		-23.437500
2685		-29.296875
2686		-21.484375
2687		-27.343750
2688		-19.531250
2689		-25.390625
2690		-17.578125
2691		-23.437500
2692		-15.625000
2693		-19.531250
2694		-15.625000
2695		-17.578125
2696		-13.671875
2697		-15.625000
2698		-7.812500
2699		-13.671875
2700		-7.812500
2701		-11.718750
2702		-3.906250
2703		-9.765625
2704		-1.953125
2705		-7.812500
2706		0.000000
2707		-5.859375
2708		1.953125
2709		0.000000
2710		3.906250
2711		1.953125
2712		5.859375
2713		1.953125
2714		9.765625
2715		3.906250
2716		11.718750
2717		7.812500
2718		15.625000
2719		9.765625
2720		17.578125
2721		11.718750
2722		19.531250
2723		13.671875
2724		21.484375
2725		15.625000
2726		23.437500
2727		21.484375
2728		25.390625
2729		23.437500
2730		29.296875
2731		23.437500
2732		31.250000
2733		25.390625
2734		33.203125
2735		27.343750
2736		35.156250
2737		29.296875
2738		37.109375
2739		31.250000
2740		39.062500
2741		33.203125
2742		41.015625
2743		37.109375
2744		41.015625
2745		39.062500
2746		42.968750
2747		39.062500
2748		46.875000
2749		41.015625
2750		48.828125
2751		41.015625
2752		50.781250
2753		42.968750
2754		50.781250
2755		44.921875
2756		52.734375
2757		46.875000
2758		52.734375
2759		48.828125
2760		52.734375
2761		50.781250
2762		52.734375
2763		50.781250
2764		56.640625
2765		50.781250
2766		56.640625
2767		50.781250
2768		58.593750
2769		52.734375
2770		58.593750
2771		52.734375
2772		58.593750
2773		52.734375
2774		60.546875
2775		52.734375
2776		60.546875
2777		56.640625
2778		58.593750
2779		56.640625
2780		58.593750
2781		54.687500
2782		60.546875
2783		52.734375
2784		60.546875
2785		52.734375
2786		60.546875
2787		52.734375
2788		60.546875
2789		52.734375
2790		60.546875
2791		52.734375
2792		58.593750
2793		54.687500
2794		56.640625
2795		52.734375
2796		56.640625
2797		50.781250
2798		56.640625
2799		48.828125
2800		56.640625
2801		48.828125
2802		54.687500
2803		46.875000
2804		54.687500
2805		44.921875
2806		52.734375
2807		42.968750
2808		50.781250
2809		42.968750
2810		48.828125
2811		42.968750
2812		46.875000
2813		39.062500
2814		44.921875
2815		37.109375
2816		44.921875
2817		37.109375
2818		42.968750
2819		33.203125
2820		41.015625
2821		31.250000
2822		39.062500
2823		31.250000
2824		37.109375
2825		29.296875
2826		35.156250
2827		27.343750
2828		31.250000
2829		25.390625
2830		29.296875
2831		21.484375
2832		29.296875
2833		19.531250
2834		27.343750
2835		17.578125
2836		25.390625
2837		15.625000
2838		23.437500
2839		11.718750
2840		19.531250
2841		9.765625
2842		17.578125
2843		9.765625
2844		15.625000
2845		7.812500
2846		11.718750
2847		3.906250
2848		9.765625
2849		0.000000
2850		7.812500
2851		-1.953125
2852		5.859375
2853		-3.906250
2854		3.906250
2855		-7.812500
2856		0.000000
2857		-9.765625
2858		-1.953125
2859		-11.718750
2860		-3.906250
2861		-11.718750
2862		-7.812500
2863		-13.671875
2864		-9.765625
2865		-19.531250
2866		-11.718750
2867		-19.531250
2868		-13.671875
2869		-21.484375
2870		-15.625000
2871		-25.390625
2872		-17.578125
2873		-25.390625
2874		-19.531250
2875		-27.343750
2876		-19.531250
2877		-29.296875
2878		-23.437500
2879		-29.296875
2880		-25.390625
2881		-33.203125
2882		-27.343750
2883		-35.156250
2884		-27.343750
2885		-35.156250
2886		-29.296875
2887		-37.109375
2888		-29.296875
2889		-39.062500
2890		-31.250000
2891		-39.062500
2892		-31.250000
2893		-39.062500
2894		-33.203125
2895		-39.062500
2896		-37.109375
2897		-41.015625
2898		-37.109375
2899		-42.968750
2900		-35.156250
2901		-42.968750
2902		-35.156250
2903		-42.968750
2904		-37.109375
2905		-42.968750
2906		-37.109375
2907		-42.968750
2908		-35.156250
2909		-42.968750
2910		-35.156250
2911		-41.015625
2912		-39.062500
2913		-41.015625
2914		-37.109375
2915		-41.015625
2916		-35.156250
2917		-41.015625
2918		-35.156250
2919		-41.015625
2920		-33.203125
2921		-41.015625
2922		-33.203125
2923		-39.062500
2924		-31.250000
2925		-39.062500
2926		-31.250000
2927		-37.109375
2928		-31.250000
2929		-33.203125
2930		-31.250000
2931		-33.203125
2932		-27.343750
2933		-33.203125
2934		-25.390625
2935		-31.250000
2936		-23.437500
2937		-29.296875
2938		-21.484375
2939		-29.296875
2940		-19.531250
2941		-25.390625
2942		-17.578125
2943		-23.437500
2944		-17.578125
2945		-19.531250
2946		-15.625000
2947		-17.578125
2948		-13.671875
2949		-17.578125
2950		-9.765625
2951		-15.625000
2952		-7.812500
2953		-13.671875
2954		-5.859375
2955		-11.718750
2956		-3.906250
2957		-9.765625
2958		0.000000
2959		-7.812500
2960		1.953125
2961		-3.906250
2962		1.953125
2963		0.000000
2964		3.906250
2965		1.953125
2966		7.812500
2967		3.906250
2968		9.765625
2969		5.859375
2970		13.671875
2971		7.812500
2972		15.625000
2973		9.765625
2974		19.531250
2975		11.718750
2976		19.531250
2977		15.625000
2978		21.484375
2979		19.531250
2980		23.437500
2981		21.484375
2982		27.343750
2983		21.484375
2984		29.296875
2985		23.437500
2986		31.250000
2987		27.343750
2988		33.203125
2989		27.343750
2990		37.109375
2991		29.296875
2992		37.109375
2993		31.250000
2994		39.062500
2995		37.109375
2996		39.062500
2997		39.062500
2998		41.015625
2999		39.062500
3000		44.921875
3001		41.015625
3002		46.875000
3003		41.015625
3004		48.828125
3005		42.968750
3006		50.781250
3007		44.921875
3008		50.781250
3009		44.921875
3010		52.734375
3011		46.875000
3012		54.687500
3013		50.781250
3014		52.734375
3015		50.781250
3016		56.640625
3017		50.781250
3018		56.640625
3019		50.781250
3020		58.593750
3021		52.734375
3022		58.593750
3023		52.734375
3024		58.593750
3025		52.734375
3026		60.546875
3027		52.734375
3028		60.546875
3029		56.640625
3030		58.593750
3031		56.640625
3032		58.593750
3033		52.734375
3034		60.546875
3035		54.687500
3036		60.546875
3037		54.687500
3038		60.546875
3039		52.734375
3040		60.546875
3041		52.734375
3042		60.546875
3043		52.734375
3044		58.593750
3045		52.734375
3046		58.593750
3047		52.734375
3048		56.640625
3049		50.781250
3050		56.640625
3051		50.781250
3052		56.640625
3053		48.828125
3054		56.640625
3055		46.875000
3056		54.687500
3057		46.875000
3058		54.687500
3059		44.921875
3060		52.734375
3061		44.921875
3062		50.781250
3063		44.921875
3064		46.875000
3065		41.015625
3066		46.875000
3067		39.062500
3068		46.875000
3069		37.109375
3070		44.921875
3071		35.156250
3072		42.968750
3073		33.203125
3074		41.015625
3075		31.250000
3076		39.062500
3077		29.296875
3078		37.109375
3079		29.296875
3080		33.203125
3081		27.343750
3082		31.250000
3083		23.437500
3084		31.250000
3085		21.484375
3086		29.296875
3087		17.578125
3088		25.390625
3089		15.625000
3090		23.437500
3091		13.671875
3092		23.437500
3093		11.718750
3094		19.531250
3095		9.765625
3096		17.578125
3097		7.812500
3098		13.671875
3099		3.906250
3100		9.765625
3101		1.953125
3102		9.765625
3103		0.000000
3104		7.812500
3105		-1.953125
3106		3.906250
3107		-5.859375
3108		1.953125
3109		-7.812500
3110		0.000000
3111		-9.765625
3112		-1.953125
3113		-9.765625
3114		-5.859375
3115		-11.718750
3116		-7.812500
3117		-17.578125
3118		-9.765625
3119		-19.531250
3120		-11.718750
3121		-21.484375
3122		-13.671875
3123		-23.437500
3124		-15.625000
3125		-25.390625
3126		-17.578125
3127		-27.343750
3128		-19.531250
3129		-27.343750
3130		-21.484375
3131		-27.343750
3132		-25.390625
3133		-31.250000
3134		-25.390625
3135		-33.203125
3136		-25.390625
3137		-35.156250
3138		-27.343750
3139		-37.109375
3140		-29.296875
3141		-37.109375
3142		-29.296875
3143		-39.062500
3144		-31.250000
3145		-39.062500
3146		-33.203125
3147		-39.062500
3148		-35.156250
3149		-41.015625
3150		-35.156250
3151		-41.015625
3152		-35.156250
3153		-42.968750
3154		-35.156250
3155		-42.968750
3156		-37.109375
3157		-42.968750
3158		-37.109375
3159		-42.968750
3160		-37.109375
3161		-42.968750
3162		-37.109375
3163		-41.015625
3164		-39.062500
3165		-41.015625
3166		-39.062500
3167		-41.015625
3168		-37.109375
3169		-41.015625
3170		-37.109375
3171		-41.015625
3172		-35.156250
3173		-39.062500
3174		-35.156250
3175		-39.062500
3176		-33.203125
3177		-39.062500
3178		-33.203125
3179		-37.109375
3180		-33.203125
3181		-35.156250
3182		-31.250000
3183		-33.203125
3184		-29.296875
3185		-31.250000
3186		-29.296875
3187		-31.250000
3188		-27.343750
3189		-29.296875
3190		-25.390625
3191		-29.296875
3192		-21.484375
3193		-27.343750
3194		-19.531250
3195		-25.390625
3196		-19.531250
3197		-21.484375
3198		-17.578125
3199		-19.531250
3200		-15.625000
3201		-17.578125
3202		-13.671875
3203		-15.625000
3204		-11.718750
3205		-13.671875
3206		-9.765625
3207		-11.718750
3208		-5.859375
3209		-9.765625
3210		-5.859375
3211		-5.859375
3212		-1.953125
3213		-3.906250
3214		0.000000
3215		-1.953125
3216		1.953125
3217		0.000000
3218		3.906250
3219		3.906250
3220		7.812500
3221		5.859375
3222		9.765625
3223		7.812500
3224		11.718750
3225		9.765625
3226		15.625000
3227		13.671875
3228		17.578125
3229		15.625000
3230		19.531250
3231		17.578125
3232		21.484375
3233		19.531250
3234		25.390625
3235		21.484375
3236		25.390625
3237		23.437500
3238		27.343750
3239		27.343750
3240		31.250000
3241		29.296875
3242		33.203125
3243		31.250000
3244		35.156250
3245		33.203125
3246		37.109375
3247		35.156250
3248		39.062500
3249		37.109375
3250		41.015625
3251		37.109375
3252		42.968750
3253		41.015625
3254		44.921875
3255		41.015625
3256		44.921875
3257		42.968750
3258		46.875000
3259		44.921875
3260		48.828125
3261		46.875000
3262		50.781250
3263		46.875000
3264		50.781250
3265		48.828125
3266		52.734375
3267		50.781250
3268		54.687500
3269		50.781250
3270		54.687500
3271		52.734375
3272		54.687500
3273		52.734375
3274		56.640625
3275		54.687500
3276		56.640625
3277		54.687500
3278		56.640625
3279		54.687500
3280		58.593750
3281		56.640625
3282		58.593750
3283		56.640625
3284		58.593750
3285		54.687500
3286		58.593750
3287		56.640625
3288		58.593750
3289		56.640625
3290		58.593750
3291		56.640625
3292		58.593750
3293		56.640625
3294		58.593750
3295		54.687500
3296		58.593750
3297		54.687500
3298		58.593750
3299		54.687500
3300		56.640625
3301		52.734375
3302		56.640625
3303		52.734375
3304		56.640625
3305		52.734375
3306		54.687500
3307		50.781250
3308		52.734375
3309		48.828125
3310		52.734375
3311		46.875000
3312		52.734375
3313		46.875000
3314		50.781250
3315		44.921875
3316		48.828125
3317		44.921875
3318		46.875000
3319		41.015625
3320		46.875000
3321		41.015625
3322		44.921875
3323		39.062500
3324		42.968750
3325		37.109375
3326		41.015625
3327		35.156250
3328		39.062500
3329		31.250000
3330		37.109375
3331		31.250000
3332		35.156250
3333		29.296875
3334		33.203125
3335		27.343750
3336		31.250000
3337		23.437500
3338		29.296875
3339		21.484375
3340		27.343750
3341		19.531250
3342		23.437500
3343		17.578125
3344		21.484375
3345		15.625000
3346		19.531250
3347		13.671875
3348		17.578125
3349		9.765625
3350		13.671875
3351		7.812500
3352		11.718750
3353		3.906250
3354		9.765625
3355		3.906250
3356		7.812500
3357		0.000000
3358		5.859375
3359		-1.953125
3360		1.953125
3361		-3.906250
3362		0.000000
3363		-5.859375
3364		-1.953125
3365		-9.765625
3366		-5.859375
3367		-11.718750
3368		-5.859375
3369		-13.671875
3370		-7.812500
3371		-15.625000
3372		-11.718750
3373		-17.578125
3374		-13.671875
3375		-19.531250
3376		-15.625000
3377		-21.484375
3378		-17.578125
3379		-23.437500
3380		-19.531250
3381		-25.390625
3382		-21.484375
3383		-27.343750
3384		-23.437500
3385		-29.296875
3386		-25.390625
3387		-31.250000
3388		-27.343750
3389		-33.203125
3390		-29.296875
3391		-33.203125
3392		-29.296875
3393		-35.156250
3394		-31.250000
3395		-35.156250
3396		-31.250000
3397		-37.109375
3398		-33.203125
3399		-37.109375
3400		-35.156250
3401		-39.062500
3402		-37.109375
3403		-39.062500
3404		-35.156250
3405		-41.015625
3406		-37.109375
3407		-41.015625
3408		-37.109375
3409		-41.015625
3410		-37.109375
3411		-41.015625
3412		-37.109375
3413		-41.015625
3414		-39.062500
3415		-42.968750
3416		-39.062500
3417		-41.015625
3418		-39.062500
3419		-41.015625
3420		-37.109375
3421		-41.015625
3422		-37.109375
3423		-39.062500
3424		-37.109375
3425		-39.062500
3426		-37.109375
3427		-39.062500
3428		-35.156250
3429		-37.109375
3430		-35.156250
3431		-37.109375
3432		-33.203125
3433		-35.156250
3434		-33.203125
3435		-35.156250
3436		-31.250000
3437		-33.203125
3438		-29.296875
3439		-31.250000
3440		-29.296875
3441		-31.250000
3442		-27.343750
3443		-27.343750
3444		-25.390625
3445		-27.343750
3446		-23.437500
3447		-25.390625
3448		-21.484375
3449		-23.437500
3450		-19.531250
3451		-21.484375
3452		-17.578125
3453		-19.531250
3454		-15.625000
3455		-17.578125
3456		-13.671875
3457		-15.625000
3458		-9.765625
3459		-13.671875
3460		-7.812500
3461		-9.765625
3462		-5.859375
3463		-7.812500
3464		-1.953125
3465		-5.859375
3466		-1.953125
3467		-3.906250
3468		0.000000
3469		-1.953125
3470		3.906250
3471		1.953125
3472		5.859375
3473		3.906250
3474		7.812500
3475		5.859375
3476		9.765625
3477		7.812500
3478		13.671875
3479		11.718750
3480		15.625000
3481		13.671875
3482		17.578125
3483		15.625000
3484		19.531250
3485		17.578125
3486		21.484375
3487		19.531250
3488		23.437500
3489		21.484375
3490		27.343750
3491		25.390625
3492		29.296875
3493		27.343750
3494		31.250000
3495		29.296875
3496		33.203125
3497		31.250000
3498		35.156250
3499		33.203125
3500		37.109375
3501		35.156250
3502		39.062500
3503		37.109375
3504		41.015625
3505		39.062500
3506		42.968750
3507		41.015625
3508		44.921875
3509		41.015625
3510		44.921875
3511		44.921875
3512		46.875000
3513		44.921875
3514		48.828125
3515		46.875000
3516		50.781250
3517		48.828125
3518		50.781250
3519		48.828125
3520		54.687500
3521		50.781250
3522		52.734375
3523		50.781250
3524		54.687500
3525		52.734375
3526		56.640625
3527		52.734375
3528		56.640625
3529		52.734375
3530		56.640625
3531		54.687500
3532		58.593750
3533		54.687500
3534		58.593750
3535		54.687500
3536		58.593750
3537		54.687500
3538		58.593750
3539		56.640625
3540		58.593750
3541		54.687500
3542		58.593750
3543		54.687500
3544		58.593750
3545		54.687500
3546		58.593750
3547		54.687500
3548		58.593750
3549		54.687500
3550		58.593750
3551		54.687500
3552		56.640625
3553		52.734375
3554		56.640625
3555		52.734375
3556		56.640625
3557		50.781250
3558		54.687500
3559		50.781250
3560		54.687500
3561		48.828125
3562		52.734375
3563		48.828125
3564		52.734375
3565		46.875000
3566		50.781250
3567		46.875000
3568		48.828125
3569		44.921875
3570		48.828125
3571		42.968750
3572		48.828125
3573		41.015625
3574		44.921875
3575		39.062500
3576		44.921875
3577		37.109375
3578		41.015625
3579		37.109375
3580		41.015625
3581		35.156250
3582		39.062500
3583		33.203125
3584		37.109375
3585		31.250000
3586		35.156250
3587		27.343750
3588		31.250000
3589		25.390625
3590		31.250000
3591		23.437500
3592		27.343750
3593		21.484375
3594		25.390625
3595		19.531250
3596		23.437500
3597		17.578125
3598		21.484375
3599		13.671875
3600		19.531250
3601		11.718750
3602		15.625000
3603		9.765625
3604		13.671875
3605		7.812500
3606		11.718750
3607		3.906250
3608		9.765625
3609		1.953125
3610		5.859375
3611		0.000000
3612		3.906250
3613		-1.953125
3614		1.953125
3615		-5.859375
3616		0.000000
3617		-7.812500
3618		-3.906250
3619		-9.765625
3620		-5.859375
3621		-11.718750
3622		-7.812500
3623		-13.671875
3624		-9.765625
3625		-15.625000
3626		-11.718750
3627		-17.578125
3628		-13.671875
3629		-19.531250
3630		-15.625000
3631		-21.484375
3632		-17.578125
3633		-23.437500
3634		-19.531250
3635		-25.390625
3636		-21.484375
3637		-29.296875
3638		-23.437500
3639		-29.296875
3640		-25.390625
3641		-31.250000
3642		-27.343750
3643		-33.203125
3644		-29.296875
3645		-33.203125
3646		-29.296875
3647		-35.156250
3648		-31.250000
3649		-37.109375
3650		-33.203125
3651		-37.109375
3652		-35.156250
3653		-39.062500
3654		-35.156250
3655		-39.062500
3656		-35.156250
3657		-41.015625
3658		-37.109375
3659		-41.015625
3660		-37.109375
3661		-41.015625
3662		-37.109375
3663		-41.015625
3664		-37.109375
3665		-41.015625
3666		-37.109375
3667		-41.015625
3668		-39.062500
3669		-41.015625
3670		-39.062500
3671		-41.015625
3672		-37.109375
3673		-41.015625
3674		-37.109375
3675		-41.015625
3676		-37.109375
3677		-39.062500
3678		-37.109375
3679		-39.062500
3680		-37.109375
3681		-39.062500
3682		-35.156250
3683		-37.109375
3684		-33.203125
3685		-35.156250
3686		-33.203125
3687		-35.156250
3688		-31.250000
3689		-33.203125
3690		-29.296875
3691		-33.203125
3692		-29.296875
3693		-31.250000
3694		-27.343750
3695		-29.296875
3696		-25.390625
3697		-27.343750
3698		-23.437500
3699		-25.390625
3700		-21.484375
3701		-25.390625
3702		-21.484375
3703		-21.484375
3704		-19.531250
3705		-21.484375
3706		-15.625000
3707		-19.531250
3708		-13.671875
3709		-15.625000
3710		-11.718750
3711		-13.671875
3712		-9.765625
3713		-11.718750
3714		-7.812500
3715		-9.765625
3716		-5.859375
3717		-7.812500
3718		-3.906250
3719		-5.859375
3720		-1.953125
3721		-1.953125
3722		1.953125
3723		-1.953125
3724		3.906250
3725		1.953125
3726		5.859375
3727		3.906250
3728		7.812500
3729		7.812500
3730		11.718750
3731		9.765625
3732		13.671875
3733		11.718750
3734		15.625000
3735		13.671875
3736		17.578125
3737		17.578125
3738		19.531250
3739		17.578125
3740		23.437500
3741		21.484375
3742		25.390625
3743		23.437500
3744		27.343750
3745		25.390625
3746		29.296875
3747		27.343750
3748		31.250000
3749		29.296875
3750		33.203125
3751		31.250000
3752		35.156250
3753		33.203125
3754		37.109375
3755		35.156250
3756		39.062500
3757		37.109375
3758		41.015625
3759		39.062500
3760		42.968750
3761		41.015625
3762		44.921875
3763		42.968750
3764		46.875000
3765		44.921875
3766		48.828125
3767		44.921875
3768		48.828125
3769		46.875000
3770		50.781250
3771		48.828125
3772		52.734375
3773		48.828125
3774		52.734375
3775		50.781250
3776		54.687500
3777		50.781250
3778		54.687500
3779		52.734375
3780		56.640625
3781		52.734375
3782		56.640625
3783		54.687500
3784		56.640625
3785		54.687500
3786		58.593750
3787		54.687500
3788		58.593750
3789		54.687500
3790		58.593750
3791		54.687500
3792		58.593750
3793		54.687500
3794		58.593750
3795		56.640625
3796		58.593750
3797		54.687500
3798		58.593750
3799		54.687500
3800		58.593750
3801		54.687500
3802		58.593750
3803		54.687500
3804		58.593750
3805		54.687500
3806		58.593750
3807		52.734375
3808		56.640625
3809		52.734375
3810		56.640625
3811		52.734375
3812		54.687500
3813		50.781250
3814		54.687500
3815		48.828125
3816		52.734375
3817		46.875000
3818		52.734375
3819		46.875000
3820		50.781250
3821		46.875000
3822		48.828125
3823		44.921875
3824		48.828125
3825		42.968750
3826		46.875000
3827		41.015625
3828		44.921875
3829		39.062500
3830		42.968750
3831		37.109375
3832		41.015625
3833		35.156250
3834		41.015625
3835		33.203125
3836		39.062500
3837		31.250000
3838		35.156250
3839		29.296875
3840		33.203125
3841		27.343750
3842		31.250000
3843		25.390625
3844		29.296875
3845		23.437500
3846		27.343750
3847		19.531250
3848		25.390625
3849		17.578125
3850		23.437500
3851		15.625000
3852		19.531250
3853		13.671875
3854		17.578125
3855		9.765625
3856		15.625000
3857		9.765625
3858		13.671875
3859		5.859375
3860		11.718750
3861		3.906250
3862		7.812500
3863		1.953125
3864		5.859375
3865		-1.953125
3866		3.906250
3867		-3.906250
3868		0.000000
3869		-5.859375
3870		-1.953125
3871		-7.812500
3872		-3.906250
3873		-9.765625
3874		-5.859375
3875		-13.671875
3876		-7.812500
3877		-15.625000
3878		-9.765625
3879		-17.578125
3880		-11.718750
3881		-19.531250
3882		-15.625000
3883		-21.484375
3884		-17.578125
3885		-23.437500
3886		-17.578125
3887		-25.390625
3888		-21.484375
3889		-27.343750
3890		-23.437500
3891		-29.296875
3892		-25.390625
3893		-29.296875
3894		-25.390625
3895		-31.250000
3896		-27.343750
3897		-33.203125
3898		-29.296875
3899		-35.156250
3900		-31.250000
3901		-37.109375
3902		-31.250000
3903		-37.109375
3904		-33.203125
3905		-37.109375
3906		-35.156250
3907		-39.062500
3908		-35.156250
3909		-41.015625
3910		-35.156250
3911		-41.015625
3912		-37.109375
3913		-41.015625
3914		-37.109375
3915		-41.015625
3916		-39.062500
3917		-41.015625
3918		-37.109375
3919		-41.015625
3920		-37.109375
3921		-41.015625
3922		-39.062500
3923		-42.968750
3924		-37.109375
3925		-41.015625
3926		-37.109375
3927		-41.015625
3928		-37.109375
3929		-39.062500
3930		-37.109375
3931		-39.062500
3932		-35.156250
3933		-39.062500
3934		-35.156250
3935		-39.062500
3936		-35.156250
3937		-37.109375
3938		-35.156250
3939		-35.156250
3940		-33.203125
3941		-35.156250
3942		-31.250000
3943		-33.203125
3944		-31.250000
3945		-33.203125
3946		-29.296875
3947		-31.250000
3948		-27.343750
3949		-29.296875
3950		-25.390625
3951		-27.343750
3952		-23.437500
3953		-25.390625
3954		-21.484375
3955		-23.437500
3956		-21.484375
3957		-21.484375
3958		-17.578125
3959		-21.484375
3960		-15.625000
3961		-17.578125
3962		-13.671875
3963		-15.625000
3964		-11.718750
3965		-13.671875
3966		-9.765625
3967		-11.718750
3968		-7.812500
3969		-9.765625
3970		-5.859375
3971		-7.812500
3972		-3.906250
3973		-5.859375
3974		0.000000
3975		-1.953125
3976		1.953125
3977		0.000000
3978		3.906250
3979		1.953125
3980		5.859375
3981		3.906250
3982		9.765625
3983		7.812500
3984		11.718750
3985		9.765625
3986		13.671875
3987		11.718750
3988		15.625000
3989		13.671875
3990		17.578125
3991		15.625000
3992		21.484375
3993		19.531250
3994		23.437500
3995		21.484375
3996		25.390625
3997		23.437500
3998		27.343750
3999		25.390625
4000		29.296875
4001		27.343750
4002		33.203125
4003		29.296875
4004		33.203125
4005		33.203125
4006		35.156250
4007		33.203125
4008		39.062500
4009		35.156250
4010		39.062500
4011		37.109375
4012		42.968750
4013		39.062500
4014		42.968750
4015		41.015625
4016		44.921875
4017		42.968750
4018		46.875000
4019		44.921875
4020		48.828125
4021		46.875000
4022		48.828125
4023		46.875000
4024		50.781250
4025		48.828125
4026		52.734375
4027		50.781250
4028		52.734375
4029		50.781250
4030		54.687500
4031		52.734375
4032		54.687500
4033		52.734375
4034		56.640625
4035		52.734375
4036		56.640625
4037		52.734375
4038		56.640625
4039		54.687500
4040		56.640625
4041		54.687500
4042		58.593750
4043		54.687500
4044		58.593750
4045		54.687500
4046		58.593750
4047		54.687500
4048		58.593750
4049		54.687500
4050		58.593750
4051		54.687500
4052		58.593750
4053		54.687500
4054		58.593750
4055		54.687500
4056		58.593750
4057		52.734375
4058		58.593750
4059		52.734375
4060		58.593750
4061		52.734375
4062		56.640625
4063		52.734375
4064		54.687500
4065		52.734375
4066		54.687500
4067		50.781250
4068		54.687500
4069		48.828125
4070		52.734375
4071		48.828125
4072		50.781250
4073		46.875000
4074		50.781250
4075		44.921875
4076		48.828125
4077		44.921875
4078		46.875000
4079		42.968750
4080		46.875000
4081		41.015625
4082		44.921875
4083		39.062500
4084		42.968750
4085		37.109375
4086		41.015625
4087		35.156250
4088		39.062500
4089		33.203125
4090		37.109375
4091		31.250000
4092		35.156250
4093		29.296875
4094		33.203125
4095		27.343750
4096		31.250000
4097		25.390625
4098		29.296875
4099		21.484375
4100		27.343750
4101		19.531250
4102		25.390625
4103		17.578125
4104		21.484375
4105		15.625000
4106		19.531250
4107		13.671875
4108		17.578125
4109		9.765625
4110		15.625000
4111		7.812500
4112		13.671875
4113		5.859375
4114		9.765625
4115		3.906250
4116		7.812500
4117		1.953125
4118		5.859375
4119		-1.953125
4120		3.906250
4121		-3.906250
4122		1.953125
4123		-5.859375
4124		-1.953125
4125		-7.812500
4126		-3.906250
4127		-9.765625
4128		-7.812500
4129		-13.671875
4130		-9.765625
4131		-15.625000
4132		-11.718750
4133		-17.578125
4134		-13.671875
4135		-19.531250
4136		-15.625000
4137		-21.484375
4138		-17.578125
4139		-23.437500
4140		-19.531250
4141		-27.343750
4142		-21.484375
4143		-27.343750
4144		-23.437500
4145		-29.296875
4146		-25.390625
4147		-31.250000
4148		-27.343750
4149		-31.250000
4150		-29.296875
4151		-33.203125
4152		-29.296875
4153		-35.156250
4154		-31.250000
4155		-35.156250
4156		-33.203125
4157		-37.109375
4158		-33.203125
4159		-37.109375
4160		-35.156250
4161		-39.062500
4162		-35.156250
4163		-39.062500
4164		-37.109375
4165		-41.015625
4166		-37.109375
4167		-41.015625
4168		-37.109375
4169		-41.015625
4170		-39.062500
4171		-41.015625
4172		-37.109375
4173		-41.015625
4174		-39.062500
4175		-41.015625
4176		-37.109375
4177		-41.015625
4178		-39.062500
4179		-41.015625
4180		-37.109375
4181		-41.015625
4182		-39.062500
4183		-41.015625
4184		-37.109375
4185		-39.062500
4186		-37.109375
4187		-39.062500
4188		-35.156250
4189		-37.109375
4190		-35.156250
4191		-37.109375
4192		-33.203125
4193		-37.109375
4194		-33.203125
4195		-35.156250
4196		-31.250000
4197		-33.203125
4198		-29.296875
4199		-31.250000
4200		-29.296875
4201		-31.250000
4202		-27.343750
4203		-29.296875
4204		-25.390625
4205		-27.343750
4206		-23.437500
4207		-25.390625
4208		-21.484375
4209		-25.390625
4210		-19.531250
4211		-21.484375
4212		-17.578125
4213		-19.531250
4214		-15.625000
4215		-17.578125
4216		-13.671875
4217		-15.625000
4218		-11.718750
4219		-13.671875
4220		-9.765625
4221		-11.718750
4222		-7.812500
4223		-7.812500
4224		-3.906250
4225		-5.859375
4226		-1.953125
4227		-3.906250
4228		0.000000
4229		-1.953125
4230		1.953125
4231		0.000000
4232		5.859375
4233		3.906250
4234		7.812500
4235		5.859375
4236		9.765625
4237		7.812500
4238		13.671875
4239		9.765625
4240		13.671875
4241		13.671875
4242		17.578125
4243		15.625000
4244		19.531250
4245		17.578125
4246		21.484375
4247		19.531250
4248		23.437500
4249		21.484375
4250		27.343750
4251		23.437500
4252		27.343750
4253		27.343750
4254		29.296875
4255		29.296875
4256		33.203125
4257		31.250000
4258		35.156250
4259		33.203125
4260		37.109375
4261		35.156250
4262		39.062500
4263		37.109375
4264		41.015625
4265		39.062500
4266		42.968750
4267		41.015625
4268		44.921875
4269		42.968750
4270		44.921875
4271		42.968750
4272		48.828125
4273		44.921875
4274		48.828125
4275		46.875000
4276		48.828125
4277		46.875000
4278		50.781250
4279		48.828125
4280		52.734375
4281		50.781250
4282		52.734375
4283		50.781250
4284		54.687500
4285		52.734375
4286		54.687500
4287		52.734375
4288		56.640625
4289		52.734375
4290		56.640625
4291		54.687500
4292		56.640625
4293		54.687500
4294		58.593750
4295		54.687500
4296		58.593750
4297		54.687500
4298		58.593750
4299		54.687500
4300		60.546875
4301		54.687500
4302		58.593750
4303		56.640625
4304		58.593750
4305		56.640625
4306		58.593750
4307		54.687500
4308		58.593750
4309		54.687500
4310		58.593750
4311		54.687500
4312		56.640625
4313		54.687500
4314		56.640625
4315		52.734375
4316		56.640625
4317		52.734375
4318		54.687500
4319		50.781250
4320		54.687500
4321		48.828125
4322		52.734375
4323		48.828125
4324		52.734375
4325		48.828125
4326		50.781250
4327		46.875000
4328		48.828125
4329		44.921875
4330		48.828125
4331		42.968750
4332		46.875000
4333		42.968750
4334		44.921875
4335		41.015625
4336		44.921875
4337		37.109375
4338		42.968750
4339		37.109375
4340		41.015625
4341		33.203125
4342		39.062500
4343		31.250000
4344		37.109375
4345		31.250000
4346		35.156250
4347		27.343750
4348		33.203125
4349		27.343750
4350		29.296875
4351		23.437500
4352		29.296875
4353		21.484375
4354		27.343750
4355		19.531250
4356		23.437500
4357		17.578125
4358		21.484375
4359		13.671875
4360		19.531250
4361		11.718750
4362		17.578125
4363		9.765625
4364		15.625000
4365		7.812500
4366		11.718750
4367		5.859375
4368		9.765625
4369		1.953125
4370		7.812500
4371		0.000000
4372		3.906250
4373		-1.953125
4374		3.906250
4375		-3.906250
4376		0.000000
4377		-7.812500
4378		-1.953125
4379		-9.765625
4380		-3.906250
4381		-11.718750
4382		-7.812500
4383		-13.671875
4384		-9.765625
4385		-15.625000
4386		-11.718750
4387		-17.578125
4388		-13.671875
4389		-19.531250
4390		-15.625000
4391		-21.484375
4392		-17.578125
4393		-25.390625
4394		-19.531250
4395		-25.390625
4396		-21.484375
4397		-27.343750
4398		-23.437500
4399		-29.296875
4400		-25.390625
4401		-31.250000
4402		-27.343750
4403		-33.203125
4404		-29.296875
4405		-33.203125
4406		-29.296875
4407		-35.156250
4408		-31.250000
4409		-35.156250
4410		-33.203125
4411		-37.109375
4412		-33.203125
4413		-39.062500
4414		-35.156250
4415		-39.062500
4416		-35.156250
4417		-39.062500
4418		-37.109375
4419		-41.015625
4420		-37.109375
4421		-41.015625
4422		-37.109375
4423		-41.015625
4424		-37.109375
4425		-41.015625
4426		-39.062500
4427		-41.015625
4428		-37.109375
4429		-41.015625
4430		-37.109375
4431		-41.015625
4432		-37.109375
4433		-41.015625
4434		-37.109375
4435		-41.015625
4436		-37.109375
4437		-39.062500
4438		-37.109375
4439		-41.015625
4440		-35.156250
4441		-39.062500
4442		-35.156250
4443		-37.109375
4444		-35.156250
4445		-37.109375
4446		-33.203125
4447		-35.156250
4448		-31.250000
4449		-35.156250
4450		-31.250000
4451		-33.203125
4452		-29.296875
4453		-31.250000
4454		-27.343750
4455		-31.250000
4456		-27.343750
4457		-29.296875
4458		-25.390625
4459		-27.343750
4460		-23.437500
4461		-25.390625
4462		-21.484375
4463		-23.437500
4464		-19.531250
4465		-21.484375
4466		-15.625000
4467		-19.531250
4468		-15.625000
4469		-17.578125
4470		-13.671875
4471		-15.625000
4472		-9.765625
4473		-11.718750
4474		-7.812500
4475		-9.765625
4476		-5.859375
4477		-7.812500
4478		-3.906250
4479		-7.812500
4480		0.000000
4481		-3.906250
4482		0.000000
4483		0.000000
4484		3.906250
4485		1.953125
4486		5.859375
4487		3.906250
4488		7.812500
4489		5.859375
4490		11.718750
4491		9.765625
4492		13.671875
4493		11.718750
4494		15.625000
4495		13.671875
4496		17.578125
4497		15.625000
4498		19.531250
4499		17.578125
4500		21.484375
4501		21.484375
4502		25.390625
4503		23.437500
4504		27.343750
4505		25.390625
4506		29.296875
4507		27.343750
4508		31.250000
4509		29.296875
4510		33.203125
4511		31.250000
4512		35.156250
4513		33.203125
4514		37.109375
4515		35.156250
4516		39.062500
4517		37.109375
4518		41.015625
4519		39.062500
4520		42.968750
4521		41.015625
4522		44.921875
4523		42.968750
4524		46.875000
4525		44.921875
4526		46.875000
4527		44.921875
4528		48.828125
4529		44.921875
4530		50.781250
4531		48.828125
4532		50.781250
4533		48.828125
4534		52.734375
4535		50.781250
4536		54.687500
4537		52.734375
4538		54.687500
4539		52.734375
4540		56.640625
4541		52.734375
4542		56.640625
4543		54.687500
4544		56.640625
4545		54.687500
4546		58.593750
4547		54.687500
4548		58.593750
4549		54.687500
4550		58.593750
4551		54.687500
4552		58.593750
4553		54.687500
4554		58.593750
4555		56.640625
4556		58.593750
4557		54.687500
4558		58.593750
4559		56.640625
4560		58.593750
4561		54.687500
4562		58.593750
4563		54.687500
4564		58.593750
4565		54.687500
4566		56.640625
4567		54.687500
4568		56.640625
4569		52.734375
4570		56.640625
4571		52.734375
4572		56.640625
4573		50.781250
4574		54.687500
4575		50.781250
4576		52.734375
4577		48.828125
4578		52.734375
4579		48.828125
4580		50.781250
4581		46.875000
4582		50.781250
4583		44.921875
4584		48.828125
4585		42.968750
4586		46.875000
4587		41.015625
4588		44.921875
4589		39.062500
4590		42.968750
4591		37.109375
4592		42.968750
4593		35.156250
4594		39.062500
4595		35.156250
4596		37.109375
4597		31.250000
4598		37.109375
4599		31.250000
4600		33.203125
4601		27.343750
4602		33.203125
4603		25.390625
4604		29.296875
4605		23.437500
4606		27.343750
4607		21.484375
4608		25.390625
4609		19.531250
4610		23.437500
4611		17.578125
4612		21.484375
4613		13.671875
4614		19.531250
4615		11.718750
4616		15.625000
4617		9.765625
4618		13.671875
4619		7.812500
4620		11.718750
4621		3.906250
4622		9.765625
4623		1.953125
4624		5.859375
4625		0.000000
4626		3.906250
4627		-1.953125
4628		1.953125
4629		-5.859375
4630		0.000000
4631		-7.812500
4632		-3.906250
4633		-9.765625
4634		-5.859375
4635		-11.718750
4636		-7.812500
4637		-13.671875
4638		-9.765625
4639		-17.578125
4640		-11.718750
4641		-19.531250
4642		-13.671875
4643		-19.531250
4644		-15.625000
4645		-21.484375
4646		-19.531250
4647		-25.390625
4648		-19.531250
4649		-27.343750
4650		-21.484375
4651		-27.343750
4652		-23.437500
4653		-29.296875
4654		-25.390625
4655		-31.250000
4656		-27.343750
4657		-33.203125
4658		-27.343750
4659		-35.156250
4660		-29.296875
4661		-35.156250
4662		-31.250000
4663		-37.109375
4664		-33.203125
4665		-37.109375
4666		-33.203125
4667		-39.062500
4668		-35.156250
4669		-39.062500
4670		-35.156250
4671		-39.062500
4672		-37.109375
4673		-41.015625
4674		-37.109375
4675		-41.015625
4676		-37.109375
4677		-41.015625
4678		-39.062500
4679		-41.015625
4680		-37.109375
4681		-41.015625
4682		-37.109375
4683		-41.015625
4684		-37.109375
4685		-41.015625
4686		-37.109375
4687		-41.015625
4688		-37.109375
4689		-41.015625
4690		-37.109375
4691		-39.062500
4692		-35.156250
4693		-39.062500
4694		-37.109375
4695		-39.062500
4696		-35.156250
4697		-39.062500
4698		-33.203125
4699		-35.156250
4700		-33.203125
4701		-35.156250
4702		-31.250000
4703		-33.203125
4704		-31.250000
4705		-33.203125
4706		-29.296875
4707		-31.250000
4708		-27.343750
4709		-29.296875
4710		-25.390625
4711		-27.343750
4712		-23.437500
4713		-25.390625
4714		-21.484375
4715		-25.390625
4716		-21.484375
4717		-23.437500
4718		-17.578125
4719		-19.531250
4720		-15.625000
4721		-17.578125
4722		-13.671875
4723		-15.625000
4724		-11.718750
4725		-13.671875
4726		-9.765625
4727		-11.718750
4728		-7.812500
4729		-9.765625
4730		-5.859375
4731		-7.812500
4732		-3.906250
4733		-5.859375
4734		0.000000
4735		-1.953125
4736		1.953125
4737		0.000000
4738		3.906250
4739		1.953125
4740		5.859375
4741		3.906250
4742		7.812500
4743		7.812500
4744		11.718750
4745		9.765625
4746		13.671875
4747		11.718750
4748		15.625000
4749		13.671875
4750		19.531250
4751		17.578125
4752		21.484375
4753		17.578125
4754		23.437500
4755		21.484375
4756		25.390625
4757		23.437500
4758		27.343750
4759		25.390625
4760		29.296875
4761		27.343750
4762		31.250000
4763		31.250000
4764		35.156250
4765		31.250000
4766		35.156250
4767		35.156250
4768		39.062500
4769		35.156250
4770		39.062500
4771		37.109375
4772		41.015625
4773		39.062500
4774		42.968750
4775		41.015625
4776		44.921875
4777		42.968750
4778		46.875000
4779		44.921875
4780		48.828125
4781		46.875000
4782		48.828125
4783		46.875000
4784		50.781250
4785		48.828125
4786		52.734375
4787		50.781250
4788		52.734375
4789		50.781250
4790		54.687500
4791		50.781250
4792		54.687500
4793		52.734375
4794		56.640625
4795		54.687500
4796		56.640625
4797		52.734375
4798		56.640625
4799		54.687500
4800		58.593750
4801		54.687500
4802		58.593750
4803		56.640625
4804		58.593750
4805		54.687500
4806		58.593750
4807		56.640625
4808		58.593750
4809		54.687500
4810		58.593750
4811		56.640625
4812		58.593750
4813		56.640625
4814		58.593750
4815		54.687500
4816		58.593750
4817		54.687500
4818		58.593750
4819		54.687500
4820		56.640625
4821		52.734375
4822		56.640625
4823		52.734375
4824		56.640625
4825		50.781250
4826		54.687500
4827		50.781250
4828		54.687500
4829		50.781250
4830		52.734375
4831		48.828125
4832		52.734375
4833		46.875000
4834		50.781250
4835		46.875000
4836		48.828125
4837		44.921875
4838		48.828125
4839		42.968750
4840		46.875000
4841		41.015625
4842		44.921875
4843		39.062500
4844		42.968750
4845		37.109375
4846		41.015625
4847		35.156250
4848		39.062500
4849		33.203125
4850		37.109375
4851		31.250000
4852		35.156250
4853		29.296875
4854		33.203125
4855		27.343750
4856		31.250000
4857		25.390625
4858		29.296875
4859		21.484375
4860		27.343750
4861		21.484375
4862		25.390625
4863		17.578125
4864		21.484375
4865		15.625000
4866		21.484375
4867		13.671875
4868		17.578125
4869		11.718750
4870		15.625000
4871		7.812500
4872		13.671875
4873		5.859375
4874		9.765625
4875		3.906250
4876		7.812500
4877		1.953125
4878		5.859375
4879		0.000000
4880		3.906250
4881		-3.906250
4882		1.953125
4883		-5.859375
4884		-1.953125
4885		-7.812500
4886		-3.906250
4887		-9.765625
4888		-5.859375
4889		-13.671875
4890		-7.812500
4891		-13.671875
4892		-9.765625
4893		-17.578125
4894		-11.718750
4895		-19.531250
4896		-15.625000
4897		-21.484375
4898		-17.578125
4899		-23.437500
4900		-19.531250
4901		-25.390625
4902		-21.484375
4903		-27.343750
4904		-23.437500
4905		-29.296875
4906		-25.390625
4907		-29.296875
4908		-25.390625
4909		-33.203125
4910		-27.343750
4911		-33.203125
4912		-29.296875
4913		-33.203125
4914		-31.250000
4915		-35.156250
4916		-31.250000
4917		-37.109375
4918		-33.203125
4919		-37.109375
4920		-35.156250
4921		-39.062500
4922		-35.156250
4923		-39.062500
4924		-37.109375
4925		-41.015625
4926		-37.109375
4927		-41.015625
4928		-37.109375
4929		-41.015625
4930		-37.109375
4931		-41.015625
4932		-37.109375
4933		-41.015625
4934		-39.062500
4935		-41.015625
4936		-39.062500
4937		-41.015625
4938		-39.062500
4939		-41.015625
4940		-39.062500
4941		-41.015625
4942		-37.109375
4943		-41.015625
4944		-37.109375
4945		-39.062500
4946		-37.109375
4947		-39.062500
4948		-35.156250
4949		-39.062500
4950		-35.156250
4951		-37.109375
4952		-33.203125
4953		-37.109375
4954		-33.203125
4955		-35.156250
4956		-31.250000
4957		-33.203125
4958		-29.296875
4959		-31.250000
4960		-29.296875
4961		-31.250000
4962		-27.343750
4963		-29.296875
4964		-25.390625
4965		-27.343750
4966		-23.437500
4967		-25.390625
4968		-21.484375
4969		-23.437500
4970		-19.531250
4971		-21.484375
4972		-17.578125
4973		-19.531250
4974		-15.625000
4975		-17.578125
4976		-13.671875
4977		-15.625000
4978		-11.718750
4979		-13.671875
4980		-9.765625
4981		-11.718750
4982		-7.812500
4983		-9.765625
4984		-3.906250
4985		-5.859375
4986		-1.953125
4987		-3.906250
4988		0.000000
4989		-1.953125
4990		1.953125
4991		0.000000
4992		3.906250
4993		1.953125
4994		7.812500
4995		3.906250
4996		9.765625
4997		7.812500
4998		11.718750
4999		9.765625
5000		13.671875
5001		13.671875
5002		15.625000
5003		15.625000
5004		19.531250
5005		17.578125
5006		21.484375
5007		19.531250
5008		23.437500
5009		21.484375
5010		25.390625
5011		23.437500
5012		27.343750
5013		25.390625
5014		29.296875
5015		29.296875
5016		33.203125
5017		29.296875
5018		35.156250
5019		31.250000
5020		37.109375
5021		35.156250
5022		39.062500
5023		37.109375
5024		41.015625
5025		37.109375
5026		42.968750
5027		41.015625
5028		44.921875
5029		41.015625
5030		44.921875
5031		42.968750
5032		46.875000
5033		44.921875
5034		48.828125
5035		46.875000
5036		50.781250
5037		46.875000
5038		50.781250
5039		48.828125
5040		52.734375
5041		48.828125
5042		52.734375
5043		50.781250
5044		54.687500
5045		50.781250
5046		54.687500
5047		52.734375
5048		56.640625
5049		52.734375
5050		56.640625
5051		54.687500
5052		56.640625
5053		54.687500
5054		58.593750
5055		54.687500
5056		58.593750
5057		54.687500
5058		58.593750
5059		56.640625
5060		58.593750
5061		54.687500
5062		58.593750
5063		56.640625
5064		58.593750
5065		56.640625
5066		58.593750
5067		54.687500
5068		58.593750
5069		54.687500
5070		58.593750
5071		54.687500
5072		58.593750
5073		52.734375
5074		56.640625
5075		52.734375
5076		56.640625
5077		52.734375
5078		56.640625
5079		50.781250
5080		54.687500
5081		50.781250
5082		52.734375
5083		48.828125
5084		52.734375
5085		48.828125
5086		52.734375
5087		46.875000
5088		50.781250
5089		44.921875
5090		48.828125
5091		42.968750
5092		46.875000
5093		41.015625
5094		46.875000
5095		41.015625
5096		44.921875
5097		39.062500
5098		42.968750
5099		37.109375
5100		41.015625
5101		35.156250
5102		39.062500
5103		33.203125
5104		37.109375
5105		31.250000
5106		35.156250
5107		29.296875
5108		33.203125
5109		27.343750
5110		31.250000
5111		23.437500
5112		29.296875
5113		21.484375
5114		25.390625
5115		19.531250
5116		23.437500
5117		17.578125
5118		21.484375
5119		15.625000
5120		19.531250
5121		13.671875
5122		17.578125
5123		9.765625
5124		13.671875
5125		7.812500
5126		11.718750
5127		5.859375
5128		9.765625
5129		1.953125
5130		7.812500
5131		0.000000
5132		3.906250
5133		-1.953125
5134		1.953125
5135		-3.906250
5136		0.000000
5137		-5.859375
5138		-1.953125
5139		-9.765625
5140		-3.906250
5141		-11.718750
5142		-7.812500
5143		-13.671875
5144		-9.765625
5145		-15.625000
5146		-11.718750
5147		-17.578125
5148		-13.671875
5149		-19.531250
5150		-15.625000
5151		-21.484375
5152		-17.578125
5153		-23.437500
5154		-19.531250
5155		-25.390625
5156		-21.484375
5157		-27.343750
5158		-23.437500
5159		-29.296875
5160		-25.390625
5161		-31.250000
5162		-27.343750
5163		-31.250000
5164		-27.343750
5165		-33.203125
5166		-29.296875
5167		-35.156250
5168		-31.250000
5169		-35.156250
5170		-33.203125
5171		-37.109375
5172		-33.203125
5173		-37.109375
5174		-35.156250
5175		-39.062500
5176		-35.156250
5177		-39.062500
5178		-37.109375
5179		-41.015625
5180		-37.109375
5181		-41.015625
5182		-39.062500
5183		-41.015625
5184		-39.062500
5185		-42.968750
5186		-37.109375
5187		-41.015625
5188		-39.062500
5189		-41.015625
5190		-39.062500
5191		-41.015625
5192		-39.062500
5193		-41.015625
5194		-37.109375
5195		-41.015625
5196		-37.109375
5197		-41.015625
5198		-37.109375
5199		-39.062500
5200		-37.109375
5201		-39.062500
5202		-35.156250
5203		-39.062500
5204		-33.203125
5205		-37.109375
5206		-33.203125
5207		-35.156250
5208		-31.250000
5209		-35.156250
5210		-31.250000
5211		-33.203125
5212		-29.296875
5213		-33.203125
5214		-27.343750
5215		-31.250000
5216		-27.343750
5217		-29.296875
5218		-23.437500
5219		-27.343750
5220		-23.437500
5221		-25.390625
5222		-21.484375
5223		-23.437500
5224		-19.531250
5225		-21.484375
5226		-17.578125
5227		-19.531250
5228		-15.625000
5229		-17.578125
5230		-13.671875
5231		-15.625000
5232		-11.718750
5233		-13.671875
5234		-9.765625
5235		-11.718750
5236		-5.859375
5237		-7.812500
5238		-3.906250
5239		-5.859375
5240		-1.953125
5241		-3.906250
5242		0.000000
5243		-1.953125
5244		1.953125
5245		1.953125
5246		5.859375
5247		3.906250
5248		7.812500
5249		5.859375
5250		9.765625
5251		7.812500
5252		11.718750
5253		9.765625
5254		15.625000
5255		13.671875
5256		17.578125
5257		15.625000
5258		19.531250
5259		17.578125
5260		21.484375
5261		19.531250
5262		25.390625
5263		21.484375
5264		25.390625
5265		25.390625
5266		29.296875
5267		27.343750
5268		31.250000
5269		29.296875
5270		33.203125
5271		31.250000
5272		35.156250
5273		33.203125
5274		37.109375
5275		35.156250
5276		39.062500
5277		37.109375
5278		41.015625
5279		39.062500
5280		42.968750
5281		39.062500
5282		44.921875
5283		42.968750
5284		44.921875
5285		42.968750
5286		46.875000
5287		44.921875
5288		48.828125
5289		46.875000
5290		50.781250
5291		46.875000
5292		50.781250
5293		48.828125
5294		52.734375
5295		50.781250
5296		54.687500
5297		50.781250
5298		54.687500
5299		52.734375
5300		54.687500
5301		52.734375
5302		56.640625
5303		52.734375
5304		56.640625
5305		54.687500
5306		58.593750
5307		54.687500
5308		58.593750
5309		54.687500
5310		58.593750
5311		54.687500
5312		58.593750
5313		54.687500
5314		58.593750
5315		56.640625
5316		58.593750
5317		56.640625
5318		58.593750
5319		54.687500
5320		58.593750
5321		54.687500
5322		58.593750
5323		54.687500
5324		58.593750
5325		54.687500
5326		56.640625
5327		52.734375
5328		56.640625
5329		52.734375
5330		56.640625
5331		50.781250
5332		54.687500
5333		50.781250
5334		54.687500
5335		50.781250
5336		52.734375
5337		48.828125
5338		52.734375
5339		46.875000
5340		50.781250
5341		46.875000
5342		48.828125
5343		44.921875
5344		48.828125
5345		42.968750
5346		46.875000
5347		41.015625
5348		44.921875
5349		41.015625
5350		42.968750
5351		39.062500
5352		42.968750
5353		35.156250
5354		41.015625
5355		35.156250
5356		39.062500
5357		33.203125
5358		37.109375
5359		29.296875
5360		35.156250
5361		29.296875
5362		33.203125
5363		25.390625
5364		31.250000
5365		23.437500
5366		29.296875
5367		21.484375
5368		25.390625
5369		19.531250
5370		23.437500
5371		15.625000
5372		21.484375
5373		13.671875
5374		19.531250
5375		11.718750
5376		17.578125
5377		9.765625
5378		13.671875
5379		7.812500
5380		11.718750
5381		5.859375
5382		9.765625
5383		1.953125
5384		5.859375
5385		-1.953125
5386		3.906250
5387		-1.953125
5388		1.953125
5389		-5.859375
5390		0.000000
5391		-7.812500
5392		-1.953125
5393		-9.765625
5394		-5.859375
5395		-11.718750
5396		-7.812500
5397		-15.625000
5398		-9.765625
5399		-15.625000
5400		-11.718750
5401		-17.578125
5402		-13.671875
5403		-21.484375
5404		-15.625000
5405		-21.484375
5406		-19.531250
5407		-23.437500
5408		-19.531250
5409		-25.390625
5410		-21.484375
5411		-27.343750
5412		-23.437500
5413		-29.296875
5414		-25.390625
5415		-31.250000
5416		-27.343750
5417		-33.203125
5418		-29.296875
5419		-35.156250
5420		-29.296875
5421		-35.156250
5422		-31.250000
5423		-37.109375
5424		-33.203125
5425		-37.109375
5426		-33.203125
5427		-39.062500
5428		-35.156250
5429		-39.062500
5430		-35.156250
5431		-41.015625
5432		-37.109375
5433		-41.015625
5434		-37.109375
5435		-41.015625
5436		-39.062500
5437		-42.968750
5438		-37.109375
5439		-42.968750
5440		-39.062500
5441		-41.015625
5442		-39.062500
5443		-41.015625
5444		-39.062500
5445		-41.015625
5446		-39.062500
5447		-41.015625
5448		-37.109375
5449		-41.015625
5450		-37.109375
5451		-41.015625
5452		-37.109375
5453		-41.015625
5454		-35.156250
5455		-39.062500
5456		-35.156250
5457		-37.109375
5458		-35.156250
5459		-37.109375
5460		-33.203125
5461		-35.156250
5462		-31.250000
5463		-35.156250
5464		-31.250000
5465		-33.203125
5466		-29.296875
5467		-31.250000
5468		-29.296875
5469		-29.296875
5470		-25.390625
5471		-29.296875
5472		-23.437500
5473		-27.343750
5474		-23.437500
5475		-25.390625
5476		-21.484375
5477		-23.437500
5478		-19.531250
5479		-21.484375
5480		-17.578125
5481		-19.531250
5482		-13.671875
5483		-17.578125
5484		-13.671875
5485		-15.625000
5486		-11.718750
5487		-11.718750
5488		-7.812500
5489		-9.765625
5490		-5.859375
5491		-7.812500
5492		-3.906250
5493		-5.859375
5494		-1.953125
5495		-3.906250
5496		0.000000
5497		-1.953125
5498		3.906250
5499		1.953125
5500		5.859375
5501		3.906250
5502		7.812500
5503		5.859375
5504		9.765625
5505		7.812500
5506		13.671875
5507		11.718750
5508		15.625000
5509		13.671875
5510		17.578125
5511		15.625000
5512		19.531250
5513		17.578125
5514		21.484375
5515		19.531250
5516		25.390625
5517		23.437500
5518		27.343750
5519		25.390625
5520		29.296875
5521		25.390625
5522		31.250000
5523		29.296875
5524		33.203125
5525		31.250000
5526		35.156250
5527		33.203125
5528		37.109375
5529		35.156250
5530		39.062500
5531		37.109375
5532		41.015625
5533		39.062500
5534		42.968750
5535		41.015625
5536		44.921875
5537		42.968750
5538		46.875000
5539		42.968750
5540		48.828125
5541		44.921875
5542		48.828125
5543		46.875000
5544		50.781250
5545		48.828125
5546		50.781250
5547		48.828125
5548		52.734375
5549		50.781250
5550		54.687500
5551		50.781250
5552		54.687500
5553		52.734375
5554		56.640625
5555		52.734375
5556		56.640625
5557		54.687500
5558		56.640625
5559		54.687500
5560		56.640625
5561		54.687500
5562		58.593750
5563		54.687500
5564		58.593750
5565		54.687500
5566		58.593750
5567		56.640625
5568		58.593750
5569		56.640625
5570		58.593750
5571		54.687500
5572		58.593750
5573		54.687500
5574		58.593750
5575		54.687500
5576		58.593750
5577		54.687500
5578		56.640625
5579		54.687500
5580		56.640625
5581		52.734375
5582		56.640625
5583		52.734375
5584		54.687500
5585		52.734375
5586		54.687500
5587		48.828125
5588		54.687500
5589		50.781250
5590		52.734375
5591		48.828125
5592		52.734375
5593		46.875000
5594		50.781250
5595		44.921875
5596		48.828125
5597		44.921875
5598		46.875000
5599		42.968750
5600		46.875000
5601		41.015625
5602		44.921875
5603		39.062500
5604		42.968750
5605		37.109375
5606		42.968750
5607		35.156250
5608		39.062500
5609		33.203125
5610		37.109375
5611		31.250000
5612		35.156250
5613		29.296875
5614		33.203125
5615		27.343750
5616		31.250000
5617		25.390625
5618		31.250000
5619		23.437500
5620		27.343750
5621		21.484375
5622		25.390625
5623		17.578125
5624		23.437500
5625		15.625000
5626		19.531250
5627		13.671875
5628		17.578125
5629		11.718750
5630		15.625000
5631		9.765625
5632		13.671875
5633		5.859375
5634		9.765625
5635		3.906250
5636		7.812500
5637		1.953125
5638		5.859375
5639		0.000000
5640		3.906250
5641		-3.906250
5642		1.953125
5643		-5.859375
5644		-1.953125
5645		-7.812500
5646		-3.906250
5647		-9.765625
5648		-5.859375
5649		-13.671875
5650		-7.812500
5651		-13.671875
5652		-11.718750
5653		-17.578125
5654		-13.671875
5655		-19.531250
5656		-15.625000
5657		-21.484375
5658		-17.578125
5659		-23.437500
5660		-19.531250
5661		-25.390625
5662		-21.484375
5663		-27.343750
5664		-23.437500
5665		-29.296875
5666		-25.390625
5667		-31.250000
5668		-25.390625
5669		-31.250000
5670		-27.343750
5671		-33.203125
5672		-29.296875
5673		-35.156250
5674		-31.250000
5675		-35.156250
5676		-33.203125
5677		-37.109375
5678		-33.203125
5679		-39.062500
5680		-35.156250
5681		-39.062500
5682		-35.156250
5683		-39.062500
5684		-37.109375
5685		-39.062500
5686		-37.109375
5687		-41.015625
5688		-39.062500
5689		-41.015625
5690		-37.109375
5691		-41.015625
5692		-37.109375
5693		-42.968750
5694		-39.062500
5695		-42.968750
5696		-39.062500
5697		-42.968750
5698		-39.062500
5699		-41.015625
5700		-37.109375
5701		-41.015625
5702		-37.109375
5703		-41.015625
5704		-37.109375
5705		-41.015625
5706		-37.109375
5707		-41.015625
5708		-35.156250
5709		-39.062500
5710		-35.156250
5711		-37.109375
5712		-33.203125
5713		-37.109375
5714		-33.203125
5715		-35.156250
5716		-31.250000
5717		-33.203125
5718		-31.250000
5719		-33.203125
5720		-29.296875
5721		-31.250000
5722		-27.343750
5723		-31.250000
5724		-25.390625
5725		-29.296875
5726		-23.437500
5727		-25.390625
5728		-21.484375
5729		-25.390625
5730		-21.484375
5731		-23.437500
5732		-17.578125
5733		-21.484375
5734		-15.625000
5735		-17.578125
5736		-15.625000
5737		-15.625000
5738		-11.718750
5739		-13.671875
5740		-9.765625
5741		-13.671875
5742		-7.812500
5743		-11.718750
5744		-5.859375
5745		-7.812500
5746		-1.953125
5747		-5.859375
5748		0.000000
5749		-3.906250
5750		1.953125
5751		-1.953125
5752		3.906250
5753		1.953125
5754		5.859375
5755		3.906250
5756		9.765625
5757		5.859375
5758		11.718750
5759		9.765625
5760		13.671875
5761		9.765625
5762		17.578125
5763		13.671875
5764		19.531250
5765		15.625000
5766		21.484375
5767		17.578125
5768		23.437500
5769		21.484375
5770		25.390625
5771		23.437500
5772		27.343750
5773		25.390625
5774		31.250000
5775		27.343750
5776		33.203125
5777		29.296875
5778		35.156250
5779		31.250000
5780		37.109375
5781		33.203125
5782		39.062500
5783		35.156250
5784		39.062500
5785		37.109375
5786		41.015625
5787		39.062500
5788		42.968750
5789		41.015625
5790		44.921875
5791		42.968750
5792		46.875000
5793		42.968750
5794		48.828125
5795		44.921875
5796		50.781250
5797		46.875000
5798		50.781250
5799		46.875000
5800		52.734375
5801		48.828125
5802		52.734375
5803		50.781250
5804		52.734375
5805		52.734375
5806		54.687500
5807		52.734375
5808		54.687500
5809		52.734375
5810		56.640625
5811		54.687500
5812		56.640625
5813		54.687500
5814		56.640625
5815		54.687500
5816		56.640625
5817		54.687500
5818		58.593750
5819		54.687500
5820		58.593750
5821		56.640625
5822		58.593750
5823		56.640625
5824		58.593750
5825		54.687500
5826		58.593750
5827		54.687500
5828		58.593750
5829		54.687500
5830		56.640625
5831		54.687500
5832		56.640625
5833		54.687500
5834		56.640625
5835		52.734375
5836		56.640625
5837		52.734375
5838		54.687500
5839		50.781250
5840		54.687500
5841		50.781250
5842		52.734375
5843		48.828125
5844		52.734375
5845		48.828125
5846		50.781250
5847		46.875000
5848		48.828125
5849		44.921875
5850		48.828125
5851		42.968750
5852		46.875000
5853		42.968750
5854		44.921875
5855		41.015625
5856		42.968750
5857		39.062500
5858		42.968750
5859		37.109375
5860		41.015625
5861		35.156250
5862		39.062500
5863		33.203125
5864		37.109375
5865		31.250000
5866		35.156250
5867		27.343750
5868		33.203125
5869		27.343750
5870		31.250000
5871		25.390625
5872		29.296875
5873		21.484375
5874		25.390625
5875		19.531250
5876		23.437500
5877		17.578125
5878		21.484375
5879		15.625000
5880		19.531250
5881		13.671875
5882		17.578125
5883		9.765625
5884		13.671875
5885		7.812500
5886		11.718750
5887		5.859375
5888		9.765625
5889		3.906250
5890		7.812500
5891		0.000000
5892		5.859375
5893		-1.953125
5894		1.953125
5895		-3.906250
5896		0.000000
5897		-5.859375
5898		-1.953125
5899		-9.765625
5900		-3.906250
5901		-11.718750
5902		-7.812500
5903		-13.671875
5904		-9.765625
5905		-15.625000
5906		-11.718750
5907		-19.531250
5908		-11.718750
5909		-21.484375
5910		-13.671875
5911		-25.390625
5912		-15.625000
5913		-23.437500
5914		-19.531250
5915		-25.390625
5916		-21.484375
5917		-27.343750
5918		-23.437500
5919		-29.296875
5920		-25.390625
5921		-31.250000
5922		-27.343750
5923		-35.156250
5924		-27.343750
5925		-37.109375
5926		-27.343750
5927		-37.109375
5928		-29.296875
5929		-39.062500
5930		-31.250000
5931		-37.109375
5932		-35.156250
5933		-39.062500
5934		-35.156250
5935		-39.062500
5936		-37.109375
5937		-39.062500
5938		-37.109375
5939		-41.015625
5940		-37.109375
5941		-44.921875
5942		-35.156250
5943		-44.921875
5944		-35.156250
5945		-44.921875
5946		-35.156250
5947		-41.015625
5948		-39.062500
5949		-41.015625
5950		-39.062500
5951		-41.015625
5952		-39.062500
5953		-41.015625
5954		-39.062500
5955		-41.015625
5956		-39.062500
5957		-44.921875
5958		-35.156250
5959		-42.968750
5960		-33.203125
5961		-42.968750
5962		-33.203125
5963		-41.015625
5964		-33.203125
5965		-37.109375
5966		-35.156250
5967		-37.109375
5968		-33.203125
5969		-35.156250
5970		-33.203125
5971		-33.203125
5972		-31.250000
5973		-33.203125
5974		-29.296875
5975		-33.203125
5976		-25.390625
5977		-33.203125
5978		-23.437500
5979		-31.250000
5980		-21.484375
5981		-27.343750
5982		-23.437500
5983		-23.437500
5984		-21.484375
5985		-21.484375
5986		-17.578125
5987		-19.531250
5988		-17.578125
5989		-17.578125
5990		-13.671875
5991		-17.578125
5992		-7.812500
5993		-15.625000
5994		-7.812500
5995		-13.671875
5996		-3.906250
5997		-9.765625
5998		-5.859375
5999		-7.812500
6000		-3.906250
6001		-5.859375
6002		-1.953125
6003		-1.953125
6004		1.953125
6005		0.000000
6006		3.906250
6007		1.953125
6008		11.718750
6009		1.953125
6010		11.718750
6011		3.906250
6012		13.671875
6013		5.859375
6014		15.625000
6015		11.718750
6016		15.625000
6017		13.671875
6018		17.578125
6019		17.578125
6020		21.484375
6021		19.531250
6022		23.437500
6023		21.484375
6024		25.390625
6025		21.484375
6026		31.250000
6027		23.437500
6028		33.203125
6029		25.390625
6030		35.156250
6031		29.296875
6032		33.203125
6033		33.203125
6034		35.156250
6035		35.156250
6036		37.109375
6037		35.156250
6038		39.062500
6039		37.109375
6040		41.015625
6041		37.109375
6042		48.828125
6043		37.109375
6044		48.828125
6045		39.062500
6046		50.781250
6047		41.015625
6048		50.781250
6049		46.875000
6050		48.828125
6051		46.875000
6052		50.781250
6053		48.828125
6054		50.781250
6055		48.828125
6056		52.734375
6057		50.781250
6058		54.687500
6059		48.828125
6060		58.593750
6061		48.828125
6062		58.593750
6063		50.781250
6064		58.593750
6065		54.687500
6066		56.640625
6067		54.687500
6068		56.640625
6069		54.687500
6070		56.640625
6071		54.687500
6072		58.593750
6073		54.687500
6074		58.593750
6075		52.734375
6076		60.546875
6077		52.734375
6078		60.546875
6079		52.734375
6080		60.546875
6081		54.687500
6082		58.593750
6083		54.687500
6084		56.640625
6085		54.687500
6086		56.640625
6087		52.734375
6088		56.640625
6089		52.734375
6090		54.687500
6091		52.734375
6092		54.687500
6093		48.828125
6094		54.687500
6095		46.875000
6096		54.687500
6097		48.828125
6098		52.734375
6099		46.875000
6100		50.781250
6101		46.875000
6102		48.828125
6103		44.921875
6104		46.875000
6105		42.968750
6106		46.875000
6107		41.015625
6108		44.921875
6109		39.062500
6110		42.968750
6111		37.109375
6112		44.921875
6113		35.156250
6114		42.968750
6115		33.203125
6116		37.109375
6117		33.203125
6118		37.109375
6119		31.250000
6120		33.203125
6121		27.343750
6122		31.250000
6123		25.390625
6124		29.296875
6125		23.437500
6126		27.343750
6127		21.484375
6128		25.390625
6129		19.531250
6130		23.437500
6131		17.578125
6132		21.484375
6133		13.671875
6134		17.578125
6135		11.718750
6136		15.625000
6137		9.765625
6138		13.671875
6139		7.812500
6140		11.718750
6141		3.906250
6142		9.765625
6143		1.953125
6144		5.859375
6145		0.000000
6146		3.906250
6147		-1.953125
6148		1.953125
6149		-3.906250
6150		0.000000
6151		-7.812500
6152		-3.906250
6153		-9.765625
6154		-5.859375
6155		-11.718750
6156		-7.812500
6157		-13.671875
6158		-9.765625
6159		-15.625000
6160		-11.718750
6161		-17.578125
6162		-13.671875
6163		-19.531250
6164		-17.578125
6165		-21.484375
6166		-17.578125
6167		-25.390625
6168		-21.484375
6169		-27.343750
6170		-23.437500
6171		-27.343750
6172		-25.390625
6173		-29.296875
6174		-27.343750
6175		-31.250000
6176		-27.343750
6177		-33.203125
6178		-29.296875
6179		-35.156250
6180		-31.250000
6181		-35.156250
6182		-33.203125
6183		-37.109375
6184		-33.203125
6185		-37.109375
6186		-35.156250
6187		-39.062500
6188		-35.156250
6189		-39.062500
6190		-37.109375
6191		-39.062500
6192		-37.109375
6193		-41.015625
6194		-37.109375
6195		-41.015625
6196		-39.062500
6197		-41.015625
6198		-39.062500
6199		-42.968750
6200		-39.062500
6201		-42.968750
6202		-39.062500
6203		-41.015625
6204		-39.062500
6205		-41.015625
6206		-39.062500
6207		-41.015625
6208		-39.062500
6209		-41.015625
6210		-37.109375
6211		-41.015625
6212		-37.109375
6213		-39.062500
6214		-37.109375
6215		-39.062500
6216		-35.156250
6217		-39.062500
6218		-35.156250
6219		-37.109375
6220		-35.156250
6221		-37.109375
6222		-33.203125
6223		-35.156250
6224		-31.250000
6225		-33.203125
6226		-31.250000
6227		-33.203125
6228		-29.296875
6229		-31.250000
6230		-27.343750
6231		-29.296875
6232		-25.390625
6233		-27.343750
6234		-23.437500
6235		-25.390625
6236		-21.484375
6237		-23.437500
6238		-19.531250
6239		-21.484375
6240		-17.578125
6241		-19.531250
6242		-15.625000
6243		-19.531250
6244		-13.671875
6245		-15.625000
6246		-11.718750
6247		-13.671875
6248		-9.765625
6249		-11.718750
6250		-5.859375
6251		-9.765625
6252		-3.906250
6253		-5.859375
6254		-1.953125
6255		-3.906250
6256		0.000000
6257		-1.953125
6258		1.953125
6259		0.000000
6260		5.859375
6261		1.953125
6262		7.812500
6263		5.859375
6264		9.765625
6265		7.812500
6266		11.718750
6267		9.765625
6268		13.671875
6269		11.718750
6270		15.625000
6271		15.625000
6272		19.531250
6273		17.578125
6274		21.484375
6275		19.531250
6276		23.437500
6277		21.484375
6278		27.343750
6279		23.437500
6280		27.343750
6281		25.390625
6282		29.296875
6283		29.296875
6284		33.203125
6285		29.296875
6286		35.156250
6287		33.203125
6288		37.109375
6289		35.156250
6290		39.062500
6291		37.109375
6292		41.015625
6293		39.062500
6294		42.968750
6295		39.062500
6296		44.921875
6297		41.015625
6298		44.921875
6299		42.968750
6300		46.875000
6301		44.921875
6302		48.828125
6303		46.875000
6304		48.828125
6305		46.875000
6306		50.781250
6307		48.828125
6308		50.781250
6309		50.781250
6310		52.734375
6311		48.828125
6312		54.687500
6313		50.781250
6314		54.687500
6315		52.734375
6316		54.687500
6317		52.734375
6318		56.640625
6319		54.687500
6320		56.640625
6321		54.687500
6322		56.640625
6323		54.687500
6324		56.640625
6325		54.687500
6326		58.593750
6327		54.687500
6328		58.593750
6329		54.687500
6330		58.593750
6331		54.687500
6332		58.593750
6333		54.687500
6334		58.593750
6335		54.687500
6336		58.593750
6337		54.687500
6338		56.640625
6339		54.687500
6340		56.640625
6341		52.734375
6342		56.640625
6343		50.781250
6344		56.640625
6345		50.781250
6346		54.687500
6347		50.781250
6348		54.687500
6349		48.828125
6350		52.734375
6351		46.875000
6352		52.734375
6353		46.875000
6354		50.781250
6355		44.921875
6356		48.828125
6357		42.968750
6358		46.875000
6359		42.968750
6360		46.875000
6361		41.015625
6362		46.875000
6363		39.062500
6364		42.968750
6365		37.109375
6366		41.015625
6367		35.156250
6368		39.062500
6369		33.203125
6370		37.109375
6371		31.250000
6372		35.156250
6373		29.296875
6374		33.203125
6375		27.343750
6376		31.250000
6377		25.390625
6378		29.296875
6379		23.437500
6380		27.343750
6381		21.484375
6382		25.390625
6383		17.578125
6384		23.437500
6385		15.625000
6386		19.531250
6387		13.671875
6388		17.578125
6389		11.718750
6390		15.625000
6391		9.765625
6392		13.671875
6393		5.859375
6394		11.718750
6395		3.906250
6396		7.812500
6397		1.953125
6398		5.859375
6399		0.000000
6400		3.906250
6401		-3.906250
6402		0.000000
6403		-5.859375
6404		-1.953125
6405		-7.812500
6406		-3.906250
6407		-9.765625
6408		-5.859375
6409		-11.718750
6410		-7.812500
6411		-13.671875
6412		-11.718750
6413		-17.578125
6414		-13.671875
6415		-19.531250
6416		-15.625000
6417		-21.484375
6418		-17.578125
6419		-23.437500
6420		-19.531250
6421		-25.390625
6422		-21.484375
6423		-27.343750
6424		-23.437500
6425		-29.296875
6426		-25.390625
6427		-31.250000
6428		-27.343750
6429		-31.250000
6430		-29.296875
6431		-33.203125
6432		-29.296875
6433		-35.156250
6434		-31.250000
6435		-35.156250
6436		-33.203125
6437		-37.109375
6438		-33.203125
6439		-37.109375
6440		-35.156250
6441		-39.062500
6442		-35.156250
6443		-39.062500
6444		-37.109375
6445		-41.015625
6446		-37.109375
6447		-41.015625
6448		-39.062500
6449		-41.015625
6450		-39.062500
6451		-41.015625
6452		-39.062500
6453		-42.968750
6454		-39.062500
6455		-41.015625
6456		-39.062500
6457		-41.015625
6458		-39.062500
6459		-41.015625
6460		-39.062500
6461		-42.968750
6462		-39.062500
6463		-41.015625
6464		-39.062500
6465		-41.015625
6466		-37.109375
6467		-39.062500
6468		-37.109375
6469		-39.062500
6470		-37.109375
6471		-37.109375
6472		-35.156250
6473		-37.109375
6474		-33.203125
6475		-37.109375
6476		-33.203125
6477		-35.156250
6478		-31.250000
6479		-33.203125
6480		-29.296875
6481		-31.250000
6482		-29.296875
6483		-31.250000
6484		-27.343750
6485		-29.296875
6486		-25.390625
6487		-27.343750
6488		-23.437500
6489		-25.390625
6490		-21.484375
6491		-23.437500
6492		-19.531250
6493		-21.484375
6494		-17.578125
6495		-19.531250
6496		-15.625000
6497		-17.578125
6498		-13.671875
6499		-15.625000
6500		-11.718750
6501		-13.671875
6502		-9.765625
6503		-9.765625
6504		-5.859375
6505		-7.812500
6506		-3.906250
6507		-5.859375
6508		-1.953125
6509		-3.906250
6510		0.000000
6511		-1.953125
6512		3.906250
6513		0.000000
6514		5.859375
6515		3.906250
6516		7.812500
6517		5.859375
6518		9.765625
6519		7.812500
6520		11.718750
6521		9.765625
6522		15.625000
6523		13.671875
6524		17.578125
6525		15.625000
6526		19.531250
6527		17.578125
6528		21.484375
6529		19.531250
6530		25.390625
6531		21.484375
6532		27.343750
6533		25.390625
6534		29.296875
6535		27.343750
6536		31.250000
6537		29.296875
6538		33.203125
6539		31.250000
6540		35.156250
6541		33.203125
6542		37.109375
6543		35.156250
6544		39.062500
6545		37.109375
6546		42.968750
6547		37.109375
6548		44.921875
6549		41.015625
6550		42.968750
6551		41.015625
6552		44.921875
6553		42.968750
6554		46.875000
6555		44.921875
6556		48.828125
6557		46.875000
6558		48.828125
6559		48.828125
6560		50.781250
6561		48.828125
6562		52.734375
6563		46.875000
6564		54.687500
6565		50.781250
6566		54.687500
6567		52.734375
6568		54.687500
6569		52.734375
6570		56.640625
6571		52.734375
6572		56.640625
6573		54.687500
6574		56.640625
6575		54.687500
6576		56.640625
6577		54.687500
6578		56.640625
6579		54.687500
6580		60.546875
6581		52.734375
6582		58.593750
6583		54.687500
6584		56.640625
6585		54.687500
6586		56.640625
6587		54.687500
6588		56.640625
6589		54.687500
6590		56.640625
6591		54.687500
6592		56.640625
6593		52.734375
6594		56.640625
6595		52.734375
6596		54.687500
6597		50.781250
6598		56.640625
6599		50.781250
6600		56.640625
6601		50.781250
6602		52.734375
6603		48.828125
6604		52.734375
6605		48.828125
6606		50.781250
6607		46.875000
6608		50.781250
6609		44.921875
6610		48.828125
6611		44.921875
6612		46.875000
6613		41.015625
6614		46.875000
6615		39.062500
6616		44.921875
6617		39.062500
6618		42.968750
6619		37.109375
6620		41.015625
6621		35.156250
6622		39.062500
6623		33.203125
6624		37.109375
6625		31.250000
6626		35.156250
6627		29.296875
6628		33.203125
6629		25.390625
6630		31.250000
6631		23.437500
6632		29.296875
6633		23.437500
6634		27.343750
6635		19.531250
6636		23.437500
6637		17.578125
6638		21.484375
6639		15.625000
6640		19.531250
6641		13.671875
6642		17.578125
6643		11.718750
6644		15.625000
6645		7.812500
6646		11.718750
6647		5.859375
6648		11.718750
6649		3.906250
6650		9.765625
6651		0.000000
6652		5.859375
6653		-1.953125
6654		1.953125
6655		-3.906250
6656		0.000000
6657		-5.859375
6658		-1.953125
6659		-7.812500
6660		-3.906250
6661		-9.765625
6662		-7.812500
6663		-15.625000
6664		-9.765625
6665		-17.578125
6666		-9.765625
6667		-17.578125
6668		-13.671875
6669		-19.531250
6670		-15.625000
6671		-21.484375
6672		-17.578125
6673		-23.437500
6674		-19.531250
6675		-25.390625
6676		-21.484375
6677		-27.343750
6678		-23.437500
6679		-29.296875
6680		-25.390625
6681		-31.250000
6682		-25.390625
6683		-33.203125
6684		-27.343750
6685		-35.156250
6686		-31.250000
6687		-35.156250
6688		-31.250000
6689		-35.156250
6690		-33.203125
6691		-37.109375
6692		-35.156250
6693		-39.062500
6694		-35.156250
6695		-39.062500
6696		-37.109375
6697		-41.015625
6698		-35.156250
6699		-41.015625
6700		-37.109375
6701		-41.015625
6702		-39.062500
6703		-41.015625
6704		-39.062500
6705		-41.015625
6706		-39.062500
6707		-41.015625
6708		-39.062500
6709		-41.015625
6710		-39.062500
6711		-41.015625
6712		-39.062500
6713		-42.968750
6714		-39.062500
6715		-41.015625
6716		-39.062500
6717		-41.015625
6718		-37.109375
6719		-41.015625
6720		-37.109375
6721		-41.015625
6722		-37.109375
6723		-39.062500
6724		-35.156250
6725		-37.109375
6726		-35.156250
6727		-37.109375
6728		-33.203125
6729		-35.156250
6730		-33.203125
6731		-35.156250
6732		-31.250000
6733		-33.203125
6734		-29.296875
6735		-31.250000
6736		-29.296875
6737		-31.250000
6738		-27.343750
6739		-27.343750
6740		-25.390625
6741		-27.343750
6742		-23.437500
6743		-25.390625
6744		-21.484375
6745		-23.437500
6746		-19.531250
6747		-21.484375
6748		-17.578125
6749		-17.578125
6750		-15.625000
6751		-15.625000
6752		-13.671875
6753		-13.671875
6754		-9.765625
6755		-11.718750
6756		-7.812500
6757		-9.765625
6758		-5.859375
6759		-7.812500
6760		-3.906250
6761		-5.859375
6762		-1.953125
6763		-1.953125
6764		0.000000
6765		0.000000
6766		3.906250
6767		1.953125
6768		5.859375
6769		3.906250
6770		7.812500
6771		7.812500
6772		11.718750
6773		9.765625
6774		13.671875
6775		11.718750
6776		15.625000
6777		13.671875
6778		17.578125
6779		15.625000
6780		19.531250
6781		19.531250
6782		23.437500
6783		21.484375
6784		25.390625
6785		23.437500
6786		27.343750
6787		25.390625
6788		29.296875
6789		27.343750
6790		31.250000
6791		29.296875
6792		33.203125
6793		31.250000
6794		35.156250
6795		33.203125
6796		37.109375
6797		35.156250
6798		39.062500
6799		37.109375
6800		41.015625
6801		39.062500
6802		42.968750
6803		41.015625
6804		44.921875
6805		42.968750
6806		44.921875
6807		44.921875
6808		46.875000
6809		46.875000
6810		48.828125
6811		46.875000
6812		50.781250
6813		48.828125
6814		50.781250
6815		48.828125
6816		52.734375
6817		50.781250
6818		52.734375
6819		52.734375
6820		54.687500
6821		52.734375
6822		54.687500
6823		52.734375
6824		56.640625
6825		54.687500
6826		56.640625
6827		54.687500
6828		56.640625
6829		54.687500
6830		56.640625
6831		54.687500
6832		56.640625
6833		54.687500
6834		56.640625
6835		54.687500
6836		58.593750
6837		54.687500
6838		58.593750
6839		54.687500
6840		56.640625
6841		54.687500
6842		56.640625
6843		54.687500
6844		56.640625
6845		54.687500
6846		56.640625
6847		52.734375
6848		56.640625
6849		52.734375
6850		54.687500
6851		52.734375
6852		54.687500
6853		50.781250
6854		54.687500
6855		50.781250
6856		52.734375
6857		48.828125
6858		52.734375
6859		46.875000
6860		50.781250
6861		46.875000
6862		48.828125
6863		44.921875
6864		48.828125
6865		42.968750
6866		46.875000
6867		41.015625
6868		44.921875
6869		41.015625
6870		42.968750
6871		39.062500
6872		41.015625
6873		37.109375
6874		39.062500
6875		35.156250
6876		37.109375
6877		33.203125
6878		37.109375
6879		31.250000
6880		35.156250
6881		29.296875
6882		33.203125
6883		25.390625
6884		29.296875
6885		23.437500
6886		27.343750
6887		21.484375
6888		25.390625
6889		19.531250
6890		23.437500
6891		17.578125
6892		21.484375
6893		15.625000
6894		19.531250
6895		11.718750
6896		15.625000
6897		9.765625
6898		13.671875
6899		7.812500
6900		11.718750
6901		5.859375
6902		9.765625
6903		1.953125
6904		5.859375
6905		0.000000
6906		3.906250
6907		-1.953125
6908		1.953125
6909		-3.906250
6910		0.000000
6911		-5.859375
6912		-3.906250
6913		-9.765625
6914		-5.859375
6915		-11.718750
6916		-7.812500
6917		-13.671875
6918		-9.765625
6919		-15.625000
6920		-11.718750
6921		-17.578125
6922		-13.671875
6923		-19.531250
6924		-17.578125
6925		-23.437500
6926		-17.578125
6927		-25.390625
6928		-19.531250
6929		-25.390625
6930		-21.484375
6931		-27.343750
6932		-25.390625
6933		-29.296875
6934		-25.390625
6935		-31.250000
6936		-27.343750
6937		-33.203125
6938		-29.296875
6939		-33.203125
6940		-31.250000
6941		-35.156250
6942		-33.203125
6943		-37.109375
6944		-33.203125
6945		-37.109375
6946		-35.156250
6947		-39.062500
6948		-35.156250
6949		-39.062500
6950		-37.109375
6951		-41.015625
6952		-37.109375
6953		-41.015625
6954		-39.062500
6955		-41.015625
6956		-39.062500
6957		-41.015625
6958		-39.062500
6959		-41.015625
6960		-39.062500
6961		-42.968750
6962		-39.062500
6963		-41.015625
6964		-39.062500
6965		-41.015625
6966		-39.062500
6967		-41.015625
6968		-39.062500
6969		-41.015625
6970		-39.062500
6971		-41.015625
6972		-37.109375
6973		-41.015625
6974		-37.109375
6975		-39.062500
6976		-37.109375
6977		-39.062500
6978		-35.156250
6979		-37.109375
6980		-35.156250
6981		-37.109375
6982		-33.203125
6983		-35.156250
6984		-33.203125
6985		-33.203125
6986		-31.250000
6987		-33.203125
6988		-29.296875
6989		-31.250000
6990		-27.343750
6991		-29.296875
6992		-25.390625
6993		-29.296875
6994		-23.437500
6995		-25.390625
6996		-23.437500
6997		-23.437500
6998		-21.484375
6999		-21.484375
7000		-19.531250
7001		-19.531250
7002		-17.578125
7003		-17.578125
7004		-13.671875
7005		-15.625000
7006		-11.718750
7007		-13.671875
7008		-9.765625
7009		-11.718750
7010		-7.812500
7011		-9.765625
7012		-5.859375
7013		-7.812500
7014		-3.906250
7015		-3.906250
7016		-1.953125
7017		-3.906250
7018		1.953125
7019		0.000000
7020		3.906250
7021		1.953125
7022		5.859375
7023		3.906250
7024		9.765625
7025		7.812500
7026		11.718750
7027		9.765625
7028		13.671875
7029		11.718750
7030		15.625000
7031		13.671875
7032		19.531250
7033		17.578125
7034		21.484375
7035		19.531250
7036		23.437500
7037		21.484375
7038		25.390625
7039		23.437500
7040		27.343750
7041		25.390625
7042		29.296875
7043		27.343750
7044		31.250000
7045		29.296875
7046		33.203125
7047		33.203125
7048		35.156250
7049		33.203125
7050		37.109375
7051		35.156250
7052		39.062500
7053		37.109375
7054		41.015625
7055		39.062500
7056		42.968750
7057		41.015625
7058		44.921875
7059		42.968750
7060		46.875000
7061		44.921875
7062		48.828125
7063		44.921875
7064		48.828125
7065		46.875000
7066		50.781250
7067		48.828125
7068		52.734375
7069		48.828125
7070		52.734375
7071		50.781250
7072		52.734375
7073		50.781250
7074		54.687500
7075		52.734375
7076		54.687500
7077		52.734375
7078		56.640625
7079		54.687500
7080		56.640625
7081		54.687500
7082		56.640625
7083		54.687500
7084		58.593750
7085		54.687500
7086		56.640625
7087		54.687500
7088		58.593750
7089		54.687500
7090		58.593750
7091		54.687500
7092		56.640625
7093		54.687500
7094		56.640625
7095		54.687500
7096		58.593750
7097		54.687500
7098		56.640625
7099		54.687500
7100		56.640625
7101		52.734375
7102		56.640625
7103		52.734375
7104		54.687500
7105		50.781250
7106		54.687500
7107		50.781250
7108		54.687500
7109		48.828125
7110		52.734375
7111		48.828125
7112		50.781250
7113		46.875000
7114		50.781250
7115		44.921875
7116		48.828125
7117		44.921875
7118		46.875000
7119		42.968750
7120		46.875000
7121		41.015625
7122		44.921875
7123		39.062500
7124		42.968750
7125		37.109375
7126		41.015625
7127		35.156250
7128		39.062500
7129		33.203125
7130		37.109375
7131		31.250000
7132		35.156250
7133		29.296875
7134		33.203125
7135		27.343750
7136		31.250000
7137		25.390625
7138		29.296875
7139		21.484375
7140		27.343750
7141		21.484375
7142		25.390625
7143		19.531250
7144		23.437500
7145		15.625000
7146		19.531250
7147		13.671875
7148		17.578125
7149		11.718750
7150		15.625000
7151		9.765625
7152		13.671875
7153		7.812500
7154		9.765625
7155		3.906250
7156		7.812500
7157		1.953125
7158		5.859375
7159		0.000000
7160		3.906250
7161		-3.906250
7162		1.953125
7163		-5.859375
7164		0.000000
7165		-7.812500
7166		-3.906250
7167		-9.765625
7168		-5.859375
7169		-11.718750
7170		-7.812500
7171		-13.671875
7172		-9.765625
7173		-17.578125
7174		-13.671875
7175		-19.531250
7176		-15.625000
7177		-21.484375
7178		-17.578125
7179		-23.437500
7180		-19.531250
7181		-25.390625
7182		-21.484375
7183		-27.343750
7184		-23.437500
7185		-29.296875
7186		-23.437500
7187		-29.296875
7188		-27.343750
7189		-31.250000
7190		-29.296875
7191		-33.203125
7192		-29.296875
7193		-35.156250
7194		-31.250000
7195		-37.109375
7196		-33.203125
7197		-37.109375
7198		-35.156250
7199		-39.062500
7200		-35.156250
7201		-39.062500
7202		-35.156250
7203		-39.062500
7204		-37.109375
7205		-41.015625
7206		-37.109375
7207		-41.015625
7208		-37.109375
7209		-41.015625
7210		-39.062500
7211		-41.015625
7212		-39.062500
7213		-42.968750
7214		-39.062500
7215		-42.968750
7216		-39.062500
7217		-42.968750
7218		-39.062500
7219		-42.968750
7220		-39.062500
7221		-41.015625
7222		-39.062500
7223		-41.015625
7224		-39.062500
7225		-41.015625
7226		-39.062500
7227		-39.062500
7228		-37.109375
7229		-39.062500
7230		-37.109375
7231		-39.062500
7232		-35.156250
7233		-37.109375
7234		-35.156250
7235		-37.109375
7236		-33.203125
7237		-35.156250
7238		-31.250000
7239		-33.203125
7240		-29.296875
7241		-33.203125
7242		-29.296875
7243		-31.250000
7244		-27.343750
7245		-29.296875
7246		-25.390625
7247		-27.343750
7248		-23.437500
7249		-25.390625
7250		-21.484375
7251		-23.437500
7252		-19.531250
7253		-21.484375
7254		-17.578125
7255		-19.531250
7256		-15.625000
7257		-17.578125
7258		-13.671875
7259		-15.625000
7260		-11.718750
7261		-13.671875
7262		-7.812500
7263		-11.718750
7264		-5.859375
7265		-9.765625
7266		-5.859375
7267		-5.859375
7268		-1.953125
7269		-3.906250
7270		0.000000
7271		-1.953125
7272		1.953125
7273		0.000000
7274		3.906250
7275		1.953125
7276		7.812500
7277		5.859375
7278		9.765625
7279		7.812500
7280		11.718750
7281		9.765625
7282		13.671875
7283		13.671875
7284		15.625000
7285		13.671875
7286		19.531250
7287		17.578125
7288		21.484375
7289		19.531250
7290		23.437500
7291		21.484375
7292		25.390625
7293		25.390625
7294		27.343750
7295		27.343750
7296		29.296875
7297		29.296875
7298		33.203125
7299		31.250000
7300		35.156250
7301		33.203125
7302		37.109375
7303		35.156250
7304		39.062500
7305		37.109375
7306		41.015625
7307		37.109375
7308		42.968750
7309		41.015625
7310		42.968750
7311		41.015625
7312		44.921875
7313		42.968750
7314		46.875000
7315		44.921875
7316		48.828125
7317		46.875000
7318		48.828125
7319		46.875000
7320		50.781250
7321		48.828125
7322		52.734375
7323		50.781250
7324		52.734375
7325		50.781250
7326		54.687500
7327		52.734375
7328		54.687500
7329		52.734375
7330		54.687500
7331		52.734375
7332		56.640625
7333		54.687500
7334		56.640625
7335		54.687500
7336		56.640625
7337		54.687500
7338		56.640625
7339		54.687500
7340		58.593750
7341		54.687500
7342		56.640625
7343		54.687500
7344		56.640625
7345		54.687500
7346		58.593750
7347		54.687500
7348		56.640625
7349		54.687500
7350		56.640625
7351		52.734375
7352		56.640625
7353		54.687500
7354		56.640625
7355		52.734375
7356		54.687500
7357		52.734375
7358		54.687500
7359		50.781250
7360		54.687500
7361		50.781250
7362		52.734375
7363		48.828125
7364		52.734375
7365		48.828125
7366		50.781250
7367		46.875000
7368		48.828125
7369		44.921875
7370		48.828125
7371		44.921875
7372		46.875000
7373		42.968750
7374		46.875000
7375		41.015625
7376		44.921875
7377		39.062500
7378		42.968750
7379		37.109375
7380		41.015625
7381		35.156250
7382		39.062500
7383		33.203125
7384		37.109375
7385		31.250000
7386		35.156250
7387		29.296875
7388		33.203125
7389		27.343750
7390		31.250000
7391		25.390625
7392		29.296875
7393		21.484375
7394		25.390625
7395		19.531250
7396		23.437500
7397		17.578125
7398		21.484375
7399		15.625000
7400		19.531250
7401		13.671875
7402		17.578125
7403		9.765625
7404		15.625000
7405		7.812500
7406		11.718750
7407		5.859375
7408		9.765625
7409		3.906250
7410		7.812500
7411		1.953125
7412		5.859375
7413		-1.953125
7414		1.953125
7415		-3.906250
7416		0.000000
7417		-5.859375
7418		-1.953125
7419		-7.812500
7420		-3.906250
7421		-11.718750
7422		-7.812500
7423		-13.671875
7424		-9.765625
7425		-15.625000
7426		-11.718750
7427		-17.578125
7428		-13.671875
7429		-19.531250
7430		-15.625000
7431		-21.484375
7432		-17.578125
7433		-23.437500
7434		-19.531250
7435		-25.390625
7436		-21.484375
7437		-27.343750
7438		-23.437500
7439		-29.296875
7440		-25.390625
7441		-31.250000
7442		-27.343750
7443		-33.203125
7444		-29.296875
7445		-33.203125
7446		-31.250000
7447		-35.156250
7448		-31.250000
7449		-37.109375
7450		-33.203125
7451		-37.109375
7452		-35.156250
7453		-39.062500
7454		-35.156250
7455		-39.062500
7456		-37.109375
7457		-41.015625
7458		-37.109375
7459		-41.015625
7460		-39.062500
7461		-41.015625
7462		-39.062500
7463		-41.015625
7464		-39.062500
7465		-42.968750
7466		-39.062500
7467		-42.968750
7468		-41.015625
7469		-42.968750
7470		-39.062500
7471		-42.968750
7472		-39.062500
7473		-42.968750
7474		-39.062500
7475		-41.015625
7476		-39.062500
7477		-41.015625
7478		-39.062500
7479		-41.015625
7480		-39.062500
7481		-41.015625
7482		-37.109375
7483		-39.062500
7484		-37.109375
7485		-39.062500
7486		-35.156250
7487		-37.109375
7488		-35.156250
7489		-35.156250
7490		-33.203125
7491		-35.156250
7492		-31.250000
7493		-33.203125
7494		-29.296875
7495		-33.203125
7496		-29.296875
7497		-31.250000
7498		-27.343750
7499		-29.296875
7500		-25.390625
7501		-27.343750
7502		-23.437500
7503		-25.390625
7504		-21.484375
7505		-23.437500
7506		-19.531250
7507		-21.484375
7508		-17.578125
7509		-19.531250
7510		-15.625000
7511		-17.578125
7512		-13.671875
7513		-15.625000
7514		-11.718750
7515		-13.671875
7516		-9.765625
7517		-11.718750
7518		-7.812500
7519		-7.812500
7520		-3.906250
7521		-5.859375
7522		-1.953125
7523		-3.906250
7524		0.000000
7525		-1.953125
7526		1.953125
7527		0.000000
7528		5.859375
7529		3.906250
7530		7.812500
7531		5.859375
7532		9.765625
7533		7.812500
7534		11.718750
7535		11.718750
7536		15.625000
7537		13.671875
7538		17.578125
7539		15.625000
7540		19.531250
7541		17.578125
7542		21.484375
7543		19.531250
7544		23.437500
7545		23.437500
7546		25.390625
7547		25.390625
7548		27.343750
7549		27.343750
7550		31.250000
7551		29.296875
7552		33.203125
7553		31.250000
7554		35.156250
7555		33.203125
7556		37.109375
7557		35.156250
7558		39.062500
7559		35.156250
7560		41.015625
7561		39.062500
7562		41.015625
7563		39.062500
7564		42.968750
7565		42.968750
7566		44.921875
7567		42.968750
7568		46.875000
7569		44.921875
7570		48.828125
7571		44.921875
7572		48.828125
7573		46.875000
7574		50.781250
7575		46.875000
7576		52.734375
7577		50.781250
7578		52.734375
7579		50.781250
7580		56.640625
7581		52.734375
7582		54.687500
7583		50.781250
7584		56.640625
7585		52.734375
7586		56.640625
7587		54.687500
7588		56.640625
7589		54.687500
7590		56.640625
7591		52.734375
7592		58.593750
7593		54.687500
7594		58.593750
7595		52.734375
7596		58.593750
7597		52.734375
7598		58.593750
7599		52.734375
7600		58.593750
7601		54.687500
7602		56.640625
7603		54.687500
7604		56.640625
7605		52.734375
7606		56.640625
7607		52.734375
7608		56.640625
7609		50.781250
7610		56.640625
7611		50.781250
7612		54.687500
7613		48.828125
7614		54.687500
7615		48.828125
7616		52.734375
7617		46.875000
7618		54.687500
7619		46.875000
7620		50.781250
7621		44.921875
7622		48.828125
7623		41.015625
7624		50.781250
7625		41.015625
7626		46.875000
7627		41.015625
7628		44.921875
7629		37.109375
7630		42.968750
7631		39.062500
7632		42.968750
7633		35.156250
7634		41.015625
7635		35.156250
7636		39.062500
7637		33.203125
7638		37.109375
7639		29.296875
7640		35.156250
7641		27.343750
7642		33.203125
7643		25.390625
7644		33.203125
7645		23.437500
7646		27.343750
7647		19.531250
7648		27.343750
7649		19.531250
7650		23.437500
7651		15.625000
7652		23.437500
7653		15.625000
7654		17.578125
7655		11.718750
7656		15.625000
7657		7.812500
7658		15.625000
7659		7.812500
7660		11.718750
7661		5.859375
7662		9.765625
7663		0.000000
7664		7.812500
7665		-1.953125
7666		7.812500
7667		-3.906250
7668		3.906250
7669		-3.906250
7670		0.000000
7671		-7.812500
7672		-3.906250
7673		-9.765625
7674		-3.906250
7675		-13.671875
7676		-5.859375
7677		-13.671875
7678		-9.765625
7679		-17.578125
7680		-11.718750
7681		-21.484375
7682		-11.718750
7683		-25.390625
7684		-13.671875
7685		-23.437500
7686		-19.531250
7687		-25.390625
7688		-21.484375
7689		-27.343750
7690		-23.437500
7691		-31.250000
7692		-23.437500
7693		-31.250000
7694		-25.390625
7695		-31.250000
7696		-29.296875
7697		-37.109375
7698		-27.343750
7699		-37.109375
7700		-27.343750
7701		-39.062500
7702		-29.296875
7703		-37.109375
7704		-33.203125
7705		-39.062500
7706		-35.156250
7707		-41.015625
7708		-33.203125
7709		-42.968750
7710		-33.203125
7711		-41.015625
7712		-37.109375
7713		-42.968750
7714		-39.062500
7715		-44.921875
7716		-35.156250
7717		-44.921875
7718		-37.109375
7719		-42.968750
7720		-41.015625
7721		-42.968750
7722		-39.062500
7723		-42.968750
7724		-39.062500
7725		-44.921875
7726		-37.109375
7727		-44.921875
7728		-39.062500
7729		-41.015625
7730		-39.062500
7731		-44.921875
7732		-35.156250
7733		-41.015625
7734		-39.062500
7735		-44.921875
7736		-37.109375
7737		-39.062500
7738		-37.109375
7739		-39.062500
7740		-35.156250
7741		-39.062500
7742		-31.250000
7743		-37.109375
7744		-31.250000
7745		-35.156250
7746		-31.250000
7747		-35.156250
7748		-27.343750
7749		-35.156250
7750		-25.390625
7751		-33.203125
7752		-25.390625
7753		-29.296875
7754		-25.390625
7755		-27.343750
7756		-23.437500
7757		-25.390625
7758		-21.484375
7759		-27.343750
7760		-17.578125
7761		-21.484375
7762		-17.578125
7763		-19.531250
7764		-15.625000
7765		-19.531250
7766		-9.765625
7767		-15.625000
7768		-7.812500
7769		-13.671875
7770		-7.812500
7771		-9.765625
7772		-5.859375
7773		-7.812500
7774		-3.906250
7775		-7.812500
7776		0.000000
7777		-3.906250
7778		1.953125
7779		-1.953125
7780		3.906250
7781		0.000000
7782		7.812500
7783		0.000000
7784		9.765625
7785		3.906250
7786		11.718750
7787		7.812500
7788		13.671875
7789		11.718750
7790		15.625000
7791		11.718750
7792		19.531250
7793		13.671875
7794		21.484375
7795		17.578125
7796		23.437500
7797		19.531250
7798		25.390625
7799		19.531250
7800		29.296875
7801		25.390625
7802		29.296875
7803		27.343750
7804		31.250000
7805		29.296875
7806		33.203125
7807		31.250000
7808		37.109375
7809		31.250000
7810		39.062500
7811		33.203125
7812		39.062500
7813		37.109375
7814		41.015625
7815		37.109375
7816		44.921875
7817		37.109375
7818		44.921875
7819		39.062500
7820		46.875000
7821		42.968750
7822		46.875000
7823		44.921875
7824		48.828125
7825		44.921875
7826		52.734375
7827		46.875000
7828		52.734375
7829		48.828125
7830		52.734375
7831		48.828125
7832		54.687500
7833		50.781250
7834		52.734375
7835		48.828125
7836		56.640625
7837		52.734375
7838		54.687500
7839		52.734375
7840		56.640625
7841		54.687500
7842		56.640625
7843		50.781250
7844		60.546875
7845		54.687500
7846		58.593750
7847		52.734375
7848		58.593750
7849		52.734375
7850		58.593750
7851		54.687500
7852		56.640625
7853		54.687500
7854		56.640625
7855		54.687500
7856		56.640625
7857		54.687500
7858		56.640625
7859		52.734375
7860		56.640625
7861		50.781250
7862		56.640625
7863		52.734375
7864		54.687500
7865		48.828125
7866		56.640625
7867		50.781250
7868		52.734375
7869		48.828125
7870		52.734375
7871		46.875000
7872		50.781250
7873		44.921875
7874		50.781250
7875		44.921875
7876		48.828125
7877		44.921875
7878		46.875000
7879		42.968750
7880		46.875000
7881		41.015625
7882		44.921875
7883		39.062500
7884		42.968750
7885		37.109375
7886		41.015625
7887		35.156250
7888		39.062500
7889		33.203125
7890		37.109375
7891		31.250000
7892		37.109375
7893		29.296875
7894		33.203125
7895		27.343750
7896		31.250000
7897		25.390625
7898		29.296875
7899		23.437500
7900		27.343750
7901		21.484375
7902		25.390625
7903		17.578125
7904		23.437500
7905		15.625000
7906		19.531250
7907		13.671875
7908		17.578125
7909		9.765625
7910		17.578125
7911		7.812500
7912		13.671875
7913		3.906250
7914		11.718750
7915		3.906250
7916		9.765625
7917		0.000000
7918		5.859375
7919		0.000000
7920		3.906250
7921		-3.906250
7922		0.000000
7923		-5.859375
7924		-1.953125
7925		-7.812500
7926		-3.906250
7927		-11.718750
7928		-5.859375
7929		-13.671875
7930		-7.812500
7931		-15.625000
7932		-9.765625
7933		-17.578125
7934		-11.718750
7935		-19.531250
7936		-13.671875
7937		-21.484375
7938		-17.578125
7939		-23.437500
7940		-19.531250
7941		-25.390625
7942		-21.484375
7943		-27.343750
7944		-23.437500
7945		-29.296875
7946		-23.437500
7947		-31.250000
7948		-25.390625
7949		-33.203125
7950		-27.343750
7951		-35.156250
7952		-29.296875
7953		-35.156250
7954		-31.250000
7955		-37.109375
7956		-33.203125
7957		-39.062500
7958		-35.156250
7959		-39.062500
7960		-35.156250
7961		-41.015625
7962		-35.156250
7963		-42.968750
7964		-37.109375
7965		-42.968750
7966		-37.109375
7967		-42.968750
7968		-37.109375
7969		-42.968750
7970		-39.062500
7971		-42.968750
7972		-41.015625
7973		-42.968750
7974		-41.015625
7975		-42.968750
7976		-39.062500
7977		-42.968750
7978		-39.062500
7979		-44.921875
7980		-39.062500
7981		-44.921875
7982		-37.109375
7983		-42.968750
7984		-39.062500
7985		-42.968750
7986		-39.062500
7987		-42.968750
7988		-37.109375
7989		-41.015625
7990		-37.109375
7991		-39.062500
7992		-37.109375
7993		-39.062500
7994		-35.156250
7995		-39.062500
7996		-33.203125
7997		-37.109375
7998		-31.250000
7999		-35.156250
8000		-31.250000
8001		-33.203125
8002		-29.296875
8003		-33.203125
8004		-29.296875
8005		-31.250000
8006		-27.343750
8007		-29.296875
8008		-25.390625
8009		-27.343750
8010		-23.437500
8011		-25.390625
8012		-19.531250
8013		-23.437500
8014		-19.531250
8015		-23.437500
8016		-15.625000
8017		-19.531250
8018		-15.625000
8019		-17.578125
8020		-11.718750
8021		-15.625000
8022		-11.718750
8023		-11.718750
8024		-7.812500
8025		-9.765625
8026		-5.859375
8027		-7.812500
8028		-1.953125
8029		-5.859375
8030		-1.953125
8031		-3.906250
8032		1.953125
8033		0.000000
8034		3.906250
8035		1.953125
8036		5.859375
8037		3.906250
8038		7.812500
8039		5.859375
8040		9.765625
8041		7.812500
8042		13.671875
8043		11.718750
8044		15.625000
8045		13.671875
8046		17.578125
8047		15.625000
8048		21.484375
8049		17.578125
8050		23.437500
8051		21.484375
8052		25.390625
8053		23.437500
8054		27.343750
8055		25.390625
8056		29.296875
8057		27.343750
8058		31.250000
8059		29.296875
8060		33.203125
8061		31.250000
8062		37.109375
8063		33.203125
8064		39.062500
8065		33.203125
8066		41.015625
8067		37.109375
8068		41.015625
8069		39.062500
8070		42.968750
8071		41.015625
8072		44.921875
8073		41.015625
8074		44.921875
8075		42.968750
8076		46.875000
8077		44.921875
8078		48.828125
8079		46.875000
8080		50.781250
8081		46.875000
8082		52.734375
8083		48.828125
8084		52.734375
8085		48.828125
8086		52.734375
8087		50.781250
8088		54.687500
8089		50.781250
8090		54.687500
8091		52.734375
8092		54.687500
8093		50.781250
8094		56.640625
8095		52.734375
8096		56.640625
8097		52.734375
8098		56.640625
8099		54.687500
8100		56.640625
8101		54.687500
8102		56.640625
8103		54.687500
8104		56.640625
8105		52.734375
8106		58.593750
8107		54.687500
8108		56.640625
8109		54.687500
8110		56.640625
8111		52.734375
8112		56.640625
8113		52.734375
8114		56.640625
8115		50.781250
8116		56.640625
8117		50.781250
8118		54.687500
8119		50.781250
8120		54.687500
8121		48.828125
8122		52.734375
8123		48.828125
8124		52.734375
8125		46.875000
8126		50.781250
8127		46.875000
8128		50.781250
8129		44.921875
8130		48.828125
8131		42.968750
8132		46.875000
8133		41.015625
8134		44.921875
8135		39.062500
8136		42.968750
8137		37.109375
8138		42.968750
8139		37.109375
8140		41.015625
8141		35.156250
8142		39.062500
8143		33.203125
8144		37.109375
8145		31.250000
8146		35.156250
8147		29.296875
8148		33.203125
8149		25.390625
8150		31.250000
8151		23.437500
8152		29.296875
8153		21.484375
8154		25.390625
8155		19.531250
8156		25.390625
8157		17.578125
8158		21.484375
8159		13.671875
8160		19.531250
8161		13.671875
8162		17.578125
8163		9.765625
8164		15.625000
8165		7.812500
8166		11.718750
8167		5.859375
8168		9.765625
8169		1.953125
8170		7.812500
8171		0.000000
8172		5.859375
8173		-1.953125
8174		1.953125
8175		-3.906250
8176		0.000000
8177		-5.859375
8178		-1.953125
8179		-9.765625
8180		-3.906250
8181		-11.718750
8182		-5.859375
8183		-13.671875
8184		-9.765625
8185		-15.625000
8186		-11.718750
8187		-17.578125
8188		-13.671875
8189		-19.531250
8190		-15.625000
8191		-21.484375
8192		-17.578125
8193		-23.437500
8194		-21.484375
8195		-25.390625
8196		-23.437500
8197		-27.343750
8198		-23.437500
8199		-29.296875
8200		-25.390625
8201		-31.250000
8202		-27.343750
8203		-33.203125
8204		-29.296875
8205		-35.156250
8206		-31.250000
8207		-35.156250
8208		-33.203125
8209		-37.109375
8210		-33.203125
8211		-39.062500
8212		-33.203125
8213		-39.062500
8214		-35.156250
8215		-41.015625
8216		-37.109375
8217		-41.015625
8218		-37.109375
8219		-41.015625
8220		-37.109375
8221		-42.968750
8222		-39.062500
8223		-42.968750
8224		-39.062500
8225		-42.968750
8226		-41.015625
8227		-44.921875
8228		-39.062500
8229		-42.968750
8230		-41.015625
8231		-42.968750
8232		-41.015625
8233		-42.968750
8234		-39.062500
8235		-42.968750
8236		-39.062500
8237		-42.968750
8238		-39.062500
8239		-42.968750
8240		-39.062500
8241		-41.015625
8242		-39.062500
8243		-41.015625
8244		-37.109375
8245		-41.015625
8246		-35.156250
8247		-39.062500
8248		-35.156250
8249		-39.062500
8250		-33.203125
8251		-35.156250
8252		-33.203125
8253		-35.156250
8254		-31.250000
8255		-33.203125
8256		-29.296875
8257		-31.250000
8258		-29.296875
8259		-29.296875
8260		-25.390625
8261		-29.296875
8262		-25.390625
8263		-27.343750
8264		-23.437500
8265		-25.390625
8266		-19.531250
8267		-23.437500
8268		-17.578125
8269		-21.484375
8270		-15.625000
8271		-19.531250
8272		-13.671875
8273		-17.578125
8274		-11.718750
8275		-13.671875
8276		-9.765625
8277		-11.718750
8278		-7.812500
8279		-9.765625
8280		-5.859375
8281		-7.812500
8282		-1.953125
8283		-5.859375
8284		0.000000
8285		-1.953125
8286		1.953125
8287		0.000000
8288		3.906250
8289		1.953125
8290		5.859375
8291		3.906250
8292		9.765625
8293		7.812500
8294		11.718750
8295		7.812500
8296		13.671875
8297		11.718750
8298		17.578125
8299		13.671875
8300		17.578125
8301		17.578125
8302		21.484375
8303		19.531250
8304		23.437500
8305		21.484375
8306		25.390625
8307		21.484375
8308		27.343750
8309		25.390625
8310		29.296875
8311		27.343750
8312		31.250000
8313		29.296875
8314		33.203125
8315		31.250000
8316		35.156250
8317		33.203125
8318		37.109375
8319		35.156250
8320		39.062500
8321		37.109375
8322		41.015625
8323		39.062500
8324		42.968750
8325		41.015625
8326		44.921875
8327		42.968750
8328		46.875000
8329		44.921875
8330		48.828125
8331		44.921875
8332		48.828125
8333		46.875000
8334		50.781250
8335		46.875000
8336		50.781250
8337		48.828125
8338		52.734375
8339		50.781250
8340		54.687500
8341		50.781250
8342		54.687500
8343		50.781250
8344		54.687500
8345		50.781250
8346		56.640625
8347		52.734375
8348		56.640625
8349		52.734375
8350		56.640625
8351		54.687500
8352		56.640625
8353		54.687500
8354		56.640625
8355		54.687500
8356		56.640625
8357		54.687500
8358		58.593750
8359		54.687500
8360		56.640625
8361		52.734375
8362		56.640625
8363		52.734375
8364		56.640625
8365		52.734375
8366		56.640625
8367		52.734375
8368		54.687500
8369		50.781250
8370		54.687500
8371		50.781250
8372		54.687500
8373		50.781250
8374		54.687500
8375		48.828125
8376		52.734375
8377		48.828125
8378		50.781250
8379		46.875000
8380		50.781250
8381		44.921875
8382		48.828125
8383		44.921875
8384		46.875000
8385		42.968750
8386		46.875000
8387		41.015625
8388		44.921875
8389		39.062500
8390		42.968750
8391		37.109375
8392		42.968750
8393		37.109375
8394		41.015625
8395		35.156250
8396		39.062500
8397		31.250000
8398		37.109375
8399		29.296875
8400		35.156250
8401		27.343750
8402		33.203125
8403		25.390625
8404		29.296875
8405		23.437500
8406		29.296875
8407		21.484375
8408		25.390625
8409		19.531250
8410		23.437500
8411		15.625000
8412		21.484375
8413		13.671875
8414		19.531250
8415		11.718750
8416		15.625000
8417		7.812500
8418		13.671875
8419		7.812500
8420		11.718750
8421		3.906250
8422		9.765625
8423		1.953125
8424		7.812500
8425		0.000000
8426		3.906250
8427		-1.953125
8428		1.953125
8429		-5.859375
8430		0.000000
8431		-7.812500
8432		-3.906250
8433		-9.765625
8434		-5.859375
8435		-11.718750
8436		-7.812500
8437		-13.671875
8438		-9.765625
8439		-15.625000
8440		-11.718750
8441		-19.531250
8442		-13.671875
8443		-21.484375
8444		-17.578125
8445		-23.437500
8446		-19.531250
8447		-25.390625
8448		-21.484375
8449		-27.343750
8450		-23.437500
8451		-29.296875
8452		-25.390625
8453		-31.250000
8454		-27.343750
8455		-31.250000
8456		-29.296875
8457		-35.156250
8458		-29.296875
8459		-35.156250
8460		-31.250000
8461		-35.156250
8462		-33.203125
8463		-37.109375
8464		-33.203125
8465		-39.062500
8466		-35.156250
8467		-39.062500
8468		-35.156250
8469		-41.015625
8470		-37.109375
8471		-41.015625
8472		-37.109375
8473		-41.015625
8474		-39.062500
8475		-42.968750
8476		-39.062500
8477		-42.968750
8478		-41.015625
8479		-44.921875
8480		-41.015625
8481		-42.968750
8482		-41.015625
8483		-42.968750
8484		-41.015625
8485		-42.968750
8486		-41.015625
8487		-42.968750
8488		-41.015625
8489		-42.968750
8490		-39.062500
8491		-42.968750
8492		-39.062500
8493		-41.015625
8494		-39.062500
8495		-41.015625
8496		-37.109375
8497		-41.015625
8498		-37.109375
8499		-39.062500
8500		-35.156250
8501		-39.062500
8502		-35.156250
8503		-37.109375
8504		-33.203125
8505		-37.109375
8506		-33.203125
8507		-35.156250
8508		-31.250000
8509		-33.203125
8510		-29.296875
8511		-31.250000
8512		-27.343750
8513		-31.250000
8514		-25.390625
8515		-27.343750
8516		-23.437500
8517		-27.343750
8518		-21.484375
8519		-23.437500
8520		-19.531250
8521		-21.484375
8522		-17.578125
8523		-19.531250
8524		-15.625000
8525		-19.531250
8526		-13.671875
8527		-15.625000
8528		-11.718750
8529		-13.671875
8530		-9.765625
8531		-11.718750
8532		-5.859375
8533		-9.765625
8534		-3.906250
8535		-7.812500
8536		-1.953125
8537		-3.906250
8538		0.000000
8539		-1.953125
8540		1.953125
8541		0.000000
8542		5.859375
8543		3.906250
8544		5.859375
8545		5.859375
8546		9.765625
8547		7.812500
8548		11.718750
8549		9.765625
8550		13.671875
8551		13.671875
8552		17.578125
8553		13.671875
8554		19.531250
8555		17.578125
8556		21.484375
8557		19.531250
8558		23.437500
8559		21.484375
8560		25.390625
8561		23.437500
8562		29.296875
8563		25.390625
8564		31.250000
8565		27.343750
8566		33.203125
8567		31.250000
8568		35.156250
8569		33.203125
8570		37.109375
8571		35.156250
8572		39.062500
8573		35.156250
8574		41.015625
8575		37.109375
8576		41.015625
8577		39.062500
8578		42.968750
8579		41.015625
8580		46.875000
8581		42.968750
8582		46.875000
8583		44.921875
8584		48.828125
8585		44.921875
8586		50.781250
8587		46.875000
8588		50.781250
8589		48.828125
8590		50.781250
8591		48.828125
8592		52.734375
8593		50.781250
8594		52.734375
8595		50.781250
8596		54.687500
8597		52.734375
8598		54.687500
8599		52.734375
8600		56.640625
8601		52.734375
8602		56.640625
8603		52.734375
8604		56.640625
8605		52.734375
8606		56.640625
8607		52.734375
8608		56.640625
8609		54.687500
8610		56.640625
8611		54.687500
8612		56.640625
8613		52.734375
8614		56.640625
8615		52.734375
8616		56.640625
8617		52.734375
8618		56.640625
8619		52.734375
8620		56.640625
8621		52.734375
8622		54.687500
8623		50.781250
8624		54.687500
8625		50.781250
8626		54.687500
8627		50.781250
8628		52.734375
8629		48.828125
8630		52.734375
8631		46.875000
8632		50.781250
8633		44.921875
8634		50.781250
8635		44.921875
8636		48.828125
8637		42.968750
8638		48.828125
8639		42.968750
8640		44.921875
8641		41.015625
8642		44.921875
8643		39.062500
8644		42.968750
8645		37.109375
8646		41.015625
8647		35.156250
8648		39.062500
8649		33.203125
8650		37.109375
8651		31.250000
8652		35.156250
8653		29.296875
8654		33.203125
8655		27.343750
8656		31.250000
8657		25.390625
8658		29.296875
8659		21.484375
8660		27.343750
8661		21.484375
8662		25.390625
8663		17.578125
8664		21.484375
8665		15.625000
8666		19.531250
8667		13.671875
8668		19.531250
8669		11.718750
8670		15.625000
8671		9.765625
8672		13.671875
8673		5.859375
8674		11.718750
8675		1.953125
8676		9.765625
8677		1.953125
8678		5.859375
8679		0.000000
8680		3.906250
8681		-3.906250
8682		0.000000
8683		-5.859375
8684		-1.953125
8685		-9.765625
8686		-3.906250
8687		-9.765625
8688		-5.859375
8689		-11.718750
8690		-7.812500
8691		-15.625000
8692		-11.718750
8693		-17.578125
8694		-11.718750
8695		-19.531250
8696		-15.625000
8697		-21.484375
8698		-17.578125
8699		-23.437500
8700		-19.531250
8701		-25.390625
8702		-21.484375
8703		-27.343750
8704		-23.437500
8705		-29.296875
8706		-25.390625
8707		-31.250000
8708		-27.343750
8709		-33.203125
8710		-29.296875
8711		-33.203125
8712		-31.250000
8713		-35.156250
8714		-33.203125
8715		-37.109375
8716		-33.203125
8717		-37.109375
8718		-35.156250
8719		-39.062500
8720		-35.156250
8721		-39.062500
8722		-37.109375
8723		-41.015625
8724		-37.109375
8725		-41.015625
8726		-39.062500
8727		-42.968750
8728		-39.062500
8729		-42.968750
8730		-39.062500
8731		-42.968750
8732		-39.062500
8733		-42.968750
8734		-41.015625
8735		-42.968750
8736		-41.015625
8737		-42.968750
8738		-41.015625
8739		-42.968750
8740		-39.062500
8741		-42.968750
8742		-41.015625
8743		-42.968750
8744		-39.062500
8745		-42.968750
8746		-39.062500
8747		-41.015625
8748		-39.062500
8749		-41.015625
8750		-37.109375
8751		-39.062500
8752		-37.109375
8753		-39.062500
8754		-35.156250
8755		-37.109375
8756		-35.156250
8757		-37.109375
8758		-33.203125
8759		-35.156250
8760		-31.250000
8761		-35.156250
8762		-31.250000
8763		-33.203125
8764		-29.296875
8765		-31.250000
8766		-27.343750
8767		-29.296875
8768		-25.390625
8769		-27.343750
8770		-23.437500
8771		-27.343750
8772		-21.484375
8773		-23.437500
8774		-19.531250
8775		-21.484375
8776		-17.578125
8777		-19.531250
8778		-15.625000
8779		-17.578125
8780		-13.671875
8781		-15.625000
8782		-11.718750
8783		-13.671875
8784		-9.765625
8785		-11.718750
8786		-5.859375
8787		-9.765625
8788		-3.906250
8789		-5.859375
8790		-1.953125
8791		-3.906250
8792		0.000000
8793		-1.953125
8794		3.906250
8795		1.953125
8796		5.859375
8797		3.906250
8798		7.812500
8799		5.859375
8800		9.765625
8801		7.812500
8802		11.718750
8803		9.765625
8804		15.625000
8805		13.671875
8806		17.578125
8807		15.625000
8808		19.531250
8809		17.578125
8810		21.484375
8811		17.578125
8812		23.437500
8813		23.437500
8814		25.390625
8815		25.390625
8816		29.296875
8817		27.343750
8818		31.250000
8819		29.296875
8820		33.203125
8821		31.250000
8822		35.156250
8823		33.203125
8824		37.109375
8825		35.156250
8826		39.062500
8827		37.109375
8828		41.015625
8829		39.062500
8830		42.968750
8831		41.015625
8832		42.968750
8833		41.015625
8834		44.921875
8835		42.968750
8836		46.875000
8837		44.921875
8838		46.875000
8839		46.875000
8840		48.828125
8841		46.875000
8842		50.781250
8843		46.875000
8844		52.734375
8845		48.828125
8846		52.734375
8847		50.781250
8848		52.734375
8849		50.781250
8850		54.687500
8851		50.781250
8852		54.687500
8853		52.734375
8854		54.687500
8855		52.734375
8856		56.640625
8857		52.734375
8858		56.640625
8859		54.687500
8860		56.640625
8861		52.734375
8862		56.640625
8863		54.687500
8864		56.640625
8865		54.687500
8866		58.593750
8867		52.734375
8868		56.640625
8869		52.734375
8870		56.640625
8871		52.734375
8872		56.640625
8873		52.734375
8874		56.640625
8875		52.734375
8876		54.687500
8877		50.781250
8878		54.687500
8879		50.781250
8880		52.734375
8881		48.828125
8882		52.734375
8883		48.828125
8884		52.734375
8885		46.875000
8886		50.781250
8887		44.921875
8888		50.781250
8889		44.921875
8890		48.828125
8891		42.968750
8892		46.875000
8893		41.015625
8894		46.875000
8895		39.062500
8896		44.921875
8897		39.062500
8898		41.015625
8899		37.109375
8900		41.015625
8901		35.156250
8902		39.062500
8903		33.203125
8904		37.109375
8905		31.250000
8906		35.156250
8907		27.343750
8908		33.203125
8909		25.390625
8910		31.250000
8911		25.390625
8912		29.296875
8913		23.437500
8914		27.343750
8915		19.531250
8916		23.437500
8917		17.578125
8918		23.437500
8919		15.625000
8920		19.531250
8921		13.671875
8922		17.578125
8923		9.765625
8924		15.625000
8925		7.812500
8926		11.718750
8927		5.859375
8928		9.765625
8929		3.906250
8930		7.812500
8931		0.000000
8932		3.906250
8933		-1.953125
8934		1.953125
8935		-3.906250
8936		0.000000
8937		-5.859375
8938		-1.953125
8939		-9.765625
8940		-3.906250
8941		-11.718750
8942		-7.812500
8943		-13.671875
8944		-7.812500
8945		-15.625000
8946		-11.718750
8947		-17.578125
8948		-13.671875
8949		-19.531250
8950		-15.625000
8951		-21.484375
8952		-17.578125
8953		-23.437500
8954		-19.531250
8955		-25.390625
8956		-21.484375
8957		-29.296875
8958		-23.437500
8959		-29.296875
8960		-25.390625
8961		-31.250000
8962		-27.343750
8963		-33.203125
8964		-29.296875
8965		-35.156250
8966		-31.250000
8967		-37.109375
8968		-31.250000
8969		-39.062500
8970		-33.203125
8971		-39.062500
8972		-35.156250
8973		-39.062500
8974		-35.156250
8975		-41.015625
8976		-37.109375
8977		-41.015625
8978		-39.062500
8979		-41.015625
8980		-39.062500
8981		-42.968750
8982		-39.062500
8983		-44.921875
8984		-39.062500
8985		-42.968750
8986		-41.015625
8987		-42.968750
8988		-41.015625
8989		-42.968750
8990		-41.015625
8991		-44.921875
8992		-41.015625
8993		-42.968750
8994		-41.015625
8995		-42.968750
8996		-39.062500
8997		-42.968750
8998		-41.015625
8999		-42.968750
9000		-39.062500
9001		-42.968750
9002		-39.062500
9003		-41.015625
9004		-37.109375
9005		-41.015625
9006		-37.109375
9007		-39.062500
9008		-35.156250
9009		-39.062500
9010		-35.156250
9011		-37.109375
9012		-33.203125
9013		-37.109375
9014		-33.203125
9015		-33.203125
9016		-29.296875
9017		-31.250000
9018		-29.296875
9019		-31.250000
9020		-27.343750
9021		-29.296875
9022		-25.390625
9023		-27.343750
9024		-23.437500
9025		-25.390625
9026		-21.484375
9027		-23.437500
9028		-19.531250
9029		-21.484375
9030		-17.578125
9031		-19.531250
9032		-15.625000
9033		-17.578125
9034		-13.671875
9035		-15.625000
9036		-9.765625
9037		-11.718750
9038		-7.812500
9039		-9.765625
9040		-5.859375
9041		-7.812500
9042		-3.906250
9043		-5.859375
9044		-1.953125
9045		-3.906250
9046		1.953125
9047		0.000000
9048		3.906250
9049		1.953125
9050		5.859375
9051		3.906250
9052		7.812500
9053		5.859375
9054		9.765625
9055		7.812500
9056		13.671875
9057		11.718750
9058		15.625000
9059		13.671875
9060		17.578125
9061		15.625000
9062		19.531250
9063		17.578125
9064		21.484375
9065		21.484375
9066		25.390625
9067		23.437500
9068		27.343750
9069		25.390625
9070		29.296875
9071		27.343750
9072		31.250000
9073		29.296875
9074		33.203125
9075		31.250000
9076		35.156250
9077		33.203125
9078		37.109375
9079		35.156250
9080		39.062500
9081		37.109375
9082		41.015625
9083		39.062500
9084		42.968750
9085		39.062500
9086		44.921875
9087		41.015625
9088		44.921875
9089		42.968750
9090		46.875000
9091		44.921875
9092		48.828125
9093		46.875000
9094		48.828125
9095		46.875000
9096		50.781250
9097		46.875000
9098		50.781250
9099		50.781250
9100		52.734375
9101		48.828125
9102		54.687500
9103		50.781250
9104		54.687500
9105		52.734375
9106		54.687500
9107		52.734375
9108		56.640625
9109		52.734375
9110		56.640625
9111		52.734375
9112		56.640625
9113		54.687500
9114		56.640625
9115		54.687500
9116		56.640625
9117		52.734375
9118		58.593750
9119		52.734375
9120		56.640625
9121		52.734375
9122		56.640625
9123		52.734375
9124		56.640625
9125		52.734375
9126		56.640625
9127		52.734375
9128		56.640625
9129		50.781250
9130		54.687500
9131		50.781250
9132		54.687500
9133		50.781250
9134		52.734375
9135		48.828125
9136		52.734375
9137		46.875000
9138		50.781250
9139		46.875000
9140		50.781250
9141		44.921875
9142		48.828125
9143		44.921875
9144		48.828125
9145		42.968750
9146		46.875000
9147		41.015625
9148		44.921875
9149		39.062500
9150		42.968750
9151		37.109375
9152		41.015625
9153		35.156250
9154		39.062500
9155		33.203125
9156		37.109375
9157		33.203125
9158		37.109375
9159		29.296875
9160		35.156250
9161		29.296875
9162		31.250000
9163		25.390625
9164		31.250000
9165		23.437500
9166		27.343750
9167		21.484375
9168		25.390625
9169		19.531250
9170		23.437500
9171		17.578125
9172		21.484375
9173		13.671875
9174		17.578125
9175		11.718750
9176		17.578125
9177		9.765625
9178		13.671875
9179		7.812500
9180		11.718750
9181		5.859375
9182		9.765625
9183		1.953125
9184		5.859375
9185		0.000000
9186		3.906250
9187		-1.953125
9188		1.953125
9189		-3.906250
9190		0.000000
9191		-7.812500
9192		-1.953125
9193		-9.765625
9194		-5.859375
9195		-11.718750
9196		-7.812500
9197		-13.671875
9198		-9.765625
9199		-15.625000
9200		-11.718750
9201		-19.531250
9202		-15.625000
9203		-21.484375
9204		-15.625000
9205		-23.437500
9206		-19.531250
9207		-25.390625
9208		-21.484375
9209		-27.343750
9210		-23.437500
9211		-29.296875
9212		-25.390625
9213		-33.203125
9214		-27.343750
9215		-31.250000
9216		-29.296875
9217		-33.203125
9218		-29.296875
9219		-35.156250
9220		-31.250000
9221		-37.109375
9222		-33.203125
9223		-37.109375
9224		-33.203125
9225		-39.062500
9226		-35.156250
9227		-41.015625
9228		-37.109375
9229		-41.015625
9230		-37.109375
9231		-42.968750
9232		-37.109375
9233		-41.015625
9234		-39.062500
9235		-42.968750
9236		-39.062500
9237		-42.968750
9238		-41.015625
9239		-42.968750
9240		-41.015625
9241		-42.968750
9242		-41.015625
9243		-42.968750
9244		-41.015625
9245		-42.968750
9246		-41.015625
9247		-42.968750
9248		-41.015625
9249		-42.968750
9250		-41.015625
9251		-42.968750
9252		-39.062500
9253		-42.968750
9254		-39.062500
9255		-41.015625
9256		-37.109375
9257		-41.015625
9258		-37.109375
9259		-41.015625
9260		-35.156250
9261		-39.062500
9262		-35.156250
9263		-39.062500
9264		-33.203125
9265		-37.109375
9266		-33.203125
9267		-35.156250
9268		-31.250000
9269		-33.203125
9270		-29.296875
9271		-33.203125
9272		-27.343750
9273		-31.250000
9274		-27.343750
9275		-29.296875
9276		-25.390625
9277		-27.343750
9278		-21.484375
9279		-25.390625
9280		-21.484375
9281		-23.437500
9282		-19.531250
9283		-21.484375
9284		-17.578125
9285		-17.578125
9286		-13.671875
9287		-17.578125
9288		-11.718750
9289		-15.625000
9290		-9.765625
9291		-11.718750
9292		-7.812500
9293		-9.765625
9294		-5.859375
9295		-7.812500
9296		-1.953125
9297		-3.906250
9298		0.000000
9299		-1.953125
9300		1.953125
9301		0.000000
9302		3.906250
9303		1.953125
9304		5.859375
9305		3.906250
9306		9.765625
9307		7.812500
9308		11.718750
9309		9.765625
9310		13.671875
9311		11.718750
9312		15.625000
9313		13.671875
9314		19.531250
9315		17.578125
9316		21.484375
9317		19.531250
9318		23.437500
9319		21.484375
9320		25.390625
9321		23.437500
9322		27.343750
9323		25.390625
9324		29.296875
9325		27.343750
9326		31.250000
9327		29.296875
9328		33.203125
9329		31.250000
9330		35.156250
9331		33.203125
9332		39.062500
9333		35.156250
9334		39.062500
9335		37.109375
9336		41.015625
9337		39.062500
9338		42.968750
9339		41.015625
9340		44.921875
9341		41.015625
9342		44.921875
9343		44.921875
9344		46.875000
9345		44.921875
9346		48.828125
9347		46.875000
9348		50.781250
9349		46.875000
9350		50.781250
9351		48.828125
9352		52.734375
9353		50.781250
9354		52.734375
9355		50.781250
9356		54.687500
9357		50.781250
9358		54.687500
9359		52.734375
9360		54.687500
9361		52.734375
9362		54.687500
9363		52.734375
9364		56.640625
9365		52.734375
9366		56.640625
9367		54.687500
9368		56.640625
9369		54.687500
9370		56.640625
9371		52.734375
9372		56.640625
9373		54.687500
9374		56.640625
9375		52.734375
9376		56.640625
9377		52.734375
9378		56.640625
9379		52.734375
9380		56.640625
9381		50.781250
9382		54.687500
9383		52.734375
9384		54.687500
9385		50.781250
9386		52.734375
9387		48.828125
9388		52.734375
9389		48.828125
9390		52.734375
9391		46.875000
9392		50.781250
9393		46.875000
9394		50.781250
9395		44.921875
9396		48.828125
9397		42.968750
9398		46.875000
9399		42.968750
9400		46.875000
9401		41.015625
9402		44.921875
9403		39.062500
9404		42.968750
9405		37.109375
9406		41.015625
9407		35.156250
9408		39.062500
9409		33.203125
9410		37.109375
9411		31.250000
9412		35.156250
9413		29.296875
9414		33.203125
9415		27.343750
9416		33.203125
9417		25.390625
9418		29.296875
9419		23.437500
9420		27.343750
9421		21.484375
9422		25.390625
9423		19.531250
9424		23.437500
9425		17.578125
9426		21.484375
9427		13.671875
9428		19.531250
9429		11.718750
9430		15.625000
9431		9.765625
9432		13.671875
9433		5.859375
9434		11.718750
9435		3.906250
9436		7.812500
9437		1.953125
9438		5.859375
9439		0.000000
9440		3.906250
9441		-3.906250
9442		1.953125
9443		-5.859375
9444		-1.953125
9445		-7.812500
9446		-1.953125
9447		-9.765625
9448		-5.859375
9449		-11.718750
9450		-7.812500
9451		-15.625000
9452		-9.765625
9453		-15.625000
9454		-13.671875
9455		-19.531250
9456		-13.671875
9457		-21.484375
9458		-17.578125
9459		-23.437500
9460		-19.531250
9461		-25.390625
9462		-21.484375
9463		-27.343750
9464		-23.437500
9465		-29.296875
9466		-25.390625
9467		-31.250000
9468		-25.390625
9469		-31.250000
9470		-29.296875
9471		-35.156250
9472		-29.296875
9473		-37.109375
9474		-31.250000
9475		-37.109375
9476		-33.203125
9477		-37.109375
9478		-35.156250
9479		-39.062500
9480		-35.156250
9481		-41.015625
9482		-37.109375
9483		-41.015625
9484		-37.109375
9485		-41.015625
9486		-39.062500
9487		-42.968750
9488		-39.062500
9489		-42.968750
9490		-39.062500
9491		-42.968750
9492		-41.015625
9493		-42.968750
9494		-41.015625
9495		-44.921875
9496		-41.015625
9497		-42.968750
9498		-41.015625
9499		-44.921875
9500		-39.062500
9501		-42.968750
9502		-41.015625
9503		-42.968750
9504		-41.015625
9505		-42.968750
9506		-39.062500
9507		-41.015625
9508		-39.062500
9509		-41.015625
9510		-37.109375
9511		-41.015625
9512		-37.109375
9513		-41.015625
9514		-37.109375
9515		-39.062500
9516		-35.156250
9517		-37.109375
9518		-33.203125
9519		-35.156250
9520		-33.203125
9521		-35.156250
9522		-31.250000
9523		-33.203125
9524		-29.296875
9525		-31.250000
9526		-27.343750
9527		-29.296875
9528		-25.390625
9529		-27.343750
9530		-23.437500
9531		-25.390625
9532		-21.484375
9533		-23.437500
9534		-19.531250
9535		-21.484375
9536		-17.578125
9537		-19.531250
9538		-15.625000
9539		-19.531250
9540		-13.671875
9541		-15.625000
9542		-11.718750
9543		-13.671875
9544		-9.765625
9545		-11.718750
9546		-5.859375
9547		-9.765625
9548		-3.906250
9549		-7.812500
9550		-1.953125
9551		-3.906250
9552		0.000000
9553		-1.953125
9554		1.953125
9555		0.000000
9556		5.859375
9557		1.953125
9558		7.812500
9559		5.859375
9560		9.765625
9561		7.812500
9562		11.718750
9563		9.765625
9564		13.671875
9565		11.718750
9566		17.578125
9567		15.625000
9568		19.531250
9569		17.578125
9570		21.484375
9571		19.531250
9572		23.437500
9573		21.484375
9574		27.343750
9575		25.390625
9576		27.343750
9577		25.390625
9578		31.250000
9579		29.296875
9580		33.203125
9581		31.250000
9582		35.156250
9583		33.203125
9584		37.109375
9585		35.156250
9586		39.062500
9587		37.109375
9588		39.062500
9589		39.062500
9590		41.015625
9591		41.015625
9592		42.968750
9593		41.015625
9594		44.921875
9595		42.968750
9596		46.875000
9597		44.921875
9598		46.875000
9599		46.875000
9600		48.828125
9601		46.875000
9602		50.781250
9603		48.828125
9604		50.781250
9605		48.828125
9606		52.734375
9607		48.828125
9608		52.734375
9609		50.781250
9610		54.687500
9611		52.734375
9612		54.687500
9613		52.734375
9614		56.640625
9615		52.734375
9616		56.640625
9617		52.734375
9618		56.640625
9619		54.687500
9620		56.640625
9621		54.687500
9622		56.640625
9623		52.734375
9624		58.593750
9625		54.687500
9626		56.640625
9627		52.734375
9628		56.640625
9629		52.734375
9630		56.640625
9631		52.734375
9632		56.640625
9633		52.734375
9634		56.640625
9635		52.734375
9636		56.640625
9637		52.734375
9638		54.687500
9639		50.781250
9640		54.687500
9641		48.828125
9642		52.734375
9643		48.828125
9644		52.734375
9645		46.875000
9646		50.781250
9647		46.875000
9648		50.781250
9649		44.921875
9650		48.828125
9651		44.921875
9652		48.828125
9653		42.968750
9654		46.875000
9655		39.062500
9656		44.921875
9657		39.062500
9658		42.968750
9659		37.109375
9660		41.015625
9661		35.156250
9662		39.062500
9663		33.203125
9664		37.109375
9665		31.250000
9666		35.156250
9667		29.296875
9668		33.203125
9669		27.343750
9670		31.250000
9671		25.390625
9672		29.296875
9673		23.437500
9674		27.343750
9675		21.484375
9676		25.390625
9677		17.578125
9678		23.437500
9679		15.625000
9680		19.531250
9681		13.671875
9682		17.578125
9683		11.718750
9684		15.625000
9685		9.765625
9686		13.671875
9687		5.859375
9688		9.765625
9689		3.906250
9690		7.812500
9691		1.953125
9692		5.859375
9693		-1.953125
9694		3.906250
9695		-3.906250
9696		0.000000
9697		-5.859375
9698		-1.953125
9699		-7.812500
9700		-3.906250
9701		-11.718750
9702		-5.859375
9703		-11.718750
9704		-7.812500
9705		-15.625000
9706		-11.718750
9707		-17.578125
9708		-11.718750
9709		-19.531250
9710		-15.625000
9711		-21.484375
9712		-17.578125
9713		-23.437500
9714		-19.531250
9715		-25.390625
9716		-21.484375
9717		-27.343750
9718		-23.437500
9719		-29.296875
9720		-23.437500
9721		-31.250000
9722		-27.343750
9723		-33.203125
9724		-29.296875
9725		-33.203125
9726		-31.250000
9727		-35.156250
9728		-31.250000
9729		-37.109375
9730		-33.203125
9731		-37.109375
9732		-35.156250
9733		-39.062500
9734		-35.156250
9735		-39.062500
9736		-37.109375
9737		-41.015625
9738		-37.109375
9739		-42.968750
9740		-37.109375
9741		-42.968750
9742		-39.062500
9743		-42.968750
9744		-39.062500
9745		-42.968750
9746		-39.062500
9747		-42.968750
9748		-41.015625
9749		-42.968750
9750		-41.015625
9751		-42.968750
9752		-41.015625
9753		-42.968750
9754		-39.062500
9755		-42.968750
9756		-41.015625
9757		-42.968750
9758		-39.062500
9759		-41.015625
9760		-39.062500
9761		-41.015625
9762		-39.062500
9763		-41.015625
9764		-37.109375
9765		-39.062500
9766		-37.109375
9767		-39.062500
9768		-35.156250
9769		-39.062500
9770		-33.203125
9771		-37.109375
9772		-33.203125
9773		-35.156250
9774		-31.250000
9775		-33.203125
9776		-29.296875
9777		-31.250000
9778		-27.343750
9779		-31.250000
9780		-27.343750
9781		-29.296875
9782		-25.390625
9783		-27.343750
9784		-23.437500
9785		-25.390625
9786		-21.484375
9787		-23.437500
9788		-19.531250
9789		-21.484375
9790		-17.578125
9791		-19.531250
9792		-15.625000
9793		-17.578125
9794		-11.718750
9795		-13.671875
9796		-11.718750
9797		-11.718750
9798		-7.812500
9799		-9.765625
9800		-5.859375
9801		-7.812500
9802		-3.906250
9803		-5.859375
9804		-1.953125
9805		-3.906250
9806		0.000000
9807		-1.953125
9808		3.906250
9809		1.953125
9810		5.859375
9811		3.906250
9812		7.812500
9813		5.859375
9814		11.718750
9815		9.765625
9816		13.671875
9817		9.765625
9818		15.625000
9819		13.671875
9820		17.578125
9821		15.625000
9822		19.531250
9823		17.578125
9824		23.437500
9825		21.484375
9826		25.390625
9827		23.437500
9828		27.343750
9829		25.390625
9830		29.296875
9831		27.343750
9832		31.250000
9833		29.296875
9834		33.203125
9835		31.250000
9836		35.156250
9837		33.203125
9838		37.109375
9839		35.156250
9840		39.062500
9841		37.109375
9842		41.015625
9843		39.062500
9844		42.968750
9845		41.015625
9846		44.921875
9847		42.968750
9848		44.921875
9849		42.968750
9850		46.875000
9851		44.921875
9852		48.828125
9853		44.921875
9854		48.828125
9855		48.828125
9856		50.781250
9857		48.828125
9858		52.734375
9859		50.781250
9860		54.687500
9861		50.781250
9862		54.687500
9863		50.781250
9864		54.687500
9865		52.734375
9866		54.687500
9867		52.734375
9868		56.640625
9869		52.734375
9870		58.593750
9871		54.687500
9872		56.640625
9873		54.687500
9874		56.640625
9875		52.734375
9876		56.640625
9877		54.687500
9878		56.640625
9879		54.687500
9880		58.593750
9881		54.687500
9882		56.640625
9883		52.734375
9884		56.640625
9885		52.734375
9886		56.640625
9887		52.734375
9888		56.640625
9889		52.734375
9890		54.687500
9891		50.781250
9892		54.687500
9893		50.781250
9894		54.687500
9895		50.781250
9896		52.734375
9897		48.828125
9898		52.734375
9899		46.875000
9900		50.781250
9901		46.875000
9902		50.781250
9903		42.968750
9904		48.828125
9905		42.968750
9906		46.875000
9907		41.015625
9908		44.921875
9909		41.015625
9910		44.921875
9911		39.062500
9912		42.968750
9913		37.109375
9914		41.015625
9915		35.156250
9916		39.062500
9917		33.203125
9918		37.109375
9919		31.250000
9920		35.156250
9921		29.296875
9922		33.203125
9923		27.343750
9924		31.250000
9925		25.390625
9926		29.296875
9927		21.484375
9928		27.343750
9929		19.531250
9930		25.390625
9931		17.578125
9932		21.484375
9933		15.625000
9934		19.531250
9935		13.671875
9936		17.578125
9937		11.718750
9938		15.625000
9939		7.812500
9940		11.718750
9941		3.906250
9942		9.765625
9943		3.906250
9944		7.812500
9945		1.953125
9946		5.859375
9947		-1.953125
9948		3.906250
9949		-3.906250
9950		0.000000
9951		-5.859375
9952		-1.953125
9953		-9.765625
9954		-3.906250
9955		-11.718750
9956		-7.812500
9957		-13.671875
9958		-9.765625
9959		-15.625000
9960		-11.718750
9961		-17.578125
9962		-13.671875
9963		-19.531250
9964		-15.625000
9965		-21.484375
9966		-17.578125
9967		-23.437500
9968		-19.531250
9969		-27.343750
9970		-21.484375
9971		-27.343750
9972		-23.437500
9973		-29.296875
9974		-25.390625
9975		-31.250000
9976		-27.343750
9977		-33.203125
9978		-29.296875
9979		-33.203125
9980		-31.250000
9981		-35.156250
9982		-31.250000
9983		-37.109375
9984		-33.203125
9985		-37.109375
9986		-35.156250
9987		-41.015625
9988		-35.156250
9989		-39.062500
9990		-37.109375
9991		-41.015625
9992		-37.109375
9993		-41.015625
9994		-37.109375
9995		-42.968750
9996		-39.062500
9997		-42.968750
9998		-39.062500
9999		-42.968750
10000		-39.062500
