Channel              :		CH1
Frequency            :		1.973kHz
Period               :		0.507ms
PK-PK                :		168.0mV
Probe attenuation    :		1X
Voltage per ADC value:		0.122070mV
Time interval        :		2.00000us

index		CH1_Voltage(mV)
1		85.937500
2		85.937500
3		89.843750
4		85.937500
5		87.890625
6		83.984375
7		87.890625
8		83.984375
9		87.890625
10		83.984375
11		87.890625
12		82.031250
13		85.937500
14		82.031250
15		83.984375
16		80.078125
17		82.031250
18		78.125000
19		83.984375
20		76.171875
21		80.078125
22		74.218750
23		78.125000
24		72.265625
25		76.171875
26		70.312500
27		74.218750
28		66.406250
29		72.265625
30		64.453125
31		70.312500
32		62.500000
33		66.406250
34		58.593750
35		64.453125
36		56.640625
37		60.546875
38		52.734375
39		58.593750
40		50.781250
41		54.687500
42		46.875000
43		52.734375
44		42.968750
45		48.828125
46		39.062500
47		46.875000
48		37.109375
49		42.968750
50		33.203125
51		39.062500
52		29.296875
53		35.156250
54		25.390625
55		31.250000
56		21.484375
57		27.343750
58		17.578125
59		23.437500
60		13.671875
61		19.531250
62		9.765625
63		15.625000
64		5.859375
65		11.718750
66		1.953125
67		7.812500
68		-1.953125
69		3.906250
70		-7.812500
71		-1.953125
72		-9.765625
73		-5.859375
74		-13.671875
75		-9.765625
76		-17.578125
77		-13.671875
78		-21.484375
79		-17.578125
80		-25.390625
81		-21.484375
82		-29.296875
83		-25.390625
84		-35.156250
85		-27.343750
86		-37.109375
87		-31.250000
88		-41.015625
89		-35.156250
90		-42.968750
91		-39.062500
92		-46.875000
93		-41.015625
94		-48.828125
95		-44.921875
96		-52.734375
97		-48.828125
98		-54.687500
99		-50.781250
100		-58.593750
101		-54.687500
102		-60.546875
103		-56.640625
104		-62.500000
105		-58.593750
106		-64.453125
107		-60.546875
108		-66.406250
109		-62.500000
110		-68.359375
111		-64.453125
112		-70.312500
113		-66.406250
114		-70.312500
115		-66.406250
116		-72.265625
117		-68.359375
118		-74.218750
119		-70.312500
120		-74.218750
121		-70.312500
122		-74.218750
123		-70.312500
124		-74.218750
125		-72.265625
126		-74.218750
127		-72.265625
128		-74.218750
129		-70.312500
130		-74.218750
131		-70.312500
132		-74.218750
133		-70.312500
134		-72.265625
135		-68.359375
136		-72.265625
137		-68.359375
138		-70.312500
139		-66.406250
140		-68.359375
141		-66.406250
142		-68.359375
143		-62.500000
144		-66.406250
145		-62.500000
146		-64.453125
147		-60.546875
148		-62.500000
149		-56.640625
150		-58.593750
151		-54.687500
152		-56.640625
153		-52.734375
154		-54.687500
155		-48.828125
156		-52.734375
157		-46.875000
158		-48.828125
159		-42.968750
160		-44.921875
161		-41.015625
162		-42.968750
163		-37.109375
164		-39.062500
165		-33.203125
166		-35.156250
167		-29.296875
168		-31.250000
169		-25.390625
170		-27.343750
171		-23.437500
172		-23.437500
173		-19.531250
174		-19.531250
175		-15.625000
176		-15.625000
177		-11.718750
178		-13.671875
179		-7.812500
180		-7.812500
181		-1.953125
182		-3.906250
183		1.953125
184		0.000000
185		3.906250
186		3.906250
187		9.765625
188		7.812500
189		13.671875
190		11.718750
191		17.578125
192		15.625000
193		21.484375
194		19.531250
195		25.390625
196		23.437500
197		29.296875
198		25.390625
199		33.203125
200		31.250000
201		35.156250
202		35.156250
203		39.062500
204		37.109375
205		42.968750
206		41.015625
207		46.875000
208		44.921875
209		50.781250
210		48.828125
211		54.687500
212		50.781250
213		56.640625
214		54.687500
215		60.546875
216		58.593750
217		62.500000
218		60.546875
219		64.453125
220		62.500000
221		68.359375
222		66.406250
223		70.312500
224		68.359375
225		72.265625
226		70.312500
227		76.171875
228		72.265625
229		76.171875
230		74.218750
231		78.125000
232		76.171875
233		80.078125
234		78.125000
235		82.031250
236		80.078125
237		83.984375
238		82.031250
239		85.937500
240		82.031250
241		85.937500
242		83.984375
243		87.890625
244		83.984375
245		87.890625
246		83.984375
247		87.890625
248		83.984375
249		89.843750
250		85.937500
251		87.890625
252		85.937500
253		89.843750
254		85.937500
255		89.843750
256		85.937500
257		89.843750
258		85.937500
259		87.890625
260		83.984375
261		87.890625
262		83.984375
263		87.890625
264		82.031250
265		85.937500
266		82.031250
267		83.984375
268		80.078125
269		83.984375
270		78.125000
271		83.984375
272		78.125000
273		82.031250
274		76.171875
275		80.078125
276		74.218750
277		78.125000
278		72.265625
279		76.171875
280		70.312500
281		74.218750
282		66.406250
283		72.265625
284		64.453125
285		68.359375
286		60.546875
287		66.406250
288		58.593750
289		64.453125
290		54.687500
291		60.546875
292		52.734375
293		56.640625
294		48.828125
295		54.687500
296		46.875000
297		50.781250
298		42.968750
299		48.828125
300		39.062500
301		44.921875
302		35.156250
303		41.015625
304		31.250000
305		37.109375
306		27.343750
307		33.203125
308		23.437500
309		29.296875
310		19.531250
311		25.390625
312		15.625000
313		21.484375
314		11.718750
315		17.578125
316		7.812500
317		13.671875
318		3.906250
319		9.765625
320		0.000000
321		5.859375
322		-3.906250
323		1.953125
324		-7.812500
325		-1.953125
326		-11.718750
327		-5.859375
328		-15.625000
329		-9.765625
330		-19.531250
331		-13.671875
332		-23.437500
333		-17.578125
334		-27.343750
335		-21.484375
336		-31.250000
337		-25.390625
338		-35.156250
339		-29.296875
340		-37.109375
341		-33.203125
342		-41.015625
343		-37.109375
344		-44.921875
345		-39.062500
346		-48.828125
347		-42.968750
348		-50.781250
349		-46.875000
350		-52.734375
351		-48.828125
352		-56.640625
353		-52.734375
354		-58.593750
355		-54.687500
356		-60.546875
357		-56.640625
358		-64.453125
359		-58.593750
360		-64.453125
361		-62.500000
362		-66.406250
363		-62.500000
364		-68.359375
365		-64.453125
366		-70.312500
367		-66.406250
368		-70.312500
369		-66.406250
370		-72.265625
371		-68.359375
372		-72.265625
373		-70.312500
374		-74.218750
375		-70.312500
376		-74.218750
377		-70.312500
378		-74.218750
379		-70.312500
380		-74.218750
381		-70.312500
382		-74.218750
383		-70.312500
384		-74.218750
385		-70.312500
386		-72.265625
387		-70.312500
388		-72.265625
389		-68.359375
390		-70.312500
391		-68.359375
392		-70.312500
393		-66.406250
394		-68.359375
395		-64.453125
396		-66.406250
397		-62.500000
398		-64.453125
399		-60.546875
400		-64.453125
401		-58.593750
402		-60.546875
403		-56.640625
404		-58.593750
405		-54.687500
406		-56.640625
407		-50.781250
408		-52.734375
409		-48.828125
410		-50.781250
411		-44.921875
412		-48.828125
413		-42.968750
414		-44.921875
415		-39.062500
416		-41.015625
417		-35.156250
418		-37.109375
419		-33.203125
420		-33.203125
421		-27.343750
422		-31.250000
423		-25.390625
424		-27.343750
425		-21.484375
426		-23.437500
427		-17.578125
428		-19.531250
429		-13.671875
430		-15.625000
431		-7.812500
432		-11.718750
433		-5.859375
434		-7.812500
435		-1.953125
436		-3.906250
437		1.953125
438		0.000000
439		5.859375
440		3.906250
441		9.765625
442		9.765625
443		15.625000
444		11.718750
445		17.578125
446		15.625000
447		23.437500
448		21.484375
449		25.390625
450		23.437500
451		29.296875
452		29.296875
453		33.203125
454		31.250000
455		37.109375
456		35.156250
457		41.015625
458		39.062500
459		44.921875
460		42.968750
461		46.875000
462		46.875000
463		52.734375
464		48.828125
465		54.687500
466		52.734375
467		58.593750
468		56.640625
469		60.546875
470		58.593750
471		62.500000
472		62.500000
473		66.406250
474		64.453125
475		68.359375
476		66.406250
477		70.312500
478		68.359375
479		74.218750
480		72.265625
481		76.171875
482		74.218750
483		78.125000
484		74.218750
485		80.078125
486		78.125000
487		80.078125
488		78.125000
489		83.984375
490		80.078125
491		83.984375
492		82.031250
493		85.937500
494		82.031250
495		85.937500
496		83.984375
497		87.890625
498		83.984375
499		87.890625
500		85.937500
501		87.890625
502		85.937500
503		87.890625
504		85.937500
505		87.890625
506		85.937500
507		89.843750
508		85.937500
509		89.843750
510		85.937500
511		89.843750
512		85.937500
513		87.890625
514		83.984375
515		87.890625
516		82.031250
517		87.890625
518		83.984375
519		85.937500
520		82.031250
521		83.984375
522		80.078125
523		83.984375
524		78.125000
525		82.031250
526		76.171875
527		80.078125
528		74.218750
529		80.078125
530		72.265625
531		78.125000
532		70.312500
533		74.218750
534		68.359375
535		72.265625
536		66.406250
537		70.312500
538		64.453125
539		68.359375
540		60.546875
541		66.406250
542		56.640625
543		62.500000
544		54.687500
545		60.546875
546		50.781250
547		56.640625
548		48.828125
549		52.734375
550		44.921875
551		50.781250
552		41.015625
553		46.875000
554		37.109375
555		42.968750
556		35.156250
557		39.062500
558		31.250000
559		35.156250
560		27.343750
561		33.203125
562		23.437500
563		29.296875
564		19.531250
565		25.390625
566		15.625000
567		21.484375
568		11.718750
569		15.625000
570		7.812500
571		11.718750
572		1.953125
573		7.812500
574		-1.953125
575		3.906250
576		-3.906250
577		1.953125
578		-9.765625
579		-3.906250
580		-13.671875
581		-7.812500
582		-17.578125
583		-11.718750
584		-19.531250
585		-15.625000
586		-23.437500
587		-19.531250
588		-27.343750
589		-23.437500
590		-31.250000
591		-25.390625
592		-35.156250
593		-29.296875
594		-39.062500
595		-33.203125
596		-42.968750
597		-37.109375
598		-46.875000
599		-41.015625
600		-48.828125
601		-42.968750
602		-50.781250
603		-44.921875
604		-54.687500
605		-48.828125
606		-56.640625
607		-52.734375
608		-58.593750
609		-54.687500
610		-62.500000
611		-56.640625
612		-64.453125
613		-58.593750
614		-66.406250
615		-62.500000
616		-68.359375
617		-62.500000
618		-70.312500
619		-64.453125
620		-70.312500
621		-66.406250
622		-72.265625
623		-68.359375
624		-72.265625
625		-70.312500
626		-72.265625
627		-70.312500
628		-74.218750
629		-70.312500
630		-74.218750
631		-70.312500
632		-74.218750
633		-70.312500
634		-74.218750
635		-70.312500
636		-74.218750
637		-70.312500
638		-72.265625
639		-70.312500
640		-74.218750
641		-68.359375
642		-72.265625
643		-68.359375
644		-70.312500
645		-66.406250
646		-68.359375
647		-66.406250
648		-68.359375
649		-64.453125
650		-66.406250
651		-62.500000
652		-64.453125
653		-60.546875
654		-62.500000
655		-58.593750
656		-60.546875
657		-54.687500
658		-56.640625
659		-52.734375
660		-54.687500
661		-50.781250
662		-52.734375
663		-46.875000
664		-50.781250
665		-44.921875
666		-46.875000
667		-41.015625
668		-42.968750
669		-37.109375
670		-39.062500
671		-35.156250
672		-37.109375
673		-31.250000
674		-33.203125
675		-27.343750
676		-29.296875
677		-23.437500
678		-25.390625
679		-19.531250
680		-21.484375
681		-15.625000
682		-17.578125
683		-11.718750
684		-15.625000
685		-7.812500
686		-11.718750
687		-3.906250
688		-5.859375
689		0.000000
690		-1.953125
691		3.906250
692		1.953125
693		7.812500
694		5.859375
695		11.718750
696		9.765625
697		15.625000
698		13.671875
699		19.531250
700		17.578125
701		23.437500
702		21.484375
703		27.343750
704		25.390625
705		31.250000
706		29.296875
707		35.156250
708		33.203125
709		39.062500
710		37.109375
711		42.968750
712		41.015625
713		44.921875
714		44.921875
715		48.828125
716		46.875000
717		52.734375
718		50.781250
719		54.687500
720		52.734375
721		58.593750
722		56.640625
723		60.546875
724		58.593750
725		64.453125
726		62.500000
727		66.406250
728		64.453125
729		70.312500
730		68.359375
731		72.265625
732		70.312500
733		74.218750
734		72.265625
735		76.171875
736		74.218750
737		78.125000
738		76.171875
739		80.078125
740		78.125000
741		82.031250
742		80.078125
743		83.984375
744		82.031250
745		83.984375
746		82.031250
747		85.937500
748		82.031250
749		85.937500
750		83.984375
751		87.890625
752		83.984375
753		87.890625
754		85.937500
755		87.890625
756		85.937500
757		87.890625
758		85.937500
759		89.843750
760		85.937500
761		89.843750
762		85.937500
763		89.843750
764		85.937500
765		87.890625
766		85.937500
767		87.890625
768		83.984375
769		87.890625
770		83.984375
771		87.890625
772		82.031250
773		85.937500
774		80.078125
775		83.984375
776		80.078125
777		83.984375
778		78.125000
779		82.031250
780		76.171875
781		80.078125
782		74.218750
783		78.125000
784		72.265625
785		78.125000
786		70.312500
787		74.218750
788		68.359375
789		72.265625
790		64.453125
791		70.312500
792		62.500000
793		68.359375
794		60.546875
795		64.453125
796		56.640625
797		62.500000
798		54.687500
799		58.593750
800		50.781250
801		56.640625
802		46.875000
803		52.734375
804		44.921875
805		48.828125
806		41.015625
807		44.921875
808		37.109375
809		42.968750
810		33.203125
811		39.062500
812		29.296875
813		35.156250
814		25.390625
815		31.250000
816		21.484375
817		27.343750
818		17.578125
819		23.437500
820		13.671875
821		19.531250
822		9.765625
823		15.625000
824		5.859375
825		11.718750
826		1.953125
827		7.812500
828		-1.953125
829		3.906250
830		-5.859375
831		0.000000
832		-9.765625
833		-3.906250
834		-13.671875
835		-7.812500
836		-17.578125
837		-11.718750
838		-21.484375
839		-15.625000
840		-25.390625
841		-19.531250
842		-29.296875
843		-23.437500
844		-33.203125
845		-27.343750
846		-37.109375
847		-31.250000
848		-39.062500
849		-35.156250
850		-42.968750
851		-37.109375
852		-46.875000
853		-41.015625
854		-48.828125
855		-44.921875
856		-52.734375
857		-46.875000
858		-56.640625
859		-50.781250
860		-58.593750
861		-52.734375
862		-60.546875
863		-54.687500
864		-62.500000
865		-56.640625
866		-64.453125
867		-60.546875
868		-66.406250
869		-62.500000
870		-68.359375
871		-64.453125
872		-68.359375
873		-66.406250
874		-70.312500
875		-66.406250
876		-70.312500
877		-68.359375
878		-72.265625
879		-70.312500
880		-72.265625
881		-70.312500
882		-74.218750
883		-70.312500
884		-74.218750
885		-70.312500
886		-74.218750
887		-70.312500
888		-74.218750
889		-70.312500
890		-72.265625
891		-70.312500
892		-72.265625
893		-70.312500
894		-72.265625
895		-68.359375
896		-72.265625
897		-68.359375
898		-70.312500
899		-66.406250
900		-68.359375
901		-64.453125
902		-66.406250
903		-62.500000
904		-66.406250
905		-60.546875
906		-62.500000
907		-60.546875
908		-60.546875
909		-56.640625
910		-58.593750
911		-54.687500
912		-56.640625
913		-52.734375
914		-54.687500
915		-48.828125
916		-50.781250
917		-46.875000
918		-48.828125
919		-42.968750
920		-44.921875
921		-41.015625
922		-42.968750
923		-37.109375
924		-39.062500
925		-33.203125
926		-35.156250
927		-29.296875
928		-31.250000
929		-25.390625
930		-27.343750
931		-23.437500
932		-23.437500
933		-17.578125
934		-19.531250
935		-13.671875
936		-15.625000
937		-9.765625
938		-13.671875
939		-7.812500
940		-7.812500
941		-3.906250
942		-3.906250
943		0.000000
944		0.000000
945		5.859375
946		3.906250
947		9.765625
948		7.812500
949		13.671875
950		11.718750
951		17.578125
952		15.625000
953		21.484375
954		19.531250
955		25.390625
956		23.437500
957		29.296875
958		27.343750
959		33.203125
960		31.250000
961		35.156250
962		33.203125
963		39.062500
964		39.062500
965		42.968750
966		41.015625
967		46.875000
968		44.921875
969		50.781250
970		48.828125
971		54.687500
972		50.781250
973		56.640625
974		54.687500
975		58.593750
976		56.640625
977		62.500000
978		60.546875
979		64.453125
980		64.453125
981		68.359375
982		66.406250
983		70.312500
984		68.359375
985		72.265625
986		70.312500
987		76.171875
988		72.265625
989		76.171875
990		76.171875
991		78.125000
992		76.171875
993		82.031250
994		78.125000
995		82.031250
996		80.078125
997		83.984375
998		82.031250
999		85.937500
1000		82.031250
1001		85.937500
1002		83.984375
1003		85.937500
1004		83.984375
1005		87.890625
1006		85.937500
1007		87.890625
1008		85.937500
1009		89.843750
1010		85.937500
1011		89.843750
1012		85.937500
1013		89.843750
1014		85.937500
1015		89.843750
1016		85.937500
1017		89.843750
1018		85.937500
1019		87.890625
1020		83.984375
1021		87.890625
1022		83.984375
1023		87.890625
1024		83.984375
1025		85.937500
1026		82.031250
1027		85.937500
1028		80.078125
1029		83.984375
1030		80.078125
1031		83.984375
1032		78.125000
1033		82.031250
1034		76.171875
1035		80.078125
1036		74.218750
1037		78.125000
1038		72.265625
1039		76.171875
1040		70.312500
1041		74.218750
1042		66.406250
1043		72.265625
1044		62.500000
1045		72.265625
1046		60.546875
1047		68.359375
1048		58.593750
1049		64.453125
1050		54.687500
1051		60.546875
1052		52.734375
1053		58.593750
1054		48.828125
1055		56.640625
1056		46.875000
1057		50.781250
1058		42.968750
1059		48.828125
1060		39.062500
1061		44.921875
1062		35.156250
1063		42.968750
1064		31.250000
1065		39.062500
1066		27.343750
1067		35.156250
1068		23.437500
1069		31.250000
1070		19.531250
1071		27.343750
1072		17.578125
1073		23.437500
1074		13.671875
1075		17.578125
1076		5.859375
1077		13.671875
1078		1.953125
1079		11.718750
1080		0.000000
1081		7.812500
1082		-3.906250
1083		3.906250
1084		-7.812500
1085		0.000000
1086		-11.718750
1087		-3.906250
1088		-17.578125
1089		-7.812500
1090		-19.531250
1091		-13.671875
1092		-23.437500
1093		-17.578125
1094		-27.343750
1095		-19.531250
1096		-31.250000
1097		-23.437500
1098		-35.156250
1099		-27.343750
1100		-39.062500
1101		-31.250000
1102		-42.968750
1103		-35.156250
1104		-44.921875
1105		-37.109375
1106		-46.875000
1107		-41.015625
1108		-50.781250
1109		-44.921875
1110		-54.687500
1111		-48.828125
1112		-56.640625
1113		-48.828125
1114		-60.546875
1115		-52.734375
1116		-62.500000
1117		-54.687500
1118		-64.453125
1119		-56.640625
1120		-66.406250
1121		-58.593750
1122		-66.406250
1123		-60.546875
1124		-68.359375
1125		-64.453125
1126		-70.312500
1127		-66.406250
1128		-72.265625
1129		-66.406250
1130		-74.218750
1131		-66.406250
1132		-74.218750
1133		-68.359375
1134		-74.218750
1135		-68.359375
1136		-74.218750
1137		-68.359375
1138		-76.171875
1139		-68.359375
1140		-74.218750
1141		-70.312500
1142		-74.218750
1143		-70.312500
1144		-76.171875
1145		-68.359375
1146		-74.218750
1147		-68.359375
1148		-74.218750
1149		-66.406250
1150		-72.265625
1151		-64.453125
1152		-72.265625
1153		-64.453125
1154		-70.312500
1155		-62.500000
1156		-68.359375
1157		-62.500000
1158		-64.453125
1159		-60.546875
1160		-64.453125
1161		-56.640625
1162		-62.500000
1163		-54.687500
1164		-60.546875
1165		-52.734375
1166		-56.640625
1167		-50.781250
1168		-54.687500
1169		-46.875000
1170		-52.734375
1171		-42.968750
1172		-48.828125
1173		-41.015625
1174		-44.921875
1175		-39.062500
1176		-41.015625
1177		-35.156250
1178		-39.062500
1179		-31.250000
1180		-35.156250
1181		-27.343750
1182		-33.203125
1183		-23.437500
1184		-29.296875
1185		-19.531250
1186		-23.437500
1187		-15.625000
1188		-21.484375
1189		-11.718750
1190		-17.578125
1191		-9.765625
1192		-11.718750
1193		-5.859375
1194		-7.812500
1195		0.000000
1196		-5.859375
1197		3.906250
1198		0.000000
1199		7.812500
1200		1.953125
1201		11.718750
1202		5.859375
1203		15.625000
1204		9.765625
1205		19.531250
1206		13.671875
1207		21.484375
1208		21.484375
1209		25.390625
1210		23.437500
1211		29.296875
1212		25.390625
1213		35.156250
1214		29.296875
1215		39.062500
1216		33.203125
1217		42.968750
1218		37.109375
1219		44.921875
1220		41.015625
1221		50.781250
1222		44.921875
1223		52.734375
1224		48.828125
1225		54.687500
1226		52.734375
1227		56.640625
1228		54.687500
1229		62.500000
1230		56.640625
1231		64.453125
1232		58.593750
1233		68.359375
1234		60.546875
1235		70.312500
1236		64.453125
1237		72.265625
1238		66.406250
1239		76.171875
1240		68.359375
1241		76.171875
1242		74.218750
1243		78.125000
1244		74.218750
1245		80.078125
1246		74.218750
1247		83.984375
1248		76.171875
1249		83.984375
1250		78.125000
1251		85.937500
1252		80.078125
1253		87.890625
1254		82.031250
1255		87.890625
1256		82.031250
1257		89.843750
1258		85.937500
1259		87.890625
1260		85.937500
1261		87.890625
1262		83.984375
1263		89.843750
1264		83.984375
1265		91.796875
1266		83.984375
1267		91.796875
1268		83.984375
1269		91.796875
1270		83.984375
1271		91.796875
1272		83.984375
1273		89.843750
1274		83.984375
1275		89.843750
1276		83.984375
1277		87.890625
1278		80.078125
1279		87.890625
1280		78.125000
1281		87.890625
1282		78.125000
1283		85.937500
1284		78.125000
1285		83.984375
1286		76.171875
1287		82.031250
1288		74.218750
1289		82.031250
1290		72.265625
1291		80.078125
1292		72.265625
1293		76.171875
1294		70.312500
1295		74.218750
1296		64.453125
1297		72.265625
1298		62.500000
1299		70.312500
1300		58.593750
1301		68.359375
1302		56.640625
1303		64.453125
1304		54.687500
1305		62.500000
1306		50.781250
1307		58.593750
1308		48.828125
1309		54.687500
1310		46.875000
1311		50.781250
1312		41.015625
1313		46.875000
1314		37.109375
1315		44.921875
1316		33.203125
1317		41.015625
1318		29.296875
1319		39.062500
1320		25.390625
1321		35.156250
1322		21.484375
1323		31.250000
1324		19.531250
1325		27.343750
1326		15.625000
1327		21.484375
1328		9.765625
1329		17.578125
1330		5.859375
1331		15.625000
1332		0.000000
1333		9.765625
1334		-1.953125
1335		7.812500
1336		-7.812500
1337		1.953125
1338		-9.765625
1339		0.000000
1340		-11.718750
1341		-3.906250
1342		-15.625000
1343		-9.765625
1344		-19.531250
1345		-13.671875
1346		-27.343750
1347		-17.578125
1348		-29.296875
1349		-19.531250
1350		-33.203125
1351		-25.390625
1352		-37.109375
1353		-27.343750
1354		-39.062500
1355		-31.250000
1356		-42.968750
1357		-33.203125
1358		-44.921875
1359		-37.109375
1360		-48.828125
1361		-42.968750
1362		-52.734375
1363		-46.875000
1364		-56.640625
1365		-46.875000
1366		-58.593750
1367		-50.781250
1368		-60.546875
1369		-52.734375
1370		-64.453125
1371		-54.687500
1372		-64.453125
1373		-56.640625
1374		-66.406250
1375		-58.593750
1376		-68.359375
1377		-62.500000
1378		-68.359375
1379		-64.453125
1380		-72.265625
1381		-64.453125
1382		-74.218750
1383		-66.406250
1384		-74.218750
1385		-66.406250
1386		-74.218750
1387		-68.359375
1388		-76.171875
1389		-68.359375
1390		-76.171875
1391		-68.359375
1392		-74.218750
1393		-70.312500
1394		-74.218750
1395		-70.312500
1396		-76.171875
1397		-68.359375
1398		-76.171875
1399		-68.359375
1400		-74.218750
1401		-66.406250
1402		-74.218750
1403		-66.406250
1404		-72.265625
1405		-64.453125
1406		-72.265625
1407		-64.453125
1408		-68.359375
1409		-62.500000
1410		-66.406250
1411		-62.500000
1412		-64.453125
1413		-58.593750
1414		-64.453125
1415		-56.640625
1416		-62.500000
1417		-54.687500
1418		-58.593750
1419		-50.781250
1420		-56.640625
1421		-48.828125
1422		-54.687500
1423		-44.921875
1424		-50.781250
1425		-42.968750
1426		-46.875000
1427		-41.015625
1428		-42.968750
1429		-39.062500
1430		-41.015625
1431		-31.250000
1432		-39.062500
1433		-27.343750
1434		-33.203125
1435		-25.390625
1436		-31.250000
1437		-21.484375
1438		-27.343750
1439		-17.578125
1440		-23.437500
1441		-13.671875
1442		-19.531250
1443		-11.718750
1444		-13.671875
1445		-7.812500
1446		-9.765625
1447		-1.953125
1448		-7.812500
1449		1.953125
1450		-3.906250
1451		5.859375
1452		0.000000
1453		9.765625
1454		3.906250
1455		13.671875
1456		7.812500
1457		19.531250
1458		11.718750
1459		19.531250
1460		17.578125
1461		23.437500
1462		21.484375
1463		27.343750
1464		23.437500
1465		33.203125
1466		27.343750
1467		37.109375
1468		31.250000
1469		41.015625
1470		35.156250
1471		44.921875
1472		39.062500
1473		48.828125
1474		41.015625
1475		50.781250
1476		46.875000
1477		52.734375
1478		50.781250
1479		54.687500
1480		52.734375
1481		60.546875
1482		54.687500
1483		64.453125
1484		58.593750
1485		66.406250
1486		60.546875
1487		68.359375
1488		62.500000
1489		72.265625
1490		64.453125
1491		74.218750
1492		68.359375
1493		74.218750
1494		72.265625
1495		76.171875
1496		74.218750
1497		80.078125
1498		74.218750
1499		82.031250
1500		76.171875
1501		83.984375
1502		78.125000
1503		85.937500
1504		78.125000
1505		87.890625
1506		80.078125
1507		87.890625
1508		82.031250
1509		87.890625
1510		85.937500
1511		87.890625
1512		85.937500
1513		87.890625
1514		83.984375
1515		91.796875
1516		83.984375
1517		91.796875
1518		83.984375
1519		91.796875
1520		83.984375
1521		91.796875
1522		83.984375
1523		91.796875
1524		83.984375
1525		91.796875
1526		83.984375
1527		89.843750
1528		85.937500
1529		87.890625
1530		82.031250
1531		87.890625
1532		80.078125
1533		87.890625
1534		80.078125
1535		87.890625
1536		78.125000
1537		85.937500
1538		76.171875
1539		83.984375
1540		76.171875
1541		82.031250
1542		74.218750
1543		80.078125
1544		74.218750
1545		78.125000
1546		70.312500
1547		74.218750
1548		66.406250
1549		74.218750
1550		64.453125
1551		72.265625
1552		60.546875
1553		70.312500
1554		58.593750
1555		66.406250
1556		56.640625
1557		64.453125
1558		52.734375
1559		60.546875
1560		50.781250
1561		58.593750
1562		48.828125
1563		52.734375
1564		42.968750
1565		50.781250
1566		39.062500
1567		48.828125
1568		35.156250
1569		44.921875
1570		31.250000
1571		41.015625
1572		27.343750
1573		37.109375
1574		23.437500
1575		33.203125
1576		23.437500
1577		29.296875
1578		19.531250
1579		23.437500
1580		13.671875
1581		19.531250
1582		9.765625
1583		17.578125
1584		5.859375
1585		15.625000
1586		1.953125
1587		9.765625
1588		-3.906250
1589		5.859375
1590		-5.859375
1591		1.953125
1592		-11.718750
1593		-1.953125
1594		-13.671875
1595		-7.812500
1596		-17.578125
1597		-11.718750
1598		-21.484375
1599		-15.625000
1600		-25.390625
1601		-15.625000
1602		-29.296875
1603		-21.484375
1604		-35.156250
1605		-25.390625
1606		-37.109375
1607		-29.296875
1608		-41.015625
1609		-33.203125
1610		-42.968750
1611		-35.156250
1612		-44.921875
1613		-41.015625
1614		-50.781250
1615		-42.968750
1616		-52.734375
1617		-44.921875
1618		-56.640625
1619		-46.875000
1620		-58.593750
1621		-50.781250
1622		-60.546875
1623		-52.734375
1624		-64.453125
1625		-56.640625
1626		-66.406250
1627		-58.593750
1628		-66.406250
1629		-60.546875
1630		-66.406250
1631		-64.453125
1632		-70.312500
1633		-64.453125
1634		-72.265625
1635		-64.453125
1636		-74.218750
1637		-66.406250
1638		-74.218750
1639		-66.406250
1640		-74.218750
1641		-68.359375
1642		-74.218750
1643		-68.359375
1644		-74.218750
1645		-68.359375
1646		-74.218750
1647		-70.312500
1648		-76.171875
1649		-68.359375
1650		-74.218750
1651		-68.359375
1652		-74.218750
1653		-68.359375
1654		-74.218750
1655		-66.406250
1656		-74.218750
1657		-66.406250
1658		-72.265625
1659		-64.453125
1660		-70.312500
1661		-64.453125
1662		-66.406250
1663		-62.500000
1664		-64.453125
1665		-62.500000
1666		-64.453125
1667		-58.593750
1668		-64.453125
1669		-54.687500
1670		-60.546875
1671		-52.734375
1672		-58.593750
1673		-50.781250
1674		-56.640625
1675		-46.875000
1676		-52.734375
1677		-44.921875
1678		-48.828125
1679		-42.968750
1680		-44.921875
1681		-41.015625
1682		-42.968750
1683		-35.156250
1684		-41.015625
1685		-31.250000
1686		-37.109375
1687		-29.296875
1688		-33.203125
1689		-25.390625
1690		-29.296875
1691		-21.484375
1692		-27.343750
1693		-17.578125
1694		-21.484375
1695		-15.625000
1696		-17.578125
1697		-11.718750
1698		-11.718750
1699		-5.859375
1700		-11.718750
1701		-1.953125
1702		-5.859375
1703		1.953125
1704		-1.953125
1705		7.812500
1706		1.953125
1707		11.718750
1708		5.859375
1709		15.625000
1710		9.765625
1711		17.578125
1712		15.625000
1713		21.484375
1714		19.531250
1715		25.390625
1716		21.484375
1717		31.250000
1718		25.390625
1719		35.156250
1720		29.296875
1721		37.109375
1722		31.250000
1723		41.015625
1724		35.156250
1725		44.921875
1726		39.062500
1727		48.828125
1728		42.968750
1729		50.781250
1730		48.828125
1731		52.734375
1732		50.781250
1733		58.593750
1734		52.734375
1735		62.500000
1736		56.640625
1737		64.453125
1738		58.593750
1739		68.359375
1740		62.500000
1741		70.312500
1742		64.453125
1743		72.265625
1744		66.406250
1745		74.218750
1746		72.265625
1747		74.218750
1748		72.265625
1749		76.171875
1750		74.218750
1751		80.078125
1752		76.171875
1753		82.031250
1754		78.125000
1755		83.984375
1756		80.078125
1757		85.937500
1758		80.078125
1759		85.937500
1760		82.031250
1761		87.890625
1762		83.984375
1763		87.890625
1764		85.937500
1765		87.890625
1766		83.984375
1767		91.796875
1768		83.984375
1769		91.796875
1770		83.984375
1771		91.796875
1772		83.984375
1773		91.796875
1774		85.937500
1775		91.796875
1776		83.984375
1777		91.796875
1778		83.984375
1779		91.796875
1780		85.937500
1781		87.890625
1782		83.984375
1783		87.890625
1784		82.031250
1785		89.843750
1786		80.078125
1787		87.890625
1788		80.078125
1789		85.937500
1790		78.125000
1791		85.937500
1792		76.171875
1793		83.984375
1794		74.218750
1795		82.031250
1796		74.218750
1797		78.125000
1798		72.265625
1799		76.171875
1800		68.359375
1801		76.171875
1802		66.406250
1803		74.218750
1804		64.453125
1805		72.265625
1806		60.546875
1807		68.359375
1808		58.593750
1809		66.406250
1810		56.640625
1811		64.453125
1812		54.687500
1813		60.546875
1814		50.781250
1815		54.687500
1816		44.921875
1817		52.734375
1818		42.968750
1819		50.781250
1820		39.062500
1821		46.875000
1822		35.156250
1823		44.921875
1824		31.250000
1825		41.015625
1826		27.343750
1827		37.109375
1828		25.390625
1829		33.203125
1830		21.484375
1831		27.343750
1832		17.578125
1833		23.437500
1834		11.718750
1835		21.484375
1836		7.812500
1837		17.578125
1838		3.906250
1839		13.671875
1840		0.000000
1841		9.765625
1842		-3.906250
1843		5.859375
1844		-7.812500
1845		1.953125
1846		-9.765625
1847		-1.953125
1848		-13.671875
1849		-9.765625
1850		-19.531250
1851		-11.718750
1852		-23.437500
1853		-13.671875
1854		-27.343750
1855		-19.531250
1856		-31.250000
1857		-21.484375
1858		-35.156250
1859		-25.390625
1860		-39.062500
1861		-29.296875
1862		-39.062500
1863		-33.203125
1864		-42.968750
1865		-39.062500
1866		-48.828125
1867		-41.015625
1868		-50.781250
1869		-42.968750
1870		-54.687500
1871		-44.921875
1872		-56.640625
1873		-46.875000
1874		-58.593750
1875		-50.781250
1876		-60.546875
1877		-54.687500
1878		-64.453125
1879		-56.640625
1880		-64.453125
1881		-60.546875
1882		-66.406250
1883		-62.500000
1884		-70.312500
1885		-62.500000
1886		-70.312500
1887		-64.453125
1888		-72.265625
1889		-64.453125
1890		-72.265625
1891		-66.406250
1892		-74.218750
1893		-66.406250
1894		-74.218750
1895		-66.406250
1896		-74.218750
1897		-68.359375
1898		-72.265625
1899		-70.312500
1900		-74.218750
1901		-68.359375
1902		-74.218750
1903		-68.359375
1904		-74.218750
1905		-68.359375
1906		-74.218750
1907		-66.406250
1908		-74.218750
1909		-66.406250
1910		-72.265625
1911		-64.453125
1912		-70.312500
1913		-64.453125
1914		-68.359375
1915		-64.453125
1916		-66.406250
1917		-62.500000
1918		-66.406250
1919		-58.593750
1920		-64.453125
1921		-56.640625
1922		-62.500000
1923		-52.734375
1924		-60.546875
1925		-50.781250
1926		-56.640625
1927		-48.828125
1928		-54.687500
1929		-46.875000
1930		-50.781250
1931		-44.921875
1932		-46.875000
1933		-41.015625
1934		-44.921875
1935		-37.109375
1936		-42.968750
1937		-33.203125
1938		-39.062500
1939		-29.296875
1940		-35.156250
1941		-27.343750
1942		-31.250000
1943		-23.437500
1944		-27.343750
1945		-19.531250
1946		-23.437500
1947		-17.578125
1948		-19.531250
1949		-13.671875
1950		-15.625000
1951		-7.812500
1952		-13.671875
1953		-3.906250
1954		-9.765625
1955		0.000000
1956		-5.859375
1957		3.906250
1958		-1.953125
1959		9.765625
1960		1.953125
1961		11.718750
1962		5.859375
1963		15.625000
1964		13.671875
1965		17.578125
1966		17.578125
1967		21.484375
1968		19.531250
1969		27.343750
1970		23.437500
1971		31.250000
1972		25.390625
1973		37.109375
1974		31.250000
1975		39.062500
1976		35.156250
1977		42.968750
1978		37.109375
1979		46.875000
1980		41.015625
1981		48.828125
1982		46.875000
1983		50.781250
1984		48.828125
1985		56.640625
1986		50.781250
1987		60.546875
1988		54.687500
1989		62.500000
1990		56.640625
1991		66.406250
1992		60.546875
1993		68.359375
1994		62.500000
1995		70.312500
1996		64.453125
1997		72.265625
1998		70.312500
1999		74.218750
2000		72.265625
2001		76.171875
2002		72.265625
2003		80.078125
2004		74.218750
2005		82.031250
2006		76.171875
2007		83.984375
2008		78.125000
2009		83.984375
2010		80.078125
2011		85.937500
2012		80.078125
2013		87.890625
2014		83.984375
2015		85.937500
2016		85.937500
2017		87.890625
2018		83.984375
2019		89.843750
2020		83.984375
2021		91.796875
2022		83.984375
2023		91.796875
2024		83.984375
2025		91.796875
2026		85.937500
2027		91.796875
2028		83.984375
2029		91.796875
2030		83.984375
2031		91.796875
2032		85.937500
2033		89.843750
2034		83.984375
2035		89.843750
2036		82.031250
2037		89.843750
2038		82.031250
2039		89.843750
2040		80.078125
2041		87.890625
2042		80.078125
2043		85.937500
2044		78.125000
2045		85.937500
2046		76.171875
2047		83.984375
2048		76.171875
2049		80.078125
2050		74.218750
2051		78.125000
2052		70.312500
2053		78.125000
2054		68.359375
2055		76.171875
2056		66.406250
2057		74.218750
2058		62.500000
2059		70.312500
2060		60.546875
2061		68.359375
2062		56.640625
2063		66.406250
2064		56.640625
2065		62.500000
2066		52.734375
2067		58.593750
2068		46.875000
2069		54.687500
2070		44.921875
2071		52.734375
2072		41.015625
2073		50.781250
2074		37.109375
2075		46.875000
2076		33.203125
2077		42.968750
2078		31.250000
2079		39.062500
2080		27.343750
2081		35.156250
2082		25.390625
2083		29.296875
2084		19.531250
2085		25.390625
2086		15.625000
2087		23.437500
2088		11.718750
2089		21.484375
2090		7.812500
2091		15.625000
2092		1.953125
2093		11.718750
2094		-1.953125
2095		7.812500
2096		-5.859375
2097		3.906250
2098		-7.812500
2099		0.000000
2100		-11.718750
2101		-5.859375
2102		-17.578125
2103		-9.765625
2104		-21.484375
2105		-11.718750
2106		-25.390625
2107		-15.625000
2108		-29.296875
2109		-19.531250
2110		-33.203125
2111		-23.437500
2112		-35.156250
2113		-27.343750
2114		-37.109375
2115		-29.296875
2116		-41.015625
2117		-35.156250
2118		-44.921875
2119		-39.062500
2120		-48.828125
2121		-41.015625
2122		-52.734375
2123		-42.968750
2124		-54.687500
2125		-46.875000
2126		-58.593750
2127		-48.828125
2128		-60.546875
2129		-52.734375
2130		-60.546875
2131		-54.687500
2132		-62.500000
2133		-56.640625
2134		-64.453125
2135		-60.546875
2136		-68.359375
2137		-60.546875
2138		-70.312500
2139		-62.500000
2140		-72.265625
2141		-64.453125
2142		-72.265625
2143		-64.453125
2144		-72.265625
2145		-66.406250
2146		-74.218750
2147		-66.406250
2148		-74.218750
2149		-68.359375
2150		-72.265625
2151		-70.312500
2152		-76.171875
2153		-68.359375
2154		-74.218750
2155		-68.359375
2156		-74.218750
2157		-68.359375
2158		-74.218750
2159		-68.359375
2160		-74.218750
2161		-66.406250
2162		-72.265625
2163		-66.406250
2164		-72.265625
2165		-64.453125
2166		-68.359375
2167		-64.453125
2168		-66.406250
2169		-64.453125
2170		-66.406250
2171		-58.593750
2172		-66.406250
2173		-58.593750
2174		-64.453125
2175		-56.640625
2176		-62.500000
2177		-52.734375
2178		-58.593750
2179		-50.781250
2180		-56.640625
2181		-48.828125
2182		-52.734375
2183		-46.875000
2184		-48.828125
2185		-44.921875
2186		-44.921875
2187		-39.062500
2188		-44.921875
2189		-35.156250
2190		-41.015625
2191		-33.203125
2192		-39.062500
2193		-29.296875
2194		-33.203125
2195		-25.390625
2196		-31.250000
2197		-21.484375
2198		-27.343750
2199		-19.531250
2200		-21.484375
2201		-15.625000
2202		-17.578125
2203		-11.718750
2204		-15.625000
2205		-5.859375
2206		-11.718750
2207		-1.953125
2208		-7.812500
2209		1.953125
2210		-1.953125
2211		5.859375
2212		0.000000
2213		9.765625
2214		3.906250
2215		13.671875
2216		9.765625
2217		15.625000
2218		13.671875
2219		19.531250
2220		17.578125
2221		25.390625
2222		19.531250
2223		29.296875
2224		23.437500
2225		33.203125
2226		27.343750
2227		37.109375
2228		31.250000
2229		41.015625
2230		35.156250
2231		44.921875
2232		39.062500
2233		46.875000
2234		44.921875
2235		48.828125
2236		46.875000
2237		54.687500
2238		48.828125
2239		58.593750
2240		52.734375
2241		60.546875
2242		54.687500
2243		64.453125
2244		58.593750
2245		66.406250
2246		60.546875
2247		70.312500
2248		64.453125
2249		70.312500
2250		68.359375
2251		72.265625
2252		70.312500
2253		74.218750
2254		72.265625
2255		78.125000
2256		72.265625
2257		80.078125
2258		74.218750
2259		83.984375
2260		76.171875
2261		83.984375
2262		78.125000
2263		85.937500
2264		80.078125
2265		87.890625
2266		82.031250
2267		85.937500
2268		83.984375
2269		87.890625
2270		83.984375
2271		89.843750
2272		83.984375
2273		89.843750
2274		83.984375
2275		91.796875
2276		83.984375
2277		91.796875
2278		85.937500
2279		91.796875
2280		83.984375
2281		91.796875
2282		85.937500
2283		91.796875
2284		87.890625
2285		89.843750
2286		85.937500
2287		89.843750
2288		83.984375
2289		89.843750
2290		82.031250
2291		89.843750
2292		82.031250
2293		89.843750
2294		80.078125
2295		87.890625
2296		78.125000
2297		85.937500
2298		78.125000
2299		83.984375
2300		78.125000
2301		82.031250
2302		76.171875
2303		80.078125
2304		72.265625
2305		80.078125
2306		70.312500
2307		78.125000
2308		68.359375
2309		76.171875
2310		64.453125
2311		74.218750
2312		62.500000
2313		72.265625
2314		58.593750
2315		68.359375
2316		58.593750
2317		64.453125
2318		56.640625
2319		60.546875
2320		50.781250
2321		56.640625
2322		46.875000
2323		56.640625
2324		42.968750
2325		52.734375
2326		41.015625
2327		48.828125
2328		37.109375
2329		44.921875
2330		33.203125
2331		41.015625
2332		31.250000
2333		39.062500
2334		27.343750
2335		33.203125
2336		23.437500
2337		29.296875
2338		17.578125
2339		25.390625
2340		13.671875
2341		23.437500
2342		9.765625
2343		19.531250
2344		5.859375
2345		15.625000
2346		1.953125
2347		11.718750
2348		-1.953125
2349		7.812500
2350		-3.906250
2351		1.953125
2352		-7.812500
2353		-3.906250
2354		-15.625000
2355		-7.812500
2356		-19.531250
2357		-7.812500
2358		-21.484375
2359		-13.671875
2360		-25.390625
2361		-17.578125
2362		-29.296875
2363		-21.484375
2364		-33.203125
2365		-25.390625
2366		-35.156250
2367		-27.343750
2368		-39.062500
2369		-33.203125
2370		-41.015625
2371		-37.109375
2372		-46.875000
2373		-39.062500
2374		-48.828125
2375		-41.015625
2376		-52.734375
2377		-44.921875
2378		-54.687500
2379		-46.875000
2380		-58.593750
2381		-50.781250
2382		-60.546875
2383		-52.734375
2384		-60.546875
2385		-56.640625
2386		-62.500000
2387		-58.593750
2388		-66.406250
2389		-60.546875
2390		-68.359375
2391		-60.546875
2392		-70.312500
2393		-62.500000
2394		-70.312500
2395		-64.453125
2396		-72.265625
2397		-64.453125
2398		-72.265625
2399		-66.406250
2400		-74.218750
2401		-66.406250
2402		-72.265625
2403		-70.312500
2404		-72.265625
2405		-68.359375
2406		-74.218750
2407		-68.359375
2408		-74.218750
2409		-68.359375
2410		-74.218750
2411		-68.359375
2412		-74.218750
2413		-66.406250
2414		-72.265625
2415		-64.453125
2416		-72.265625
2417		-64.453125
2418		-70.312500
2419		-66.406250
2420		-68.359375
2421		-62.500000
2422		-68.359375
2423		-60.546875
2424		-66.406250
2425		-58.593750
2426		-64.453125
2427		-56.640625
2428		-62.500000
2429		-54.687500
2430		-60.546875
2431		-52.734375
2432		-58.593750
2433		-50.781250
2434		-56.640625
2435		-48.828125
2436		-50.781250
2437		-46.875000
2438		-48.828125
2439		-41.015625
2440		-46.875000
2441		-39.062500
2442		-42.968750
2443		-35.156250
2444		-39.062500
2445		-31.250000
2446		-35.156250
2447		-27.343750
2448		-33.203125
2449		-23.437500
2450		-29.296875
2451		-21.484375
2452		-23.437500
2453		-17.578125
2454		-19.531250
2455		-15.625000
2456		-17.578125
2457		-9.765625
2458		-13.671875
2459		-3.906250
2460		-9.765625
2461		0.000000
2462		-5.859375
2463		3.906250
2464		-1.953125
2465		5.859375
2466		1.953125
2467		11.718750
2468		5.859375
2469		13.671875
2470		11.718750
2471		17.578125
2472		15.625000
2473		23.437500
2474		17.578125
2475		27.343750
2476		21.484375
2477		31.250000
2478		25.390625
2479		35.156250
2480		29.296875
2481		39.062500
2482		31.250000
2483		41.015625
2484		37.109375
2485		42.968750
2486		42.968750
2487		46.875000
2488		44.921875
2489		52.734375
2490		46.875000
2491		56.640625
2492		48.828125
2493		58.593750
2494		52.734375
2495		60.546875
2496		56.640625
2497		64.453125
2498		58.593750
2499		66.406250
2500		62.500000
2501		70.312500
2502		66.406250
2503		70.312500
2504		68.359375
2505		72.265625
2506		70.312500
2507		78.125000
2508		70.312500
2509		78.125000
2510		74.218750
2511		82.031250
2512		76.171875
2513		82.031250
2514		76.171875
2515		83.984375
2516		78.125000
2517		85.937500
2518		80.078125
2519		85.937500
2520		83.984375
2521		85.937500
2522		83.984375
2523		89.843750
2524		83.984375
2525		89.843750
2526		83.984375
2527		91.796875
2528		83.984375
2529		91.796875
2530		83.984375
2531		91.796875
2532		83.984375
2533		91.796875
2534		83.984375
2535		91.796875
2536		85.937500
2537		89.843750
2538		85.937500
2539		89.843750
2540		83.984375
2541		91.796875
2542		82.031250
2543		89.843750
2544		82.031250
2545		89.843750
2546		82.031250
2547		87.890625
2548		80.078125
2549		87.890625
2550		78.125000
2551		85.937500
2552		78.125000
2553		83.984375
2554		78.125000
2555		80.078125
2556		74.218750
2557		80.078125
2558		70.312500
2559		80.078125
2560		68.359375
2561		76.171875
2562		66.406250
2563		74.218750
2564		64.453125
2565		72.265625
2566		60.546875
2567		70.312500
2568		60.546875
2569		66.406250
2570		56.640625
2571		62.500000
2572		52.734375
2573		58.593750
2574		48.828125
2575		58.593750
2576		44.921875
2577		54.687500
2578		41.015625
2579		50.781250
2580		39.062500
2581		48.828125
2582		35.156250
2583		44.921875
2584		31.250000
2585		41.015625
2586		29.296875
2587		35.156250
2588		25.390625
2589		31.250000
2590		19.531250
2591		27.343750
2592		15.625000
2593		25.390625
2594		11.718750
2595		23.437500
2596		7.812500
2597		17.578125
2598		3.906250
2599		13.671875
2600		0.000000
2601		9.765625
2602		-1.953125
2603		5.859375
2604		-5.859375
2605		0.000000
2606		-11.718750
2607		-3.906250
2608		-15.625000
2609		-5.859375
2610		-19.531250
2611		-9.765625
2612		-23.437500
2613		-13.671875
2614		-27.343750
2615		-17.578125
2616		-31.250000
2617		-21.484375
2618		-33.203125
2619		-25.390625
2620		-35.156250
2621		-31.250000
2622		-39.062500
2623		-35.156250
2624		-44.921875
2625		-37.109375
2626		-48.828125
2627		-39.062500
2628		-50.781250
2629		-42.968750
2630		-54.687500
2631		-44.921875
2632		-56.640625
2633		-48.828125
2634		-58.593750
2635		-50.781250
2636		-60.546875
2637		-52.734375
2638		-60.546875
2639		-56.640625
2640		-66.406250
2641		-58.593750
2642		-68.359375
2643		-60.546875
2644		-68.359375
2645		-60.546875
2646		-70.312500
2647		-62.500000
2648		-72.265625
2649		-64.453125
2650		-72.265625
2651		-64.453125
2652		-74.218750
2653		-66.406250
2654		-72.265625
2655		-68.359375
2656		-74.218750
2657		-68.359375
2658		-74.218750
2659		-68.359375
2660		-74.218750
2661		-68.359375
2662		-74.218750
2663		-68.359375
2664		-74.218750
2665		-68.359375
2666		-74.218750
2667		-66.406250
2668		-74.218750
2669		-66.406250
2670		-70.312500
2671		-66.406250
2672		-68.359375
2673		-66.406250
2674		-68.359375
2675		-62.500000
2676		-68.359375
2677		-60.546875
2678		-66.406250
2679		-58.593750
2680		-64.453125
2681		-56.640625
2682		-62.500000
2683		-54.687500
2684		-60.546875
2685		-50.781250
2686		-56.640625
2687		-50.781250
2688		-52.734375
2689		-48.828125
2690		-50.781250
2691		-42.968750
2692		-48.828125
2693		-41.015625
2694		-46.875000
2695		-37.109375
2696		-42.968750
2697		-33.203125
2698		-39.062500
2699		-31.250000
2700		-35.156250
2701		-27.343750
2702		-31.250000
2703		-23.437500
2704		-27.343750
2705		-21.484375
2706		-23.437500
2707		-17.578125
2708		-19.531250
2709		-11.718750
2710		-17.578125
2711		-7.812500
2712		-11.718750
2713		-3.906250
2714		-7.812500
2715		0.000000
2716		-3.906250
2717		3.906250
2718		-1.953125
2719		7.812500
2720		1.953125
2721		11.718750
2722		7.812500
2723		13.671875
2724		13.671875
2725		21.484375
2726		15.625000
2727		25.390625
2728		17.578125
2729		27.343750
2730		21.484375
2731		31.250000
2732		25.390625
2733		35.156250
2734		31.250000
2735		39.062500
2736		35.156250
2737		41.015625
2738		39.062500
2739		44.921875
2740		42.968750
2741		48.828125
2742		44.921875
2743		54.687500
2744		48.828125
2745		56.640625
2746		52.734375
2747		60.546875
2748		54.687500
2749		62.500000
2750		58.593750
2751		64.453125
2752		58.593750
2753		68.359375
2754		64.453125
2755		68.359375
2756		66.406250
2757		72.265625
2758		68.359375
2759		76.171875
2760		70.312500
2761		78.125000
2762		72.265625
2763		80.078125
2764		74.218750
2765		82.031250
2766		76.171875
2767		83.984375
2768		78.125000
2769		85.937500
2770		80.078125
2771		85.937500
2772		82.031250
2773		85.937500
2774		82.031250
2775		89.843750
2776		82.031250
2777		89.843750
2778		83.984375
2779		89.843750
2780		83.984375
2781		91.796875
2782		83.984375
2783		91.796875
2784		83.984375
2785		91.796875
2786		83.984375
2787		91.796875
2788		87.890625
2789		89.843750
2790		87.890625
2791		89.843750
2792		83.984375
2793		91.796875
2794		83.984375
2795		89.843750
2796		83.984375
2797		89.843750
2798		82.031250
2799		89.843750
2800		80.078125
2801		87.890625
2802		80.078125
2803		85.937500
2804		80.078125
2805		85.937500
2806		78.125000
2807		82.031250
2808		74.218750
2809		82.031250
2810		72.265625
2811		80.078125
2812		70.312500
2813		78.125000
2814		68.359375
2815		76.171875
2816		66.406250
2817		74.218750
2818		64.453125
2819		72.265625
2820		62.500000
2821		68.359375
2822		60.546875
2823		64.453125
2824		56.640625
2825		60.546875
2826		50.781250
2827		60.546875
2828		48.828125
2829		56.640625
2830		44.921875
2831		52.734375
2832		41.015625
2833		50.781250
2834		37.109375
2835		46.875000
2836		35.156250
2837		42.968750
2838		33.203125
2839		37.109375
2840		29.296875
2841		33.203125
2842		23.437500
2843		31.250000
2844		19.531250
2845		29.296875
2846		15.625000
2847		23.437500
2848		11.718750
2849		21.484375
2850		7.812500
2851		17.578125
2852		3.906250
2853		11.718750
2854		1.953125
2855		7.812500
2856		-3.906250
2857		1.953125
2858		-9.765625
2859		-1.953125
2860		-13.671875
2861		-3.906250
2862		-17.578125
2863		-7.812500
2864		-21.484375
2865		-11.718750
2866		-25.390625
2867		-15.625000
2868		-29.296875
2869		-19.531250
2870		-31.250000
2871		-23.437500
2872		-33.203125
2873		-29.296875
2874		-37.109375
2875		-31.250000
2876		-42.968750
2877		-33.203125
2878		-44.921875
2879		-37.109375
2880		-48.828125
2881		-41.015625
2882		-50.781250
2883		-42.968750
2884		-54.687500
2885		-46.875000
2886		-56.640625
2887		-48.828125
2888		-58.593750
2889		-50.781250
2890		-60.546875
2891		-56.640625
2892		-64.453125
2893		-58.593750
2894		-66.406250
2895		-58.593750
2896		-68.359375
2897		-60.546875
2898		-70.312500
2899		-62.500000
2900		-70.312500
2901		-64.453125
2902		-72.265625
2903		-64.453125
2904		-72.265625
2905		-66.406250
2906		-72.265625
2907		-68.359375
2908		-72.265625
2909		-70.312500
2910		-74.218750
2911		-68.359375
2912		-74.218750
2913		-68.359375
2914		-74.218750
2915		-68.359375
2916		-74.218750
2917		-66.406250
2918		-74.218750
2919		-66.406250
2920		-74.218750
2921		-66.406250
2922		-70.312500
2923		-68.359375
2924		-68.359375
2925		-66.406250
2926		-70.312500
2927		-62.500000
2928		-68.359375
2929		-62.500000
2930		-68.359375
2931		-60.546875
2932		-64.453125
2933		-56.640625
2934		-62.500000
2935		-54.687500
2936		-60.546875
2937		-52.734375
2938		-58.593750
2939		-52.734375
2940		-54.687500
2941		-48.828125
2942		-50.781250
2943		-44.921875
2944		-50.781250
2945		-42.968750
2946		-48.828125
2947		-39.062500
2948		-44.921875
2949		-35.156250
2950		-42.968750
2951		-31.250000
2952		-37.109375
2953		-29.296875
2954		-33.203125
2955		-25.390625
2956		-29.296875
2957		-23.437500
2958		-25.390625
2959		-19.531250
2960		-21.484375
2961		-13.671875
2962		-19.531250
2963		-9.765625
2964		-15.625000
2965		-5.859375
2966		-11.718750
2967		-1.953125
2968		-7.812500
2969		1.953125
2970		-3.906250
2971		5.859375
2972		0.000000
2973		7.812500
2974		5.859375
2975		11.718750
2976		9.765625
2977		17.578125
2978		13.671875
2979		21.484375
2980		15.625000
2981		25.390625
2982		19.531250
2983		29.296875
2984		23.437500
2985		33.203125
2986		27.343750
2987		37.109375
2988		33.203125
2989		39.062500
2990		37.109375
2991		42.968750
2992		41.015625
2993		44.921875
2994		42.968750
2995		50.781250
2996		44.921875
2997		54.687500
2998		48.828125
2999		58.593750
3000		52.734375
3001		60.546875
3002		54.687500
3003		64.453125
3004		58.593750
3005		66.406250
3006		62.500000
3007		66.406250
3008		66.406250
3009		70.312500
3010		68.359375
3011		74.218750
3012		68.359375
3013		78.125000
3014		70.312500
3015		78.125000
3016		72.265625
3017		80.078125
3018		74.218750
3019		82.031250
3020		76.171875
3021		83.984375
3022		78.125000
3023		83.984375
3024		82.031250
3025		85.937500
3026		82.031250
3027		87.890625
3028		82.031250
3029		89.843750
3030		83.984375
3031		89.843750
3032		83.984375
3033		91.796875
3034		83.984375
3035		91.796875
3036		85.937500
3037		91.796875
3038		85.937500
3039		91.796875
3040		87.890625
3041		89.843750
3042		87.890625
3043		89.843750
3044		83.984375
3045		91.796875
3046		83.984375
3047		91.796875
3048		83.984375
3049		89.843750
3050		82.031250
3051		89.843750
3052		82.031250
3053		89.843750
3054		80.078125
3055		87.890625
3056		80.078125
3057		85.937500
3058		80.078125
3059		83.984375
3060		76.171875
3061		82.031250
3062		74.218750
3063		82.031250
3064		72.265625
3065		80.078125
3066		70.312500
3067		78.125000
3068		68.359375
3069		76.171875
3070		64.453125
3071		74.218750
3072		62.500000
3073		70.312500
3074		62.500000
3075		66.406250
3076		58.593750
3077		62.500000
3078		52.734375
3079		62.500000
3080		50.781250
3081		58.593750
3082		46.875000
3083		56.640625
3084		42.968750
3085		52.734375
3086		39.062500
3087		48.828125
3088		37.109375
3089		46.875000
3090		35.156250
3091		41.015625
3092		31.250000
3093		37.109375
3094		25.390625
3095		33.203125
3096		19.531250
3097		31.250000
3098		17.578125
3099		27.343750
3100		13.671875
3101		23.437500
3102		9.765625
3103		19.531250
3104		5.859375
3105		15.625000
3106		3.906250
3107		11.718750
3108		0.000000
3109		5.859375
3110		-5.859375
3111		1.953125
3112		-9.765625
3113		0.000000
3114		-15.625000
3115		-3.906250
3116		-17.578125
3117		-7.812500
3118		-23.437500
3119		-13.671875
3120		-25.390625
3121		-15.625000
3122		-29.296875
3123		-19.531250
3124		-31.250000
3125		-25.390625
3126		-35.156250
3127		-29.296875
3128		-41.015625
3129		-31.250000
3130		-42.968750
3131		-33.203125
3132		-46.875000
3133		-37.109375
3134		-50.781250
3135		-41.015625
3136		-52.734375
3137		-44.921875
3138		-54.687500
3139		-46.875000
3140		-56.640625
3141		-48.828125
3142		-58.593750
3143		-54.687500
3144		-62.500000
3145		-56.640625
3146		-64.453125
3147		-56.640625
3148		-66.406250
3149		-58.593750
3150		-68.359375
3151		-60.546875
3152		-70.312500
3153		-62.500000
3154		-72.265625
3155		-62.500000
3156		-72.265625
3157		-64.453125
3158		-70.312500
3159		-68.359375
3160		-72.265625
3161		-68.359375
3162		-74.218750
3163		-66.406250
3164		-74.218750
3165		-68.359375
3166		-74.218750
3167		-66.406250
3168		-74.218750
3169		-68.359375
3170		-74.218750
3171		-68.359375
3172		-74.218750
3173		-66.406250
3174		-72.265625
3175		-66.406250
3176		-70.312500
3177		-66.406250
3178		-70.312500
3179		-62.500000
3180		-70.312500
3181		-62.500000
3182		-68.359375
3183		-60.546875
3184		-66.406250
3185		-58.593750
3186		-64.453125
3187		-56.640625
3188		-62.500000
3189		-54.687500
3190		-60.546875
3191		-52.734375
3192		-54.687500
3193		-50.781250
3194		-52.734375
3195		-46.875000
3196		-52.734375
3197		-42.968750
3198		-50.781250
3199		-41.015625
3200		-46.875000
3201		-37.109375
3202		-44.921875
3203		-35.156250
3204		-39.062500
3205		-31.250000
3206		-37.109375
3207		-27.343750
3208		-31.250000
3209		-25.390625
3210		-27.343750
3211		-21.484375
3212		-25.390625
3213		-15.625000
3214		-21.484375
3215		-13.671875
3216		-17.578125
3217		-9.765625
3218		-13.671875
3219		-3.906250
3220		-9.765625
3221		0.000000
3222		-5.859375
3223		3.906250
3224		-1.953125
3225		5.859375
3226		3.906250
3227		9.765625
3228		7.812500
3229		15.625000
3230		9.765625
3231		19.531250
3232		13.671875
3233		23.437500
3234		17.578125
3235		27.343750
3236		21.484375
3237		31.250000
3238		25.390625
3239		35.156250
3240		29.296875
3241		37.109375
3242		35.156250
3243		41.015625
3244		39.062500
3245		44.921875
3246		41.015625
3247		48.828125
3248		42.968750
3249		52.734375
3250		46.875000
3251		56.640625
3252		50.781250
3253		58.593750
3254		52.734375
3255		62.500000
3256		56.640625
3257		64.453125
3258		58.593750
3259		66.406250
3260		64.453125
3261		68.359375
3262		64.453125
3263		72.265625
3264		66.406250
3265		76.171875
3266		70.312500
3267		78.125000
3268		70.312500
3269		80.078125
3270		74.218750
3271		82.031250
3272		76.171875
3273		82.031250
3274		78.125000
3275		83.984375
3276		82.031250
3277		83.984375
3278		82.031250
3279		85.937500
3280		82.031250
3281		89.843750
3282		82.031250
3283		89.843750
3284		82.031250
3285		89.843750
3286		83.984375
3287		91.796875
3288		85.937500
3289		91.796875
3290		85.937500
3291		91.796875
3292		87.890625
3293		89.843750
3294		87.890625
3295		89.843750
3296		85.937500
3297		91.796875
3298		83.984375
3299		91.796875
3300		83.984375
3301		91.796875
3302		83.984375
3303		89.843750
3304		82.031250
3305		89.843750
3306		82.031250
3307		87.890625
3308		82.031250
3309		87.890625
3310		80.078125
3311		83.984375
3312		78.125000
3313		83.984375
3314		76.171875
3315		82.031250
3316		74.218750
3317		80.078125
3318		72.265625
3319		80.078125
3320		68.359375
3321		78.125000
3322		66.406250
3323		76.171875
3324		64.453125
3325		72.265625
3326		64.453125
3327		68.359375
3328		60.546875
3329		66.406250
3330		56.640625
3331		64.453125
3332		52.734375
3333		60.546875
3334		48.828125
3335		58.593750
3336		46.875000
3337		54.687500
3338		42.968750
3339		52.734375
3340		39.062500
3341		48.828125
3342		37.109375
3343		44.921875
3344		35.156250
3345		39.062500
3346		29.296875
3347		35.156250
3348		25.390625
3349		33.203125
3350		21.484375
3351		29.296875
3352		17.578125
3353		25.390625
3354		13.671875
3355		21.484375
3356		9.765625
3357		17.578125
3358		5.859375
3359		13.671875
3360		1.953125
3361		7.812500
3362		-3.906250
3363		3.906250
3364		-7.812500
3365		1.953125
3366		-11.718750
3367		-1.953125
3368		-15.625000
3369		-5.859375
3370		-19.531250
3371		-9.765625
3372		-23.437500
3373		-13.671875
3374		-27.343750
3375		-17.578125
3376		-27.343750
3377		-23.437500
3378		-31.250000
3379		-27.343750
3380		-37.109375
3381		-29.296875
3382		-41.015625
3383		-33.203125
3384		-42.968750
3385		-35.156250
3386		-46.875000
3387		-39.062500
3388		-50.781250
3389		-41.015625
3390		-54.687500
3391		-44.921875
3392		-54.687500
3393		-46.875000
3394		-56.640625
3395		-52.734375
3396		-60.546875
3397		-54.687500
3398		-62.500000
3399		-54.687500
3400		-66.406250
3401		-56.640625
3402		-66.406250
3403		-58.593750
3404		-68.359375
3405		-60.546875
3406		-70.312500
3407		-62.500000
3408		-72.265625
3409		-62.500000
3410		-70.312500
3411		-68.359375
3412		-70.312500
3413		-68.359375
3414		-74.218750
3415		-66.406250
3416		-74.218750
3417		-68.359375
3418		-74.218750
3419		-68.359375
3420		-74.218750
3421		-68.359375
3422		-74.218750
3423		-68.359375
3424		-74.218750
3425		-68.359375
3426		-72.265625
3427		-66.406250
3428		-70.312500
3429		-68.359375
3430		-70.312500
3431		-64.453125
3432		-70.312500
3433		-64.453125
3434		-68.359375
3435		-62.500000
3436		-66.406250
3437		-60.546875
3438		-64.453125
3439		-58.593750
3440		-62.500000
3441		-56.640625
3442		-60.546875
3443		-54.687500
3444		-58.593750
3445		-52.734375
3446		-54.687500
3447		-48.828125
3448		-54.687500
3449		-44.921875
3450		-50.781250
3451		-42.968750
3452		-48.828125
3453		-39.062500
3454		-46.875000
3455		-37.109375
3456		-41.015625
3457		-33.203125
3458		-39.062500
3459		-29.296875
3460		-33.203125
3461		-27.343750
3462		-29.296875
3463		-25.390625
3464		-27.343750
3465		-19.531250
3466		-25.390625
3467		-15.625000
3468		-21.484375
3469		-11.718750
3470		-17.578125
3471		-5.859375
3472		-13.671875
3473		-3.906250
3474		-9.765625
3475		0.000000
3476		-5.859375
3477		1.953125
3478		1.953125
3479		5.859375
3480		5.859375
3481		13.671875
3482		7.812500
3483		15.625000
3484		11.718750
3485		19.531250
3486		15.625000
3487		25.390625
3488		19.531250
3489		29.296875
3490		21.484375
3491		31.250000
3492		25.390625
3493		35.156250
3494		33.203125
3495		37.109375
3496		35.156250
3497		41.015625
3498		39.062500
3499		46.875000
3500		41.015625
3501		50.781250
3502		44.921875
3503		52.734375
3504		46.875000
3505		56.640625
3506		50.781250
3507		58.593750
3508		54.687500
3509		62.500000
3510		56.640625
3511		64.453125
3512		62.500000
3513		66.406250
3514		64.453125
3515		70.312500
3516		64.453125
3517		72.265625
3518		68.359375
3519		76.171875
3520		70.312500
3521		78.125000
3522		72.265625
3523		80.078125
3524		74.218750
3525		83.984375
3526		76.171875
3527		83.984375
3528		80.078125
3529		83.984375
3530		82.031250
3531		83.984375
3532		80.078125
3533		87.890625
3534		82.031250
3535		89.843750
3536		82.031250
3537		89.843750
3538		83.984375
3539		89.843750
3540		83.984375
3541		91.796875
3542		83.984375
3543		91.796875
3544		87.890625
3545		89.843750
3546		87.890625
3547		89.843750
3548		85.937500
3549		91.796875
3550		83.984375
3551		91.796875
3552		83.984375
3553		91.796875
3554		83.984375
3555		89.843750
3556		82.031250
3557		89.843750
3558		82.031250
3559		89.843750
3560		82.031250
3561		87.890625
3562		82.031250
3563		85.937500
3564		78.125000
3565		83.984375
3566		76.171875
3567		83.984375
3568		74.218750
3569		82.031250
3570		72.265625
3571		80.078125
3572		70.312500
3573		78.125000
3574		68.359375
3575		76.171875
3576		66.406250
3577		74.218750
3578		64.453125
3579		70.312500
3580		62.500000
3581		66.406250
3582		56.640625
3583		64.453125
3584		54.687500
3585		64.453125
3586		50.781250
3587		60.546875
3588		48.828125
3589		56.640625
3590		44.921875
3591		54.687500
3592		41.015625
3593		50.781250
3594		41.015625
3595		46.875000
3596		37.109375
3597		41.015625
3598		31.250000
3599		37.109375
3600		27.343750
3601		37.109375
3602		23.437500
3603		31.250000
3604		19.531250
3605		29.296875
3606		15.625000
3607		25.390625
3608		11.718750
3609		19.531250
3610		7.812500
3611		17.578125
3612		5.859375
3613		11.718750
3614		1.953125
3615		5.859375
3616		-5.859375
3617		3.906250
3618		-7.812500
3619		0.000000
3620		-11.718750
3621		-3.906250
3622		-15.625000
3623		-7.812500
3624		-21.484375
3625		-11.718750
3626		-23.437500
3627		-15.625000
3628		-25.390625
3629		-21.484375
3630		-29.296875
3631		-25.390625
3632		-35.156250
3633		-27.343750
3634		-39.062500
3635		-29.296875
3636		-42.968750
3637		-33.203125
3638		-44.921875
3639		-37.109375
3640		-48.828125
3641		-39.062500
3642		-52.734375
3643		-42.968750
3644		-52.734375
3645		-46.875000
3646		-54.687500
3647		-50.781250
3648		-60.546875
3649		-52.734375
3650		-62.500000
3651		-52.734375
3652		-64.453125
3653		-56.640625
3654		-66.406250
3655		-58.593750
3656		-68.359375
3657		-60.546875
3658		-70.312500
3659		-62.500000
3660		-70.312500
3661		-64.453125
3662		-70.312500
3663		-66.406250
3664		-72.265625
3665		-68.359375
3666		-74.218750
3667		-66.406250
3668		-74.218750
3669		-66.406250
3670		-74.218750
3671		-66.406250
3672		-74.218750
3673		-68.359375
3674		-74.218750
3675		-66.406250
3676		-74.218750
3677		-68.359375
3678		-74.218750
3679		-68.359375
3680		-70.312500
3681		-68.359375
3682		-72.265625
3683		-66.406250
3684		-72.265625
3685		-64.453125
3686		-70.312500
3687		-62.500000
3688		-68.359375
3689		-62.500000
3690		-68.359375
3691		-58.593750
3692		-66.406250
3693		-56.640625
3694		-62.500000
3695		-56.640625
3696		-58.593750
3697		-54.687500
3698		-56.640625
3699		-52.734375
3700		-56.640625
3701		-48.828125
3702		-52.734375
3703		-44.921875
3704		-50.781250
3705		-41.015625
3706		-48.828125
3707		-39.062500
3708		-44.921875
3709		-35.156250
3710		-41.015625
3711		-33.203125
3712		-37.109375
3713		-31.250000
3714		-33.203125
3715		-27.343750
3716		-29.296875
3717		-21.484375
3718		-27.343750
3719		-17.578125
3720		-23.437500
3721		-13.671875
3722		-19.531250
3723		-11.718750
3724		-15.625000
3725		-5.859375
3726		-13.671875
3727		-1.953125
3728		-7.812500
3729		0.000000
3730		-1.953125
3731		3.906250
3732		1.953125
3733		7.812500
3734		3.906250
3735		11.718750
3736		7.812500
3737		17.578125
3738		11.718750
3739		21.484375
3740		15.625000
3741		25.390625
3742		19.531250
3743		27.343750
3744		23.437500
3745		33.203125
3746		29.296875
3747		35.156250
3748		33.203125
3749		39.062500
3750		37.109375
3751		44.921875
3752		39.062500
3753		46.875000
3754		42.968750
3755		50.781250
3756		44.921875
3757		54.687500
3758		48.828125
3759		58.593750
3760		52.734375
3761		60.546875
3762		54.687500
3763		62.500000
3764		60.546875
3765		64.453125
3766		62.500000
3767		68.359375
3768		64.453125
3769		72.265625
3770		66.406250
3771		74.218750
3772		68.359375
3773		76.171875
3774		70.312500
3775		78.125000
3776		72.265625
3777		80.078125
3778		76.171875
3779		82.031250
3780		78.125000
3781		82.031250
3782		80.078125
3783		83.984375
3784		80.078125
3785		87.890625
3786		80.078125
3787		87.890625
3788		82.031250
3789		89.843750
3790		82.031250
3791		89.843750
3792		83.984375
3793		91.796875
3794		83.984375
3795		91.796875
3796		85.937500
3797		89.843750
3798		87.890625
3799		89.843750
3800		85.937500
3801		91.796875
3802		85.937500
3803		91.796875
3804		83.984375
3805		91.796875
3806		83.984375
3807		91.796875
3808		83.984375
3809		91.796875
3810		82.031250
3811		89.843750
3812		82.031250
3813		87.890625
3814		82.031250
3815		85.937500
3816		80.078125
3817		83.984375
3818		78.125000
3819		85.937500
3820		76.171875
3821		83.984375
3822		74.218750
3823		82.031250
3824		72.265625
3825		80.078125
3826		70.312500
3827		78.125000
3828		68.359375
3829		76.171875
3830		68.359375
3831		72.265625
3832		64.453125
3833		68.359375
3834		60.546875
3835		66.406250
3836		56.640625
3837		66.406250
3838		54.687500
3839		62.500000
3840		50.781250
3841		58.593750
3842		48.828125
3843		56.640625
3844		44.921875
3845		52.734375
3846		42.968750
3847		48.828125
3848		39.062500
3849		44.921875
3850		33.203125
3851		41.015625
3852		29.296875
3853		39.062500
3854		25.390625
3855		35.156250
3856		21.484375
3857		31.250000
3858		19.531250
3859		25.390625
3860		15.625000
3861		21.484375
3862		11.718750
3863		17.578125
3864		7.812500
3865		13.671875
3866		3.906250
3867		9.765625
3868		-1.953125
3869		5.859375
3870		-3.906250
3871		3.906250
3872		-9.765625
3873		0.000000
3874		-13.671875
3875		-3.906250
3876		-15.625000
3877		-9.765625
3878		-19.531250
3879		-13.671875
3880		-23.437500
3881		-17.578125
3882		-27.343750
3883		-21.484375
3884		-31.250000
3885		-25.390625
3886		-35.156250
3887		-29.296875
3888		-39.062500
3889		-31.250000
3890		-41.015625
3891		-35.156250
3892		-44.921875
3893		-39.062500
3894		-46.875000
3895		-42.968750
3896		-50.781250
3897		-44.921875
3898		-52.734375
3899		-48.828125
3900		-56.640625
3901		-50.781250
3902		-58.593750
3903		-52.734375
3904		-60.546875
3905		-56.640625
3906		-62.500000
3907		-58.593750
3908		-64.453125
3909		-60.546875
3910		-66.406250
3911		-62.500000
3912		-68.359375
3913		-62.500000
3914		-68.359375
3915		-66.406250
3916		-70.312500
3917		-66.406250
3918		-72.265625
3919		-66.406250
3920		-72.265625
3921		-68.359375
3922		-72.265625
3923		-68.359375
3924		-72.265625
3925		-70.312500
3926		-72.265625
3927		-70.312500
3928		-72.265625
3929		-70.312500
3930		-72.265625
3931		-68.359375
3932		-72.265625
3933		-68.359375
3934		-70.312500
3935		-66.406250
3936		-70.312500
3937		-66.406250
3938		-68.359375
3939		-66.406250
3940		-68.359375
3941		-62.500000
3942		-66.406250
3943		-62.500000
3944		-64.453125
3945		-60.546875
3946		-62.500000
3947		-58.593750
3948		-60.546875
3949		-56.640625
3950		-58.593750
3951		-54.687500
3952		-56.640625
3953		-50.781250
3954		-54.687500
3955		-48.828125
3956		-50.781250
3957		-44.921875
3958		-46.875000
3959		-41.015625
3960		-44.921875
3961		-39.062500
3962		-41.015625
3963		-37.109375
3964		-39.062500
3965		-33.203125
3966		-35.156250
3967		-29.296875
3968		-31.250000
3969		-25.390625
3970		-27.343750
3971		-21.484375
3972		-23.437500
3973		-17.578125
3974		-21.484375
3975		-15.625000
3976		-15.625000
3977		-11.718750
3978		-11.718750
3979		-5.859375
3980		-7.812500
3981		-1.953125
3982		-3.906250
3983		1.953125
3984		0.000000
3985		5.859375
3986		3.906250
3987		9.765625
3988		7.812500
3989		13.671875
3990		11.718750
3991		17.578125
3992		15.625000
3993		21.484375
3994		19.531250
3995		25.390625
3996		23.437500
3997		29.296875
3998		27.343750
3999		33.203125
4000		31.250000
4001		37.109375
4002		35.156250
4003		39.062500
4004		37.109375
4005		42.968750
4006		41.015625
4007		46.875000
4008		44.921875
4009		50.781250
4010		48.828125
4011		54.687500
4012		52.734375
4013		56.640625
4014		54.687500
4015		60.546875
4016		58.593750
4017		62.500000
4018		60.546875
4019		66.406250
4020		64.453125
4021		68.359375
4022		66.406250
4023		70.312500
4024		68.359375
4025		74.218750
4026		72.265625
4027		76.171875
4028		74.218750
4029		78.125000
4030		76.171875
4031		80.078125
4032		78.125000
4033		80.078125
4034		80.078125
4035		82.031250
4036		80.078125
4037		83.984375
4038		82.031250
4039		85.937500
4040		83.984375
4041		85.937500
4042		83.984375
4043		87.890625
4044		85.937500
4045		87.890625
4046		85.937500
4047		89.843750
4048		85.937500
4049		89.843750
4050		87.890625
4051		89.843750
4052		85.937500
4053		91.796875
4054		85.937500
4055		89.843750
4056		87.890625
4057		89.843750
4058		85.937500
4059		89.843750
4060		85.937500
4061		89.843750
4062		85.937500
4063		89.843750
4064		83.984375
4065		87.890625
4066		83.984375
4067		85.937500
4068		82.031250
4069		85.937500
4070		80.078125
4071		83.984375
4072		78.125000
4073		83.984375
4074		78.125000
4075		82.031250
4076		74.218750
4077		80.078125
4078		72.265625
4079		78.125000
4080		70.312500
4081		74.218750
4082		68.359375
4083		72.265625
4084		66.406250
4085		70.312500
4086		64.453125
4087		68.359375
4088		60.546875
4089		66.406250
4090		56.640625
4091		62.500000
4092		54.687500
4093		60.546875
4094		50.781250
4095		56.640625
4096		48.828125
4097		52.734375
4098		44.921875
4099		50.781250
4100		41.015625
4101		46.875000
4102		37.109375
4103		42.968750
4104		33.203125
4105		39.062500
4106		29.296875
4107		35.156250
4108		25.390625
4109		33.203125
4110		21.484375
4111		27.343750
4112		19.531250
4113		23.437500
4114		13.671875
4115		21.484375
4116		11.718750
4117		15.625000
4118		5.859375
4119		11.718750
4120		1.953125
4121		7.812500
4122		-1.953125
4123		3.906250
4124		-5.859375
4125		0.000000
4126		-9.765625
4127		-3.906250
4128		-13.671875
4129		-7.812500
4130		-17.578125
4131		-11.718750
4132		-21.484375
4133		-15.625000
4134		-25.390625
4135		-19.531250
4136		-29.296875
4137		-23.437500
4138		-31.250000
4139		-27.343750
4140		-35.156250
4141		-31.250000
4142		-41.015625
4143		-33.203125
4144		-42.968750
4145		-37.109375
4146		-44.921875
4147		-41.015625
4148		-48.828125
4149		-42.968750
4150		-50.781250
4151		-46.875000
4152		-54.687500
4153		-50.781250
4154		-56.640625
4155		-52.734375
4156		-58.593750
4157		-54.687500
4158		-60.546875
4159		-56.640625
4160		-64.453125
4161		-60.546875
4162		-66.406250
4163		-60.546875
4164		-68.359375
4165		-64.453125
4166		-68.359375
4167		-64.453125
4168		-70.312500
4169		-66.406250
4170		-72.265625
4171		-66.406250
4172		-72.265625
4173		-68.359375
4174		-72.265625
4175		-68.359375
4176		-72.265625
4177		-68.359375
4178		-72.265625
4179		-70.312500
4180		-74.218750
4181		-70.312500
4182		-74.218750
4183		-70.312500
4184		-72.265625
4185		-70.312500
4186		-72.265625
4187		-68.359375
4188		-70.312500
4189		-68.359375
4190		-70.312500
4191		-66.406250
4192		-68.359375
4193		-64.453125
4194		-68.359375
4195		-62.500000
4196		-66.406250
4197		-62.500000
4198		-64.453125
4199		-60.546875
4200		-62.500000
4201		-58.593750
4202		-60.546875
4203		-56.640625
4204		-58.593750
4205		-52.734375
4206		-54.687500
4207		-50.781250
4208		-52.734375
4209		-48.828125
4210		-50.781250
4211		-44.921875
4212		-46.875000
4213		-42.968750
4214		-42.968750
4215		-39.062500
4216		-41.015625
4217		-35.156250
4218		-37.109375
4219		-33.203125
4220		-33.203125
4221		-27.343750
4222		-29.296875
4223		-25.390625
4224		-27.343750
4225		-21.484375
4226		-23.437500
4227		-17.578125
4228		-19.531250
4229		-13.671875
4230		-15.625000
4231		-7.812500
4232		-11.718750
4233		-5.859375
4234		-7.812500
4235		-1.953125
4236		-3.906250
4237		1.953125
4238		0.000000
4239		5.859375
4240		3.906250
4241		9.765625
4242		7.812500
4243		13.671875
4244		11.718750
4245		17.578125
4246		15.625000
4247		23.437500
4248		21.484375
4249		25.390625
4250		23.437500
4251		29.296875
4252		29.296875
4253		33.203125
4254		31.250000
4255		37.109375
4256		35.156250
4257		41.015625
4258		39.062500
4259		44.921875
4260		42.968750
4261		46.875000
4262		46.875000
4263		50.781250
4264		48.828125
4265		54.687500
4266		52.734375
4267		58.593750
4268		56.640625
4269		60.546875
4270		58.593750
4271		64.453125
4272		62.500000
4273		66.406250
4274		64.453125
4275		68.359375
4276		66.406250
4277		72.265625
4278		70.312500
4279		74.218750
4280		72.265625
4281		76.171875
4282		74.218750
4283		78.125000
4284		76.171875
4285		80.078125
4286		78.125000
4287		82.031250
4288		80.078125
4289		83.984375
4290		80.078125
4291		83.984375
4292		82.031250
4293		85.937500
4294		83.984375
4295		85.937500
4296		83.984375
4297		87.890625
4298		85.937500
4299		87.890625
4300		85.937500
4301		89.843750
4302		87.890625
4303		89.843750
4304		85.937500
4305		89.843750
4306		87.890625
4307		89.843750
4308		85.937500
4309		89.843750
4310		85.937500
4311		89.843750
4312		85.937500
4313		89.843750
4314		85.937500
4315		89.843750
4316		83.984375
4317		87.890625
4318		83.984375
4319		87.890625
4320		82.031250
4321		85.937500
4322		82.031250
4323		85.937500
4324		80.078125
4325		83.984375
4326		78.125000
4327		82.031250
4328		76.171875
4329		80.078125
4330		74.218750
4331		78.125000
4332		72.265625
4333		76.171875
4334		70.312500
4335		74.218750
4336		68.359375
4337		72.265625
4338		64.453125
4339		70.312500
4340		62.500000
4341		66.406250
4342		58.593750
4343		64.453125
4344		56.640625
4345		60.546875
4346		52.734375
4347		58.593750
4348		50.781250
4349		56.640625
4350		46.875000
4351		52.734375
4352		42.968750
4353		48.828125
4354		39.062500
4355		44.921875
4356		35.156250
4357		41.015625
4358		33.203125
4359		37.109375
4360		29.296875
4361		35.156250
4362		25.390625
4363		29.296875
4364		21.484375
4365		27.343750
4366		17.578125
4367		23.437500
4368		13.671875
4369		19.531250
4370		9.765625
4371		15.625000
4372		5.859375
4373		11.718750
4374		0.000000
4375		5.859375
4376		-3.906250
4377		1.953125
4378		-7.812500
4379		-1.953125
4380		-9.765625
4381		-5.859375
4382		-13.671875
4383		-9.765625
4384		-19.531250
4385		-13.671875
4386		-23.437500
4387		-17.578125
4388		-27.343750
4389		-21.484375
4390		-29.296875
4391		-23.437500
4392		-33.203125
4393		-27.343750
4394		-37.109375
4395		-31.250000
4396		-41.015625
4397		-35.156250
4398		-42.968750
4399		-39.062500
4400		-46.875000
4401		-41.015625
4402		-50.781250
4403		-44.921875
4404		-52.734375
4405		-46.875000
4406		-54.687500
4407		-48.828125
4408		-58.593750
4409		-52.734375
4410		-60.546875
4411		-54.687500
4412		-62.500000
4413		-58.593750
4414		-64.453125
4415		-60.546875
4416		-66.406250
4417		-60.546875
4418		-68.359375
4419		-62.500000
4420		-68.359375
4421		-66.406250
4422		-70.312500
4423		-66.406250
4424		-72.265625
4425		-68.359375
4426		-72.265625
4427		-68.359375
4428		-72.265625
4429		-68.359375
4430		-72.265625
4431		-70.312500
4432		-72.265625
4433		-70.312500
4434		-74.218750
4435		-70.312500
4436		-72.265625
4437		-70.312500
4438		-74.218750
4439		-68.359375
4440		-72.265625
4441		-68.359375
4442		-70.312500
4443		-68.359375
4444		-70.312500
4445		-66.406250
4446		-68.359375
4447		-64.453125
4448		-66.406250
4449		-62.500000
4450		-66.406250
4451		-60.546875
4452		-64.453125
4453		-60.546875
4454		-62.500000
4455		-58.593750
4456		-60.546875
4457		-54.687500
4458		-56.640625
4459		-52.734375
4460		-54.687500
4461		-50.781250
4462		-50.781250
4463		-46.875000
4464		-48.828125
4465		-42.968750
4466		-46.875000
4467		-41.015625
4468		-42.968750
4469		-37.109375
4470		-39.062500
4471		-35.156250
4472		-37.109375
4473		-31.250000
4474		-33.203125
4475		-27.343750
4476		-29.296875
4477		-23.437500
4478		-25.390625
4479		-19.531250
4480		-21.484375
4481		-15.625000
4482		-17.578125
4483		-13.671875
4484		-13.671875
4485		-7.812500
4486		-9.765625
4487		-5.859375
4488		-5.859375
4489		0.000000
4490		-1.953125
4491		3.906250
4492		0.000000
4493		7.812500
4494		5.859375
4495		11.718750
4496		9.765625
4497		15.625000
4498		13.671875
4499		19.531250
4500		17.578125
4501		23.437500
4502		19.531250
4503		27.343750
4504		25.390625
4505		31.250000
4506		29.296875
4507		35.156250
4508		33.203125
4509		39.062500
4510		37.109375
4511		41.015625
4512		39.062500
4513		44.921875
4514		42.968750
4515		48.828125
4516		46.875000
4517		52.734375
4518		50.781250
4519		54.687500
4520		52.734375
4521		58.593750
4522		56.640625
4523		62.500000
4524		58.593750
4525		64.453125
4526		62.500000
4527		66.406250
4528		64.453125
4529		70.312500
4530		68.359375
4531		72.265625
4532		70.312500
4533		74.218750
4534		72.265625
4535		76.171875
4536		74.218750
4537		78.125000
4538		76.171875
4539		80.078125
4540		78.125000
4541		82.031250
4542		80.078125
4543		83.984375
4544		80.078125
4545		85.937500
4546		82.031250
4547		85.937500
4548		83.984375
4549		87.890625
4550		83.984375
4551		87.890625
4552		83.984375
4553		87.890625
4554		85.937500
4555		87.890625
4556		85.937500
4557		89.843750
4558		85.937500
4559		89.843750
4560		85.937500
4561		89.843750
4562		85.937500
4563		89.843750
4564		85.937500
4565		89.843750
4566		85.937500
4567		87.890625
4568		83.984375
4569		87.890625
4570		83.984375
4571		87.890625
4572		83.984375
4573		85.937500
4574		82.031250
4575		85.937500
4576		80.078125
4577		83.984375
4578		80.078125
4579		82.031250
4580		76.171875
4581		82.031250
4582		76.171875
4583		80.078125
4584		74.218750
4585		78.125000
4586		72.265625
4587		76.171875
4588		68.359375
4589		74.218750
4590		66.406250
4591		70.312500
4592		64.453125
4593		68.359375
4594		60.546875
4595		66.406250
4596		58.593750
4597		62.500000
4598		54.687500
4599		60.546875
4600		52.734375
4601		56.640625
4602		48.828125
4603		54.687500
4604		44.921875
4605		50.781250
4606		41.015625
4607		46.875000
4608		39.062500
4609		44.921875
4610		35.156250
4611		41.015625
4612		29.296875
4613		37.109375
4614		27.343750
4615		33.203125
4616		23.437500
4617		29.296875
4618		17.578125
4619		25.390625
4620		15.625000
4621		21.484375
4622		11.718750
4623		17.578125
4624		7.812500
4625		13.671875
4626		3.906250
4627		9.765625
4628		-1.953125
4629		3.906250
4630		-3.906250
4631		1.953125
4632		-9.765625
4633		-1.953125
4634		-13.671875
4635		-7.812500
4636		-15.625000
4637		-9.765625
4638		-19.531250
4639		-15.625000
4640		-23.437500
4641		-17.578125
4642		-27.343750
4643		-21.484375
4644		-33.203125
4645		-25.390625
4646		-35.156250
4647		-29.296875
4648		-39.062500
4649		-33.203125
4650		-41.015625
4651		-37.109375
4652		-44.921875
4653		-41.015625
4654		-48.828125
4655		-42.968750
4656		-50.781250
4657		-46.875000
4658		-54.687500
4659		-48.828125
4660		-56.640625
4661		-52.734375
4662		-58.593750
4663		-54.687500
4664		-62.500000
4665		-56.640625
4666		-62.500000
4667		-58.593750
4668		-64.453125
4669		-60.546875
4670		-66.406250
4671		-62.500000
4672		-68.359375
4673		-64.453125
4674		-70.312500
4675		-66.406250
4676		-70.312500
4677		-66.406250
4678		-72.265625
4679		-68.359375
4680		-74.218750
4681		-70.312500
4682		-72.265625
4683		-70.312500
4684		-74.218750
4685		-70.312500
4686		-74.218750
4687		-70.312500
4688		-74.218750
4689		-70.312500
4690		-74.218750
4691		-70.312500
4692		-74.218750
4693		-70.312500
4694		-72.265625
4695		-68.359375
4696		-72.265625
4697		-68.359375
4698		-70.312500
4699		-66.406250
4700		-68.359375
4701		-64.453125
4702		-68.359375
4703		-62.500000
4704		-66.406250
4705		-62.500000
4706		-64.453125
4707		-60.546875
4708		-62.500000
4709		-58.593750
4710		-60.546875
4711		-54.687500
4712		-56.640625
4713		-52.734375
4714		-54.687500
4715		-48.828125
4716		-52.734375
4717		-46.875000
4718		-48.828125
4719		-42.968750
4720		-46.875000
4721		-41.015625
4722		-42.968750
4723		-39.062500
4724		-39.062500
4725		-33.203125
4726		-37.109375
4727		-31.250000
4728		-33.203125
4729		-27.343750
4730		-29.296875
4731		-23.437500
4732		-25.390625
4733		-19.531250
4734		-21.484375
4735		-15.625000
4736		-17.578125
4737		-11.718750
4738		-13.671875
4739		-7.812500
4740		-9.765625
4741		-3.906250
4742		-5.859375
4743		0.000000
4744		-1.953125
4745		3.906250
4746		1.953125
4747		7.812500
4748		5.859375
4749		11.718750
4750		9.765625
4751		15.625000
4752		13.671875
4753		19.531250
4754		17.578125
4755		23.437500
4756		21.484375
4757		27.343750
4758		25.390625
4759		31.250000
4760		29.296875
4761		35.156250
4762		33.203125
4763		39.062500
4764		37.109375
4765		42.968750
4766		41.015625
4767		44.921875
4768		42.968750
4769		48.828125
4770		46.875000
4771		52.734375
4772		50.781250
4773		54.687500
4774		54.687500
4775		58.593750
4776		56.640625
4777		62.500000
4778		58.593750
4779		64.453125
4780		62.500000
4781		66.406250
4782		64.453125
4783		70.312500
4784		68.359375
4785		72.265625
4786		70.312500
4787		76.171875
4788		72.265625
4789		76.171875
4790		74.218750
4791		78.125000
4792		76.171875
4793		80.078125
4794		78.125000
4795		82.031250
4796		80.078125
4797		83.984375
4798		80.078125
4799		83.984375
4800		82.031250
4801		85.937500
4802		83.984375
4803		87.890625
4804		83.984375
4805		87.890625
4806		85.937500
4807		87.890625
4808		85.937500
4809		89.843750
4810		85.937500
4811		89.843750
4812		85.937500
4813		89.843750
4814		85.937500
4815		89.843750
4816		85.937500
4817		89.843750
4818		85.937500
4819		89.843750
4820		83.984375
4821		87.890625
4822		83.984375
4823		87.890625
4824		83.984375
4825		85.937500
4826		82.031250
4827		85.937500
4828		82.031250
4829		83.984375
4830		80.078125
4831		83.984375
4832		78.125000
4833		82.031250
4834		76.171875
4835		80.078125
4836		74.218750
4837		80.078125
4838		72.265625
4839		78.125000
4840		70.312500
4841		74.218750
4842		68.359375
4843		72.265625
4844		66.406250
4845		70.312500
4846		62.500000
4847		68.359375
4848		60.546875
4849		64.453125
4850		56.640625
4851		62.500000
4852		52.734375
4853		58.593750
4854		50.781250
4855		56.640625
4856		46.875000
4857		52.734375
4858		44.921875
4859		48.828125
4860		41.015625
4861		46.875000
4862		37.109375
4863		42.968750
4864		33.203125
4865		39.062500
4866		29.296875
4867		35.156250
4868		25.390625
4869		31.250000
4870		21.484375
4871		27.343750
4872		17.578125
4873		25.390625
4874		13.671875
4875		19.531250
4876		9.765625
4877		15.625000
4878		5.859375
4879		11.718750
4880		1.953125
4881		7.812500
4882		-1.953125
4883		3.906250
4884		-5.859375
4885		0.000000
4886		-9.765625
4887		-3.906250
4888		-13.671875
4889		-7.812500
4890		-17.578125
4891		-11.718750
4892		-21.484375
4893		-15.625000
4894		-25.390625
4895		-19.531250
4896		-29.296875
4897		-23.437500
4898		-33.203125
4899		-27.343750
4900		-37.109375
4901		-31.250000
4902		-39.062500
4903		-35.156250
4904		-42.968750
4905		-37.109375
4906		-46.875000
4907		-41.015625
4908		-48.828125
4909		-44.921875
4910		-52.734375
4911		-46.875000
4912		-54.687500
4913		-50.781250
4914		-56.640625
4915		-52.734375
4916		-60.546875
4917		-56.640625
4918		-62.500000
4919		-58.593750
4920		-64.453125
4921		-60.546875
4922		-66.406250
4923		-62.500000
4924		-68.359375
4925		-64.453125
4926		-70.312500
4927		-66.406250
4928		-70.312500
4929		-66.406250
4930		-72.265625
4931		-68.359375
4932		-72.265625
4933		-70.312500
4934		-72.265625
4935		-70.312500
4936		-74.218750
4937		-70.312500
4938		-74.218750
4939		-70.312500
4940		-74.218750
4941		-72.265625
4942		-74.218750
4943		-70.312500
4944		-74.218750
4945		-70.312500
4946		-72.265625
4947		-70.312500
4948		-72.265625
4949		-68.359375
4950		-72.265625
4951		-68.359375
4952		-70.312500
4953		-66.406250
4954		-70.312500
4955		-64.453125
4956		-68.359375
4957		-64.453125
4958		-64.453125
4959		-62.500000
4960		-64.453125
4961		-60.546875
4962		-62.500000
4963		-56.640625
4964		-58.593750
4965		-54.687500
4966		-56.640625
4967		-52.734375
4968		-54.687500
4969		-48.828125
4970		-50.781250
4971		-46.875000
4972		-48.828125
4973		-42.968750
4974		-44.921875
4975		-41.015625
4976		-42.968750
4977		-37.109375
4978		-39.062500
4979		-33.203125
4980		-35.156250
4981		-31.250000
4982		-33.203125
4983		-27.343750
4984		-27.343750
4985		-23.437500
4986		-25.390625
4987		-19.531250
4988		-21.484375
4989		-15.625000
4990		-17.578125
4991		-11.718750
4992		-13.671875
4993		-7.812500
4994		-9.765625
4995		-3.906250
4996		-5.859375
4997		0.000000
4998		-1.953125
4999		3.906250
5000		1.953125
5001		7.812500
5002		5.859375
5003		13.671875
5004		11.718750
5005		15.625000
5006		13.671875
5007		19.531250
5008		19.531250
5009		25.390625
5010		23.437500
5011		29.296875
5012		27.343750
5013		31.250000
5014		29.296875
5015		35.156250
5016		33.203125
5017		39.062500
5018		37.109375
5019		42.968750
5020		41.015625
5021		46.875000
5022		42.968750
5023		48.828125
5024		48.828125
5025		52.734375
5026		50.781250
5027		56.640625
5028		54.687500
5029		58.593750
5030		56.640625
5031		62.500000
5032		60.546875
5033		64.453125
5034		62.500000
5035		66.406250
5036		66.406250
5037		70.312500
5038		68.359375
5039		72.265625
5040		70.312500
5041		74.218750
5042		72.265625
5043		76.171875
5044		74.218750
5045		78.125000
5046		76.171875
5047		80.078125
5048		78.125000
5049		82.031250
5050		80.078125
5051		83.984375
5052		80.078125
5053		83.984375
5054		82.031250
5055		85.937500
5056		83.984375
5057		85.937500
5058		83.984375
5059		87.890625
5060		83.984375
5061		87.890625
5062		85.937500
5063		89.843750
5064		85.937500
5065		89.843750
5066		85.937500
5067		89.843750
5068		85.937500
5069		89.843750
5070		85.937500
5071		89.843750
5072		85.937500
5073		87.890625
5074		85.937500
5075		87.890625
5076		83.984375
5077		87.890625
5078		82.031250
5079		87.890625
5080		82.031250
5081		85.937500
5082		80.078125
5083		83.984375
5084		80.078125
5085		82.031250
5086		78.125000
5087		82.031250
5088		76.171875
5089		80.078125
5090		74.218750
5091		78.125000
5092		72.265625
5093		76.171875
5094		68.359375
5095		74.218750
5096		68.359375
5097		72.265625
5098		64.453125
5099		68.359375
5100		62.500000
5101		66.406250
5102		58.593750
5103		62.500000
5104		56.640625
5105		60.546875
5106		52.734375
5107		58.593750
5108		50.781250
5109		54.687500
5110		46.875000
5111		50.781250
5112		42.968750
5113		48.828125
5114		39.062500
5115		44.921875
5116		35.156250
5117		41.015625
5118		33.203125
5119		37.109375
5120		29.296875
5121		33.203125
5122		23.437500
5123		29.296875
5124		21.484375
5125		25.390625
5126		17.578125
5127		21.484375
5128		11.718750
5129		17.578125
5130		7.812500
5131		13.671875
5132		3.906250
5133		9.765625
5134		0.000000
5135		5.859375
5136		-3.906250
5137		1.953125
5138		-7.812500
5139		0.000000
5140		-11.718750
5141		-5.859375
5142		-15.625000
5143		-9.765625
5144		-21.484375
5145		-13.671875
5146		-23.437500
5147		-17.578125
5148		-27.343750
5149		-21.484375
5150		-31.250000
5151		-25.390625
5152		-33.203125
5153		-29.296875
5154		-37.109375
5155		-33.203125
5156		-42.968750
5157		-35.156250
5158		-44.921875
5159		-39.062500
5160		-46.875000
5161		-42.968750
5162		-50.781250
5163		-44.921875
5164		-52.734375
5165		-48.828125
5166		-56.640625
5167		-50.781250
5168		-58.593750
5169		-54.687500
5170		-60.546875
5171		-56.640625
5172		-62.500000
5173		-58.593750
5174		-64.453125
5175		-60.546875
5176		-66.406250
5177		-62.500000
5178		-68.359375
5179		-64.453125
5180		-70.312500
5181		-66.406250
5182		-72.265625
5183		-68.359375
5184		-72.265625
5185		-68.359375
5186		-74.218750
5187		-68.359375
5188		-74.218750
5189		-70.312500
5190		-76.171875
5191		-70.312500
5192		-74.218750
5193		-72.265625
5194		-74.218750
5195		-70.312500
5196		-76.171875
5197		-70.312500
5198		-74.218750
5199		-70.312500
5200		-72.265625
5201		-70.312500
5202		-72.265625
5203		-68.359375
5204		-72.265625
5205		-68.359375
5206		-70.312500
5207		-66.406250
5208		-68.359375
5209		-64.453125
5210		-66.406250
5211		-62.500000
5212		-66.406250
5213		-60.546875
5214		-62.500000
5215		-58.593750
5216		-60.546875
5217		-56.640625
5218		-58.593750
5219		-54.687500
5220		-56.640625
5221		-50.781250
5222		-52.734375
5223		-48.828125
5224		-50.781250
5225		-44.921875
5226		-46.875000
5227		-42.968750
5228		-44.921875
5229		-39.062500
5230		-41.015625
5231		-35.156250
5232		-37.109375
5233		-33.203125
5234		-33.203125
5235		-29.296875
5236		-31.250000
5237		-25.390625
5238		-27.343750
5239		-21.484375
5240		-23.437500
5241		-17.578125
5242		-19.531250
5243		-13.671875
5244		-15.625000
5245		-9.765625
5246		-11.718750
5247		-5.859375
5248		-9.765625
5249		-1.953125
5250		-3.906250
5251		1.953125
5252		0.000000
5253		5.859375
5254		3.906250
5255		9.765625
5256		7.812500
5257		13.671875
5258		11.718750
5259		17.578125
5260		15.625000
5261		21.484375
5262		19.531250
5263		25.390625
5264		23.437500
5265		29.296875
5266		27.343750
5267		33.203125
5268		31.250000
5269		37.109375
5270		35.156250
5271		41.015625
5272		39.062500
5273		44.921875
5274		42.968750
5275		48.828125
5276		46.875000
5277		50.781250
5278		48.828125
5279		54.687500
5280		50.781250
5281		56.640625
5282		54.687500
5283		60.546875
5284		58.593750
5285		62.500000
5286		60.546875
5287		66.406250
5288		64.453125
5289		68.359375
5290		66.406250
5291		70.312500
5292		68.359375
5293		74.218750
5294		72.265625
5295		76.171875
5296		72.265625
5297		78.125000
5298		74.218750
5299		80.078125
5300		76.171875
5301		82.031250
5302		78.125000
5303		82.031250
5304		80.078125
5305		83.984375
5306		82.031250
5307		85.937500
5308		82.031250
5309		85.937500
5310		83.984375
5311		87.890625
5312		85.937500
5313		87.890625
5314		85.937500
5315		87.890625
5316		85.937500
5317		89.843750
5318		85.937500
5319		89.843750
5320		85.937500
5321		89.843750
5322		85.937500
5323		89.843750
5324		85.937500
5325		89.843750
5326		85.937500
5327		87.890625
5328		85.937500
5329		87.890625
5330		83.984375
5331		87.890625
5332		82.031250
5333		85.937500
5334		82.031250
5335		85.937500
5336		80.078125
5337		83.984375
5338		78.125000
5339		82.031250
5340		78.125000
5341		82.031250
5342		76.171875
5343		80.078125
5344		74.218750
5345		78.125000
5346		70.312500
5347		76.171875
5348		68.359375
5349		74.218750
5350		66.406250
5351		70.312500
5352		64.453125
5353		68.359375
5354		60.546875
5355		66.406250
5356		58.593750
5357		62.500000
5358		54.687500
5359		60.546875
5360		52.734375
5361		56.640625
5362		48.828125
5363		52.734375
5364		44.921875
5365		50.781250
5366		42.968750
5367		46.875000
5368		39.062500
5369		44.921875
5370		35.156250
5371		39.062500
5372		31.250000
5373		37.109375
5374		27.343750
5375		33.203125
5376		23.437500
5377		29.296875
5378		19.531250
5379		25.390625
5380		15.625000
5381		21.484375
5382		11.718750
5383		17.578125
5384		7.812500
5385		13.671875
5386		3.906250
5387		9.765625
5388		0.000000
5389		5.859375
5390		-5.859375
5391		1.953125
5392		-7.812500
5393		-3.906250
5394		-11.718750
5395		-5.859375
5396		-15.625000
5397		-11.718750
5398		-19.531250
5399		-13.671875
5400		-23.437500
5401		-17.578125
5402		-27.343750
5403		-23.437500
5404		-31.250000
5405		-25.390625
5406		-35.156250
5407		-29.296875
5408		-39.062500
5409		-33.203125
5410		-41.015625
5411		-37.109375
5412		-44.921875
5413		-41.015625
5414		-48.828125
5415		-42.968750
5416		-50.781250
5417		-46.875000
5418		-54.687500
5419		-48.828125
5420		-56.640625
5421		-50.781250
5422		-58.593750
5423		-54.687500
5424		-62.500000
5425		-56.640625
5426		-62.500000
5427		-58.593750
5428		-66.406250
5429		-62.500000
5430		-68.359375
5431		-64.453125
5432		-68.359375
5433		-64.453125
5434		-70.312500
5435		-66.406250
5436		-70.312500
5437		-68.359375
5438		-72.265625
5439		-68.359375
5440		-72.265625
5441		-70.312500
5442		-74.218750
5443		-70.312500
5444		-74.218750
5445		-70.312500
5446		-74.218750
5447		-72.265625
5448		-74.218750
5449		-70.312500
5450		-74.218750
5451		-70.312500
5452		-74.218750
5453		-70.312500
5454		-72.265625
5455		-68.359375
5456		-72.265625
5457		-68.359375
5458		-70.312500
5459		-66.406250
5460		-70.312500
5461		-66.406250
5462		-68.359375
5463		-64.453125
5464		-66.406250
5465		-62.500000
5466		-64.453125
5467		-60.546875
5468		-62.500000
5469		-58.593750
5470		-60.546875
5471		-56.640625
5472		-58.593750
5473		-52.734375
5474		-54.687500
5475		-48.828125
5476		-52.734375
5477		-46.875000
5478		-48.828125
5479		-44.921875
5480		-46.875000
5481		-41.015625
5482		-44.921875
5483		-39.062500
5484		-41.015625
5485		-35.156250
5486		-37.109375
5487		-31.250000
5488		-33.203125
5489		-27.343750
5490		-29.296875
5491		-23.437500
5492		-27.343750
5493		-19.531250
5494		-21.484375
5495		-17.578125
5496		-17.578125
5497		-11.718750
5498		-13.671875
5499		-7.812500
5500		-9.765625
5501		-3.906250
5502		-5.859375
5503		0.000000
5504		-1.953125
5505		3.906250
5506		1.953125
5507		7.812500
5508		5.859375
5509		11.718750
5510		9.765625
5511		15.625000
5512		13.671875
5513		19.531250
5514		17.578125
5515		23.437500
5516		21.484375
5517		27.343750
5518		25.390625
5519		31.250000
5520		29.296875
5521		35.156250
5522		33.203125
5523		37.109375
5524		37.109375
5525		41.015625
5526		41.015625
5527		44.921875
5528		42.968750
5529		48.828125
5530		46.875000
5531		52.734375
5532		50.781250
5533		54.687500
5534		52.734375
5535		58.593750
5536		56.640625
5537		62.500000
5538		60.546875
5539		64.453125
5540		62.500000
5541		66.406250
5542		64.453125
5543		70.312500
5544		66.406250
5545		72.265625
5546		70.312500
5547		74.218750
5548		72.265625
5549		78.125000
5550		74.218750
5551		78.125000
5552		76.171875
5553		80.078125
5554		78.125000
5555		82.031250
5556		78.125000
5557		83.984375
5558		82.031250
5559		83.984375
5560		82.031250
5561		85.937500
5562		83.984375
5563		85.937500
5564		83.984375
5565		87.890625
5566		83.984375
5567		87.890625
5568		85.937500
5569		89.843750
5570		85.937500
5571		89.843750
5572		85.937500
5573		89.843750
5574		85.937500
5575		89.843750
5576		85.937500
5577		89.843750
5578		85.937500
5579		89.843750
5580		85.937500
5581		87.890625
5582		83.984375
5583		87.890625
5584		83.984375
5585		87.890625
5586		82.031250
5587		85.937500
5588		82.031250
5589		85.937500
5590		80.078125
5591		83.984375
5592		78.125000
5593		82.031250
5594		76.171875
5595		80.078125
5596		74.218750
5597		78.125000
5598		72.265625
5599		76.171875
5600		70.312500
5601		74.218750
5602		68.359375
5603		72.265625
5604		66.406250
5605		70.312500
5606		62.500000
5607		68.359375
5608		60.546875
5609		64.453125
5610		56.640625
5611		62.500000
5612		54.687500
5613		58.593750
5614		50.781250
5615		56.640625
5616		48.828125
5617		52.734375
5618		44.921875
5619		48.828125
5620		41.015625
5621		46.875000
5622		37.109375
5623		42.968750
5624		33.203125
5625		39.062500
5626		29.296875
5627		35.156250
5628		25.390625
5629		33.203125
5630		21.484375
5631		27.343750
5632		17.578125
5633		23.437500
5634		13.671875
5635		19.531250
5636		9.765625
5637		15.625000
5638		5.859375
5639		11.718750
5640		1.953125
5641		7.812500
5642		-1.953125
5643		3.906250
5644		-5.859375
5645		0.000000
5646		-9.765625
5647		-3.906250
5648		-13.671875
5649		-7.812500
5650		-17.578125
5651		-11.718750
5652		-21.484375
5653		-15.625000
5654		-25.390625
5655		-19.531250
5656		-29.296875
5657		-23.437500
5658		-33.203125
5659		-27.343750
5660		-37.109375
5661		-29.296875
5662		-39.062500
5663		-33.203125
5664		-42.968750
5665		-37.109375
5666		-46.875000
5667		-41.015625
5668		-48.828125
5669		-44.921875
5670		-52.734375
5671		-46.875000
5672		-54.687500
5673		-48.828125
5674		-56.640625
5675		-52.734375
5676		-60.546875
5677		-54.687500
5678		-62.500000
5679		-58.593750
5680		-64.453125
5681		-60.546875
5682		-66.406250
5683		-62.500000
5684		-68.359375
5685		-62.500000
5686		-68.359375
5687		-66.406250
5688		-70.312500
5689		-66.406250
5690		-72.265625
5691		-68.359375
5692		-72.265625
5693		-68.359375
5694		-72.265625
5695		-70.312500
5696		-74.218750
5697		-70.312500
5698		-74.218750
5699		-70.312500
5700		-76.171875
5701		-70.312500
5702		-74.218750
5703		-70.312500
5704		-74.218750
5705		-70.312500
5706		-72.265625
5707		-70.312500
5708		-72.265625
5709		-68.359375
5710		-70.312500
5711		-68.359375
5712		-70.312500
5713		-66.406250
5714		-68.359375
5715		-64.453125
5716		-66.406250
5717		-62.500000
5718		-66.406250
5719		-62.500000
5720		-64.453125
5721		-58.593750
5722		-60.546875
5723		-56.640625
5724		-60.546875
5725		-54.687500
5726		-56.640625
5727		-52.734375
5728		-54.687500
5729		-48.828125
5730		-50.781250
5731		-46.875000
5732		-48.828125
5733		-42.968750
5734		-44.921875
5735		-39.062500
5736		-42.968750
5737		-37.109375
5738		-39.062500
5739		-33.203125
5740		-35.156250
5741		-29.296875
5742		-31.250000
5743		-27.343750
5744		-29.296875
5745		-21.484375
5746		-25.390625
5747		-19.531250
5748		-19.531250
5749		-15.625000
5750		-17.578125
5751		-11.718750
5752		-11.718750
5753		-5.859375
5754		-9.765625
5755		-3.906250
5756		-3.906250
5757		0.000000
5758		0.000000
5759		3.906250
5760		1.953125
5761		9.765625
5762		7.812500
5763		11.718750
5764		11.718750
5765		15.625000
5766		15.625000
5767		21.484375
5768		19.531250
5769		25.390625
5770		23.437500
5771		27.343750
5772		27.343750
5773		31.250000
5774		31.250000
5775		35.156250
5776		33.203125
5777		41.015625
5778		37.109375
5779		42.968750
5780		41.015625
5781		46.875000
5782		44.921875
5783		50.781250
5784		48.828125
5785		52.734375
5786		50.781250
5787		56.640625
5788		54.687500
5789		60.546875
5790		56.640625
5791		62.500000
5792		60.546875
5793		66.406250
5794		62.500000
5795		68.359375
5796		64.453125
5797		70.312500
5798		68.359375
5799		72.265625
5800		70.312500
5801		74.218750
5802		72.265625
5803		76.171875
5804		74.218750
5805		80.078125
5806		76.171875
5807		80.078125
5808		78.125000
5809		82.031250
5810		80.078125
5811		83.984375
5812		82.031250
5813		85.937500
5814		82.031250
5815		85.937500
5816		83.984375
5817		87.890625
5818		83.984375
5819		87.890625
5820		83.984375
5821		87.890625
5822		85.937500
5823		89.843750
5824		85.937500
5825		89.843750
5826		85.937500
5827		89.843750
5828		85.937500
5829		89.843750
5830		85.937500
5831		89.843750
5832		85.937500
5833		87.890625
5834		83.984375
5835		87.890625
5836		83.984375
5837		87.890625
5838		83.984375
5839		87.890625
5840		82.031250
5841		85.937500
5842		80.078125
5843		85.937500
5844		78.125000
5845		83.984375
5846		78.125000
5847		82.031250
5848		76.171875
5849		80.078125
5850		72.265625
5851		78.125000
5852		72.265625
5853		76.171875
5854		70.312500
5855		74.218750
5856		66.406250
5857		72.265625
5858		64.453125
5859		70.312500
5860		62.500000
5861		68.359375
5862		58.593750
5863		64.453125
5864		56.640625
5865		60.546875
5866		52.734375
5867		58.593750
5868		50.781250
5869		54.687500
5870		46.875000
5871		52.734375
5872		42.968750
5873		48.828125
5874		41.015625
5875		44.921875
5876		35.156250
5877		41.015625
5878		33.203125
5879		37.109375
5880		29.296875
5881		35.156250
5882		25.390625
5883		31.250000
5884		21.484375
5885		27.343750
5886		15.625000
5887		23.437500
5888		11.718750
5889		19.531250
5890		9.765625
5891		15.625000
5892		3.906250
5893		11.718750
5894		0.000000
5895		7.812500
5896		-1.953125
5897		3.906250
5898		-7.812500
5899		-1.953125
5900		-9.765625
5901		-5.859375
5902		-15.625000
5903		-9.765625
5904		-19.531250
5905		-11.718750
5906		-23.437500
5907		-15.625000
5908		-27.343750
5909		-19.531250
5910		-31.250000
5911		-23.437500
5912		-33.203125
5913		-27.343750
5914		-37.109375
5915		-31.250000
5916		-41.015625
5917		-35.156250
5918		-44.921875
5919		-39.062500
5920		-48.828125
5921		-41.015625
5922		-50.781250
5923		-42.968750
5924		-52.734375
5925		-46.875000
5926		-56.640625
5927		-50.781250
5928		-58.593750
5929		-52.734375
5930		-60.546875
5931		-54.687500
5932		-62.500000
5933		-58.593750
5934		-64.453125
5935		-60.546875
5936		-66.406250
5937		-60.546875
5938		-68.359375
5939		-64.453125
5940		-70.312500
5941		-64.453125
5942		-70.312500
5943		-66.406250
5944		-72.265625
5945		-68.359375
5946		-74.218750
5947		-68.359375
5948		-72.265625
5949		-70.312500
5950		-74.218750
5951		-70.312500
5952		-74.218750
5953		-70.312500
5954		-74.218750
5955		-70.312500
5956		-74.218750
5957		-70.312500
5958		-72.265625
5959		-70.312500
5960		-72.265625
5961		-70.312500
5962		-72.265625
5963		-68.359375
5964		-70.312500
5965		-68.359375
5966		-70.312500
5967		-66.406250
5968		-68.359375
5969		-64.453125
5970		-66.406250
5971		-62.500000
5972		-64.453125
5973		-60.546875
5974		-62.500000
5975		-58.593750
5976		-60.546875
5977		-56.640625
5978		-58.593750
5979		-54.687500
5980		-56.640625
5981		-50.781250
5982		-52.734375
5983		-48.828125
5984		-50.781250
5985		-44.921875
5986		-46.875000
5987		-42.968750
5988		-44.921875
5989		-39.062500
5990		-41.015625
5991		-37.109375
5992		-37.109375
5993		-33.203125
5994		-35.156250
5995		-29.296875
5996		-31.250000
5997		-25.390625
5998		-27.343750
5999		-21.484375
6000		-23.437500
6001		-17.578125
6002		-19.531250
6003		-13.671875
6004		-15.625000
6005		-9.765625
6006		-11.718750
6007		-5.859375
6008		-7.812500
6009		-1.953125
6010		-3.906250
6011		1.953125
6012		0.000000
6013		5.859375
6014		3.906250
6015		9.765625
6016		7.812500
6017		13.671875
6018		11.718750
6019		17.578125
6020		15.625000
6021		21.484375
6022		19.531250
6023		25.390625
6024		23.437500
6025		29.296875
6026		27.343750
6027		33.203125
6028		31.250000
6029		37.109375
6030		35.156250
6031		41.015625
6032		39.062500
6033		44.921875
6034		42.968750
6035		46.875000
6036		46.875000
6037		50.781250
6038		48.828125
6039		54.687500
6040		52.734375
6041		56.640625
6042		54.687500
6043		60.546875
6044		58.593750
6045		62.500000
6046		60.546875
6047		66.406250
6048		64.453125
6049		68.359375
6050		66.406250
6051		70.312500
6052		68.359375
6053		76.171875
6054		68.359375
6055		78.125000
6056		70.312500
6057		78.125000
6058		72.265625
6059		80.078125
6060		78.125000
6061		82.031250
6062		80.078125
6063		82.031250
6064		80.078125
6065		83.984375
6066		82.031250
6067		85.937500
6068		83.984375
6069		85.937500
6070		82.031250
6071		89.843750
6072		82.031250
6073		89.843750
6074		82.031250
6075		91.796875
6076		85.937500
6077		87.890625
6078		85.937500
6079		87.890625
6080		85.937500
6081		89.843750
6082		85.937500
6083		89.843750
6084		85.937500
6085		89.843750
6086		83.984375
6087		91.796875
6088		82.031250
6089		91.796875
6090		80.078125
6091		89.843750
6092		82.031250
6093		89.843750
6094		82.031250
6095		85.937500
6096		80.078125
6097		83.984375
6098		80.078125
6099		82.031250
6100		78.125000
6101		80.078125
6102		76.171875
6103		80.078125
6104		72.265625
6105		80.078125
6106		70.312500
6107		80.078125
6108		66.406250
6109		76.171875
6110		66.406250
6111		70.312500
6112		64.453125
6113		68.359375
6114		62.500000
6115		66.406250
6116		58.593750
6117		64.453125
6118		56.640625
6119		60.546875
6120		48.828125
6121		60.546875
6122		46.875000
6123		56.640625
6124		42.968750
6125		52.734375
6126		42.968750
6127		46.875000
6128		39.062500
6129		42.968750
6130		35.156250
6131		41.015625
6132		31.250000
6133		37.109375
6134		27.343750
6135		33.203125
6136		21.484375
6137		29.296875
6138		17.578125
6139		29.296875
6140		13.671875
6141		25.390625
6142		11.718750
6143		21.484375
6144		7.812500
6145		13.671875
6146		3.906250
6147		9.765625
6148		0.000000
6149		5.859375
6150		-3.906250
6151		1.953125
6152		-7.812500
6153		-1.953125
6154		-13.671875
6155		-3.906250
6156		-17.578125
6157		-7.812500
6158		-23.437500
6159		-11.718750
6160		-23.437500
6161		-17.578125
6162		-27.343750
6163		-21.484375
6164		-31.250000
6165		-25.390625
6166		-35.156250
6167		-29.296875
6168		-39.062500
6169		-33.203125
6170		-44.921875
6171		-35.156250
6172		-46.875000
6173		-35.156250
6174		-52.734375
6175		-39.062500
6176		-50.781250
6177		-42.968750
6178		-52.734375
6179		-48.828125
6180		-56.640625
6181		-52.734375
6182		-58.593750
6183		-54.687500
6184		-60.546875
6185		-56.640625
6186		-62.500000
6187		-58.593750
6188		-68.359375
6189		-56.640625
6190		-68.359375
6191		-60.546875
6192		-70.312500
6193		-60.546875
6194		-68.359375
6195		-66.406250
6196		-70.312500
6197		-68.359375
6198		-72.265625
6199		-68.359375
6200		-72.265625
6201		-70.312500
6202		-74.218750
6203		-70.312500
6204		-76.171875
6205		-68.359375
6206		-76.171875
6207		-66.406250
6208		-76.171875
6209		-68.359375
6210		-74.218750
6211		-70.312500
6212		-72.265625
6213		-70.312500
6214		-72.265625
6215		-68.359375
6216		-72.265625
6217		-68.359375
6218		-70.312500
6219		-68.359375
6220		-70.312500
6221		-62.500000
6222		-72.265625
6223		-60.546875
6224		-68.359375
6225		-58.593750
6226		-68.359375
6227		-58.593750
6228		-62.500000
6229		-58.593750
6230		-60.546875
6231		-56.640625
6232		-58.593750
6233		-52.734375
6234		-54.687500
6235		-50.781250
6236		-52.734375
6237		-46.875000
6238		-48.828125
6239		-44.921875
6240		-48.828125
6241		-41.015625
6242		-44.921875
6243		-37.109375
6244		-39.062500
6245		-35.156250
6246		-37.109375
6247		-31.250000
6248		-33.203125
6249		-27.343750
6250		-29.296875
6251		-23.437500
6252		-25.390625
6253		-19.531250
6254		-21.484375
6255		-17.578125
6256		-17.578125
6257		-9.765625
6258		-13.671875
6259		-5.859375
6260		-9.765625
6261		-3.906250
6262		-5.859375
6263		0.000000
6264		-1.953125
6265		3.906250
6266		1.953125
6267		7.812500
6268		5.859375
6269		11.718750
6270		9.765625
6271		15.625000
6272		13.671875
6273		19.531250
6274		15.625000
6275		23.437500
6276		21.484375
6277		27.343750
6278		25.390625
6279		31.250000
6280		29.296875
6281		35.156250
6282		33.203125
6283		39.062500
6284		37.109375
6285		41.015625
6286		41.015625
6287		44.921875
6288		42.968750
6289		48.828125
6290		46.875000
6291		50.781250
6292		50.781250
6293		54.687500
6294		52.734375
6295		58.593750
6296		56.640625
6297		60.546875
6298		60.546875
6299		64.453125
6300		62.500000
6301		66.406250
6302		64.453125
6303		70.312500
6304		68.359375
6305		72.265625
6306		70.312500
6307		74.218750
6308		72.265625
6309		76.171875
6310		74.218750
6311		78.125000
6312		76.171875
6313		80.078125
6314		78.125000
6315		82.031250
6316		80.078125
6317		82.031250
6318		82.031250
6319		83.984375
6320		82.031250
6321		85.937500
6322		83.984375
6323		85.937500
6324		83.984375
6325		87.890625
6326		85.937500
6327		87.890625
6328		85.937500
6329		87.890625
6330		85.937500
6331		87.890625
6332		85.937500
6333		89.843750
6334		85.937500
6335		89.843750
6336		85.937500
6337		89.843750
6338		85.937500
6339		89.843750
6340		85.937500
6341		87.890625
6342		83.984375
6343		87.890625
6344		83.984375
6345		87.890625
6346		82.031250
6347		85.937500
6348		82.031250
6349		83.984375
6350		80.078125
6351		83.984375
6352		80.078125
6353		82.031250
6354		76.171875
6355		80.078125
6356		74.218750
6357		80.078125
6358		74.218750
6359		78.125000
6360		70.312500
6361		74.218750
6362		68.359375
6363		74.218750
6364		66.406250
6365		70.312500
6366		64.453125
6367		68.359375
6368		60.546875
6369		64.453125
6370		58.593750
6371		62.500000
6372		54.687500
6373		60.546875
6374		50.781250
6375		56.640625
6376		48.828125
6377		52.734375
6378		44.921875
6379		50.781250
6380		41.015625
6381		46.875000
6382		37.109375
6383		42.968750
6384		35.156250
6385		39.062500
6386		31.250000
6387		35.156250
6388		25.390625
6389		31.250000
6390		21.484375
6391		29.296875
6392		19.531250
6393		25.390625
6394		15.625000
6395		19.531250
6396		9.765625
6397		17.578125
6398		5.859375
6399		13.671875
6400		1.953125
6401		7.812500
6402		-1.953125
6403		3.906250
6404		-5.859375
6405		0.000000
6406		-9.765625
6407		-1.953125
6408		-13.671875
6409		-7.812500
6410		-17.578125
6411		-11.718750
6412		-21.484375
6413		-15.625000
6414		-25.390625
6415		-19.531250
6416		-29.296875
6417		-23.437500
6418		-31.250000
6419		-27.343750
6420		-35.156250
6421		-31.250000
6422		-41.015625
6423		-33.203125
6424		-42.968750
6425		-37.109375
6426		-44.921875
6427		-41.015625
6428		-48.828125
6429		-44.921875
6430		-52.734375
6431		-46.875000
6432		-54.687500
6433		-50.781250
6434		-56.640625
6435		-52.734375
6436		-58.593750
6437		-54.687500
6438		-62.500000
6439		-56.640625
6440		-64.453125
6441		-58.593750
6442		-66.406250
6443		-60.546875
6444		-66.406250
6445		-64.453125
6446		-68.359375
6447		-64.453125
6448		-70.312500
6449		-66.406250
6450		-70.312500
6451		-68.359375
6452		-72.265625
6453		-68.359375
6454		-72.265625
6455		-70.312500
6456		-74.218750
6457		-70.312500
6458		-74.218750
6459		-70.312500
6460		-74.218750
6461		-70.312500
6462		-74.218750
6463		-70.312500
6464		-74.218750
6465		-70.312500
6466		-72.265625
6467		-70.312500
6468		-72.265625
6469		-68.359375
6470		-70.312500
6471		-68.359375
6472		-70.312500
6473		-64.453125
6474		-68.359375
6475		-64.453125
6476		-68.359375
6477		-64.453125
6478		-66.406250
6479		-62.500000
6480		-64.453125
6481		-58.593750
6482		-62.500000
6483		-56.640625
6484		-58.593750
6485		-54.687500
6486		-56.640625
6487		-52.734375
6488		-54.687500
6489		-50.781250
6490		-52.734375
6491		-46.875000
6492		-48.828125
6493		-42.968750
6494		-44.921875
6495		-39.062500
6496		-42.968750
6497		-37.109375
6498		-39.062500
6499		-33.203125
6500		-35.156250
6501		-31.250000
6502		-31.250000
6503		-27.343750
6504		-27.343750
6505		-23.437500
6506		-25.390625
6507		-17.578125
6508		-21.484375
6509		-15.625000
6510		-17.578125
6511		-11.718750
6512		-13.671875
6513		-7.812500
6514		-9.765625
6515		-3.906250
6516		-5.859375
6517		0.000000
6518		-1.953125
6519		3.906250
6520		1.953125
6521		7.812500
6522		7.812500
6523		11.718750
6524		9.765625
6525		15.625000
6526		15.625000
6527		21.484375
6528		19.531250
6529		23.437500
6530		23.437500
6531		27.343750
6532		27.343750
6533		31.250000
6534		29.296875
6535		35.156250
6536		33.203125
6537		39.062500
6538		37.109375
6539		42.968750
6540		41.015625
6541		46.875000
6542		44.921875
6543		48.828125
6544		48.828125
6545		52.734375
6546		50.781250
6547		56.640625
6548		54.687500
6549		58.593750
6550		58.593750
6551		62.500000
6552		60.546875
6553		64.453125
6554		62.500000
6555		66.406250
6556		66.406250
6557		70.312500
6558		68.359375
6559		72.265625
6560		70.312500
6561		74.218750
6562		72.265625
6563		76.171875
6564		74.218750
6565		78.125000
6566		76.171875
6567		80.078125
6568		78.125000
6569		82.031250
6570		80.078125
6571		83.984375
6572		82.031250
6573		83.984375
6574		83.984375
6575		85.937500
6576		83.984375
6577		85.937500
6578		83.984375
6579		87.890625
6580		85.937500
6581		87.890625
6582		85.937500
6583		87.890625
6584		85.937500
6585		87.890625
6586		85.937500
6587		89.843750
6588		85.937500
6589		89.843750
6590		85.937500
6591		89.843750
6592		85.937500
6593		89.843750
6594		85.937500
6595		87.890625
6596		83.984375
6597		87.890625
6598		83.984375
6599		85.937500
6600		82.031250
6601		85.937500
6602		82.031250
6603		83.984375
6604		80.078125
6605		82.031250
6606		78.125000
6607		82.031250
6608		76.171875
6609		80.078125
6610		74.218750
6611		78.125000
6612		72.265625
6613		76.171875
6614		70.312500
6615		74.218750
6616		68.359375
6617		72.265625
6618		64.453125
6619		70.312500
6620		62.500000
6621		66.406250
6622		60.546875
6623		64.453125
6624		56.640625
6625		62.500000
6626		52.734375
6627		58.593750
6628		50.781250
6629		54.687500
6630		46.875000
6631		52.734375
6632		42.968750
6633		48.828125
6634		41.015625
6635		44.921875
6636		37.109375
6637		41.015625
6638		33.203125
6639		37.109375
6640		29.296875
6641		33.203125
6642		25.390625
6643		31.250000
6644		21.484375
6645		27.343750
6646		17.578125
6647		23.437500
6648		13.671875
6649		19.531250
6650		9.765625
6651		15.625000
6652		5.859375
6653		11.718750
6654		0.000000
6655		5.859375
6656		-1.953125
6657		1.953125
6658		-5.859375
6659		-1.953125
6660		-11.718750
6661		-5.859375
6662		-15.625000
6663		-9.765625
6664		-19.531250
6665		-13.671875
6666		-21.484375
6667		-17.578125
6668		-25.390625
6669		-21.484375
6670		-29.296875
6671		-25.390625
6672		-33.203125
6673		-29.296875
6674		-39.062500
6675		-31.250000
6676		-41.015625
6677		-33.203125
6678		-42.968750
6679		-39.062500
6680		-46.875000
6681		-42.968750
6682		-48.828125
6683		-44.921875
6684		-52.734375
6685		-48.828125
6686		-56.640625
6687		-50.781250
6688		-58.593750
6689		-52.734375
6690		-60.546875
6691		-56.640625
6692		-62.500000
6693		-56.640625
6694		-64.453125
6695		-58.593750
6696		-66.406250
6697		-62.500000
6698		-68.359375
6699		-64.453125
6700		-70.312500
6701		-66.406250
6702		-70.312500
6703		-68.359375
6704		-72.265625
6705		-68.359375
6706		-72.265625
6707		-70.312500
6708		-74.218750
6709		-68.359375
6710		-74.218750
6711		-70.312500
6712		-74.218750
6713		-72.265625
6714		-74.218750
6715		-72.265625
6716		-74.218750
6717		-70.312500
6718		-74.218750
6719		-70.312500
6720		-72.265625
6721		-70.312500
6722		-72.265625
6723		-68.359375
6724		-72.265625
6725		-66.406250
6726		-72.265625
6727		-64.453125
6728		-70.312500
6729		-64.453125
6730		-66.406250
6731		-62.500000
6732		-64.453125
6733		-60.546875
6734		-62.500000
6735		-58.593750
6736		-60.546875
6737		-56.640625
6738		-58.593750
6739		-54.687500
6740		-56.640625
6741		-52.734375
6742		-54.687500
6743		-48.828125
6744		-50.781250
6745		-44.921875
6746		-46.875000
6747		-42.968750
6748		-44.921875
6749		-39.062500
6750		-41.015625
6751		-37.109375
6752		-37.109375
6753		-33.203125
6754		-35.156250
6755		-29.296875
6756		-31.250000
6757		-25.390625
6758		-27.343750
6759		-21.484375
6760		-25.390625
6761		-15.625000
6762		-19.531250
6763		-13.671875
6764		-15.625000
6765		-9.765625
6766		-11.718750
6767		-5.859375
6768		-7.812500
6769		-1.953125
6770		-3.906250
6771		1.953125
6772		0.000000
6773		5.859375
6774		3.906250
6775		9.765625
6776		7.812500
6777		13.671875
6778		11.718750
6779		17.578125
6780		15.625000
6781		21.484375
6782		19.531250
6783		25.390625
6784		23.437500
6785		29.296875
6786		27.343750
6787		33.203125
6788		31.250000
6789		37.109375
6790		35.156250
6791		41.015625
6792		39.062500
6793		44.921875
6794		41.015625
6795		48.828125
6796		44.921875
6797		50.781250
6798		48.828125
6799		54.687500
6800		52.734375
6801		56.640625
6802		54.687500
6803		60.546875
6804		58.593750
6805		62.500000
6806		60.546875
6807		66.406250
6808		64.453125
6809		70.312500
6810		64.453125
6811		72.265625
6812		66.406250
6813		72.265625
6814		70.312500
6815		76.171875
6816		74.218750
6817		76.171875
6818		74.218750
6819		78.125000
6820		76.171875
6821		80.078125
6822		78.125000
6823		82.031250
6824		80.078125
6825		83.984375
6826		80.078125
6827		85.937500
6828		82.031250
6829		87.890625
6830		83.984375
6831		85.937500
6832		83.984375
6833		87.890625
6834		85.937500
6835		87.890625
6836		85.937500
6837		89.843750
6838		85.937500
6839		87.890625
6840		85.937500
6841		87.890625
6842		83.984375
6843		89.843750
6844		83.984375
6845		89.843750
6846		85.937500
6847		87.890625
6848		83.984375
6849		87.890625
6850		83.984375
6851		87.890625
6852		83.984375
6853		85.937500
6854		82.031250
6855		83.984375
6856		80.078125
6857		83.984375
6858		78.125000
6859		82.031250
6860		78.125000
6861		82.031250
6862		76.171875
6863		80.078125
6864		74.218750
6865		78.125000
6866		72.265625
6867		76.171875
6868		68.359375
6869		74.218750
6870		66.406250
6871		70.312500
6872		64.453125
6873		68.359375
6874		60.546875
6875		66.406250
6876		58.593750
6877		62.500000
6878		54.687500
6879		60.546875
6880		52.734375
6881		56.640625
6882		48.828125
6883		54.687500
6884		44.921875
6885		50.781250
6886		42.968750
6887		46.875000
6888		39.062500
6889		42.968750
6890		35.156250
6891		41.015625
6892		31.250000
6893		37.109375
6894		27.343750
6895		33.203125
6896		23.437500
6897		29.296875
6898		19.531250
6899		25.390625
6900		15.625000
6901		21.484375
6902		11.718750
6903		17.578125
6904		7.812500
6905		13.671875
6906		3.906250
6907		9.765625
6908		0.000000
6909		5.859375
6910		-3.906250
6911		1.953125
6912		-7.812500
6913		-1.953125
6914		-11.718750
6915		-5.859375
6916		-15.625000
6917		-9.765625
6918		-19.531250
6919		-15.625000
6920		-23.437500
6921		-17.578125
6922		-27.343750
6923		-21.484375
6924		-31.250000
6925		-25.390625
6926		-35.156250
6927		-29.296875
6928		-39.062500
6929		-33.203125
6930		-41.015625
6931		-37.109375
6932		-44.921875
6933		-41.015625
6934		-48.828125
6935		-42.968750
6936		-50.781250
6937		-46.875000
6938		-52.734375
6939		-48.828125
6940		-56.640625
6941		-52.734375
6942		-58.593750
6943		-54.687500
6944		-60.546875
6945		-56.640625
6946		-62.500000
6947		-60.546875
6948		-66.406250
6949		-60.546875
6950		-66.406250
6951		-64.453125
6952		-68.359375
6953		-64.453125
6954		-70.312500
6955		-66.406250
6956		-72.265625
6957		-68.359375
6958		-72.265625
6959		-68.359375
6960		-72.265625
6961		-70.312500
6962		-74.218750
6963		-70.312500
6964		-74.218750
6965		-70.312500
6966		-74.218750
6967		-70.312500
6968		-74.218750
6969		-70.312500
6970		-74.218750
6971		-70.312500
6972		-72.265625
6973		-70.312500
6974		-72.265625
6975		-70.312500
6976		-72.265625
6977		-68.359375
6978		-70.312500
6979		-68.359375
6980		-70.312500
6981		-66.406250
6982		-68.359375
6983		-64.453125
6984		-66.406250
6985		-62.500000
6986		-64.453125
6987		-60.546875
6988		-62.500000
6989		-58.593750
6990		-60.546875
6991		-56.640625
6992		-58.593750
6993		-54.687500
6994		-54.687500
6995		-50.781250
6996		-52.734375
6997		-48.828125
6998		-50.781250
6999		-44.921875
7000		-46.875000
7001		-42.968750
7002		-42.968750
7003		-39.062500
7004		-41.015625
7005		-35.156250
7006		-37.109375
7007		-31.250000
7008		-33.203125
7009		-27.343750
7010		-29.296875
7011		-25.390625
7012		-25.390625
7013		-21.484375
7014		-21.484375
7015		-17.578125
7016		-17.578125
7017		-13.671875
7018		-15.625000
7019		-9.765625
7020		-9.765625
7021		-5.859375
7022		-7.812500
7023		-1.953125
7024		-1.953125
7025		1.953125
7026		0.000000
7027		5.859375
7028		5.859375
7029		9.765625
7030		9.765625
7031		13.671875
7032		13.671875
7033		17.578125
7034		17.578125
7035		23.437500
7036		21.484375
7037		27.343750
7038		23.437500
7039		29.296875
7040		29.296875
7041		35.156250
7042		33.203125
7043		37.109375
7044		35.156250
7045		41.015625
7046		39.062500
7047		44.921875
7048		42.968750
7049		48.828125
7050		46.875000
7051		50.781250
7052		50.781250
7053		54.687500
7054		52.734375
7055		58.593750
7056		56.640625
7057		60.546875
7058		58.593750
7059		64.453125
7060		62.500000
7061		66.406250
7062		64.453125
7063		68.359375
7064		66.406250
7065		70.312500
7066		70.312500
7067		74.218750
7068		72.265625
7069		76.171875
7070		74.218750
7071		78.125000
7072		76.171875
7073		80.078125
7074		78.125000
7075		80.078125
7076		80.078125
7077		82.031250
7078		80.078125
7079		83.984375
7080		82.031250
7081		85.937500
7082		83.984375
7083		85.937500
7084		83.984375
7085		85.937500
7086		83.984375
7087		87.890625
7088		85.937500
7089		87.890625
7090		85.937500
7091		87.890625
7092		85.937500
7093		87.890625
7094		85.937500
7095		89.843750
7096		85.937500
7097		87.890625
7098		85.937500
7099		87.890625
7100		85.937500
7101		87.890625
7102		83.984375
7103		87.890625
7104		83.984375
7105		85.937500
7106		82.031250
7107		85.937500
7108		82.031250
7109		83.984375
7110		80.078125
7111		83.984375
7112		78.125000
7113		82.031250
7114		76.171875
7115		80.078125
7116		76.171875
7117		78.125000
7118		72.265625
7119		76.171875
7120		70.312500
7121		74.218750
7122		68.359375
7123		72.265625
7124		66.406250
7125		70.312500
7126		62.500000
7127		68.359375
7128		60.546875
7129		64.453125
7130		58.593750
7131		62.500000
7132		54.687500
7133		58.593750
7134		50.781250
7135		56.640625
7136		48.828125
7137		52.734375
7138		44.921875
7139		50.781250
7140		41.015625
7141		46.875000
7142		37.109375
7143		42.968750
7144		33.203125
7145		39.062500
7146		29.296875
7147		35.156250
7148		25.390625
7149		31.250000
7150		21.484375
7151		27.343750
7152		19.531250
7153		23.437500
7154		13.671875
7155		19.531250
7156		9.765625
7157		17.578125
7158		5.859375
7159		11.718750
7160		1.953125
7161		7.812500
7162		-1.953125
7163		3.906250
7164		-5.859375
7165		0.000000
7166		-9.765625
7167		-3.906250
7168		-13.671875
7169		-7.812500
7170		-17.578125
7171		-11.718750
7172		-21.484375
7173		-15.625000
7174		-25.390625
7175		-19.531250
7176		-29.296875
7177		-23.437500
7178		-33.203125
7179		-27.343750
7180		-35.156250
7181		-31.250000
7182		-39.062500
7183		-33.203125
7184		-42.968750
7185		-39.062500
7186		-46.875000
7187		-41.015625
7188		-48.828125
7189		-44.921875
7190		-52.734375
7191		-46.875000
7192		-54.687500
7193		-50.781250
7194		-56.640625
7195		-52.734375
7196		-60.546875
7197		-56.640625
7198		-62.500000
7199		-58.593750
7200		-64.453125
7201		-60.546875
7202		-66.406250
7203		-62.500000
7204		-68.359375
7205		-64.453125
7206		-68.359375
7207		-66.406250
7208		-70.312500
7209		-66.406250
7210		-72.265625
7211		-68.359375
7212		-72.265625
7213		-70.312500
7214		-74.218750
7215		-70.312500
7216		-74.218750
7217		-70.312500
7218		-74.218750
7219		-72.265625
7220		-74.218750
7221		-72.265625
7222		-74.218750
7223		-70.312500
7224		-74.218750
7225		-70.312500
7226		-74.218750
7227		-70.312500
7228		-72.265625
7229		-70.312500
7230		-72.265625
7231		-68.359375
7232		-70.312500
7233		-66.406250
7234		-70.312500
7235		-64.453125
7236		-68.359375
7237		-64.453125
7238		-66.406250
7239		-62.500000
7240		-64.453125
7241		-60.546875
7242		-62.500000
7243		-58.593750
7244		-60.546875
7245		-56.640625
7246		-56.640625
7247		-52.734375
7248		-54.687500
7249		-50.781250
7250		-52.734375
7251		-46.875000
7252		-48.828125
7253		-44.921875
7254		-44.921875
7255		-41.015625
7256		-42.968750
7257		-37.109375
7258		-39.062500
7259		-35.156250
7260		-37.109375
7261		-31.250000
7262		-33.203125
7263		-27.343750
7264		-29.296875
7265		-23.437500
7266		-25.390625
7267		-19.531250
7268		-21.484375
7269		-15.625000
7270		-17.578125
7271		-11.718750
7272		-13.671875
7273		-7.812500
7274		-9.765625
7275		-3.906250
7276		-5.859375
7277		0.000000
7278		-1.953125
7279		3.906250
7280		1.953125
7281		7.812500
7282		5.859375
7283		11.718750
7284		9.765625
7285		15.625000
7286		13.671875
7287		19.531250
7288		17.578125
7289		23.437500
7290		21.484375
7291		27.343750
7292		25.390625
7293		31.250000
7294		29.296875
7295		35.156250
7296		33.203125
7297		39.062500
7298		37.109375
7299		42.968750
7300		41.015625
7301		44.921875
7302		44.921875
7303		48.828125
7304		46.875000
7305		52.734375
7306		50.781250
7307		56.640625
7308		52.734375
7309		58.593750
7310		56.640625
7311		62.500000
7312		60.546875
7313		64.453125
7314		62.500000
7315		68.359375
7316		66.406250
7317		70.312500
7318		68.359375
7319		72.265625
7320		70.312500
7321		74.218750
7322		72.265625
7323		76.171875
7324		74.218750
7325		78.125000
7326		76.171875
7327		80.078125
7328		78.125000
7329		82.031250
7330		80.078125
7331		82.031250
7332		82.031250
7333		83.984375
7334		82.031250
7335		85.937500
7336		83.984375
7337		85.937500
7338		83.984375
7339		87.890625
7340		85.937500
7341		87.890625
7342		85.937500
7343		87.890625
7344		85.937500
7345		87.890625
7346		85.937500
7347		89.843750
7348		85.937500
7349		89.843750
7350		85.937500
7351		87.890625
7352		85.937500
7353		87.890625
7354		85.937500
7355		87.890625
7356		83.984375
7357		87.890625
7358		83.984375
7359		85.937500
7360		82.031250
7361		85.937500
7362		82.031250
7363		83.984375
7364		80.078125
7365		83.984375
7366		78.125000
7367		82.031250
7368		76.171875
7369		80.078125
7370		74.218750
7371		78.125000
7372		72.265625
7373		76.171875
7374		70.312500
7375		74.218750
7376		68.359375
7377		72.265625
7378		64.453125
7379		70.312500
7380		62.500000
7381		66.406250
7382		60.546875
7383		64.453125
7384		56.640625
7385		60.546875
7386		52.734375
7387		58.593750
7388		50.781250
7389		54.687500
7390		46.875000
7391		52.734375
7392		42.968750
7393		48.828125
7394		39.062500
7395		44.921875
7396		37.109375
7397		41.015625
7398		33.203125
7399		37.109375
7400		29.296875
7401		35.156250
7402		25.390625
7403		31.250000
7404		21.484375
7405		27.343750
7406		17.578125
7407		23.437500
7408		13.671875
7409		19.531250
7410		9.765625
7411		15.625000
7412		5.859375
7413		11.718750
7414		1.953125
7415		5.859375
7416		-3.906250
7417		1.953125
7418		-7.812500
7419		-1.953125
7420		-11.718750
7421		-5.859375
7422		-15.625000
7423		-9.765625
7424		-19.531250
7425		-13.671875
7426		-21.484375
7427		-17.578125
7428		-25.390625
7429		-21.484375
7430		-29.296875
7431		-25.390625
7432		-33.203125
7433		-27.343750
7434		-37.109375
7435		-31.250000
7436		-41.015625
7437		-35.156250
7438		-42.968750
7439		-39.062500
7440		-46.875000
7441		-42.968750
7442		-50.781250
7443		-44.921875
7444		-52.734375
7445		-48.828125
7446		-54.687500
7447		-50.781250
7448		-58.593750
7449		-52.734375
7450		-60.546875
7451		-56.640625
7452		-62.500000
7453		-58.593750
7454		-64.453125
7455		-60.546875
7456		-66.406250
7457		-62.500000
7458		-68.359375
7459		-64.453125
7460		-70.312500
7461		-66.406250
7462		-70.312500
7463		-68.359375
7464		-72.265625
7465		-68.359375
7466		-72.265625
7467		-70.312500
7468		-74.218750
7469		-70.312500
7470		-74.218750
7471		-72.265625
7472		-74.218750
7473		-72.265625
7474		-74.218750
7475		-72.265625
7476		-74.218750
7477		-70.312500
7478		-74.218750
7479		-70.312500
7480		-74.218750
7481		-70.312500
7482		-72.265625
7483		-68.359375
7484		-72.265625
7485		-68.359375
7486		-70.312500
7487		-66.406250
7488		-68.359375
7489		-66.406250
7490		-68.359375
7491		-64.453125
7492		-66.406250
7493		-62.500000
7494		-64.453125
7495		-60.546875
7496		-60.546875
7497		-56.640625
7498		-58.593750
7499		-54.687500
7500		-56.640625
7501		-52.734375
7502		-54.687500
7503		-48.828125
7504		-50.781250
7505		-46.875000
7506		-48.828125
7507		-44.921875
7508		-44.921875
7509		-41.015625
7510		-41.015625
7511		-37.109375
7512		-39.062500
7513		-33.203125
7514		-35.156250
7515		-29.296875
7516		-31.250000
7517		-27.343750
7518		-27.343750
7519		-21.484375
7520		-23.437500
7521		-19.531250
7522		-19.531250
7523		-15.625000
7524		-15.625000
7525		-11.718750
7526		-11.718750
7527		-7.812500
7528		-7.812500
7529		-3.906250
7530		-3.906250
7531		0.000000
7532		0.000000
7533		5.859375
7534		3.906250
7535		7.812500
7536		7.812500
7537		13.671875
7538		11.718750
7539		17.578125
7540		15.625000
7541		21.484375
7542		19.531250
7543		25.390625
7544		23.437500
7545		29.296875
7546		27.343750
7547		33.203125
7548		31.250000
7549		35.156250
7550		35.156250
7551		39.062500
7552		37.109375
7553		42.968750
7554		41.015625
7555		46.875000
7556		44.921875
7557		50.781250
7558		48.828125
7559		52.734375
7560		50.781250
7561		56.640625
7562		54.687500
7563		58.593750
7564		58.593750
7565		62.500000
7566		60.546875
7567		64.453125
7568		62.500000
7569		66.406250
7570		66.406250
7571		70.312500
7572		68.359375
7573		72.265625
7574		70.312500
7575		74.218750
7576		72.265625
7577		76.171875
7578		74.218750
7579		78.125000
7580		76.171875
7581		80.078125
7582		78.125000
7583		82.031250
7584		80.078125
7585		83.984375
7586		82.031250
7587		83.984375
7588		82.031250
7589		85.937500
7590		83.984375
7591		85.937500
7592		83.984375
7593		87.890625
7594		83.984375
7595		87.890625
7596		85.937500
7597		87.890625
7598		85.937500
7599		87.890625
7600		85.937500
7601		87.890625
7602		85.937500
7603		87.890625
7604		85.937500
7605		87.890625
7606		85.937500
7607		87.890625
7608		83.984375
7609		87.890625
7610		83.984375
7611		85.937500
7612		83.984375
7613		85.937500
7614		82.031250
7615		83.984375
7616		80.078125
7617		83.984375
7618		80.078125
7619		82.031250
7620		78.125000
7621		80.078125
7622		76.171875
7623		80.078125
7624		74.218750
7625		78.125000
7626		72.265625
7627		76.171875
7628		68.359375
7629		74.218750
7630		66.406250
7631		70.312500
7632		64.453125
7633		68.359375
7634		60.546875
7635		66.406250
7636		58.593750
7637		62.500000
7638		54.687500
7639		60.546875
7640		52.734375
7641		56.640625
7642		48.828125
7643		52.734375
7644		44.921875
7645		50.781250
7646		42.968750
7647		46.875000
7648		39.062500
7649		42.968750
7650		35.156250
7651		41.015625
7652		31.250000
7653		37.109375
7654		27.343750
7655		33.203125
7656		23.437500
7657		29.296875
7658		19.531250
7659		25.390625
7660		15.625000
7661		21.484375
7662		11.718750
7663		17.578125
7664		7.812500
7665		13.671875
7666		3.906250
7667		9.765625
7668		0.000000
7669		5.859375
7670		-3.906250
7671		1.953125
7672		-9.765625
7673		-1.953125
7674		-11.718750
7675		-5.859375
7676		-15.625000
7677		-11.718750
7678		-19.531250
7679		-15.625000
7680		-23.437500
7681		-19.531250
7682		-27.343750
7683		-21.484375
7684		-31.250000
7685		-25.390625
7686		-35.156250
7687		-29.296875
7688		-37.109375
7689		-33.203125
7690		-41.015625
7691		-37.109375
7692		-44.921875
7693		-41.015625
7694		-46.875000
7695		-42.968750
7696		-50.781250
7697		-46.875000
7698		-54.687500
7699		-48.828125
7700		-56.640625
7701		-52.734375
7702		-58.593750
7703		-54.687500
7704		-62.500000
7705		-56.640625
7706		-64.453125
7707		-60.546875
7708		-66.406250
7709		-60.546875
7710		-66.406250
7711		-64.453125
7712		-68.359375
7713		-66.406250
7714		-70.312500
7715		-66.406250
7716		-70.312500
7717		-68.359375
7718		-72.265625
7719		-68.359375
7720		-74.218750
7721		-70.312500
7722		-74.218750
7723		-70.312500
7724		-76.171875
7725		-70.312500
7726		-76.171875
7727		-70.312500
7728		-76.171875
7729		-70.312500
7730		-74.218750
7731		-72.265625
7732		-74.218750
7733		-70.312500
7734		-74.218750
7735		-70.312500
7736		-72.265625
7737		-68.359375
7738		-72.265625
7739		-66.406250
7740		-70.312500
7741		-66.406250
7742		-70.312500
7743		-62.500000
7744		-66.406250
7745		-62.500000
7746		-68.359375
7747		-60.546875
7748		-62.500000
7749		-58.593750
7750		-60.546875
7751		-56.640625
7752		-60.546875
7753		-52.734375
7754		-56.640625
7755		-50.781250
7756		-52.734375
7757		-48.828125
7758		-50.781250
7759		-42.968750
7760		-46.875000
7761		-42.968750
7762		-44.921875
7763		-37.109375
7764		-41.015625
7765		-35.156250
7766		-37.109375
7767		-31.250000
7768		-35.156250
7769		-27.343750
7770		-33.203125
7771		-23.437500
7772		-27.343750
7773		-21.484375
7774		-23.437500
7775		-17.578125
7776		-19.531250
7777		-13.671875
7778		-15.625000
7779		-9.765625
7780		-11.718750
7781		-5.859375
7782		-7.812500
7783		-1.953125
7784		-3.906250
7785		3.906250
7786		0.000000
7787		7.812500
7788		3.906250
7789		9.765625
7790		7.812500
7791		13.671875
7792		11.718750
7793		21.484375
7794		13.671875
7795		21.484375
7796		17.578125
7797		27.343750
7798		23.437500
7799		29.296875
7800		27.343750
7801		33.203125
7802		31.250000
7803		37.109375
7804		33.203125
7805		42.968750
7806		39.062500
7807		44.921875
7808		41.015625
7809		48.828125
7810		44.921875
7811		52.734375
7812		48.828125
7813		58.593750
7814		52.734375
7815		56.640625
7816		56.640625
7817		60.546875
7818		58.593750
7819		64.453125
7820		60.546875
7821		68.359375
7822		64.453125
7823		70.312500
7824		66.406250
7825		70.312500
7826		68.359375
7827		76.171875
7828		68.359375
7829		76.171875
7830		70.312500
7831		80.078125
7832		76.171875
7833		80.078125
7834		76.171875
7835		82.031250
7836		78.125000
7837		85.937500
7838		78.125000
7839		83.984375
7840		82.031250
7841		83.984375
7842		82.031250
7843		87.890625
7844		82.031250
7845		89.843750
7846		82.031250
7847		89.843750
7848		85.937500
7849		87.890625
7850		85.937500
7851		87.890625
7852		83.984375
7853		89.843750
7854		83.984375
7855		91.796875
7856		83.984375
7857		89.843750
7858		85.937500
7859		87.890625
7860		82.031250
7861		91.796875
7862		83.984375
7863		87.890625
7864		82.031250
7865		89.843750
7866		82.031250
7867		85.937500
7868		80.078125
7869		83.984375
7870		78.125000
7871		85.937500
7872		78.125000
7873		82.031250
7874		78.125000
7875		80.078125
7876		72.265625
7877		80.078125
7878		70.312500
7879		80.078125
7880		68.359375
7881		76.171875
7882		68.359375
7883		72.265625
7884		66.406250
7885		70.312500
7886		62.500000
7887		68.359375
7888		58.593750
7889		68.359375
7890		56.640625
7891		62.500000
7892		54.687500
7893		58.593750
7894		48.828125
7895		58.593750
7896		44.921875
7897		52.734375
7898		44.921875
7899		48.828125
7900		41.015625
7901		46.875000
7902		37.109375
7903		42.968750
7904		31.250000
7905		41.015625
7906		29.296875
7907		37.109375
7908		27.343750
7909		31.250000
7910		19.531250
7911		27.343750
7912		19.531250
7913		27.343750
7914		15.625000
7915		21.484375
7916		11.718750
7917		15.625000
7918		5.859375
7919		11.718750
7920		0.000000
7921		9.765625
7922		-3.906250
7923		5.859375
7924		-5.859375
7925		0.000000
7926		-11.718750
7927		-3.906250
7928		-13.671875
7929		-3.906250
7930		-17.578125
7931		-11.718750
7932		-21.484375
7933		-15.625000
7934		-25.390625
7935		-19.531250
7936		-29.296875
7937		-23.437500
7938		-33.203125
7939		-25.390625
7940		-37.109375
7941		-29.296875
7942		-39.062500
7943		-33.203125
7944		-44.921875
7945		-37.109375
7946		-44.921875
7947		-37.109375
7948		-48.828125
7949		-41.015625
7950		-52.734375
7951		-46.875000
7952		-54.687500
7953		-50.781250
7954		-58.593750
7955		-52.734375
7956		-60.546875
7957		-54.687500
7958		-62.500000
7959		-58.593750
7960		-66.406250
7961		-58.593750
7962		-68.359375
7963		-58.593750
7964		-68.359375
7965		-60.546875
7966		-68.359375
7967		-66.406250
7968		-70.312500
7969		-66.406250
7970		-72.265625
7971		-66.406250
7972		-74.218750
7973		-66.406250
7974		-74.218750
7975		-70.312500
7976		-76.171875
7977		-70.312500
7978		-74.218750
7979		-70.312500
7980		-74.218750
7981		-68.359375
7982		-74.218750
7983		-72.265625
7984		-74.218750
7985		-70.312500
7986		-72.265625
7987		-70.312500
7988		-76.171875
7989		-66.406250
7990		-74.218750
7991		-68.359375
7992		-70.312500
7993		-68.359375
7994		-70.312500
7995		-64.453125
7996		-68.359375
7997		-64.453125
7998		-66.406250
7999		-62.500000
8000		-64.453125
8001		-60.546875
8002		-62.500000
8003		-58.593750
8004		-60.546875
8005		-54.687500
8006		-58.593750
8007		-50.781250
8008		-56.640625
8009		-50.781250
8010		-52.734375
8011		-46.875000
8012		-52.734375
8013		-44.921875
8014		-46.875000
8015		-41.015625
8016		-42.968750
8017		-39.062500
8018		-39.062500
8019		-35.156250
8020		-37.109375
8021		-31.250000
8022		-33.203125
8023		-27.343750
8024		-29.296875
8025		-23.437500
8026		-25.390625
8027		-19.531250
8028		-21.484375
8029		-15.625000
8030		-17.578125
8031		-11.718750
8032		-13.671875
8033		-7.812500
8034		-9.765625
8035		-3.906250
8036		-5.859375
8037		0.000000
8038		-1.953125
8039		3.906250
8040		1.953125
8041		7.812500
8042		5.859375
8043		11.718750
8044		9.765625
8045		15.625000
8046		13.671875
8047		19.531250
8048		17.578125
8049		23.437500
8050		21.484375
8051		27.343750
8052		25.390625
8053		31.250000
8054		27.343750
8055		35.156250
8056		31.250000
8057		39.062500
8058		37.109375
8059		42.968750
8060		39.062500
8061		46.875000
8062		42.968750
8063		48.828125
8064		46.875000
8065		52.734375
8066		50.781250
8067		54.687500
8068		54.687500
8069		58.593750
8070		56.640625
8071		62.500000
8072		58.593750
8073		64.453125
8074		60.546875
8075		68.359375
8076		64.453125
8077		70.312500
8078		66.406250
8079		72.265625
8080		68.359375
8081		76.171875
8082		70.312500
8083		76.171875
8084		74.218750
8085		78.125000
8086		76.171875
8087		80.078125
8088		78.125000
8089		82.031250
8090		78.125000
8091		83.984375
8092		80.078125
8093		85.937500
8094		82.031250
8095		85.937500
8096		82.031250
8097		87.890625
8098		83.984375
8099		87.890625
8100		85.937500
8101		87.890625
8102		85.937500
8103		87.890625
8104		85.937500
8105		89.843750
8106		85.937500
8107		89.843750
8108		83.984375
8109		89.843750
8110		83.984375
8111		89.843750
8112		83.984375
8113		89.843750
8114		83.984375
8115		89.843750
8116		83.984375
8117		87.890625
8118		83.984375
8119		85.937500
8120		80.078125
8121		85.937500
8122		80.078125
8123		85.937500
8124		78.125000
8125		83.984375
8126		76.171875
8127		82.031250
8128		76.171875
8129		82.031250
8130		74.218750
8131		78.125000
8132		72.265625
8133		76.171875
8134		70.312500
8135		74.218750
8136		68.359375
8137		72.265625
8138		64.453125
8139		70.312500
8140		60.546875
8141		66.406250
8142		60.546875
8143		64.453125
8144		56.640625
8145		62.500000
8146		52.734375
8147		58.593750
8148		48.828125
8149		54.687500
8150		46.875000
8151		52.734375
8152		42.968750
8153		48.828125
8154		39.062500
8155		44.921875
8156		35.156250
8157		42.968750
8158		33.203125
8159		39.062500
8160		29.296875
8161		35.156250
8162		25.390625
8163		31.250000
8164		21.484375
8165		27.343750
8166		17.578125
8167		23.437500
8168		13.671875
8169		19.531250
8170		9.765625
8171		15.625000
8172		3.906250
8173		11.718750
8174		1.953125
8175		7.812500
8176		-5.859375
8177		3.906250
8178		-5.859375
8179		-1.953125
8180		-11.718750
8181		-5.859375
8182		-15.625000
8183		-9.765625
8184		-17.578125
8185		-13.671875
8186		-21.484375
8187		-17.578125
8188		-27.343750
8189		-21.484375
8190		-29.296875
8191		-25.390625
8192		-33.203125
8193		-27.343750
8194		-37.109375
8195		-31.250000
8196		-41.015625
8197		-35.156250
8198		-42.968750
8199		-39.062500
8200		-46.875000
8201		-41.015625
8202		-50.781250
8203		-44.921875
8204		-52.734375
8205		-48.828125
8206		-54.687500
8207		-50.781250
8208		-58.593750
8209		-52.734375
8210		-62.500000
8211		-56.640625
8212		-62.500000
8213		-58.593750
8214		-64.453125
8215		-60.546875
8216		-66.406250
8217		-62.500000
8218		-68.359375
8219		-64.453125
8220		-70.312500
8221		-66.406250
8222		-70.312500
8223		-66.406250
8224		-72.265625
8225		-68.359375
8226		-72.265625
8227		-68.359375
8228		-74.218750
8229		-68.359375
8230		-74.218750
8231		-70.312500
8232		-74.218750
8233		-70.312500
8234		-74.218750
8235		-70.312500
8236		-74.218750
8237		-72.265625
8238		-74.218750
8239		-70.312500
8240		-74.218750
8241		-70.312500
8242		-72.265625
8243		-68.359375
8244		-72.265625
8245		-66.406250
8246		-70.312500
8247		-66.406250
8248		-68.359375
8249		-64.453125
8250		-66.406250
8251		-64.453125
8252		-64.453125
8253		-62.500000
8254		-64.453125
8255		-58.593750
8256		-60.546875
8257		-56.640625
8258		-60.546875
8259		-54.687500
8260		-58.593750
8261		-50.781250
8262		-54.687500
8263		-48.828125
8264		-50.781250
8265		-46.875000
8266		-48.828125
8267		-42.968750
8268		-44.921875
8269		-41.015625
8270		-41.015625
8271		-37.109375
8272		-39.062500
8273		-33.203125
8274		-35.156250
8275		-29.296875
8276		-31.250000
8277		-25.390625
8278		-27.343750
8279		-21.484375
8280		-23.437500
8281		-19.531250
8282		-19.531250
8283		-15.625000
8284		-17.578125
8285		-11.718750
8286		-11.718750
8287		-7.812500
8288		-7.812500
8289		-1.953125
8290		-5.859375
8291		0.000000
8292		0.000000
8293		5.859375
8294		3.906250
8295		9.765625
8296		7.812500
8297		13.671875
8298		11.718750
8299		15.625000
8300		15.625000
8301		21.484375
8302		19.531250
8303		23.437500
8304		23.437500
8305		29.296875
8306		27.343750
8307		33.203125
8308		31.250000
8309		37.109375
8310		33.203125
8311		39.062500
8312		39.062500
8313		44.921875
8314		41.015625
8315		46.875000
8316		44.921875
8317		50.781250
8318		46.875000
8319		52.734375
8320		50.781250
8321		56.640625
8322		54.687500
8323		60.546875
8324		58.593750
8325		62.500000
8326		60.546875
8327		66.406250
8328		62.500000
8329		68.359375
8330		66.406250
8331		70.312500
8332		68.359375
8333		72.265625
8334		70.312500
8335		74.218750
8336		72.265625
8337		76.171875
8338		74.218750
8339		80.078125
8340		76.171875
8341		80.078125
8342		78.125000
8343		82.031250
8344		80.078125
8345		83.984375
8346		82.031250
8347		85.937500
8348		82.031250
8349		85.937500
8350		83.984375
8351		87.890625
8352		83.984375
8353		87.890625
8354		85.937500
8355		87.890625
8356		83.984375
8357		89.843750
8358		85.937500
8359		89.843750
8360		85.937500
8361		89.843750
8362		85.937500
8363		87.890625
8364		85.937500
8365		87.890625
8366		85.937500
8367		87.890625
8368		83.984375
8369		87.890625
8370		83.984375
8371		87.890625
8372		83.984375
8373		85.937500
8374		82.031250
8375		85.937500
8376		80.078125
8377		83.984375
8378		80.078125
8379		83.984375
8380		78.125000
8381		82.031250
8382		76.171875
8383		80.078125
8384		72.265625
8385		78.125000
8386		72.265625
8387		76.171875
8388		68.359375
8389		72.265625
8390		66.406250
8391		70.312500
8392		64.453125
8393		68.359375
8394		60.546875
8395		66.406250
8396		58.593750
8397		64.453125
8398		56.640625
8399		60.546875
8400		52.734375
8401		58.593750
8402		48.828125
8403		54.687500
8404		46.875000
8405		50.781250
8406		42.968750
8407		46.875000
8408		39.062500
8409		44.921875
8410		35.156250
8411		41.015625
8412		31.250000
8413		37.109375
8414		27.343750
8415		33.203125
8416		23.437500
8417		29.296875
8418		19.531250
8419		25.390625
8420		15.625000
8421		21.484375
8422		11.718750
8423		17.578125
8424		7.812500
8425		15.625000
8426		3.906250
8427		9.765625
8428		0.000000
8429		5.859375
8430		-3.906250
8431		1.953125
8432		-7.812500
8433		-1.953125
8434		-13.671875
8435		-5.859375
8436		-15.625000
8437		-9.765625
8438		-19.531250
8439		-13.671875
8440		-23.437500
8441		-17.578125
8442		-27.343750
8443		-21.484375
8444		-31.250000
8445		-25.390625
8446		-35.156250
8447		-29.296875
8448		-39.062500
8449		-33.203125
8450		-41.015625
8451		-37.109375
8452		-44.921875
8453		-39.062500
8454		-46.875000
8455		-42.968750
8456		-50.781250
8457		-46.875000
8458		-52.734375
8459		-48.828125
8460		-56.640625
8461		-52.734375
8462		-58.593750
8463		-54.687500
8464		-60.546875
8465		-56.640625
8466		-64.453125
8467		-58.593750
8468		-64.453125
8469		-60.546875
8470		-66.406250
8471		-64.453125
8472		-68.359375
8473		-64.453125
8474		-70.312500
8475		-66.406250
8476		-72.265625
8477		-68.359375
8478		-72.265625
8479		-68.359375
8480		-72.265625
8481		-70.312500
8482		-74.218750
8483		-70.312500
8484		-74.218750
8485		-70.312500
8486		-74.218750
8487		-70.312500
8488		-74.218750
8489		-72.265625
8490		-74.218750
8491		-70.312500
8492		-74.218750
8493		-70.312500
8494		-72.265625
8495		-70.312500
8496		-72.265625
8497		-68.359375
8498		-70.312500
8499		-68.359375
8500		-70.312500
8501		-66.406250
8502		-68.359375
8503		-64.453125
8504		-66.406250
8505		-62.500000
8506		-64.453125
8507		-60.546875
8508		-64.453125
8509		-58.593750
8510		-60.546875
8511		-56.640625
8512		-58.593750
8513		-54.687500
8514		-54.687500
8515		-50.781250
8516		-52.734375
8517		-48.828125
8518		-50.781250
8519		-44.921875
8520		-48.828125
8521		-42.968750
8522		-44.921875
8523		-39.062500
8524		-41.015625
8525		-35.156250
8526		-39.062500
8527		-33.203125
8528		-33.203125
8529		-29.296875
8530		-31.250000
8531		-25.390625
8532		-27.343750
8533		-21.484375
8534		-23.437500
8535		-17.578125
8536		-19.531250
8537		-13.671875
8538		-15.625000
8539		-9.765625
8540		-11.718750
8541		-5.859375
8542		-7.812500
8543		-1.953125
8544		-3.906250
8545		1.953125
8546		0.000000
8547		5.859375
8548		5.859375
8549		9.765625
8550		7.812500
8551		13.671875
8552		13.671875
8553		19.531250
8554		17.578125
8555		21.484375
8556		21.484375
8557		25.390625
8558		23.437500
8559		29.296875
8560		29.296875
8561		33.203125
8562		31.250000
8563		37.109375
8564		35.156250
8565		41.015625
8566		39.062500
8567		44.921875
8568		42.968750
8569		48.828125
8570		44.921875
8571		50.781250
8572		48.828125
8573		54.687500
8574		52.734375
8575		56.640625
8576		56.640625
8577		60.546875
8578		58.593750
8579		64.453125
8580		62.500000
8581		66.406250
8582		62.500000
8583		68.359375
8584		66.406250
8585		70.312500
8586		68.359375
8587		74.218750
8588		70.312500
8589		76.171875
8590		74.218750
8591		78.125000
8592		74.218750
8593		80.078125
8594		76.171875
8595		82.031250
8596		78.125000
8597		82.031250
8598		80.078125
8599		83.984375
8600		82.031250
8601		85.937500
8602		82.031250
8603		85.937500
8604		83.984375
8605		87.890625
8606		83.984375
8607		87.890625
8608		83.984375
8609		87.890625
8610		85.937500
8611		89.843750
8612		85.937500
8613		89.843750
8614		85.937500
8615		89.843750
8616		85.937500
8617		89.843750
8618		85.937500
8619		87.890625
8620		85.937500
8621		87.890625
8622		83.984375
8623		87.890625
8624		82.031250
8625		85.937500
8626		82.031250
8627		85.937500
8628		82.031250
8629		85.937500
8630		80.078125
8631		83.984375
8632		78.125000
8633		82.031250
8634		78.125000
8635		80.078125
8636		74.218750
8637		78.125000
8638		72.265625
8639		76.171875
8640		70.312500
8641		74.218750
8642		68.359375
8643		72.265625
8644		66.406250
8645		70.312500
8646		64.453125
8647		68.359375
8648		60.546875
8649		66.406250
8650		56.640625
8651		62.500000
8652		54.687500
8653		60.546875
8654		52.734375
8655		56.640625
8656		48.828125
8657		52.734375
8658		44.921875
8659		50.781250
8660		41.015625
8661		46.875000
8662		37.109375
8663		42.968750
8664		35.156250
8665		39.062500
8666		31.250000
8667		37.109375
8668		27.343750
8669		33.203125
8670		23.437500
8671		29.296875
8672		19.531250
8673		25.390625
8674		15.625000
8675		21.484375
8676		11.718750
8677		17.578125
8678		5.859375
8679		13.671875
8680		1.953125
8681		7.812500
8682		-1.953125
8683		3.906250
8684		-3.906250
8685		0.000000
8686		-9.765625
8687		-1.953125
8688		-11.718750
8689		-7.812500
8690		-15.625000
8691		-11.718750
8692		-21.484375
8693		-15.625000
8694		-25.390625
8695		-19.531250
8696		-27.343750
8697		-23.437500
8698		-31.250000
8699		-27.343750
8700		-35.156250
8701		-31.250000
8702		-39.062500
8703		-33.203125
8704		-42.968750
8705		-37.109375
8706		-44.921875
8707		-41.015625
8708		-48.828125
8709		-42.968750
8710		-50.781250
8711		-46.875000
8712		-54.687500
8713		-48.828125
8714		-56.640625
8715		-52.734375
8716		-60.546875
8717		-54.687500
8718		-62.500000
8719		-56.640625
8720		-64.453125
8721		-60.546875
8722		-66.406250
8723		-62.500000
8724		-66.406250
8725		-64.453125
8726		-70.312500
8727		-64.453125
8728		-70.312500
8729		-66.406250
8730		-72.265625
8731		-68.359375
8732		-72.265625
8733		-68.359375
8734		-74.218750
8735		-70.312500
8736		-74.218750
8737		-70.312500
8738		-74.218750
8739		-70.312500
8740		-74.218750
8741		-72.265625
8742		-74.218750
8743		-70.312500
8744		-74.218750
8745		-70.312500
8746		-74.218750
8747		-70.312500
8748		-72.265625
8749		-70.312500
8750		-72.265625
8751		-68.359375
8752		-70.312500
8753		-66.406250
8754		-68.359375
8755		-64.453125
8756		-68.359375
8757		-64.453125
8758		-66.406250
8759		-62.500000
8760		-64.453125
8761		-60.546875
8762		-62.500000
8763		-56.640625
8764		-60.546875
8765		-56.640625
8766		-56.640625
8767		-52.734375
8768		-54.687500
8769		-50.781250
8770		-52.734375
8771		-46.875000
8772		-50.781250
8773		-44.921875
8774		-46.875000
8775		-41.015625
8776		-42.968750
8777		-37.109375
8778		-39.062500
8779		-33.203125
8780		-37.109375
8781		-31.250000
8782		-33.203125
8783		-27.343750
8784		-29.296875
8785		-23.437500
8786		-25.390625
8787		-19.531250
8788		-21.484375
8789		-15.625000
8790		-17.578125
8791		-11.718750
8792		-13.671875
8793		-7.812500
8794		-9.765625
8795		-3.906250
8796		-5.859375
8797		0.000000
8798		-1.953125
8799		3.906250
8800		1.953125
8801		7.812500
8802		5.859375
8803		11.718750
8804		9.765625
8805		17.578125
8806		13.671875
8807		19.531250
8808		17.578125
8809		23.437500
8810		21.484375
8811		29.296875
8812		25.390625
8813		31.250000
8814		29.296875
8815		35.156250
8816		33.203125
8817		39.062500
8818		37.109375
8819		42.968750
8820		41.015625
8821		44.921875
8822		42.968750
8823		48.828125
8824		46.875000
8825		52.734375
8826		50.781250
8827		56.640625
8828		52.734375
8829		58.593750
8830		56.640625
8831		62.500000
8832		60.546875
8833		64.453125
8834		62.500000
8835		68.359375
8836		64.453125
8837		68.359375
8838		66.406250
8839		72.265625
8840		70.312500
8841		74.218750
8842		72.265625
8843		76.171875
8844		74.218750
8845		78.125000
8846		76.171875
8847		80.078125
8848		78.125000
8849		82.031250
8850		80.078125
8851		83.984375
8852		82.031250
8853		83.984375
8854		82.031250
8855		85.937500
8856		82.031250
8857		87.890625
8858		83.984375
8859		87.890625
8860		85.937500
8861		87.890625
8862		85.937500
8863		89.843750
8864		85.937500
8865		89.843750
8866		85.937500
8867		89.843750
8868		85.937500
8869		89.843750
8870		85.937500
8871		89.843750
8872		85.937500
8873		89.843750
8874		85.937500
8875		87.890625
8876		82.031250
8877		87.890625
8878		83.984375
8879		87.890625
8880		82.031250
8881		85.937500
8882		82.031250
8883		85.937500
8884		80.078125
8885		83.984375
8886		78.125000
8887		82.031250
8888		76.171875
8889		80.078125
8890		74.218750
8891		78.125000
8892		72.265625
8893		76.171875
8894		70.312500
8895		74.218750
8896		68.359375
8897		72.265625
8898		66.406250
8899		70.312500
8900		62.500000
8901		66.406250
8902		60.546875
8903		64.453125
8904		56.640625
8905		62.500000
8906		54.687500
8907		58.593750
8908		50.781250
8909		54.687500
8910		46.875000
8911		52.734375
8912		44.921875
8913		50.781250
8914		41.015625
8915		44.921875
8916		37.109375
8917		42.968750
8918		33.203125
8919		39.062500
8920		29.296875
8921		35.156250
8922		25.390625
8923		31.250000
8924		21.484375
8925		27.343750
8926		17.578125
8927		23.437500
8928		13.671875
8929		19.531250
8930		9.765625
8931		15.625000
8932		5.859375
8933		11.718750
8934		0.000000
8935		7.812500
8936		-1.953125
8937		3.906250
8938		-5.859375
8939		0.000000
8940		-9.765625
8941		-3.906250
8942		-13.671875
8943		-7.812500
8944		-17.578125
8945		-11.718750
8946		-21.484375
8947		-15.625000
8948		-25.390625
8949		-19.531250
8950		-31.250000
8951		-23.437500
8952		-33.203125
8953		-27.343750
8954		-37.109375
8955		-31.250000
8956		-39.062500
8957		-35.156250
8958		-42.968750
8959		-39.062500
8960		-46.875000
8961		-41.015625
8962		-48.828125
8963		-44.921875
8964		-52.734375
8965		-46.875000
8966		-54.687500
8967		-50.781250
8968		-56.640625
8969		-52.734375
8970		-60.546875
8971		-54.687500
8972		-62.500000
8973		-58.593750
8974		-64.453125
8975		-60.546875
8976		-66.406250
8977		-62.500000
8978		-68.359375
8979		-64.453125
8980		-70.312500
8981		-64.453125
8982		-70.312500
8983		-66.406250
8984		-72.265625
8985		-68.359375
8986		-72.265625
8987		-68.359375
8988		-74.218750
8989		-70.312500
8990		-74.218750
8991		-70.312500
8992		-74.218750
8993		-72.265625
8994		-74.218750
8995		-70.312500
8996		-74.218750
8997		-70.312500
8998		-74.218750
8999		-70.312500
9000		-74.218750
9001		-70.312500
9002		-72.265625
9003		-68.359375
9004		-72.265625
9005		-68.359375
9006		-70.312500
9007		-66.406250
9008		-68.359375
9009		-66.406250
9010		-66.406250
9011		-64.453125
9012		-66.406250
9013		-60.546875
9014		-64.453125
9015		-60.546875
9016		-62.500000
9017		-56.640625
9018		-58.593750
9019		-54.687500
9020		-56.640625
9021		-52.734375
9022		-54.687500
9023		-48.828125
9024		-50.781250
9025		-46.875000
9026		-48.828125
9027		-42.968750
9028		-44.921875
9029		-39.062500
9030		-41.015625
9031		-37.109375
9032		-39.062500
9033		-33.203125
9034		-35.156250
9035		-29.296875
9036		-31.250000
9037		-25.390625
9038		-27.343750
9039		-21.484375
9040		-23.437500
9041		-19.531250
9042		-19.531250
9043		-15.625000
9044		-15.625000
9045		-11.718750
9046		-13.671875
9047		-7.812500
9048		-7.812500
9049		-3.906250
9050		-5.859375
9051		0.000000
9052		-1.953125
9053		5.859375
9054		3.906250
9055		9.765625
9056		7.812500
9057		13.671875
9058		11.718750
9059		15.625000
9060		15.625000
9061		21.484375
9062		19.531250
9063		23.437500
9064		23.437500
9065		27.343750
9066		27.343750
9067		31.250000
9068		31.250000
9069		35.156250
9070		35.156250
9071		41.015625
9072		37.109375
9073		42.968750
9074		41.015625
9075		46.875000
9076		44.921875
9077		48.828125
9078		48.828125
9079		52.734375
9080		50.781250
9081		56.640625
9082		54.687500
9083		58.593750
9084		56.640625
9085		62.500000
9086		60.546875
9087		66.406250
9088		62.500000
9089		68.359375
9090		66.406250
9091		70.312500
9092		68.359375
9093		72.265625
9094		70.312500
9095		74.218750
9096		72.265625
9097		76.171875
9098		74.218750
9099		78.125000
9100		76.171875
9101		82.031250
9102		78.125000
9103		82.031250
9104		80.078125
9105		83.984375
9106		80.078125
9107		83.984375
9108		82.031250
9109		85.937500
9110		83.984375
9111		85.937500
9112		83.984375
9113		87.890625
9114		85.937500
9115		87.890625
9116		85.937500
9117		89.843750
9118		85.937500
9119		89.843750
9120		85.937500
9121		89.843750
9122		85.937500
9123		89.843750
9124		83.984375
9125		89.843750
9126		85.937500
9127		87.890625
9128		85.937500
9129		87.890625
9130		83.984375
9131		87.890625
9132		82.031250
9133		85.937500
9134		82.031250
9135		85.937500
9136		80.078125
9137		83.984375
9138		80.078125
9139		83.984375
9140		78.125000
9141		82.031250
9142		76.171875
9143		82.031250
9144		74.218750
9145		78.125000
9146		72.265625
9147		76.171875
9148		70.312500
9149		74.218750
9150		68.359375
9151		72.265625
9152		64.453125
9153		70.312500
9154		62.500000
9155		66.406250
9156		58.593750
9157		64.453125
9158		56.640625
9159		60.546875
9160		52.734375
9161		58.593750
9162		48.828125
9163		54.687500
9164		46.875000
9165		52.734375
9166		42.968750
9167		48.828125
9168		39.062500
9169		44.921875
9170		35.156250
9171		41.015625
9172		33.203125
9173		39.062500
9174		29.296875
9175		33.203125
9176		25.390625
9177		29.296875
9178		21.484375
9179		25.390625
9180		15.625000
9181		23.437500
9182		13.671875
9183		17.578125
9184		7.812500
9185		15.625000
9186		3.906250
9187		9.765625
9188		0.000000
9189		5.859375
9190		-3.906250
9191		1.953125
9192		-7.812500
9193		-1.953125
9194		-11.718750
9195		-5.859375
9196		-15.625000
9197		-9.765625
9198		-19.531250
9199		-13.671875
9200		-23.437500
9201		-17.578125
9202		-27.343750
9203		-21.484375
9204		-31.250000
9205		-25.390625
9206		-33.203125
9207		-27.343750
9208		-37.109375
9209		-31.250000
9210		-41.015625
9211		-35.156250
9212		-44.921875
9213		-39.062500
9214		-46.875000
9215		-41.015625
9216		-50.781250
9217		-44.921875
9218		-52.734375
9219		-48.828125
9220		-56.640625
9221		-50.781250
9222		-58.593750
9223		-52.734375
9224		-60.546875
9225		-56.640625
9226		-62.500000
9227		-58.593750
9228		-64.453125
9229		-60.546875
9230		-66.406250
9231		-62.500000
9232		-68.359375
9233		-64.453125
9234		-70.312500
9235		-66.406250
9236		-70.312500
9237		-66.406250
9238		-72.265625
9239		-68.359375
9240		-72.265625
9241		-68.359375
9242		-74.218750
9243		-70.312500
9244		-74.218750
9245		-70.312500
9246		-74.218750
9247		-70.312500
9248		-74.218750
9249		-70.312500
9250		-74.218750
9251		-70.312500
9252		-72.265625
9253		-70.312500
9254		-72.265625
9255		-70.312500
9256		-72.265625
9257		-68.359375
9258		-70.312500
9259		-66.406250
9260		-70.312500
9261		-66.406250
9262		-68.359375
9263		-64.453125
9264		-66.406250
9265		-62.500000
9266		-64.453125
9267		-60.546875
9268		-62.500000
9269		-58.593750
9270		-60.546875
9271		-56.640625
9272		-58.593750
9273		-52.734375
9274		-56.640625
9275		-50.781250
9276		-52.734375
9277		-48.828125
9278		-50.781250
9279		-44.921875
9280		-46.875000
9281		-41.015625
9282		-44.921875
9283		-39.062500
9284		-41.015625
9285		-35.156250
9286		-37.109375
9287		-33.203125
9288		-35.156250
9289		-29.296875
9290		-29.296875
9291		-25.390625
9292		-27.343750
9293		-21.484375
9294		-23.437500
9295		-17.578125
9296		-19.531250
9297		-13.671875
9298		-15.625000
9299		-9.765625
9300		-11.718750
9301		-5.859375
9302		-7.812500
9303		-1.953125
9304		-3.906250
9305		1.953125
9306		0.000000
9307		5.859375
9308		3.906250
9309		9.765625
9310		7.812500
9311		13.671875
9312		11.718750
9313		19.531250
9314		17.578125
9315		21.484375
9316		21.484375
9317		27.343750
9318		25.390625
9319		29.296875
9320		27.343750
9321		33.203125
9322		31.250000
9323		37.109375
9324		35.156250
9325		41.015625
9326		39.062500
9327		44.921875
9328		42.968750
9329		46.875000
9330		46.875000
9331		52.734375
9332		48.828125
9333		54.687500
9334		52.734375
9335		58.593750
9336		56.640625
9337		60.546875
9338		58.593750
9339		62.500000
9340		60.546875
9341		66.406250
9342		64.453125
9343		70.312500
9344		66.406250
9345		70.312500
9346		70.312500
9347		74.218750
9348		72.265625
9349		76.171875
9350		74.218750
9351		78.125000
9352		76.171875
9353		80.078125
9354		78.125000
9355		82.031250
9356		78.125000
9357		82.031250
9358		80.078125
9359		83.984375
9360		82.031250
9361		85.937500
9362		83.984375
9363		85.937500
9364		83.984375
9365		87.890625
9366		85.937500
9367		87.890625
9368		85.937500
9369		89.843750
9370		85.937500
9371		89.843750
9372		85.937500
9373		89.843750
9374		85.937500
9375		89.843750
9376		85.937500
9377		89.843750
9378		85.937500
9379		89.843750
9380		85.937500
9381		87.890625
9382		83.984375
9383		87.890625
9384		83.984375
9385		87.890625
9386		83.984375
9387		85.937500
9388		80.078125
9389		85.937500
9390		80.078125
9391		83.984375
9392		78.125000
9393		83.984375
9394		78.125000
9395		82.031250
9396		76.171875
9397		78.125000
9398		72.265625
9399		78.125000
9400		70.312500
9401		76.171875
9402		68.359375
9403		72.265625
9404		66.406250
9405		70.312500
9406		64.453125
9407		68.359375
9408		60.546875
9409		66.406250
9410		58.593750
9411		62.500000
9412		54.687500
9413		60.546875
9414		52.734375
9415		56.640625
9416		48.828125
9417		54.687500
9418		44.921875
9419		50.781250
9420		41.015625
9421		46.875000
9422		39.062500
9423		44.921875
9424		33.203125
9425		39.062500
9426		29.296875
9427		37.109375
9428		27.343750
9429		31.250000
9430		23.437500
9431		29.296875
9432		19.531250
9433		25.390625
9434		15.625000
9435		21.484375
9436		9.765625
9437		17.578125
9438		7.812500
9439		13.671875
9440		3.906250
9441		9.765625
9442		0.000000
9443		5.859375
9444		-3.906250
9445		1.953125
9446		-9.765625
9447		-3.906250
9448		-13.671875
9449		-7.812500
9450		-17.578125
9451		-9.765625
9452		-21.484375
9453		-15.625000
9454		-23.437500
9455		-19.531250
9456		-29.296875
9457		-23.437500
9458		-31.250000
9459		-27.343750
9460		-35.156250
9461		-29.296875
9462		-39.062500
9463		-33.203125
9464		-42.968750
9465		-37.109375
9466		-44.921875
9467		-39.062500
9468		-48.828125
9469		-42.968750
9470		-50.781250
9471		-46.875000
9472		-54.687500
9473		-48.828125
9474		-56.640625
9475		-52.734375
9476		-60.546875
9477		-54.687500
9478		-60.546875
9479		-56.640625
9480		-64.453125
9481		-60.546875
9482		-66.406250
9483		-60.546875
9484		-68.359375
9485		-64.453125
9486		-68.359375
9487		-64.453125
9488		-70.312500
9489		-66.406250
9490		-70.312500
9491		-68.359375
9492		-72.265625
9493		-68.359375
9494		-72.265625
9495		-68.359375
9496		-74.218750
9497		-70.312500
9498		-74.218750
9499		-70.312500
9500		-74.218750
9501		-70.312500
9502		-74.218750
9503		-70.312500
9504		-74.218750
9505		-70.312500
9506		-74.218750
9507		-70.312500
9508		-72.265625
9509		-68.359375
9510		-72.265625
9511		-66.406250
9512		-70.312500
9513		-66.406250
9514		-70.312500
9515		-66.406250
9516		-68.359375
9517		-64.453125
9518		-66.406250
9519		-62.500000
9520		-64.453125
9521		-60.546875
9522		-62.500000
9523		-58.593750
9524		-60.546875
9525		-54.687500
9526		-56.640625
9527		-52.734375
9528		-54.687500
9529		-50.781250
9530		-52.734375
9531		-46.875000
9532		-48.828125
9533		-44.921875
9534		-46.875000
9535		-41.015625
9536		-42.968750
9537		-37.109375
9538		-41.015625
9539		-35.156250
9540		-37.109375
9541		-31.250000
9542		-33.203125
9543		-27.343750
9544		-29.296875
9545		-23.437500
9546		-25.390625
9547		-19.531250
9548		-21.484375
9549		-15.625000
9550		-17.578125
9551		-11.718750
9552		-13.671875
9553		-9.765625
9554		-11.718750
9555		-3.906250
9556		-5.859375
9557		0.000000
9558		-1.953125
9559		3.906250
9560		1.953125
9561		7.812500
9562		3.906250
9563		11.718750
9564		9.765625
9565		15.625000
9566		13.671875
9567		19.531250
9568		17.578125
9569		23.437500
9570		21.484375
9571		27.343750
9572		25.390625
9573		31.250000
9574		29.296875
9575		35.156250
9576		33.203125
9577		39.062500
9578		37.109375
9579		41.015625
9580		41.015625
9581		44.921875
9582		42.968750
9583		48.828125
9584		44.921875
9585		52.734375
9586		50.781250
9587		54.687500
9588		54.687500
9589		58.593750
9590		56.640625
9591		62.500000
9592		58.593750
9593		64.453125
9594		62.500000
9595		68.359375
9596		64.453125
9597		70.312500
9598		66.406250
9599		72.265625
9600		70.312500
9601		74.218750
9602		72.265625
9603		76.171875
9604		74.218750
9605		78.125000
9606		76.171875
9607		80.078125
9608		78.125000
9609		82.031250
9610		80.078125
9611		83.984375
9612		80.078125
9613		83.984375
9614		82.031250
9615		85.937500
9616		83.984375
9617		87.890625
9618		83.984375
9619		87.890625
9620		83.984375
9621		87.890625
9622		85.937500
9623		87.890625
9624		85.937500
9625		89.843750
9626		85.937500
9627		89.843750
9628		85.937500
9629		89.843750
9630		85.937500
9631		87.890625
9632		85.937500
9633		89.843750
9634		85.937500
9635		87.890625
9636		83.984375
9637		87.890625
9638		83.984375
9639		87.890625
9640		82.031250
9641		85.937500
9642		80.078125
9643		85.937500
9644		80.078125
9645		83.984375
9646		78.125000
9647		82.031250
9648		76.171875
9649		80.078125
9650		74.218750
9651		78.125000
9652		72.265625
9653		76.171875
9654		70.312500
9655		76.171875
9656		68.359375
9657		72.265625
9658		64.453125
9659		70.312500
9660		62.500000
9661		68.359375
9662		60.546875
9663		64.453125
9664		56.640625
9665		62.500000
9666		54.687500
9667		58.593750
9668		50.781250
9669		56.640625
9670		46.875000
9671		52.734375
9672		44.921875
9673		48.828125
9674		41.015625
9675		44.921875
9676		37.109375
9677		42.968750
9678		31.250000
9679		39.062500
9680		29.296875
9681		35.156250
9682		25.390625
9683		31.250000
9684		21.484375
9685		27.343750
9686		17.578125
9687		23.437500
9688		13.671875
9689		19.531250
9690		9.765625
9691		15.625000
9692		5.859375
9693		11.718750
9694		1.953125
9695		7.812500
9696		-1.953125
9697		3.906250
9698		-5.859375
9699		0.000000
9700		-9.765625
9701		-3.906250
9702		-13.671875
9703		-7.812500
9704		-17.578125
9705		-11.718750
9706		-21.484375
9707		-15.625000
9708		-25.390625
9709		-19.531250
9710		-29.296875
9711		-23.437500
9712		-33.203125
9713		-27.343750
9714		-37.109375
9715		-31.250000
9716		-39.062500
9717		-35.156250
9718		-42.968750
9719		-37.109375
9720		-46.875000
9721		-41.015625
9722		-48.828125
9723		-44.921875
9724		-52.734375
9725		-46.875000
9726		-54.687500
9727		-48.828125
9728		-58.593750
9729		-52.734375
9730		-60.546875
9731		-54.687500
9732		-62.500000
9733		-58.593750
9734		-64.453125
9735		-60.546875
9736		-66.406250
9737		-62.500000
9738		-68.359375
9739		-64.453125
9740		-68.359375
9741		-66.406250
9742		-70.312500
9743		-66.406250
9744		-72.265625
9745		-68.359375
9746		-72.265625
9747		-68.359375
9748		-72.265625
9749		-70.312500
9750		-74.218750
9751		-70.312500
9752		-74.218750
9753		-70.312500
9754		-74.218750
9755		-70.312500
9756		-74.218750
9757		-70.312500
9758		-72.265625
9759		-70.312500
9760		-74.218750
9761		-70.312500
9762		-72.265625
9763		-68.359375
9764		-72.265625
9765		-68.359375
9766		-70.312500
9767		-66.406250
9768		-68.359375
9769		-64.453125
9770		-68.359375
9771		-62.500000
9772		-64.453125
9773		-62.500000
9774		-64.453125
9775		-60.546875
9776		-62.500000
9777		-56.640625
9778		-58.593750
9779		-54.687500
9780		-56.640625
9781		-52.734375
9782		-54.687500
9783		-48.828125
9784		-50.781250
9785		-44.921875
9786		-48.828125
9787		-42.968750
9788		-44.921875
9789		-41.015625
9790		-42.968750
9791		-37.109375
9792		-39.062500
9793		-33.203125
9794		-35.156250
9795		-29.296875
9796		-31.250000
9797		-27.343750
9798		-27.343750
9799		-21.484375
9800		-23.437500
9801		-19.531250
9802		-21.484375
9803		-13.671875
9804		-15.625000
9805		-11.718750
9806		-13.671875
9807		-7.812500
9808		-7.812500
9809		-3.906250
9810		-3.906250
9811		0.000000
9812		0.000000
9813		5.859375
9814		1.953125
9815		9.765625
9816		7.812500
9817		13.671875
9818		11.718750
9819		17.578125
9820		15.625000
9821		21.484375
9822		19.531250
9823		25.390625
9824		23.437500
9825		29.296875
9826		27.343750
9827		33.203125
9828		31.250000
9829		35.156250
9830		33.203125
9831		39.062500
9832		39.062500
9833		42.968750
9834		41.015625
9835		46.875000
9836		44.921875
9837		50.781250
9838		46.875000
9839		54.687500
9840		50.781250
9841		56.640625
9842		54.687500
9843		60.546875
9844		58.593750
9845		62.500000
9846		60.546875
9847		64.453125
9848		62.500000
9849		68.359375
9850		66.406250
9851		70.312500
9852		68.359375
9853		72.265625
9854		70.312500
9855		76.171875
9856		72.265625
9857		76.171875
9858		74.218750
9859		78.125000
9860		76.171875
9861		80.078125
9862		78.125000
9863		82.031250
9864		80.078125
9865		83.984375
9866		82.031250
9867		83.984375
9868		82.031250
9869		87.890625
9870		82.031250
9871		89.843750
9872		83.984375
9873		89.843750
9874		85.937500
9875		87.890625
9876		83.984375
9877		89.843750
9878		85.937500
9879		91.796875
9880		83.984375
9881		89.843750
9882		85.937500
9883		89.843750
9884		85.937500
9885		87.890625
9886		83.984375
9887		89.843750
9888		82.031250
9889		89.843750
9890		83.984375
9891		87.890625
9892		82.031250
9893		85.937500
9894		82.031250
9895		87.890625
9896		80.078125
9897		85.937500
9898		80.078125
9899		83.984375
9900		78.125000
9901		82.031250
9902		74.218750
9903		80.078125
9904		72.265625
9905		80.078125
9906		70.312500
9907		78.125000
9908		68.359375
9909		76.171875
9910		64.453125
9911		74.218750
9912		62.500000
9913		70.312500
9914		60.546875
9915		68.359375
9916		58.593750
9917		64.453125
9918		56.640625
9919		60.546875
9920		50.781250
9921		58.593750
9922		46.875000
9923		56.640625
9924		46.875000
9925		52.734375
9926		42.968750
9927		48.828125
9928		37.109375
9929		46.875000
9930		35.156250
9931		42.968750
9932		33.203125
9933		39.062500
9934		29.296875
9935		33.203125
9936		23.437500
9937		31.250000
9938		19.531250
9939		29.296875
9940		15.625000
9941		23.437500
9942		9.765625
9943		19.531250
9944		5.859375
9945		17.578125
9946		3.906250
9947		11.718750
9948		0.000000
9949		7.812500
9950		-1.953125
9951		1.953125
9952		-9.765625
9953		-1.953125
9954		-13.671875
9955		-3.906250
9956		-17.578125
9957		-7.812500
9958		-21.484375
9959		-11.718750
9960		-23.437500
9961		-15.625000
9962		-27.343750
9963		-19.531250
9964		-31.250000
9965		-23.437500
9966		-33.203125
9967		-29.296875
9968		-37.109375
9969		-31.250000
9970		-42.968750
9971		-35.156250
9972		-46.875000
9973		-37.109375
9974		-48.828125
9975		-41.015625
9976		-50.781250
9977		-42.968750
9978		-54.687500
9979		-44.921875
9980		-58.593750
9981		-48.828125
9982		-58.593750
9983		-52.734375
9984		-60.546875
9985		-56.640625
9986		-64.453125
9987		-58.593750
9988		-66.406250
9989		-58.593750
9990		-68.359375
9991		-60.546875
9992		-70.312500
9993		-62.500000
9994		-72.265625
9995		-64.453125
9996		-72.265625
9997		-64.453125
9998		-74.218750
9999		-66.406250
10000		-72.265625
