Channel              :		CH1
Frequency            :		1.978kHz
Period               :		0.506ms
PK-PK                :		89.84mV
Probe attenuation    :		1X
Voltage per ADC value:		0.122070mV
Time interval        :		2.00000us

index		CH1_Voltage(mV)
1		48.828125
2		48.828125
3		52.734375
4		48.828125
5		52.734375
6		48.828125
7		52.734375
8		48.828125
9		52.734375
10		48.828125
11		52.734375
12		48.828125
13		50.781250
14		48.828125
15		52.734375
16		46.875000
17		50.781250
18		46.875000
19		50.781250
20		46.875000
21		48.828125
22		44.921875
23		48.828125
24		44.921875
25		46.875000
26		42.968750
27		46.875000
28		42.968750
29		46.875000
30		41.015625
31		44.921875
32		41.015625
33		42.968750
34		37.109375
35		42.968750
36		37.109375
37		41.015625
38		35.156250
39		39.062500
40		35.156250
41		39.062500
42		33.203125
43		37.109375
44		31.250000
45		35.156250
46		29.296875
47		33.203125
48		27.343750
49		31.250000
50		25.390625
51		29.296875
52		23.437500
53		29.296875
54		23.437500
55		27.343750
56		19.531250
57		25.390625
58		17.578125
59		21.484375
60		15.625000
61		21.484375
62		13.671875
63		17.578125
64		13.671875
65		17.578125
66		11.718750
67		13.671875
68		7.812500
69		11.718750
70		7.812500
71		9.765625
72		3.906250
73		7.812500
74		1.953125
75		7.812500
76		0.000000
77		3.906250
78		0.000000
79		1.953125
80		-3.906250
81		1.953125
82		-5.859375
83		-1.953125
84		-5.859375
85		-3.906250
86		-7.812500
87		-3.906250
88		-9.765625
89		-5.859375
90		-11.718750
91		-7.812500
92		-13.671875
93		-9.765625
94		-15.625000
95		-11.718750
96		-17.578125
97		-13.671875
98		-19.531250
99		-13.671875
100		-19.531250
101		-17.578125
102		-21.484375
103		-17.578125
104		-23.437500
105		-19.531250
106		-23.437500
107		-19.531250
108		-25.390625
109		-21.484375
110		-25.390625
111		-21.484375
112		-27.343750
113		-23.437500
114		-27.343750
115		-23.437500
116		-27.343750
117		-25.390625
118		-29.296875
119		-25.390625
120		-29.296875
121		-25.390625
122		-29.296875
123		-27.343750
124		-29.296875
125		-25.390625
126		-31.250000
127		-27.343750
128		-31.250000
129		-27.343750
130		-31.250000
131		-27.343750
132		-29.296875
133		-27.343750
134		-29.296875
135		-27.343750
136		-31.250000
137		-25.390625
138		-29.296875
139		-25.390625
140		-29.296875
141		-25.390625
142		-27.343750
143		-25.390625
144		-27.343750
145		-23.437500
146		-27.343750
147		-23.437500
148		-27.343750
149		-21.484375
150		-25.390625
151		-21.484375
152		-23.437500
153		-19.531250
154		-23.437500
155		-19.531250
156		-21.484375
157		-17.578125
158		-19.531250
159		-17.578125
160		-19.531250
161		-15.625000
162		-17.578125
163		-13.671875
164		-15.625000
165		-11.718750
166		-13.671875
167		-11.718750
168		-13.671875
169		-9.765625
170		-11.718750
171		-7.812500
172		-9.765625
173		-5.859375
174		-7.812500
175		-3.906250
176		-5.859375
177		-1.953125
178		-3.906250
179		0.000000
180		-1.953125
181		1.953125
182		0.000000
183		3.906250
184		1.953125
185		5.859375
186		3.906250
187		7.812500
188		5.859375
189		9.765625
190		7.812500
191		11.718750
192		9.765625
193		13.671875
194		11.718750
195		15.625000
196		13.671875
197		17.578125
198		15.625000
199		19.531250
200		17.578125
201		21.484375
202		19.531250
203		23.437500
204		21.484375
205		25.390625
206		23.437500
207		27.343750
208		25.390625
209		29.296875
210		27.343750
211		31.250000
212		29.296875
213		33.203125
214		31.250000
215		35.156250
216		33.203125
217		35.156250
218		33.203125
219		37.109375
220		35.156250
221		39.062500
222		35.156250
223		41.015625
224		37.109375
225		41.015625
226		39.062500
227		42.968750
228		41.015625
229		44.921875
230		41.015625
231		44.921875
232		41.015625
233		46.875000
234		44.921875
235		46.875000
236		44.921875
237		48.828125
238		46.875000
239		48.828125
240		46.875000
241		50.781250
242		46.875000
243		50.781250
244		46.875000
245		50.781250
246		48.828125
247		52.734375
248		48.828125
249		52.734375
250		48.828125
251		52.734375
252		50.781250
253		52.734375
254		48.828125
255		52.734375
256		48.828125
257		52.734375
258		48.828125
259		52.734375
260		48.828125
261		52.734375
262		48.828125
263		52.734375
264		48.828125
265		52.734375
266		48.828125
267		52.734375
268		48.828125
269		50.781250
270		46.875000
271		50.781250
272		46.875000
273		50.781250
274		44.921875
275		48.828125
276		44.921875
277		48.828125
278		44.921875
279		46.875000
280		42.968750
281		46.875000
282		41.015625
283		44.921875
284		41.015625
285		42.968750
286		39.062500
287		42.968750
288		39.062500
289		42.968750
290		37.109375
291		41.015625
292		35.156250
293		39.062500
294		33.203125
295		37.109375
296		31.250000
297		35.156250
298		29.296875
299		33.203125
300		29.296875
301		31.250000
302		27.343750
303		31.250000
304		25.390625
305		29.296875
306		23.437500
307		27.343750
308		21.484375
309		25.390625
310		19.531250
311		25.390625
312		17.578125
313		21.484375
314		15.625000
315		19.531250
316		13.671875
317		17.578125
318		11.718750
319		15.625000
320		7.812500
321		13.671875
322		7.812500
323		11.718750
324		5.859375
325		9.765625
326		3.906250
327		7.812500
328		0.000000
329		5.859375
330		0.000000
331		3.906250
332		-1.953125
333		1.953125
334		-3.906250
335		0.000000
336		-5.859375
337		-1.953125
338		-7.812500
339		-3.906250
340		-9.765625
341		-5.859375
342		-11.718750
343		-7.812500
344		-13.671875
345		-9.765625
346		-13.671875
347		-11.718750
348		-17.578125
349		-11.718750
350		-17.578125
351		-13.671875
352		-19.531250
353		-15.625000
354		-21.484375
355		-15.625000
356		-21.484375
357		-17.578125
358		-23.437500
359		-19.531250
360		-23.437500
361		-19.531250
362		-25.390625
363		-21.484375
364		-25.390625
365		-21.484375
366		-27.343750
367		-23.437500
368		-27.343750
369		-25.390625
370		-27.343750
371		-25.390625
372		-29.296875
373		-25.390625
374		-29.296875
375		-25.390625
376		-29.296875
377		-27.343750
378		-29.296875
379		-27.343750
380		-29.296875
381		-27.343750
382		-31.250000
383		-25.390625
384		-29.296875
385		-27.343750
386		-29.296875
387		-27.343750
388		-31.250000
389		-27.343750
390		-29.296875
391		-25.390625
392		-29.296875
393		-25.390625
394		-29.296875
395		-25.390625
396		-27.343750
397		-23.437500
398		-27.343750
399		-23.437500
400		-25.390625
401		-23.437500
402		-25.390625
403		-21.484375
404		-25.390625
405		-21.484375
406		-23.437500
407		-19.531250
408		-21.484375
409		-17.578125
410		-21.484375
411		-17.578125
412		-19.531250
413		-15.625000
414		-17.578125
415		-13.671875
416		-17.578125
417		-11.718750
418		-15.625000
419		-11.718750
420		-13.671875
421		-9.765625
422		-11.718750
423		-7.812500
424		-9.765625
425		-5.859375
426		-9.765625
427		-3.906250
428		-7.812500
429		-3.906250
430		-3.906250
431		0.000000
432		-1.953125
433		1.953125
434		-1.953125
435		1.953125
436		1.953125
437		3.906250
438		3.906250
439		7.812500
440		3.906250
441		7.812500
442		5.859375
443		11.718750
444		7.812500
445		13.671875
446		9.765625
447		15.625000
448		13.671875
449		17.578125
450		13.671875
451		19.531250
452		17.578125
453		21.484375
454		19.531250
455		21.484375
456		19.531250
457		25.390625
458		21.484375
459		27.343750
460		23.437500
461		27.343750
462		25.390625
463		31.250000
464		27.343750
465		31.250000
466		29.296875
467		33.203125
468		31.250000
469		35.156250
470		33.203125
471		37.109375
472		35.156250
473		39.062500
474		35.156250
475		41.015625
476		37.109375
477		41.015625
478		39.062500
479		42.968750
480		41.015625
481		42.968750
482		41.015625
483		44.921875
484		42.968750
485		46.875000
486		44.921875
487		46.875000
488		44.921875
489		48.828125
490		44.921875
491		48.828125
492		46.875000
493		50.781250
494		46.875000
495		50.781250
496		48.828125
497		50.781250
498		46.875000
499		52.734375
500		48.828125
501		52.734375
502		48.828125
503		52.734375
504		48.828125
505		52.734375
506		48.828125
507		52.734375
508		50.781250
509		52.734375
510		48.828125
511		52.734375
512		48.828125
513		52.734375
514		48.828125
515		52.734375
516		48.828125
517		52.734375
518		48.828125
519		52.734375
520		48.828125
521		50.781250
522		46.875000
523		50.781250
524		46.875000
525		50.781250
526		46.875000
527		50.781250
528		44.921875
529		48.828125
530		44.921875
531		48.828125
532		42.968750
533		46.875000
534		42.968750
535		46.875000
536		41.015625
537		44.921875
538		41.015625
539		42.968750
540		39.062500
541		42.968750
542		37.109375
543		41.015625
544		37.109375
545		39.062500
546		35.156250
547		37.109375
548		33.203125
549		37.109375
550		31.250000
551		35.156250
552		29.296875
553		35.156250
554		27.343750
555		31.250000
556		25.390625
557		29.296875
558		23.437500
559		27.343750
560		23.437500
561		27.343750
562		21.484375
563		25.390625
564		19.531250
565		23.437500
566		15.625000
567		21.484375
568		13.671875
569		19.531250
570		13.671875
571		15.625000
572		9.765625
573		13.671875
574		7.812500
575		13.671875
576		5.859375
577		9.765625
578		3.906250
579		7.812500
580		1.953125
581		7.812500
582		0.000000
583		5.859375
584		-1.953125
585		1.953125
586		-1.953125
587		0.000000
588		-3.906250
589		-1.953125
590		-7.812500
591		-3.906250
592		-7.812500
593		-3.906250
594		-9.765625
595		-5.859375
596		-11.718750
597		-7.812500
598		-13.671875
599		-9.765625
600		-15.625000
601		-11.718750
602		-17.578125
603		-11.718750
604		-17.578125
605		-15.625000
606		-21.484375
607		-15.625000
608		-21.484375
609		-17.578125
610		-21.484375
611		-17.578125
612		-23.437500
613		-19.531250
614		-25.390625
615		-21.484375
616		-25.390625
617		-21.484375
618		-27.343750
619		-23.437500
620		-27.343750
621		-23.437500
622		-27.343750
623		-25.390625
624		-29.296875
625		-25.390625
626		-29.296875
627		-25.390625
628		-29.296875
629		-25.390625
630		-29.296875
631		-27.343750
632		-29.296875
633		-25.390625
634		-31.250000
635		-27.343750
636		-31.250000
637		-27.343750
638		-29.296875
639		-27.343750
640		-29.296875
641		-25.390625
642		-29.296875
643		-25.390625
644		-29.296875
645		-25.390625
646		-27.343750
647		-25.390625
648		-27.343750
649		-25.390625
650		-27.343750
651		-23.437500
652		-27.343750
653		-23.437500
654		-25.390625
655		-21.484375
656		-25.390625
657		-21.484375
658		-23.437500
659		-19.531250
660		-23.437500
661		-19.531250
662		-21.484375
663		-17.578125
664		-19.531250
665		-15.625000
666		-17.578125
667		-15.625000
668		-17.578125
669		-13.671875
670		-15.625000
671		-11.718750
672		-13.671875
673		-9.765625
674		-13.671875
675		-9.765625
676		-11.718750
677		-7.812500
678		-9.765625
679		-3.906250
680		-7.812500
681		-3.906250
682		-5.859375
683		-1.953125
684		-3.906250
685		0.000000
686		-1.953125
687		1.953125
688		0.000000
689		3.906250
690		1.953125
691		7.812500
692		3.906250
693		7.812500
694		5.859375
695		9.765625
696		7.812500
697		11.718750
698		9.765625
699		13.671875
700		11.718750
701		15.625000
702		13.671875
703		17.578125
704		15.625000
705		19.531250
706		17.578125
707		21.484375
708		19.531250
709		23.437500
710		21.484375
711		25.390625
712		23.437500
713		27.343750
714		25.390625
715		29.296875
716		27.343750
717		31.250000
718		29.296875
719		33.203125
720		29.296875
721		35.156250
722		33.203125
723		35.156250
724		33.203125
725		37.109375
726		35.156250
727		39.062500
728		37.109375
729		41.015625
730		37.109375
731		41.015625
732		39.062500
733		42.968750
734		41.015625
735		44.921875
736		42.968750
737		44.921875
738		42.968750
739		46.875000
740		44.921875
741		48.828125
742		44.921875
743		48.828125
744		46.875000
745		48.828125
746		46.875000
747		50.781250
748		48.828125
749		50.781250
750		48.828125
751		50.781250
752		48.828125
753		52.734375
754		48.828125
755		52.734375
756		48.828125
757		52.734375
758		48.828125
759		52.734375
760		50.781250
761		52.734375
762		48.828125
763		52.734375
764		48.828125
765		54.687500
766		48.828125
767		52.734375
768		48.828125
769		52.734375
770		48.828125
771		52.734375
772		48.828125
773		50.781250
774		48.828125
775		52.734375
776		46.875000
777		50.781250
778		46.875000
779		50.781250
780		46.875000
781		48.828125
782		44.921875
783		48.828125
784		42.968750
785		46.875000
786		42.968750
787		46.875000
788		42.968750
789		44.921875
790		41.015625
791		44.921875
792		39.062500
793		42.968750
794		37.109375
795		41.015625
796		37.109375
797		41.015625
798		35.156250
799		39.062500
800		33.203125
801		37.109375
802		33.203125
803		37.109375
804		31.250000
805		35.156250
806		29.296875
807		31.250000
808		27.343750
809		31.250000
810		25.390625
811		29.296875
812		23.437500
813		27.343750
814		21.484375
815		25.390625
816		19.531250
817		23.437500
818		17.578125
819		21.484375
820		15.625000
821		19.531250
822		13.671875
823		17.578125
824		9.765625
825		15.625000
826		9.765625
827		13.671875
828		7.812500
829		11.718750
830		5.859375
831		9.765625
832		3.906250
833		7.812500
834		1.953125
835		5.859375
836		-1.953125
837		3.906250
838		-1.953125
839		1.953125
840		-3.906250
841		0.000000
842		-5.859375
843		-1.953125
844		-7.812500
845		-3.906250
846		-9.765625
847		-3.906250
848		-11.718750
849		-7.812500
850		-13.671875
851		-9.765625
852		-13.671875
853		-11.718750
854		-17.578125
855		-11.718750
856		-17.578125
857		-13.671875
858		-19.531250
859		-15.625000
860		-21.484375
861		-17.578125
862		-21.484375
863		-17.578125
864		-23.437500
865		-19.531250
866		-23.437500
867		-19.531250
868		-25.390625
869		-21.484375
870		-25.390625
871		-21.484375
872		-27.343750
873		-23.437500
874		-27.343750
875		-23.437500
876		-27.343750
877		-25.390625
878		-29.296875
879		-25.390625
880		-29.296875
881		-25.390625
882		-29.296875
883		-27.343750
884		-29.296875
885		-27.343750
886		-31.250000
887		-25.390625
888		-31.250000
889		-25.390625
890		-29.296875
891		-27.343750
892		-29.296875
893		-25.390625
894		-29.296875
895		-27.343750
896		-29.296875
897		-25.390625
898		-27.343750
899		-25.390625
900		-27.343750
901		-25.390625
902		-27.343750
903		-23.437500
904		-27.343750
905		-23.437500
906		-25.390625
907		-23.437500
908		-25.390625
909		-21.484375
910		-25.390625
911		-19.531250
912		-23.437500
913		-19.531250
914		-21.484375
915		-17.578125
916		-19.531250
917		-17.578125
918		-19.531250
919		-15.625000
920		-17.578125
921		-13.671875
922		-15.625000
923		-13.671875
924		-13.671875
925		-11.718750
926		-13.671875
927		-9.765625
928		-11.718750
929		-7.812500
930		-9.765625
931		-5.859375
932		-7.812500
933		-3.906250
934		-5.859375
935		-1.953125
936		-3.906250
937		0.000000
938		-1.953125
939		1.953125
940		0.000000
941		3.906250
942		1.953125
943		5.859375
944		3.906250
945		7.812500
946		3.906250
947		9.765625
948		5.859375
949		11.718750
950		9.765625
951		13.671875
952		11.718750
953		15.625000
954		13.671875
955		17.578125
956		15.625000
957		19.531250
958		17.578125
959		21.484375
960		17.578125
961		23.437500
962		21.484375
963		25.390625
964		23.437500
965		27.343750
966		25.390625
967		29.296875
968		27.343750
969		31.250000
970		29.296875
971		33.203125
972		29.296875
973		33.203125
974		31.250000
975		35.156250
976		33.203125
977		39.062500
978		35.156250
979		39.062500
980		37.109375
981		41.015625
982		39.062500
983		41.015625
984		39.062500
985		42.968750
986		41.015625
987		44.921875
988		41.015625
989		44.921875
990		42.968750
991		46.875000
992		44.921875
993		46.875000
994		44.921875
995		48.828125
996		44.921875
997		48.828125
998		46.875000
999		50.781250
1000		46.875000
1001		50.781250
1002		46.875000
1003		50.781250
1004		48.828125
1005		52.734375
1006		48.828125
1007		52.734375
1008		48.828125
1009		52.734375
1010		48.828125
1011		52.734375
1012		50.781250
1013		52.734375
1014		50.781250
1015		52.734375
1016		50.781250
1017		52.734375
1018		48.828125
1019		52.734375
1020		50.781250
1021		52.734375
1022		48.828125
1023		52.734375
1024		48.828125
1025		52.734375
1026		46.875000
1027		50.781250
1028		48.828125
1029		50.781250
1030		46.875000
1031		50.781250
1032		46.875000
1033		50.781250
1034		44.921875
1035		48.828125
1036		44.921875
1037		48.828125
1038		42.968750
1039		46.875000
1040		42.968750
1041		44.921875
1042		41.015625
1043		44.921875
1044		41.015625
1045		44.921875
1046		39.062500
1047		42.968750
1048		37.109375
1049		42.968750
1050		37.109375
1051		39.062500
1052		35.156250
1053		39.062500
1054		33.203125
1055		37.109375
1056		31.250000
1057		35.156250
1058		29.296875
1059		33.203125
1060		27.343750
1061		33.203125
1062		27.343750
1063		29.296875
1064		23.437500
1065		29.296875
1066		23.437500
1067		27.343750
1068		21.484375
1069		25.390625
1070		17.578125
1071		23.437500
1072		17.578125
1073		21.484375
1074		15.625000
1075		19.531250
1076		11.718750
1077		17.578125
1078		11.718750
1079		15.625000
1080		9.765625
1081		13.671875
1082		7.812500
1083		11.718750
1084		3.906250
1085		7.812500
1086		3.906250
1087		7.812500
1088		0.000000
1089		3.906250
1090		0.000000
1091		3.906250
1092		-1.953125
1093		0.000000
1094		-3.906250
1095		0.000000
1096		-5.859375
1097		-1.953125
1098		-7.812500
1099		-3.906250
1100		-9.765625
1101		-5.859375
1102		-11.718750
1103		-7.812500
1104		-13.671875
1105		-9.765625
1106		-15.625000
1107		-9.765625
1108		-15.625000
1109		-13.671875
1110		-19.531250
1111		-13.671875
1112		-19.531250
1113		-15.625000
1114		-21.484375
1115		-17.578125
1116		-21.484375
1117		-17.578125
1118		-23.437500
1119		-19.531250
1120		-23.437500
1121		-21.484375
1122		-27.343750
1123		-21.484375
1124		-25.390625
1125		-23.437500
1126		-27.343750
1127		-23.437500
1128		-27.343750
1129		-23.437500
1130		-27.343750
1131		-25.390625
1132		-29.296875
1133		-25.390625
1134		-29.296875
1135		-25.390625
1136		-29.296875
1137		-25.390625
1138		-29.296875
1139		-27.343750
1140		-31.250000
1141		-25.390625
1142		-29.296875
1143		-27.343750
1144		-29.296875
1145		-27.343750
1146		-29.296875
1147		-25.390625
1148		-29.296875
1149		-25.390625
1150		-29.296875
1151		-25.390625
1152		-29.296875
1153		-23.437500
1154		-27.343750
1155		-25.390625
1156		-27.343750
1157		-23.437500
1158		-25.390625
1159		-23.437500
1160		-25.390625
1161		-21.484375
1162		-25.390625
1163		-21.484375
1164		-23.437500
1165		-19.531250
1166		-21.484375
1167		-19.531250
1168		-21.484375
1169		-17.578125
1170		-19.531250
1171		-15.625000
1172		-17.578125
1173		-13.671875
1174		-17.578125
1175		-13.671875
1176		-15.625000
1177		-11.718750
1178		-13.671875
1179		-9.765625
1180		-11.718750
1181		-7.812500
1182		-9.765625
1183		-5.859375
1184		-7.812500
1185		-3.906250
1186		-7.812500
1187		-3.906250
1188		-5.859375
1189		-1.953125
1190		-3.906250
1191		1.953125
1192		-1.953125
1193		1.953125
1194		0.000000
1195		5.859375
1196		1.953125
1197		5.859375
1198		5.859375
1199		9.765625
1200		5.859375
1201		9.765625
1202		7.812500
1203		11.718750
1204		9.765625
1205		13.671875
1206		13.671875
1207		17.578125
1208		15.625000
1209		17.578125
1210		15.625000
1211		19.531250
1212		17.578125
1213		23.437500
1214		19.531250
1215		25.390625
1216		21.484375
1217		25.390625
1218		23.437500
1219		27.343750
1220		25.390625
1221		29.296875
1222		27.343750
1223		31.250000
1224		29.296875
1225		33.203125
1226		31.250000
1227		35.156250
1228		33.203125
1229		37.109375
1230		35.156250
1231		39.062500
1232		35.156250
1233		39.062500
1234		37.109375
1235		41.015625
1236		39.062500
1237		42.968750
1238		39.062500
1239		42.968750
1240		41.015625
1241		44.921875
1242		42.968750
1243		44.921875
1244		42.968750
1245		46.875000
1246		42.968750
1247		48.828125
1248		44.921875
1249		48.828125
1250		46.875000
1251		50.781250
1252		46.875000
1253		50.781250
1254		48.828125
1255		50.781250
1256		48.828125
1257		50.781250
1258		48.828125
1259		52.734375
1260		48.828125
1261		52.734375
1262		48.828125
1263		52.734375
1264		48.828125
1265		52.734375
1266		48.828125
1267		52.734375
1268		50.781250
1269		52.734375
1270		50.781250
1271		54.687500
1272		48.828125
1273		52.734375
1274		48.828125
1275		52.734375
1276		48.828125
1277		52.734375
1278		48.828125
1279		52.734375
1280		48.828125
1281		50.781250
1282		48.828125
1283		50.781250
1284		46.875000
1285		50.781250
1286		46.875000
1287		48.828125
1288		44.921875
1289		48.828125
1290		44.921875
1291		48.828125
1292		42.968750
1293		46.875000
1294		42.968750
1295		44.921875
1296		41.015625
1297		44.921875
1298		39.062500
1299		42.968750
1300		37.109375
1301		41.015625
1302		37.109375
1303		41.015625
1304		35.156250
1305		41.015625
1306		33.203125
1307		37.109375
1308		33.203125
1309		35.156250
1310		31.250000
1311		33.203125
1312		27.343750
1313		33.203125
1314		27.343750
1315		31.250000
1316		25.390625
1317		29.296875
1318		23.437500
1319		27.343750
1320		21.484375
1321		25.390625
1322		19.531250
1323		23.437500
1324		17.578125
1325		21.484375
1326		15.625000
1327		19.531250
1328		13.671875
1329		17.578125
1330		11.718750
1331		15.625000
1332		9.765625
1333		13.671875
1334		7.812500
1335		11.718750
1336		5.859375
1337		9.765625
1338		3.906250
1339		7.812500
1340		1.953125
1341		5.859375
1342		0.000000
1343		3.906250
1344		-1.953125
1345		1.953125
1346		-3.906250
1347		0.000000
1348		-5.859375
1349		-1.953125
1350		-7.812500
1351		-3.906250
1352		-9.765625
1353		-3.906250
1354		-11.718750
1355		-7.812500
1356		-11.718750
1357		-9.765625
1358		-13.671875
1359		-9.765625
1360		-15.625000
1361		-11.718750
1362		-17.578125
1363		-13.671875
1364		-19.531250
1365		-15.625000
1366		-19.531250
1367		-15.625000
1368		-21.484375
1369		-17.578125
1370		-21.484375
1371		-19.531250
1372		-23.437500
1373		-19.531250
1374		-25.390625
1375		-21.484375
1376		-25.390625
1377		-21.484375
1378		-25.390625
1379		-23.437500
1380		-27.343750
1381		-23.437500
1382		-27.343750
1383		-23.437500
1384		-29.296875
1385		-25.390625
1386		-29.296875
1387		-25.390625
1388		-29.296875
1389		-25.390625
1390		-29.296875
1391		-25.390625
1392		-29.296875
1393		-27.343750
1394		-29.296875
1395		-25.390625
1396		-31.250000
1397		-25.390625
1398		-29.296875
1399		-27.343750
1400		-29.296875
1401		-25.390625
1402		-29.296875
1403		-25.390625
1404		-29.296875
1405		-25.390625
1406		-27.343750
1407		-25.390625
1408		-27.343750
1409		-23.437500
1410		-25.390625
1411		-23.437500
1412		-25.390625
1413		-23.437500
1414		-25.390625
1415		-21.484375
1416		-23.437500
1417		-19.531250
1418		-23.437500
1419		-19.531250
1420		-21.484375
1421		-17.578125
1422		-19.531250
1423		-17.578125
1424		-19.531250
1425		-15.625000
1426		-17.578125
1427		-13.671875
1428		-15.625000
1429		-11.718750
1430		-13.671875
1431		-9.765625
1432		-11.718750
1433		-9.765625
1434		-11.718750
1435		-7.812500
1436		-9.765625
1437		-5.859375
1438		-7.812500
1439		-3.906250
1440		-5.859375
1441		-1.953125
1442		-3.906250
1443		0.000000
1444		-1.953125
1445		1.953125
1446		0.000000
1447		3.906250
1448		1.953125
1449		5.859375
1450		3.906250
1451		7.812500
1452		5.859375
1453		9.765625
1454		7.812500
1455		11.718750
1456		9.765625
1457		13.671875
1458		11.718750
1459		15.625000
1460		13.671875
1461		17.578125
1462		15.625000
1463		19.531250
1464		17.578125
1465		21.484375
1466		19.531250
1467		23.437500
1468		21.484375
1469		25.390625
1470		23.437500
1471		27.343750
1472		23.437500
1473		29.296875
1474		27.343750
1475		31.250000
1476		27.343750
1477		33.203125
1478		31.250000
1479		33.203125
1480		31.250000
1481		37.109375
1482		33.203125
1483		37.109375
1484		35.156250
1485		39.062500
1486		37.109375
1487		41.015625
1488		37.109375
1489		41.015625
1490		39.062500
1491		42.968750
1492		41.015625
1493		44.921875
1494		42.968750
1495		44.921875
1496		42.968750
1497		46.875000
1498		42.968750
1499		46.875000
1500		44.921875
1501		48.828125
1502		46.875000
1503		48.828125
1504		46.875000
1505		50.781250
1506		46.875000
1507		50.781250
1508		46.875000
1509		50.781250
1510		48.828125
1511		52.734375
1512		48.828125
1513		52.734375
1514		48.828125
1515		52.734375
1516		48.828125
1517		52.734375
1518		50.781250
1519		52.734375
1520		50.781250
1521		52.734375
1522		50.781250
1523		52.734375
1524		48.828125
1525		52.734375
1526		48.828125
1527		52.734375
1528		48.828125
1529		52.734375
1530		48.828125
1531		52.734375
1532		48.828125
1533		52.734375
1534		48.828125
1535		50.781250
1536		46.875000
1537		50.781250
1538		46.875000
1539		50.781250
1540		44.921875
1541		48.828125
1542		42.968750
1543		48.828125
1544		44.921875
1545		46.875000
1546		42.968750
1547		46.875000
1548		41.015625
1549		44.921875
1550		41.015625
1551		44.921875
1552		39.062500
1553		42.968750
1554		37.109375
1555		41.015625
1556		37.109375
1557		39.062500
1558		35.156250
1559		39.062500
1560		33.203125
1561		37.109375
1562		31.250000
1563		35.156250
1564		29.296875
1565		33.203125
1566		27.343750
1567		31.250000
1568		27.343750
1569		29.296875
1570		25.390625
1571		29.296875
1572		23.437500
1573		27.343750
1574		21.484375
1575		25.390625
1576		19.531250
1577		23.437500
1578		17.578125
1579		21.484375
1580		15.625000
1581		19.531250
1582		11.718750
1583		17.578125
1584		11.718750
1585		13.671875
1586		7.812500
1587		13.671875
1588		5.859375
1589		9.765625
1590		5.859375
1591		7.812500
1592		1.953125
1593		5.859375
1594		1.953125
1595		3.906250
1596		0.000000
1597		1.953125
1598		-3.906250
1599		1.953125
1600		-3.906250
1601		0.000000
1602		-5.859375
1603		-1.953125
1604		-7.812500
1605		-3.906250
1606		-9.765625
1607		-5.859375
1608		-11.718750
1609		-7.812500
1610		-13.671875
1611		-9.765625
1612		-13.671875
1613		-11.718750
1614		-15.625000
1615		-13.671875
1616		-17.578125
1617		-13.671875
1618		-19.531250
1619		-15.625000
1620		-21.484375
1621		-17.578125
1622		-21.484375
1623		-17.578125
1624		-23.437500
1625		-19.531250
1626		-25.390625
1627		-19.531250
1628		-25.390625
1629		-21.484375
1630		-25.390625
1631		-23.437500
1632		-27.343750
1633		-23.437500
1634		-27.343750
1635		-23.437500
1636		-27.343750
1637		-25.390625
1638		-29.296875
1639		-25.390625
1640		-29.296875
1641		-25.390625
1642		-29.296875
1643		-25.390625
1644		-29.296875
1645		-25.390625
1646		-29.296875
1647		-27.343750
1648		-31.250000
1649		-25.390625
1650		-31.250000
1651		-25.390625
1652		-29.296875
1653		-25.390625
1654		-29.296875
1655		-25.390625
1656		-29.296875
1657		-25.390625
1658		-27.343750
1659		-25.390625
1660		-27.343750
1661		-23.437500
1662		-25.390625
1663		-23.437500
1664		-25.390625
1665		-23.437500
1666		-25.390625
1667		-19.531250
1668		-23.437500
1669		-21.484375
1670		-23.437500
1671		-19.531250
1672		-21.484375
1673		-19.531250
1674		-21.484375
1675		-17.578125
1676		-19.531250
1677		-15.625000
1678		-17.578125
1679		-13.671875
1680		-15.625000
1681		-13.671875
1682		-15.625000
1683		-9.765625
1684		-15.625000
1685		-7.812500
1686		-13.671875
1687		-7.812500
1688		-9.765625
1689		-5.859375
1690		-9.765625
1691		-3.906250
1692		-5.859375
1693		0.000000
1694		-5.859375
1695		0.000000
1696		-1.953125
1697		0.000000
1698		0.000000
1699		3.906250
1700		0.000000
1701		7.812500
1702		1.953125
1703		7.812500
1704		3.906250
1705		9.765625
1706		7.812500
1707		11.718750
1708		9.765625
1709		13.671875
1710		9.765625
1711		15.625000
1712		13.671875
1713		17.578125
1714		15.625000
1715		17.578125
1716		15.625000
1717		23.437500
1718		17.578125
1719		23.437500
1720		19.531250
1721		27.343750
1722		21.484375
1723		29.296875
1724		23.437500
1725		31.250000
1726		23.437500
1727		31.250000
1728		27.343750
1729		33.203125
1730		29.296875
1731		33.203125
1732		31.250000
1733		37.109375
1734		31.250000
1735		39.062500
1736		33.203125
1737		41.015625
1738		35.156250
1739		41.015625
1740		35.156250
1741		42.968750
1742		37.109375
1743		44.921875
1744		39.062500
1745		44.921875
1746		41.015625
1747		44.921875
1748		42.968750
1749		46.875000
1750		42.968750
1751		48.828125
1752		42.968750
1753		50.781250
1754		44.921875
1755		50.781250
1756		44.921875
1757		50.781250
1758		46.875000
1759		52.734375
1760		46.875000
1761		52.734375
1762		46.875000
1763		52.734375
1764		50.781250
1765		52.734375
1766		48.828125
1767		52.734375
1768		48.828125
1769		54.687500
1770		48.828125
1771		54.687500
1772		48.828125
1773		54.687500
1774		48.828125
1775		54.687500
1776		48.828125
1777		54.687500
1778		48.828125
1779		54.687500
1780		50.781250
1781		52.734375
1782		50.781250
1783		52.734375
1784		46.875000
1785		54.687500
1786		46.875000
1787		52.734375
1788		44.921875
1789		52.734375
1790		44.921875
1791		52.734375
1792		44.921875
1793		52.734375
1794		44.921875
1795		50.781250
1796		44.921875
1797		48.828125
1798		42.968750
1799		46.875000
1800		41.015625
1801		46.875000
1802		39.062500
1803		46.875000
1804		37.109375
1805		44.921875
1806		37.109375
1807		44.921875
1808		35.156250
1809		42.968750
1810		33.203125
1811		41.015625
1812		33.203125
1813		41.015625
1814		33.203125
1815		37.109375
1816		29.296875
1817		35.156250
1818		27.343750
1819		35.156250
1820		25.390625
1821		33.203125
1822		23.437500
1823		33.203125
1824		21.484375
1825		29.296875
1826		19.531250
1827		27.343750
1828		17.578125
1829		25.390625
1830		17.578125
1831		21.484375
1832		15.625000
1833		19.531250
1834		11.718750
1835		19.531250
1836		9.765625
1837		17.578125
1838		7.812500
1839		15.625000
1840		5.859375
1841		13.671875
1842		3.906250
1843		11.718750
1844		1.953125
1845		9.765625
1846		1.953125
1847		7.812500
1848		0.000000
1849		3.906250
1850		-3.906250
1851		1.953125
1852		-5.859375
1853		1.953125
1854		-7.812500
1855		0.000000
1856		-9.765625
1857		-1.953125
1858		-11.718750
1859		-3.906250
1860		-13.671875
1861		-3.906250
1862		-13.671875
1863		-5.859375
1864		-13.671875
1865		-9.765625
1866		-15.625000
1867		-11.718750
1868		-19.531250
1869		-11.718750
1870		-19.531250
1871		-11.718750
1872		-21.484375
1873		-13.671875
1874		-23.437500
1875		-15.625000
1876		-23.437500
1877		-15.625000
1878		-25.390625
1879		-17.578125
1880		-25.390625
1881		-19.531250
1882		-25.390625
1883		-21.484375
1884		-27.343750
1885		-21.484375
1886		-29.296875
1887		-21.484375
1888		-29.296875
1889		-21.484375
1890		-29.296875
1891		-23.437500
1892		-29.296875
1893		-23.437500
1894		-31.250000
1895		-23.437500
1896		-31.250000
1897		-23.437500
1898		-29.296875
1899		-27.343750
1900		-31.250000
1901		-23.437500
1902		-31.250000
1903		-23.437500
1904		-31.250000
1905		-23.437500
1906		-31.250000
1907		-23.437500
1908		-31.250000
1909		-23.437500
1910		-29.296875
1911		-23.437500
1912		-29.296875
1913		-21.484375
1914		-25.390625
1915		-23.437500
1916		-25.390625
1917		-23.437500
1918		-27.343750
1919		-19.531250
1920		-27.343750
1921		-19.531250
1922		-25.390625
1923		-17.578125
1924		-23.437500
1925		-15.625000
1926		-23.437500
1927		-15.625000
1928		-21.484375
1929		-13.671875
1930		-19.531250
1931		-13.671875
1932		-15.625000
1933		-13.671875
1934		-15.625000
1935		-9.765625
1936		-15.625000
1937		-7.812500
1938		-13.671875
1939		-5.859375
1940		-11.718750
1941		-3.906250
1942		-11.718750
1943		-3.906250
1944		-9.765625
1945		0.000000
1946		-7.812500
1947		0.000000
1948		-3.906250
1949		0.000000
1950		-1.953125
1951		1.953125
1952		-1.953125
1953		5.859375
1954		0.000000
1955		7.812500
1956		1.953125
1957		9.765625
1958		3.906250
1959		11.718750
1960		5.859375
1961		13.671875
1962		7.812500
1963		15.625000
1964		11.718750
1965		15.625000
1966		13.671875
1967		17.578125
1968		15.625000
1969		21.484375
1970		15.625000
1971		23.437500
1972		17.578125
1973		25.390625
1974		19.531250
1975		27.343750
1976		21.484375
1977		29.296875
1978		23.437500
1979		31.250000
1980		25.390625
1981		31.250000
1982		29.296875
1983		33.203125
1984		31.250000
1985		37.109375
1986		29.296875
1987		39.062500
1988		31.250000
1989		39.062500
1990		33.203125
1991		41.015625
1992		35.156250
1993		42.968750
1994		37.109375
1995		44.921875
1996		39.062500
1997		44.921875
1998		41.015625
1999		44.921875
2000		42.968750
2001		44.921875
2002		42.968750
2003		48.828125
2004		42.968750
2005		48.828125
2006		42.968750
2007		50.781250
2008		44.921875
2009		52.734375
2010		44.921875
2011		52.734375
2012		46.875000
2013		52.734375
2014		46.875000
2015		52.734375
2016		48.828125
2017		52.734375
2018		48.828125
2019		54.687500
2020		46.875000
2021		54.687500
2022		48.828125
2023		54.687500
2024		48.828125
2025		54.687500
2026		48.828125
2027		54.687500
2028		48.828125
2029		56.640625
2030		48.828125
2031		54.687500
2032		50.781250
2033		52.734375
2034		50.781250
2035		52.734375
2036		46.875000
2037		54.687500
2038		46.875000
2039		54.687500
2040		44.921875
2041		52.734375
2042		44.921875
2043		52.734375
2044		44.921875
2045		52.734375
2046		44.921875
2047		50.781250
2048		44.921875
2049		50.781250
2050		44.921875
2051		46.875000
2052		41.015625
2053		48.828125
2054		41.015625
2055		46.875000
2056		39.062500
2057		46.875000
2058		37.109375
2059		44.921875
2060		35.156250
2061		44.921875
2062		35.156250
2063		42.968750
2064		33.203125
2065		41.015625
2066		33.203125
2067		37.109375
2068		31.250000
2069		35.156250
2070		29.296875
2071		35.156250
2072		25.390625
2073		33.203125
2074		23.437500
2075		33.203125
2076		21.484375
2077		31.250000
2078		21.484375
2079		29.296875
2080		19.531250
2081		25.390625
2082		19.531250
2083		23.437500
2084		17.578125
2085		21.484375
2086		13.671875
2087		19.531250
2088		11.718750
2089		19.531250
2090		9.765625
2091		17.578125
2092		7.812500
2093		15.625000
2094		5.859375
2095		13.671875
2096		1.953125
2097		11.718750
2098		1.953125
2099		9.765625
2100		1.953125
2101		5.859375
2102		-1.953125
2103		3.906250
2104		-5.859375
2105		3.906250
2106		-5.859375
2107		1.953125
2108		-7.812500
2109		0.000000
2110		-11.718750
2111		-1.953125
2112		-11.718750
2113		-3.906250
2114		-13.671875
2115		-5.859375
2116		-13.671875
2117		-9.765625
2118		-13.671875
2119		-11.718750
2120		-17.578125
2121		-9.765625
2122		-19.531250
2123		-11.718750
2124		-21.484375
2125		-13.671875
2126		-21.484375
2127		-15.625000
2128		-23.437500
2129		-15.625000
2130		-25.390625
2131		-17.578125
2132		-23.437500
2133		-17.578125
2134		-25.390625
2135		-21.484375
2136		-27.343750
2137		-21.484375
2138		-27.343750
2139		-21.484375
2140		-29.296875
2141		-21.484375
2142		-29.296875
2143		-23.437500
2144		-31.250000
2145		-23.437500
2146		-31.250000
2147		-23.437500
2148		-31.250000
2149		-23.437500
2150		-29.296875
2151		-25.390625
2152		-29.296875
2153		-27.343750
2154		-31.250000
2155		-25.390625
2156		-31.250000
2157		-23.437500
2158		-31.250000
2159		-23.437500
2160		-31.250000
2161		-23.437500
2162		-31.250000
2163		-23.437500
2164		-29.296875
2165		-23.437500
2166		-27.343750
2167		-23.437500
2168		-27.343750
2169		-23.437500
2170		-27.343750
2171		-21.484375
2172		-27.343750
2173		-19.531250
2174		-25.390625
2175		-19.531250
2176		-25.390625
2177		-17.578125
2178		-23.437500
2179		-15.625000
2180		-21.484375
2181		-15.625000
2182		-21.484375
2183		-15.625000
2184		-17.578125
2185		-13.671875
2186		-17.578125
2187		-9.765625
2188		-17.578125
2189		-9.765625
2190		-15.625000
2191		-7.812500
2192		-13.671875
2193		-5.859375
2194		-11.718750
2195		-3.906250
2196		-9.765625
2197		-1.953125
2198		-7.812500
2199		0.000000
2200		-3.906250
2201		0.000000
2202		-1.953125
2203		1.953125
2204		-1.953125
2205		5.859375
2206		0.000000
2207		7.812500
2208		1.953125
2209		9.765625
2210		3.906250
2211		11.718750
2212		5.859375
2213		13.671875
2214		7.812500
2215		15.625000
2216		9.765625
2217		15.625000
2218		13.671875
2219		17.578125
2220		15.625000
2221		21.484375
2222		15.625000
2223		23.437500
2224		17.578125
2225		25.390625
2226		17.578125
2227		27.343750
2228		21.484375
2229		29.296875
2230		23.437500
2231		31.250000
2232		23.437500
2233		31.250000
2234		29.296875
2235		31.250000
2236		31.250000
2237		33.203125
2238		29.296875
2239		37.109375
2240		31.250000
2241		39.062500
2242		33.203125
2243		41.015625
2244		35.156250
2245		41.015625
2246		35.156250
2247		42.968750
2248		37.109375
2249		44.921875
2250		39.062500
2251		42.968750
2252		41.015625
2253		44.921875
2254		41.015625
2255		48.828125
2256		41.015625
2257		50.781250
2258		42.968750
2259		50.781250
2260		42.968750
2261		50.781250
2262		44.921875
2263		52.734375
2264		44.921875
2265		52.734375
2266		46.875000
2267		52.734375
2268		48.828125
2269		50.781250
2270		46.875000
2271		54.687500
2272		48.828125
2273		54.687500
2274		48.828125
2275		54.687500
2276		48.828125
2277		54.687500
2278		48.828125
2279		54.687500
2280		48.828125
2281		54.687500
2282		48.828125
2283		54.687500
2284		50.781250
2285		52.734375
2286		50.781250
2287		52.734375
2288		46.875000
2289		54.687500
2290		46.875000
2291		54.687500
2292		46.875000
2293		54.687500
2294		46.875000
2295		52.734375
2296		44.921875
2297		52.734375
2298		44.921875
2299		52.734375
2300		44.921875
2301		50.781250
2302		44.921875
2303		46.875000
2304		41.015625
2305		48.828125
2306		39.062500
2307		48.828125
2308		39.062500
2309		46.875000
2310		39.062500
2311		44.921875
2312		35.156250
2313		42.968750
2314		35.156250
2315		42.968750
2316		35.156250
2317		41.015625
2318		33.203125
2319		37.109375
2320		33.203125
2321		35.156250
2322		29.296875
2323		37.109375
2324		27.343750
2325		35.156250
2326		25.390625
2327		33.203125
2328		23.437500
2329		31.250000
2330		21.484375
2331		29.296875
2332		19.531250
2333		27.343750
2334		19.531250
2335		25.390625
2336		17.578125
2337		21.484375
2338		13.671875
2339		21.484375
2340		11.718750
2341		19.531250
2342		9.765625
2343		17.578125
2344		7.812500
2345		15.625000
2346		5.859375
2347		13.671875
2348		3.906250
2349		11.718750
2350		3.906250
2351		9.765625
2352		1.953125
2353		5.859375
2354		-1.953125
2355		3.906250
2356		-3.906250
2357		3.906250
2358		-5.859375
2359		1.953125
2360		-7.812500
2361		0.000000
2362		-9.765625
2363		-1.953125
2364		-11.718750
2365		-3.906250
2366		-11.718750
2367		-5.859375
2368		-11.718750
2369		-7.812500
2370		-13.671875
2371		-9.765625
2372		-17.578125
2373		-9.765625
2374		-19.531250
2375		-11.718750
2376		-21.484375
2377		-13.671875
2378		-21.484375
2379		-13.671875
2380		-23.437500
2381		-15.625000
2382		-25.390625
2383		-17.578125
2384		-23.437500
2385		-17.578125
2386		-23.437500
2387		-21.484375
2388		-27.343750
2389		-21.484375
2390		-27.343750
2391		-21.484375
2392		-29.296875
2393		-21.484375
2394		-29.296875
2395		-21.484375
2396		-29.296875
2397		-23.437500
2398		-31.250000
2399		-23.437500
2400		-31.250000
2401		-23.437500
2402		-29.296875
2403		-25.390625
2404		-29.296875
2405		-27.343750
2406		-31.250000
2407		-23.437500
2408		-31.250000
2409		-23.437500
2410		-31.250000
2411		-23.437500
2412		-31.250000
2413		-23.437500
2414		-31.250000
2415		-23.437500
2416		-31.250000
2417		-23.437500
2418		-29.296875
2419		-21.484375
2420		-27.343750
2421		-23.437500
2422		-27.343750
2423		-21.484375
2424		-27.343750
2425		-19.531250
2426		-25.390625
2427		-19.531250
2428		-25.390625
2429		-17.578125
2430		-23.437500
2431		-17.578125
2432		-23.437500
2433		-15.625000
2434		-21.484375
2435		-13.671875
2436		-17.578125
2437		-15.625000
2438		-15.625000
2439		-11.718750
2440		-17.578125
2441		-9.765625
2442		-15.625000
2443		-7.812500
2444		-13.671875
2445		-5.859375
2446		-11.718750
2447		-3.906250
2448		-11.718750
2449		-3.906250
2450		-9.765625
2451		-1.953125
2452		-5.859375
2453		-1.953125
2454		-3.906250
2455		0.000000
2456		-3.906250
2457		3.906250
2458		-1.953125
2459		5.859375
2460		0.000000
2461		7.812500
2462		1.953125
2463		9.765625
2464		3.906250
2465		11.718750
2466		5.859375
2467		13.671875
2468		7.812500
2469		13.671875
2470		11.718750
2471		15.625000
2472		13.671875
2473		19.531250
2474		13.671875
2475		21.484375
2476		15.625000
2477		23.437500
2478		17.578125
2479		25.390625
2480		19.531250
2481		27.343750
2482		23.437500
2483		29.296875
2484		23.437500
2485		31.250000
2486		27.343750
2487		31.250000
2488		29.296875
2489		33.203125
2490		29.296875
2491		37.109375
2492		31.250000
2493		37.109375
2494		31.250000
2495		39.062500
2496		33.203125
2497		41.015625
2498		35.156250
2499		42.968750
2500		37.109375
2501		42.968750
2502		39.062500
2503		42.968750
2504		41.015625
2505		44.921875
2506		41.015625
2507		48.828125
2508		41.015625
2509		48.828125
2510		42.968750
2511		50.781250
2512		44.921875
2513		50.781250
2514		44.921875
2515		50.781250
2516		44.921875
2517		52.734375
2518		46.875000
2519		52.734375
2520		48.828125
2521		50.781250
2522		48.828125
2523		52.734375
2524		46.875000
2525		54.687500
2526		48.828125
2527		54.687500
2528		48.828125
2529		54.687500
2530		48.828125
2531		54.687500
2532		48.828125
2533		56.640625
2534		48.828125
2535		56.640625
2536		50.781250
2537		52.734375
2538		50.781250
2539		52.734375
2540		48.828125
2541		54.687500
2542		46.875000
2543		54.687500
2544		46.875000
2545		54.687500
2546		46.875000
2547		52.734375
2548		44.921875
2549		52.734375
2550		44.921875
2551		52.734375
2552		44.921875
2553		50.781250
2554		44.921875
2555		48.828125
2556		42.968750
2557		48.828125
2558		41.015625
2559		48.828125
2560		41.015625
2561		46.875000
2562		39.062500
2563		46.875000
2564		37.109375
2565		44.921875
2566		35.156250
2567		42.968750
2568		35.156250
2569		41.015625
2570		35.156250
2571		39.062500
2572		33.203125
2573		37.109375
2574		29.296875
2575		37.109375
2576		27.343750
2577		35.156250
2578		27.343750
2579		33.203125
2580		25.390625
2581		33.203125
2582		23.437500
2583		31.250000
2584		21.484375
2585		29.296875
2586		21.484375
2587		27.343750
2588		19.531250
2589		23.437500
2590		13.671875
2591		21.484375
2592		11.718750
2593		21.484375
2594		9.765625
2595		19.531250
2596		7.812500
2597		17.578125
2598		5.859375
2599		15.625000
2600		5.859375
2601		13.671875
2602		3.906250
2603		11.718750
2604		3.906250
2605		7.812500
2606		1.953125
2607		5.859375
2608		-1.953125
2609		5.859375
2610		-3.906250
2611		3.906250
2612		-5.859375
2613		1.953125
2614		-7.812500
2615		0.000000
2616		-9.765625
2617		-1.953125
2618		-11.718750
2619		-3.906250
2620		-11.718750
2621		-7.812500
2622		-13.671875
2623		-9.765625
2624		-17.578125
2625		-9.765625
2626		-17.578125
2627		-11.718750
2628		-19.531250
2629		-11.718750
2630		-21.484375
2631		-13.671875
2632		-23.437500
2633		-15.625000
2634		-23.437500
2635		-15.625000
2636		-23.437500
2637		-17.578125
2638		-23.437500
2639		-21.484375
2640		-27.343750
2641		-19.531250
2642		-27.343750
2643		-19.531250
2644		-29.296875
2645		-21.484375
2646		-29.296875
2647		-21.484375
2648		-29.296875
2649		-21.484375
2650		-31.250000
2651		-23.437500
2652		-31.250000
2653		-23.437500
2654		-29.296875
2655		-25.390625
2656		-29.296875
2657		-25.390625
2658		-31.250000
2659		-23.437500
2660		-31.250000
2661		-23.437500
2662		-31.250000
2663		-23.437500
2664		-31.250000
2665		-23.437500
2666		-31.250000
2667		-23.437500
2668		-29.296875
2669		-23.437500
2670		-29.296875
2671		-23.437500
2672		-27.343750
2673		-23.437500
2674		-27.343750
2675		-21.484375
2676		-27.343750
2677		-19.531250
2678		-27.343750
2679		-19.531250
2680		-25.390625
2681		-17.578125
2682		-23.437500
2683		-17.578125
2684		-23.437500
2685		-15.625000
2686		-21.484375
2687		-15.625000
2688		-19.531250
2689		-15.625000
2690		-17.578125
2691		-11.718750
2692		-17.578125
2693		-9.765625
2694		-15.625000
2695		-9.765625
2696		-15.625000
2697		-7.812500
2698		-13.671875
2699		-5.859375
2700		-11.718750
2701		-3.906250
2702		-9.765625
2703		-1.953125
2704		-5.859375
2705		-1.953125
2706		-3.906250
2707		0.000000
2708		-3.906250
2709		3.906250
2710		-1.953125
2711		5.859375
2712		0.000000
2713		7.812500
2714		1.953125
2715		9.765625
2716		3.906250
2717		11.718750
2718		5.859375
2719		13.671875
2720		7.812500
2721		13.671875
2722		11.718750
2723		15.625000
2724		13.671875
2725		19.531250
2726		13.671875
2727		21.484375
2728		15.625000
2729		23.437500
2730		17.578125
2731		25.390625
2732		19.531250
2733		27.343750
2734		21.484375
2735		29.296875
2736		23.437500
2737		31.250000
2738		27.343750
2739		31.250000
2740		29.296875
2741		31.250000
2742		29.296875
2743		37.109375
2744		29.296875
2745		39.062500
2746		31.250000
2747		39.062500
2748		33.203125
2749		41.015625
2750		35.156250
2751		42.968750
2752		37.109375
2753		42.968750
2754		39.062500
2755		42.968750
2756		41.015625
2757		44.921875
2758		41.015625
2759		46.875000
2760		41.015625
2761		48.828125
2762		42.968750
2763		50.781250
2764		42.968750
2765		50.781250
2766		42.968750
2767		50.781250
2768		44.921875
2769		52.734375
2770		46.875000
2771		52.734375
2772		48.828125
2773		50.781250
2774		48.828125
2775		52.734375
2776		46.875000
2777		54.687500
2778		48.828125
2779		54.687500
2780		48.828125
2781		54.687500
2782		48.828125
2783		54.687500
2784		48.828125
2785		56.640625
2786		48.828125
2787		56.640625
2788		50.781250
2789		54.687500
2790		50.781250
2791		52.734375
2792		46.875000
2793		54.687500
2794		48.828125
2795		54.687500
2796		46.875000
2797		54.687500
2798		46.875000
2799		52.734375
2800		46.875000
2801		52.734375
2802		44.921875
2803		52.734375
2804		44.921875
2805		52.734375
2806		46.875000
2807		48.828125
2808		42.968750
2809		48.828125
2810		41.015625
2811		48.828125
2812		41.015625
2813		48.828125
2814		39.062500
2815		46.875000
2816		37.109375
2817		44.921875
2818		37.109375
2819		44.921875
2820		35.156250
2821		42.968750
2822		35.156250
2823		39.062500
2824		35.156250
2825		37.109375
2826		31.250000
2827		37.109375
2828		29.296875
2829		37.109375
2830		27.343750
2831		35.156250
2832		25.390625
2833		33.203125
2834		23.437500
2835		31.250000
2836		21.484375
2837		29.296875
2838		21.484375
2839		27.343750
2840		19.531250
2841		23.437500
2842		15.625000
2843		23.437500
2844		13.671875
2845		21.484375
2846		11.718750
2847		19.531250
2848		9.765625
2849		17.578125
2850		7.812500
2851		15.625000
2852		5.859375
2853		13.671875
2854		5.859375
2855		11.718750
2856		3.906250
2857		7.812500
2858		1.953125
2859		5.859375
2860		-1.953125
2861		5.859375
2862		-3.906250
2863		3.906250
2864		-5.859375
2865		1.953125
2866		-7.812500
2867		0.000000
2868		-9.765625
2869		-1.953125
2870		-11.718750
2871		-3.906250
2872		-11.718750
2873		-5.859375
2874		-11.718750
2875		-7.812500
2876		-15.625000
2877		-9.765625
2878		-17.578125
2879		-9.765625
2880		-19.531250
2881		-11.718750
2882		-19.531250
2883		-13.671875
2884		-21.484375
2885		-13.671875
2886		-23.437500
2887		-15.625000
2888		-23.437500
2889		-15.625000
2890		-23.437500
2891		-19.531250
2892		-25.390625
2893		-21.484375
2894		-27.343750
2895		-19.531250
2896		-27.343750
2897		-19.531250
2898		-29.296875
2899		-21.484375
2900		-29.296875
2901		-21.484375
2902		-29.296875
2903		-23.437500
2904		-29.296875
2905		-23.437500
2906		-27.343750
2907		-25.390625
2908		-27.343750
2909		-25.390625
2910		-29.296875
2911		-23.437500
2912		-31.250000
2913		-23.437500
2914		-31.250000
2915		-23.437500
2916		-31.250000
2917		-23.437500
2918		-31.250000
2919		-23.437500
2920		-31.250000
2921		-23.437500
2922		-29.296875
2923		-23.437500
2924		-27.343750
2925		-23.437500
2926		-27.343750
2927		-21.484375
2928		-27.343750
2929		-19.531250
2930		-27.343750
2931		-19.531250
2932		-25.390625
2933		-17.578125
2934		-25.390625
2935		-17.578125
2936		-23.437500
2937		-15.625000
2938		-23.437500
2939		-15.625000
2940		-19.531250
2941		-15.625000
2942		-17.578125
2943		-13.671875
2944		-17.578125
2945		-9.765625
2946		-17.578125
2947		-9.765625
2948		-15.625000
2949		-7.812500
2950		-13.671875
2951		-5.859375
2952		-11.718750
2953		-3.906250
2954		-9.765625
2955		-1.953125
2956		-7.812500
2957		-3.906250
2958		-3.906250
2959		-1.953125
2960		-3.906250
2961		1.953125
2962		-3.906250
2963		5.859375
2964		0.000000
2965		5.859375
2966		0.000000
2967		9.765625
2968		1.953125
2969		11.718750
2970		3.906250
2971		13.671875
2972		5.859375
2973		13.671875
2974		11.718750
2975		15.625000
2976		13.671875
2977		17.578125
2978		11.718750
2979		19.531250
2980		13.671875
2981		23.437500
2982		15.625000
2983		25.390625
2984		17.578125
2985		27.343750
2986		19.531250
2987		29.296875
2988		23.437500
2989		29.296875
2990		25.390625
2991		29.296875
2992		27.343750
2993		31.250000
2994		27.343750
2995		35.156250
2996		29.296875
2997		37.109375
2998		31.250000
2999		39.062500
3000		33.203125
3001		41.015625
3002		33.203125
3003		41.015625
3004		35.156250
3005		42.968750
3006		37.109375
3007		42.968750
3008		41.015625
3009		44.921875
3010		41.015625
3011		46.875000
3012		41.015625
3013		48.828125
3014		41.015625
3015		48.828125
3016		42.968750
3017		50.781250
3018		42.968750
3019		50.781250
3020		44.921875
3021		52.734375
3022		46.875000
3023		52.734375
3024		48.828125
3025		50.781250
3026		48.828125
3027		52.734375
3028		46.875000
3029		54.687500
3030		48.828125
3031		54.687500
3032		46.875000
3033		54.687500
3034		48.828125
3035		54.687500
3036		48.828125
3037		54.687500
3038		48.828125
3039		54.687500
3040		48.828125
3041		54.687500
3042		50.781250
3043		54.687500
3044		48.828125
3045		54.687500
3046		48.828125
3047		54.687500
3048		46.875000
3049		54.687500
3050		46.875000
3051		54.687500
3052		46.875000
3053		54.687500
3054		46.875000
3055		52.734375
3056		44.921875
3057		52.734375
3058		46.875000
3059		48.828125
3060		44.921875
3061		48.828125
3062		42.968750
3063		48.828125
3064		41.015625
3065		48.828125
3066		41.015625
3067		46.875000
3068		39.062500
3069		46.875000
3070		37.109375
3071		44.921875
3072		35.156250
3073		44.921875
3074		37.109375
3075		41.015625
3076		35.156250
3077		39.062500
3078		31.250000
3079		39.062500
3080		29.296875
3081		37.109375
3082		27.343750
3083		35.156250
3084		27.343750
3085		35.156250
3086		25.390625
3087		33.203125
3088		23.437500
3089		31.250000
3090		21.484375
3091		29.296875
3092		21.484375
3093		25.390625
3094		17.578125
3095		23.437500
3096		15.625000
3097		23.437500
3098		13.671875
3099		21.484375
3100		11.718750
3101		19.531250
3102		9.765625
3103		17.578125
3104		7.812500
3105		15.625000
3106		5.859375
3107		13.671875
3108		5.859375
3109		9.765625
3110		3.906250
3111		7.812500
3112		0.000000
3113		5.859375
3114		-1.953125
3115		5.859375
3116		-5.859375
3117		3.906250
3118		-5.859375
3119		1.953125
3120		-7.812500
3121		0.000000
3122		-9.765625
3123		-1.953125
3124		-9.765625
3125		-3.906250
3126		-11.718750
3127		-7.812500
3128		-13.671875
3129		-7.812500
3130		-15.625000
3131		-9.765625
3132		-17.578125
3133		-9.765625
3134		-19.531250
3135		-11.718750
3136		-21.484375
3137		-13.671875
3138		-23.437500
3139		-13.671875
3140		-23.437500
3141		-15.625000
3142		-21.484375
3143		-19.531250
3144		-25.390625
3145		-21.484375
3146		-25.390625
3147		-21.484375
3148		-25.390625
3149		-21.484375
3150		-25.390625
3151		-23.437500
3152		-29.296875
3153		-21.484375
3154		-27.343750
3155		-23.437500
3156		-29.296875
3157		-23.437500
3158		-27.343750
3159		-25.390625
3160		-27.343750
3161		-25.390625
3162		-29.296875
3163		-25.390625
3164		-29.296875
3165		-25.390625
3166		-29.296875
3167		-25.390625
3168		-29.296875
3169		-23.437500
3170		-29.296875
3171		-23.437500
3172		-29.296875
3173		-23.437500
3174		-27.343750
3175		-25.390625
3176		-27.343750
3177		-23.437500
3178		-27.343750
3179		-21.484375
3180		-25.390625
3181		-23.437500
3182		-25.390625
3183		-21.484375
3184		-23.437500
3185		-21.484375
3186		-25.390625
3187		-19.531250
3188		-21.484375
3189		-19.531250
3190		-21.484375
3191		-17.578125
3192		-19.531250
3193		-15.625000
3194		-17.578125
3195		-15.625000
3196		-19.531250
3197		-13.671875
3198		-15.625000
3199		-11.718750
3200		-13.671875
3201		-9.765625
3202		-13.671875
3203		-7.812500
3204		-9.765625
3205		-7.812500
3206		-9.765625
3207		-5.859375
3208		-9.765625
3209		-3.906250
3210		-5.859375
3211		-1.953125
3212		-3.906250
3213		0.000000
3214		-1.953125
3215		1.953125
3216		0.000000
3217		3.906250
3218		1.953125
3219		5.859375
3220		3.906250
3221		7.812500
3222		5.859375
3223		9.765625
3224		7.812500
3225		11.718750
3226		9.765625
3227		13.671875
3228		11.718750
3229		17.578125
3230		13.671875
3231		19.531250
3232		15.625000
3233		19.531250
3234		17.578125
3235		21.484375
3236		19.531250
3237		23.437500
3238		21.484375
3239		25.390625
3240		23.437500
3241		29.296875
3242		25.390625
3243		29.296875
3244		27.343750
3245		31.250000
3246		27.343750
3247		33.203125
3248		29.296875
3249		35.156250
3250		31.250000
3251		35.156250
3252		35.156250
3253		37.109375
3254		35.156250
3255		39.062500
3256		37.109375
3257		41.015625
3258		37.109375
3259		41.015625
3260		41.015625
3261		42.968750
3262		39.062500
3263		46.875000
3264		41.015625
3265		46.875000
3266		42.968750
3267		46.875000
3268		44.921875
3269		46.875000
3270		44.921875
3271		48.828125
3272		46.875000
3273		50.781250
3274		46.875000
3275		50.781250
3276		48.828125
3277		50.781250
3278		48.828125
3279		52.734375
3280		48.828125
3281		52.734375
3282		48.828125
3283		52.734375
3284		50.781250
3285		52.734375
3286		50.781250
3287		54.687500
3288		50.781250
3289		52.734375
3290		50.781250
3291		54.687500
3292		50.781250
3293		54.687500
3294		48.828125
3295		54.687500
3296		50.781250
3297		54.687500
3298		50.781250
3299		54.687500
3300		50.781250
3301		52.734375
3302		50.781250
3303		52.734375
3304		48.828125
3305		52.734375
3306		48.828125
3307		50.781250
3308		46.875000
3309		50.781250
3310		46.875000
3311		48.828125
3312		44.921875
3313		48.828125
3314		44.921875
3315		48.828125
3316		42.968750
3317		48.828125
3318		42.968750
3319		46.875000
3320		41.015625
3321		44.921875
3322		41.015625
3323		44.921875
3324		37.109375
3325		42.968750
3326		37.109375
3327		41.015625
3328		37.109375
3329		39.062500
3330		35.156250
3331		37.109375
3332		33.203125
3333		37.109375
3334		31.250000
3335		35.156250
3336		29.296875
3337		33.203125
3338		27.343750
3339		31.250000
3340		25.390625
3341		29.296875
3342		23.437500
3343		29.296875
3344		21.484375
3345		25.390625
3346		19.531250
3347		23.437500
3348		17.578125
3349		21.484375
3350		15.625000
3351		19.531250
3352		13.671875
3353		19.531250
3354		11.718750
3355		17.578125
3356		9.765625
3357		13.671875
3358		7.812500
3359		11.718750
3360		5.859375
3361		9.765625
3362		3.906250
3363		7.812500
3364		1.953125
3365		5.859375
3366		0.000000
3367		3.906250
3368		-1.953125
3369		3.906250
3370		-3.906250
3371		0.000000
3372		-5.859375
3373		-1.953125
3374		-7.812500
3375		-3.906250
3376		-7.812500
3377		-3.906250
3378		-9.765625
3379		-7.812500
3380		-13.671875
3381		-7.812500
3382		-13.671875
3383		-9.765625
3384		-15.625000
3385		-11.718750
3386		-17.578125
3387		-13.671875
3388		-17.578125
3389		-13.671875
3390		-19.531250
3391		-15.625000
3392		-21.484375
3393		-17.578125
3394		-21.484375
3395		-17.578125
3396		-23.437500
3397		-19.531250
3398		-23.437500
3399		-19.531250
3400		-25.390625
3401		-21.484375
3402		-25.390625
3403		-21.484375
3404		-25.390625
3405		-23.437500
3406		-27.343750
3407		-23.437500
3408		-29.296875
3409		-23.437500
3410		-27.343750
3411		-25.390625
3412		-27.343750
3413		-25.390625
3414		-27.343750
3415		-25.390625
3416		-29.296875
3417		-25.390625
3418		-29.296875
3419		-25.390625
3420		-29.296875
3421		-25.390625
3422		-29.296875
3423		-25.390625
3424		-27.343750
3425		-25.390625
3426		-29.296875
3427		-23.437500
3428		-27.343750
3429		-23.437500
3430		-27.343750
3431		-23.437500
3432		-25.390625
3433		-21.484375
3434		-25.390625
3435		-21.484375
3436		-25.390625
3437		-21.484375
3438		-23.437500
3439		-19.531250
3440		-23.437500
3441		-19.531250
3442		-21.484375
3443		-17.578125
3444		-19.531250
3445		-17.578125
3446		-17.578125
3447		-15.625000
3448		-17.578125
3449		-13.671875
3450		-15.625000
3451		-11.718750
3452		-13.671875
3453		-11.718750
3454		-11.718750
3455		-9.765625
3456		-11.718750
3457		-7.812500
3458		-9.765625
3459		-5.859375
3460		-9.765625
3461		-3.906250
3462		-5.859375
3463		-1.953125
3464		-3.906250
3465		0.000000
3466		-1.953125
3467		1.953125
3468		0.000000
3469		3.906250
3470		1.953125
3471		5.859375
3472		1.953125
3473		7.812500
3474		3.906250
3475		9.765625
3476		7.812500
3477		11.718750
3478		9.765625
3479		13.671875
3480		11.718750
3481		15.625000
3482		13.671875
3483		17.578125
3484		13.671875
3485		19.531250
3486		17.578125
3487		21.484375
3488		19.531250
3489		23.437500
3490		21.484375
3491		25.390625
3492		23.437500
3493		27.343750
3494		23.437500
3495		27.343750
3496		27.343750
3497		29.296875
3498		27.343750
3499		31.250000
3500		29.296875
3501		33.203125
3502		31.250000
3503		35.156250
3504		33.203125
3505		37.109375
3506		35.156250
3507		39.062500
3508		35.156250
3509		41.015625
3510		37.109375
3511		41.015625
3512		39.062500
3513		42.968750
3514		41.015625
3515		44.921875
3516		41.015625
3517		46.875000
3518		42.968750
3519		46.875000
3520		44.921875
3521		46.875000
3522		44.921875
3523		48.828125
3524		44.921875
3525		48.828125
3526		46.875000
3527		50.781250
3528		48.828125
3529		50.781250
3530		48.828125
3531		50.781250
3532		48.828125
3533		52.734375
3534		50.781250
3535		52.734375
3536		50.781250
3537		52.734375
3538		50.781250
3539		54.687500
3540		50.781250
3541		54.687500
3542		50.781250
3543		54.687500
3544		50.781250
3545		54.687500
3546		50.781250
3547		52.734375
3548		50.781250
3549		54.687500
3550		50.781250
3551		52.734375
3552		50.781250
3553		54.687500
3554		50.781250
3555		52.734375
3556		48.828125
3557		52.734375
3558		48.828125
3559		52.734375
3560		46.875000
3561		52.734375
3562		46.875000
3563		50.781250
3564		46.875000
3565		48.828125
3566		44.921875
3567		48.828125
3568		44.921875
3569		48.828125
3570		42.968750
3571		46.875000
3572		41.015625
3573		44.921875
3574		41.015625
3575		44.921875
3576		39.062500
3577		42.968750
3578		39.062500
3579		42.968750
3580		37.109375
3581		41.015625
3582		35.156250
3583		39.062500
3584		33.203125
3585		37.109375
3586		33.203125
3587		35.156250
3588		31.250000
3589		35.156250
3590		27.343750
3591		33.203125
3592		27.343750
3593		31.250000
3594		25.390625
3595		29.296875
3596		23.437500
3597		27.343750
3598		19.531250
3599		25.390625
3600		19.531250
3601		23.437500
3602		17.578125
3603		21.484375
3604		15.625000
3605		19.531250
3606		13.671875
3607		17.578125
3608		11.718750
3609		15.625000
3610		7.812500
3611		13.671875
3612		7.812500
3613		11.718750
3614		5.859375
3615		9.765625
3616		3.906250
3617		7.812500
3618		1.953125
3619		5.859375
3620		0.000000
3621		3.906250
3622		-1.953125
3623		1.953125
3624		-3.906250
3625		0.000000
3626		-5.859375
3627		-1.953125
3628		-7.812500
3629		-3.906250
3630		-9.765625
3631		-5.859375
3632		-11.718750
3633		-7.812500
3634		-13.671875
3635		-9.765625
3636		-15.625000
3637		-9.765625
3638		-15.625000
3639		-11.718750
3640		-17.578125
3641		-13.671875
3642		-17.578125
3643		-15.625000
3644		-19.531250
3645		-15.625000
3646		-21.484375
3647		-17.578125
3648		-21.484375
3649		-19.531250
3650		-23.437500
3651		-19.531250
3652		-23.437500
3653		-19.531250
3654		-25.390625
3655		-21.484375
3656		-25.390625
3657		-23.437500
3658		-27.343750
3659		-23.437500
3660		-27.343750
3661		-23.437500
3662		-27.343750
3663		-23.437500
3664		-27.343750
3665		-25.390625
3666		-29.296875
3667		-23.437500
3668		-27.343750
3669		-25.390625
3670		-29.296875
3671		-25.390625
3672		-29.296875
3673		-25.390625
3674		-29.296875
3675		-25.390625
3676		-29.296875
3677		-25.390625
3678		-29.296875
3679		-23.437500
3680		-27.343750
3681		-25.390625
3682		-27.343750
3683		-23.437500
3684		-25.390625
3685		-23.437500
3686		-25.390625
3687		-21.484375
3688		-25.390625
3689		-21.484375
3690		-23.437500
3691		-19.531250
3692		-23.437500
3693		-19.531250
3694		-21.484375
3695		-17.578125
3696		-19.531250
3697		-17.578125
3698		-19.531250
3699		-15.625000
3700		-17.578125
3701		-13.671875
3702		-17.578125
3703		-13.671875
3704		-15.625000
3705		-11.718750
3706		-13.671875
3707		-9.765625
3708		-11.718750
3709		-7.812500
3710		-9.765625
3711		-7.812500
3712		-9.765625
3713		-3.906250
3714		-7.812500
3715		-3.906250
3716		-3.906250
3717		-1.953125
3718		-3.906250
3719		0.000000
3720		-1.953125
3721		1.953125
3722		0.000000
3723		3.906250
3724		1.953125
3725		7.812500
3726		3.906250
3727		7.812500
3728		5.859375
3729		11.718750
3730		7.812500
3731		11.718750
3732		9.765625
3733		13.671875
3734		11.718750
3735		15.625000
3736		13.671875
3737		17.578125
3738		15.625000
3739		19.531250
3740		17.578125
3741		21.484375
3742		19.531250
3743		23.437500
3744		21.484375
3745		25.390625
3746		23.437500
3747		27.343750
3748		25.390625
3749		29.296875
3750		27.343750
3751		31.250000
3752		29.296875
3753		33.203125
3754		31.250000
3755		35.156250
3756		33.203125
3757		37.109375
3758		35.156250
3759		37.109375
3760		35.156250
3761		39.062500
3762		37.109375
3763		41.015625
3764		39.062500
3765		41.015625
3766		41.015625
3767		44.921875
3768		41.015625
3769		44.921875
3770		42.968750
3771		46.875000
3772		42.968750
3773		46.875000
3774		44.921875
3775		48.828125
3776		46.875000
3777		48.828125
3778		46.875000
3779		50.781250
3780		48.828125
3781		50.781250
3782		48.828125
3783		50.781250
3784		48.828125
3785		52.734375
3786		50.781250
3787		52.734375
3788		50.781250
3789		52.734375
3790		50.781250
3791		54.687500
3792		50.781250
3793		54.687500
3794		50.781250
3795		54.687500
3796		50.781250
3797		54.687500
3798		50.781250
3799		52.734375
3800		50.781250
3801		54.687500
3802		50.781250
3803		54.687500
3804		50.781250
3805		54.687500
3806		50.781250
3807		52.734375
3808		48.828125
3809		52.734375
3810		48.828125
3811		52.734375
3812		48.828125
3813		52.734375
3814		48.828125
3815		50.781250
3816		46.875000
3817		50.781250
3818		44.921875
3819		50.781250
3820		44.921875
3821		48.828125
3822		44.921875
3823		46.875000
3824		42.968750
3825		46.875000
3826		41.015625
3827		44.921875
3828		39.062500
3829		44.921875
3830		39.062500
3831		42.968750
3832		37.109375
3833		41.015625
3834		35.156250
3835		39.062500
3836		35.156250
3837		39.062500
3838		33.203125
3839		37.109375
3840		31.250000
3841		35.156250
3842		29.296875
3843		33.203125
3844		27.343750
3845		31.250000
3846		25.390625
3847		31.250000
3848		23.437500
3849		27.343750
3850		21.484375
3851		25.390625
3852		19.531250
3853		23.437500
3854		17.578125
3855		21.484375
3856		15.625000
3857		19.531250
3858		13.671875
3859		17.578125
3860		11.718750
3861		17.578125
3862		9.765625
3863		13.671875
3864		7.812500
3865		11.718750
3866		5.859375
3867		9.765625
3868		3.906250
3869		7.812500
3870		1.953125
3871		5.859375
3872		0.000000
3873		3.906250
3874		-1.953125
3875		1.953125
3876		-3.906250
3877		1.953125
3878		-5.859375
3879		-1.953125
3880		-7.812500
3881		-3.906250
3882		-7.812500
3883		-5.859375
3884		-11.718750
3885		-7.812500
3886		-11.718750
3887		-7.812500
3888		-13.671875
3889		-9.765625
3890		-15.625000
3891		-11.718750
3892		-17.578125
3893		-13.671875
3894		-17.578125
3895		-13.671875
3896		-19.531250
3897		-15.625000
3898		-21.484375
3899		-17.578125
3900		-21.484375
3901		-17.578125
3902		-23.437500
3903		-19.531250
3904		-23.437500
3905		-21.484375
3906		-25.390625
3907		-21.484375
3908		-25.390625
3909		-23.437500
3910		-27.343750
3911		-23.437500
3912		-27.343750
3913		-23.437500
3914		-27.343750
3915		-23.437500
3916		-27.343750
3917		-25.390625
3918		-29.296875
3919		-25.390625
3920		-29.296875
3921		-25.390625
3922		-29.296875
3923		-25.390625
3924		-29.296875
3925		-25.390625
3926		-29.296875
3927		-25.390625
3928		-27.343750
3929		-25.390625
3930		-27.343750
3931		-25.390625
3932		-27.343750
3933		-25.390625
3934		-27.343750
3935		-23.437500
3936		-27.343750
3937		-23.437500
3938		-27.343750
3939		-23.437500
3940		-25.390625
3941		-21.484375
3942		-23.437500
3943		-21.484375
3944		-23.437500
3945		-19.531250
3946		-23.437500
3947		-17.578125
3948		-21.484375
3949		-17.578125
3950		-19.531250
3951		-17.578125
3952		-19.531250
3953		-15.625000
3954		-17.578125
3955		-13.671875
3956		-15.625000
3957		-11.718750
3958		-13.671875
3959		-9.765625
3960		-11.718750
3961		-7.812500
3962		-11.718750
3963		-7.812500
3964		-9.765625
3965		-5.859375
3966		-7.812500
3967		-3.906250
3968		-5.859375
3969		-1.953125
3970		-3.906250
3971		0.000000
3972		-1.953125
3973		1.953125
3974		-1.953125
3975		3.906250
3976		1.953125
3977		5.859375
3978		3.906250
3979		7.812500
3980		5.859375
3981		9.765625
3982		7.812500
3983		11.718750
3984		9.765625
3985		13.671875
3986		11.718750
3987		15.625000
3988		13.671875
3989		17.578125
3990		15.625000
3991		19.531250
3992		17.578125
3993		21.484375
3994		19.531250
3995		23.437500
3996		21.484375
3997		25.390625
3998		23.437500
3999		27.343750
4000		25.390625
4001		29.296875
4002		25.390625
4003		31.250000
4004		29.296875
4005		31.250000
4006		29.296875
4007		33.203125
4008		31.250000
4009		35.156250
4010		33.203125
4011		37.109375
4012		35.156250
4013		39.062500
4014		37.109375
4015		41.015625
4016		39.062500
4017		41.015625
4018		39.062500
4019		42.968750
4020		39.062500
4021		44.921875
4022		42.968750
4023		44.921875
4024		42.968750
4025		46.875000
4026		44.921875
4027		48.828125
4028		44.921875
4029		48.828125
4030		46.875000
4031		50.781250
4032		46.875000
4033		50.781250
4034		48.828125
4035		50.781250
4036		48.828125
4037		50.781250
4038		48.828125
4039		52.734375
4040		50.781250
4041		52.734375
4042		50.781250
4043		52.734375
4044		50.781250
4045		54.687500
4046		50.781250
4047		54.687500
4048		50.781250
4049		54.687500
4050		50.781250
4051		54.687500
4052		48.828125
4053		54.687500
4054		50.781250
4055		54.687500
4056		50.781250
4057		52.734375
4058		50.781250
4059		54.687500
4060		48.828125
4061		52.734375
4062		48.828125
4063		52.734375
4064		48.828125
4065		52.734375
4066		48.828125
4067		50.781250
4068		46.875000
4069		50.781250
4070		44.921875
4071		50.781250
4072		44.921875
4073		48.828125
4074		44.921875
4075		48.828125
4076		42.968750
4077		46.875000
4078		42.968750
4079		46.875000
4080		41.015625
4081		44.921875
4082		39.062500
4083		42.968750
4084		37.109375
4085		41.015625
4086		35.156250
4087		39.062500
4088		35.156250
4089		39.062500
4090		33.203125
4091		37.109375
4092		31.250000
4093		35.156250
4094		29.296875
4095		35.156250
4096		27.343750
4097		31.250000
4098		25.390625
4099		31.250000
4100		23.437500
4101		29.296875
4102		23.437500
4103		27.343750
4104		21.484375
4105		25.390625
4106		17.578125
4107		23.437500
4108		17.578125
4109		21.484375
4110		15.625000
4111		19.531250
4112		11.718750
4113		17.578125
4114		11.718750
4115		15.625000
4116		9.765625
4117		13.671875
4118		7.812500
4119		11.718750
4120		3.906250
4121		9.765625
4122		3.906250
4123		7.812500
4124		1.953125
4125		5.859375
4126		0.000000
4127		3.906250
4128		-1.953125
4129		1.953125
4130		-3.906250
4131		0.000000
4132		-5.859375
4133		-1.953125
4134		-7.812500
4135		-3.906250
4136		-11.718750
4137		-5.859375
4138		-11.718750
4139		-7.812500
4140		-13.671875
4141		-9.765625
4142		-13.671875
4143		-9.765625
4144		-15.625000
4145		-11.718750
4146		-17.578125
4147		-13.671875
4148		-19.531250
4149		-13.671875
4150		-19.531250
4151		-17.578125
4152		-21.484375
4153		-17.578125
4154		-23.437500
4155		-19.531250
4156		-23.437500
4157		-19.531250
4158		-25.390625
4159		-21.484375
4160		-25.390625
4161		-21.484375
4162		-27.343750
4163		-23.437500
4164		-27.343750
4165		-23.437500
4166		-27.343750
4167		-23.437500
4168		-27.343750
4169		-25.390625
4170		-27.343750
4171		-25.390625
4172		-29.296875
4173		-25.390625
4174		-29.296875
4175		-25.390625
4176		-29.296875
4177		-25.390625
4178		-29.296875
4179		-25.390625
4180		-29.296875
4181		-25.390625
4182		-29.296875
4183		-23.437500
4184		-27.343750
4185		-25.390625
4186		-27.343750
4187		-25.390625
4188		-27.343750
4189		-23.437500
4190		-27.343750
4191		-23.437500
4192		-25.390625
4193		-21.484375
4194		-25.390625
4195		-21.484375
4196		-23.437500
4197		-21.484375
4198		-23.437500
4199		-19.531250
4200		-21.484375
4201		-17.578125
4202		-21.484375
4203		-17.578125
4204		-19.531250
4205		-15.625000
4206		-17.578125
4207		-13.671875
4208		-17.578125
4209		-13.671875
4210		-15.625000
4211		-11.718750
4212		-13.671875
4213		-9.765625
4214		-11.718750
4215		-7.812500
4216		-9.765625
4217		-5.859375
4218		-9.765625
4219		-5.859375
4220		-7.812500
4221		-1.953125
4222		-5.859375
4223		0.000000
4224		-3.906250
4225		0.000000
4226		-1.953125
4227		1.953125
4228		0.000000
4229		3.906250
4230		1.953125
4231		5.859375
4232		3.906250
4233		9.765625
4234		5.859375
4235		9.765625
4236		7.812500
4237		11.718750
4238		9.765625
4239		13.671875
4240		11.718750
4241		15.625000
4242		13.671875
4243		17.578125
4244		15.625000
4245		19.531250
4246		17.578125
4247		23.437500
4248		19.531250
4249		23.437500
4250		21.484375
4251		25.390625
4252		23.437500
4253		27.343750
4254		25.390625
4255		29.296875
4256		27.343750
4257		31.250000
4258		29.296875
4259		33.203125
4260		31.250000
4261		35.156250
4262		33.203125
4263		37.109375
4264		33.203125
4265		39.062500
4266		35.156250
4267		39.062500
4268		37.109375
4269		41.015625
4270		39.062500
4271		42.968750
4272		39.062500
4273		42.968750
4274		41.015625
4275		44.921875
4276		42.968750
4277		46.875000
4278		44.921875
4279		46.875000
4280		44.921875
4281		48.828125
4282		44.921875
4283		48.828125
4284		46.875000
4285		50.781250
4286		46.875000
4287		50.781250
4288		48.828125
4289		50.781250
4290		48.828125
4291		52.734375
4292		50.781250
4293		52.734375
4294		50.781250
4295		52.734375
4296		50.781250
4297		52.734375
4298		50.781250
4299		52.734375
4300		50.781250
4301		54.687500
4302		50.781250
4303		54.687500
4304		50.781250
4305		54.687500
4306		50.781250
4307		54.687500
4308		50.781250
4309		54.687500
4310		50.781250
4311		52.734375
4312		48.828125
4313		52.734375
4314		48.828125
4315		52.734375
4316		46.875000
4317		52.734375
4318		48.828125
4319		50.781250
4320		48.828125
4321		50.781250
4322		46.875000
4323		50.781250
4324		44.921875
4325		48.828125
4326		44.921875
4327		48.828125
4328		42.968750
4329		46.875000
4330		42.968750
4331		46.875000
4332		41.015625
4333		44.921875
4334		41.015625
4335		44.921875
4336		39.062500
4337		42.968750
4338		37.109375
4339		41.015625
4340		35.156250
4341		39.062500
4342		35.156250
4343		39.062500
4344		33.203125
4345		37.109375
4346		31.250000
4347		35.156250
4348		29.296875
4349		33.203125
4350		27.343750
4351		31.250000
4352		25.390625
4353		29.296875
4354		23.437500
4355		27.343750
4356		21.484375
4357		27.343750
4358		19.531250
4359		23.437500
4360		17.578125
4361		21.484375
4362		15.625000
4363		19.531250
4364		13.671875
4365		17.578125
4366		11.718750
4367		15.625000
4368		9.765625
4369		13.671875
4370		7.812500
4371		11.718750
4372		5.859375
4373		9.765625
4374		3.906250
4375		7.812500
4376		1.953125
4377		5.859375
4378		0.000000
4379		3.906250
4380		-1.953125
4381		1.953125
4382		-3.906250
4383		0.000000
4384		-5.859375
4385		-1.953125
4386		-7.812500
4387		-3.906250
4388		-9.765625
4389		-5.859375
4390		-11.718750
4391		-5.859375
4392		-11.718750
4393		-7.812500
4394		-13.671875
4395		-9.765625
4396		-15.625000
4397		-11.718750
4398		-17.578125
4399		-13.671875
4400		-19.531250
4401		-13.671875
4402		-19.531250
4403		-15.625000
4404		-21.484375
4405		-17.578125
4406		-23.437500
4407		-17.578125
4408		-23.437500
4409		-19.531250
4410		-25.390625
4411		-21.484375
4412		-25.390625
4413		-21.484375
4414		-25.390625
4415		-21.484375
4416		-27.343750
4417		-23.437500
4418		-27.343750
4419		-23.437500
4420		-27.343750
4421		-25.390625
4422		-29.296875
4423		-25.390625
4424		-29.296875
4425		-25.390625
4426		-29.296875
4427		-25.390625
4428		-29.296875
4429		-25.390625
4430		-29.296875
4431		-25.390625
4432		-29.296875
4433		-25.390625
4434		-29.296875
4435		-25.390625
4436		-27.343750
4437		-25.390625
4438		-27.343750
4439		-25.390625
4440		-27.343750
4441		-23.437500
4442		-27.343750
4443		-23.437500
4444		-25.390625
4445		-23.437500
4446		-25.390625
4447		-21.484375
4448		-23.437500
4449		-21.484375
4450		-23.437500
4451		-19.531250
4452		-23.437500
4453		-19.531250
4454		-21.484375
4455		-17.578125
4456		-19.531250
4457		-15.625000
4458		-19.531250
4459		-15.625000
4460		-17.578125
4461		-13.671875
4462		-15.625000
4463		-11.718750
4464		-13.671875
4465		-11.718750
4466		-13.671875
4467		-9.765625
4468		-11.718750
4469		-7.812500
4470		-9.765625
4471		-5.859375
4472		-7.812500
4473		-3.906250
4474		-5.859375
4475		-1.953125
4476		-5.859375
4477		0.000000
4478		-1.953125
4479		1.953125
4480		0.000000
4481		3.906250
4482		1.953125
4483		5.859375
4484		3.906250
4485		7.812500
4486		5.859375
4487		9.765625
4488		7.812500
4489		11.718750
4490		7.812500
4491		13.671875
4492		9.765625
4493		15.625000
4494		13.671875
4495		17.578125
4496		15.625000
4497		19.531250
4498		17.578125
4499		21.484375
4500		19.531250
4501		23.437500
4502		21.484375
4503		25.390625
4504		23.437500
4505		27.343750
4506		25.390625
4507		29.296875
4508		25.390625
4509		29.296875
4510		27.343750
4511		33.203125
4512		31.250000
4513		33.203125
4514		31.250000
4515		35.156250
4516		33.203125
4517		37.109375
4518		35.156250
4519		39.062500
4520		37.109375
4521		39.062500
4522		39.062500
4523		41.015625
4524		39.062500
4525		42.968750
4526		41.015625
4527		44.921875
4528		41.015625
4529		44.921875
4530		42.968750
4531		46.875000
4532		44.921875
4533		46.875000
4534		44.921875
4535		48.828125
4536		44.921875
4537		48.828125
4538		46.875000
4539		50.781250
4540		48.828125
4541		50.781250
4542		48.828125
4543		52.734375
4544		48.828125
4545		52.734375
4546		48.828125
4547		52.734375
4548		50.781250
4549		54.687500
4550		50.781250
4551		54.687500
4552		50.781250
4553		54.687500
4554		50.781250
4555		54.687500
4556		50.781250
4557		52.734375
4558		50.781250
4559		54.687500
4560		50.781250
4561		54.687500
4562		50.781250
4563		54.687500
4564		50.781250
4565		52.734375
4566		48.828125
4567		52.734375
4568		48.828125
4569		52.734375
4570		48.828125
4571		50.781250
4572		48.828125
4573		50.781250
4574		46.875000
4575		50.781250
4576		46.875000
4577		50.781250
4578		44.921875
4579		48.828125
4580		44.921875
4581		48.828125
4582		42.968750
4583		46.875000
4584		41.015625
4585		44.921875
4586		41.015625
4587		44.921875
4588		39.062500
4589		42.968750
4590		37.109375
4591		41.015625
4592		37.109375
4593		41.015625
4594		35.156250
4595		39.062500
4596		33.203125
4597		37.109375
4598		31.250000
4599		35.156250
4600		29.296875
4601		33.203125
4602		27.343750
4603		31.250000
4604		27.343750
4605		29.296875
4606		25.390625
4607		29.296875
4608		23.437500
4609		27.343750
4610		21.484375
4611		25.390625
4612		17.578125
4613		23.437500
4614		15.625000
4615		21.484375
4616		15.625000
4617		19.531250
4618		11.718750
4619		17.578125
4620		11.718750
4621		15.625000
4622		9.765625
4623		13.671875
4624		5.859375
4625		11.718750
4626		5.859375
4627		9.765625
4628		3.906250
4629		7.812500
4630		0.000000
4631		3.906250
4632		0.000000
4633		3.906250
4634		-3.906250
4635		1.953125
4636		-3.906250
4637		0.000000
4638		-5.859375
4639		-1.953125
4640		-7.812500
4641		-3.906250
4642		-9.765625
4643		-3.906250
4644		-11.718750
4645		-7.812500
4646		-13.671875
4647		-9.765625
4648		-13.671875
4649		-11.718750
4650		-15.625000
4651		-11.718750
4652		-19.531250
4653		-13.671875
4654		-19.531250
4655		-13.671875
4656		-19.531250
4657		-17.578125
4658		-21.484375
4659		-17.578125
4660		-23.437500
4661		-19.531250
4662		-23.437500
4663		-19.531250
4664		-25.390625
4665		-21.484375
4666		-25.390625
4667		-21.484375
4668		-25.390625
4669		-23.437500
4670		-27.343750
4671		-23.437500
4672		-27.343750
4673		-25.390625
4674		-29.296875
4675		-25.390625
4676		-29.296875
4677		-25.390625
4678		-29.296875
4679		-25.390625
4680		-29.296875
4681		-25.390625
4682		-29.296875
4683		-25.390625
4684		-29.296875
4685		-25.390625
4686		-29.296875
4687		-25.390625
4688		-27.343750
4689		-25.390625
4690		-27.343750
4691		-25.390625
4692		-29.296875
4693		-23.437500
4694		-27.343750
4695		-23.437500
4696		-27.343750
4697		-23.437500
4698		-25.390625
4699		-23.437500
4700		-25.390625
4701		-21.484375
4702		-23.437500
4703		-21.484375
4704		-23.437500
4705		-19.531250
4706		-21.484375
4707		-17.578125
4708		-21.484375
4709		-15.625000
4710		-19.531250
4711		-15.625000
4712		-17.578125
4713		-13.671875
4714		-15.625000
4715		-13.671875
4716		-15.625000
4717		-11.718750
4718		-13.671875
4719		-9.765625
4720		-11.718750
4721		-7.812500
4722		-9.765625
4723		-7.812500
4724		-7.812500
4725		-5.859375
4726		-7.812500
4727		-1.953125
4728		-5.859375
4729		0.000000
4730		-3.906250
4731		0.000000
4732		-1.953125
4733		1.953125
4734		0.000000
4735		3.906250
4736		1.953125
4737		5.859375
4738		1.953125
4739		7.812500
4740		5.859375
4741		9.765625
4742		7.812500
4743		11.718750
4744		9.765625
4745		15.625000
4746		11.718750
4747		15.625000
4748		13.671875
4749		17.578125
4750		15.625000
4751		19.531250
4752		17.578125
4753		21.484375
4754		19.531250
4755		23.437500
4756		21.484375
4757		25.390625
4758		23.437500
4759		27.343750
4760		25.390625
4761		31.250000
4762		27.343750
4763		31.250000
4764		29.296875
4765		33.203125
4766		31.250000
4767		35.156250
4768		33.203125
4769		37.109375
4770		33.203125
4771		39.062500
4772		35.156250
4773		39.062500
4774		37.109375
4775		41.015625
4776		39.062500
4777		42.968750
4778		41.015625
4779		42.968750
4780		41.015625
4781		44.921875
4782		42.968750
4783		46.875000
4784		42.968750
4785		46.875000
4786		44.921875
4787		48.828125
4788		44.921875
4789		48.828125
4790		46.875000
4791		48.828125
4792		46.875000
4793		52.734375
4794		48.828125
4795		52.734375
4796		48.828125
4797		52.734375
4798		48.828125
4799		52.734375
4800		50.781250
4801		52.734375
4802		50.781250
4803		52.734375
4804		50.781250
4805		54.687500
4806		50.781250
4807		54.687500
4808		50.781250
4809		54.687500
4810		50.781250
4811		54.687500
4812		50.781250
4813		54.687500
4814		50.781250
4815		54.687500
4816		50.781250
4817		52.734375
4818		50.781250
4819		52.734375
4820		48.828125
4821		52.734375
4822		48.828125
4823		52.734375
4824		48.828125
4825		50.781250
4826		46.875000
4827		50.781250
4828		46.875000
4829		48.828125
4830		44.921875
4831		48.828125
4832		44.921875
4833		48.828125
4834		42.968750
4835		46.875000
4836		42.968750
4837		46.875000
4838		41.015625
4839		44.921875
4840		41.015625
4841		42.968750
4842		37.109375
4843		42.968750
4844		37.109375
4845		41.015625
4846		35.156250
4847		39.062500
4848		35.156250
4849		37.109375
4850		33.203125
4851		35.156250
4852		31.250000
4853		35.156250
4854		27.343750
4855		33.203125
4856		27.343750
4857		31.250000
4858		25.390625
4859		29.296875
4860		23.437500
4861		27.343750
4862		21.484375
4863		25.390625
4864		19.531250
4865		23.437500
4866		17.578125
4867		21.484375
4868		15.625000
4869		19.531250
4870		13.671875
4871		17.578125
4872		11.718750
4873		15.625000
4874		9.765625
4875		13.671875
4876		7.812500
4877		11.718750
4878		5.859375
4879		9.765625
4880		3.906250
4881		7.812500
4882		1.953125
4883		5.859375
4884		0.000000
4885		3.906250
4886		-1.953125
4887		1.953125
4888		-3.906250
4889		0.000000
4890		-5.859375
4891		-1.953125
4892		-7.812500
4893		-3.906250
4894		-9.765625
4895		-5.859375
4896		-9.765625
4897		-5.859375
4898		-13.671875
4899		-9.765625
4900		-15.625000
4901		-9.765625
4902		-15.625000
4903		-11.718750
4904		-17.578125
4905		-13.671875
4906		-17.578125
4907		-13.671875
4908		-19.531250
4909		-15.625000
4910		-21.484375
4911		-17.578125
4912		-21.484375
4913		-17.578125
4914		-23.437500
4915		-19.531250
4916		-23.437500
4917		-19.531250
4918		-25.390625
4919		-21.484375
4920		-25.390625
4921		-21.484375
4922		-27.343750
4923		-23.437500
4924		-27.343750
4925		-25.390625
4926		-27.343750
4927		-25.390625
4928		-27.343750
4929		-25.390625
4930		-29.296875
4931		-25.390625
4932		-29.296875
4933		-25.390625
4934		-29.296875
4935		-25.390625
4936		-29.296875
4937		-25.390625
4938		-29.296875
4939		-25.390625
4940		-27.343750
4941		-25.390625
4942		-27.343750
4943		-25.390625
4944		-27.343750
4945		-23.437500
4946		-27.343750
4947		-23.437500
4948		-27.343750
4949		-23.437500
4950		-25.390625
4951		-21.484375
4952		-25.390625
4953		-21.484375
4954		-25.390625
4955		-21.484375
4956		-23.437500
4957		-19.531250
4958		-21.484375
4959		-19.531250
4960		-21.484375
4961		-17.578125
4962		-19.531250
4963		-17.578125
4964		-19.531250
4965		-15.625000
4966		-17.578125
4967		-13.671875
4968		-15.625000
4969		-11.718750
4970		-15.625000
4971		-9.765625
4972		-13.671875
4973		-7.812500
4974		-11.718750
4975		-7.812500
4976		-9.765625
4977		-5.859375
4978		-7.812500
4979		-3.906250
4980		-5.859375
4981		-1.953125
4982		-3.906250
4983		0.000000
4984		-1.953125
4985		1.953125
4986		0.000000
4987		3.906250
4988		1.953125
4989		5.859375
4990		1.953125
4991		7.812500
4992		5.859375
4993		9.765625
4994		7.812500
4995		11.718750
4996		9.765625
4997		13.671875
4998		11.718750
4999		15.625000
5000		13.671875
5001		17.578125
5002		15.625000
5003		19.531250
5004		17.578125
5005		21.484375
5006		17.578125
5007		23.437500
5008		21.484375
5009		25.390625
5010		23.437500
5011		27.343750
5012		25.390625
5013		29.296875
5014		27.343750
5015		31.250000
5016		27.343750
5017		31.250000
5018		29.296875
5019		35.156250
5020		31.250000
5021		35.156250
5022		33.203125
5023		37.109375
5024		35.156250
5025		39.062500
5026		37.109375
5027		39.062500
5028		37.109375
5029		41.015625
5030		39.062500
5031		42.968750
5032		41.015625
5033		44.921875
5034		42.968750
5035		44.921875
5036		42.968750
5037		46.875000
5038		42.968750
5039		48.828125
5040		44.921875
5041		48.828125
5042		46.875000
5043		48.828125
5044		46.875000
5045		50.781250
5046		46.875000
5047		50.781250
5048		48.828125
5049		52.734375
5050		48.828125
5051		52.734375
5052		48.828125
5053		52.734375
5054		50.781250
5055		54.687500
5056		50.781250
5057		54.687500
5058		50.781250
5059		52.734375
5060		50.781250
5061		52.734375
5062		50.781250
5063		54.687500
5064		50.781250
5065		54.687500
5066		50.781250
5067		54.687500
5068		50.781250
5069		52.734375
5070		50.781250
5071		52.734375
5072		48.828125
5073		52.734375
5074		48.828125
5075		52.734375
5076		48.828125
5077		52.734375
5078		48.828125
5079		52.734375
5080		46.875000
5081		50.781250
5082		44.921875
5083		48.828125
5084		44.921875
5085		48.828125
5086		44.921875
5087		46.875000
5088		42.968750
5089		46.875000
5090		41.015625
5091		44.921875
5092		41.015625
5093		42.968750
5094		37.109375
5095		42.968750
5096		37.109375
5097		41.015625
5098		35.156250
5099		41.015625
5100		35.156250
5101		39.062500
5102		33.203125
5103		37.109375
5104		31.250000
5105		35.156250
5106		29.296875
5107		33.203125
5108		27.343750
5109		31.250000
5110		25.390625
5111		29.296875
5112		23.437500
5113		29.296875
5114		23.437500
5115		27.343750
5116		19.531250
5117		25.390625
5118		19.531250
5119		23.437500
5120		17.578125
5121		21.484375
5122		13.671875
5123		19.531250
5124		13.671875
5125		17.578125
5126		11.718750
5127		15.625000
5128		7.812500
5129		11.718750
5130		7.812500
5131		11.718750
5132		3.906250
5133		7.812500
5134		3.906250
5135		5.859375
5136		1.953125
5137		3.906250
5138		-1.953125
5139		1.953125
5140		-3.906250
5141		1.953125
5142		-3.906250
5143		-1.953125
5144		-5.859375
5145		-1.953125
5146		-7.812500
5147		-3.906250
5148		-9.765625
5149		-5.859375
5150		-11.718750
5151		-7.812500
5152		-13.671875
5153		-9.765625
5154		-15.625000
5155		-11.718750
5156		-15.625000
5157		-11.718750
5158		-17.578125
5159		-13.671875
5160		-19.531250
5161		-15.625000
5162		-21.484375
5163		-17.578125
5164		-21.484375
5165		-17.578125
5166		-23.437500
5167		-19.531250
5168		-23.437500
5169		-19.531250
5170		-25.390625
5171		-21.484375
5172		-25.390625
5173		-23.437500
5174		-27.343750
5175		-21.484375
5176		-27.343750
5177		-23.437500
5178		-27.343750
5179		-25.390625
5180		-29.296875
5181		-25.390625
5182		-29.296875
5183		-25.390625
5184		-29.296875
5185		-25.390625
5186		-29.296875
5187		-25.390625
5188		-29.296875
5189		-25.390625
5190		-29.296875
5191		-25.390625
5192		-29.296875
5193		-25.390625
5194		-27.343750
5195		-25.390625
5196		-29.296875
5197		-23.437500
5198		-27.343750
5199		-25.390625
5200		-27.343750
5201		-23.437500
5202		-27.343750
5203		-23.437500
5204		-25.390625
5205		-21.484375
5206		-25.390625
5207		-21.484375
5208		-25.390625
5209		-21.484375
5210		-23.437500
5211		-19.531250
5212		-21.484375
5213		-17.578125
5214		-21.484375
5215		-17.578125
5216		-19.531250
5217		-15.625000
5218		-19.531250
5219		-13.671875
5220		-17.578125
5221		-13.671875
5222		-15.625000
5223		-11.718750
5224		-13.671875
5225		-9.765625
5226		-11.718750
5227		-7.812500
5228		-9.765625
5229		-7.812500
5230		-9.765625
5231		-3.906250
5232		-7.812500
5233		-3.906250
5234		-5.859375
5235		-1.953125
5236		-3.906250
5237		1.953125
5238		-1.953125
5239		1.953125
5240		0.000000
5241		3.906250
5242		1.953125
5243		5.859375
5244		3.906250
5245		7.812500
5246		5.859375
5247		11.718750
5248		7.812500
5249		11.718750
5250		9.765625
5251		13.671875
5252		11.718750
5253		15.625000
5254		13.671875
5255		17.578125
5256		15.625000
5257		19.531250
5258		17.578125
5259		21.484375
5260		19.531250
5261		23.437500
5262		21.484375
5263		25.390625
5264		23.437500
5265		27.343750
5266		25.390625
5267		29.296875
5268		27.343750
5269		31.250000
5270		29.296875
5271		33.203125
5272		31.250000
5273		35.156250
5274		33.203125
5275		37.109375
5276		33.203125
5277		37.109375
5278		35.156250
5279		39.062500
5280		37.109375
5281		41.015625
5282		39.062500
5283		42.968750
5284		39.062500
5285		42.968750
5286		41.015625
5287		44.921875
5288		42.968750
5289		46.875000
5290		44.921875
5291		46.875000
5292		42.968750
5293		48.828125
5294		46.875000
5295		48.828125
5296		44.921875
5297		50.781250
5298		46.875000
5299		50.781250
5300		46.875000
5301		52.734375
5302		48.828125
5303		52.734375
5304		48.828125
5305		52.734375
5306		48.828125
5307		52.734375
5308		50.781250
5309		54.687500
5310		50.781250
5311		52.734375
5312		50.781250
5313		52.734375
5314		50.781250
5315		54.687500
5316		50.781250
5317		54.687500
5318		50.781250
5319		54.687500
5320		50.781250
5321		52.734375
5322		50.781250
5323		52.734375
5324		48.828125
5325		52.734375
5326		48.828125
5327		52.734375
5328		48.828125
5329		50.781250
5330		46.875000
5331		50.781250
5332		46.875000
5333		50.781250
5334		46.875000
5335		50.781250
5336		44.921875
5337		48.828125
5338		44.921875
5339		48.828125
5340		42.968750
5341		46.875000
5342		41.015625
5343		44.921875
5344		41.015625
5345		44.921875
5346		39.062500
5347		42.968750
5348		37.109375
5349		42.968750
5350		37.109375
5351		41.015625
5352		35.156250
5353		39.062500
5354		33.203125
5355		37.109375
5356		31.250000
5357		35.156250
5358		29.296875
5359		35.156250
5360		29.296875
5361		33.203125
5362		27.343750
5363		31.250000
5364		25.390625
5365		29.296875
5366		23.437500
5367		27.343750
5368		21.484375
5369		25.390625
5370		19.531250
5371		23.437500
5372		17.578125
5373		21.484375
5374		15.625000
5375		19.531250
5376		13.671875
5377		17.578125
5378		11.718750
5379		15.625000
5380		7.812500
5381		13.671875
5382		7.812500
5383		11.718750
5384		5.859375
5385		9.765625
5386		3.906250
5387		7.812500
5388		1.953125
5389		5.859375
5390		0.000000
5391		3.906250
5392		-1.953125
5393		1.953125
5394		-3.906250
5395		0.000000
5396		-5.859375
5397		-1.953125
5398		-7.812500
5399		-3.906250
5400		-9.765625
5401		-5.859375
5402		-11.718750
5403		-7.812500
5404		-11.718750
5405		-9.765625
5406		-15.625000
5407		-9.765625
5408		-17.578125
5409		-11.718750
5410		-17.578125
5411		-13.671875
5412		-17.578125
5413		-15.625000
5414		-19.531250
5415		-15.625000
5416		-21.484375
5417		-17.578125
5418		-21.484375
5419		-19.531250
5420		-23.437500
5421		-19.531250
5422		-23.437500
5423		-21.484375
5424		-25.390625
5425		-21.484375
5426		-27.343750
5427		-21.484375
5428		-27.343750
5429		-23.437500
5430		-27.343750
5431		-23.437500
5432		-27.343750
5433		-25.390625
5434		-29.296875
5435		-25.390625
5436		-29.296875
5437		-25.390625
5438		-29.296875
5439		-25.390625
5440		-29.296875
5441		-25.390625
5442		-29.296875
5443		-25.390625
5444		-29.296875
5445		-25.390625
5446		-27.343750
5447		-25.390625
5448		-29.296875
5449		-25.390625
5450		-27.343750
5451		-25.390625
5452		-27.343750
5453		-23.437500
5454		-27.343750
5455		-23.437500
5456		-27.343750
5457		-23.437500
5458		-25.390625
5459		-21.484375
5460		-23.437500
5461		-21.484375
5462		-23.437500
5463		-19.531250
5464		-23.437500
5465		-17.578125
5466		-21.484375
5467		-17.578125
5468		-19.531250
5469		-15.625000
5470		-19.531250
5471		-15.625000
5472		-17.578125
5473		-13.671875
5474		-15.625000
5475		-11.718750
5476		-15.625000
5477		-9.765625
5478		-13.671875
5479		-9.765625
5480		-11.718750
5481		-7.812500
5482		-9.765625
5483		-5.859375
5484		-7.812500
5485		-3.906250
5486		-5.859375
5487		-1.953125
5488		-3.906250
5489		0.000000
5490		-1.953125
5491		1.953125
5492		0.000000
5493		3.906250
5494		0.000000
5495		5.859375
5496		3.906250
5497		7.812500
5498		5.859375
5499		9.765625
5500		7.812500
5501		11.718750
5502		9.765625
5503		13.671875
5504		9.765625
5505		15.625000
5506		11.718750
5507		17.578125
5508		15.625000
5509		19.531250
5510		17.578125
5511		21.484375
5512		19.531250
5513		23.437500
5514		21.484375
5515		25.390625
5516		21.484375
5517		25.390625
5518		25.390625
5519		29.296875
5520		27.343750
5521		29.296875
5522		29.296875
5523		33.203125
5524		29.296875
5525		33.203125
5526		31.250000
5527		35.156250
5528		33.203125
5529		37.109375
5530		35.156250
5531		39.062500
5532		37.109375
5533		41.015625
5534		37.109375
5535		41.015625
5536		39.062500
5537		42.968750
5538		41.015625
5539		44.921875
5540		42.968750
5541		44.921875
5542		42.968750
5543		46.875000
5544		42.968750
5545		46.875000
5546		44.921875
5547		48.828125
5548		44.921875
5549		50.781250
5550		46.875000
5551		50.781250
5552		48.828125
5553		50.781250
5554		48.828125
5555		50.781250
5556		48.828125
5557		52.734375
5558		48.828125
5559		52.734375
5560		48.828125
5561		52.734375
5562		50.781250
5563		52.734375
5564		50.781250
5565		52.734375
5566		50.781250
5567		54.687500
5568		50.781250
5569		54.687500
5570		50.781250
5571		54.687500
5572		50.781250
5573		52.734375
5574		50.781250
5575		52.734375
5576		48.828125
5577		52.734375
5578		48.828125
5579		52.734375
5580		48.828125
5581		50.781250
5582		46.875000
5583		50.781250
5584		46.875000
5585		50.781250
5586		46.875000
5587		50.781250
5588		46.875000
5589		48.828125
5590		44.921875
5591		48.828125
5592		42.968750
5593		46.875000
5594		42.968750
5595		46.875000
5596		41.015625
5597		44.921875
5598		41.015625
5599		42.968750
5600		39.062500
5601		42.968750
5602		37.109375
5603		41.015625
5604		37.109375
5605		39.062500
5606		35.156250
5607		37.109375
5608		33.203125
5609		37.109375
5610		31.250000
5611		35.156250
5612		29.296875
5613		33.203125
5614		27.343750
5615		31.250000
5616		25.390625
5617		29.296875
5618		23.437500
5619		29.296875
5620		21.484375
5621		25.390625
5622		19.531250
5623		23.437500
5624		17.578125
5625		21.484375
5626		15.625000
5627		19.531250
5628		13.671875
5629		17.578125
5630		11.718750
5631		15.625000
5632		9.765625
5633		13.671875
5634		7.812500
5635		13.671875
5636		5.859375
5637		11.718750
5638		3.906250
5639		9.765625
5640		1.953125
5641		5.859375
5642		0.000000
5643		5.859375
5644		-1.953125
5645		1.953125
5646		-3.906250
5647		0.000000
5648		-5.859375
5649		-1.953125
5650		-7.812500
5651		-3.906250
5652		-7.812500
5653		-3.906250
5654		-11.718750
5655		-5.859375
5656		-11.718750
5657		-7.812500
5658		-13.671875
5659		-9.765625
5660		-15.625000
5661		-11.718750
5662		-17.578125
5663		-11.718750
5664		-17.578125
5665		-15.625000
5666		-21.484375
5667		-15.625000
5668		-21.484375
5669		-15.625000
5670		-21.484375
5671		-17.578125
5672		-23.437500
5673		-19.531250
5674		-25.390625
5675		-19.531250
5676		-25.390625
5677		-21.484375
5678		-27.343750
5679		-21.484375
5680		-25.390625
5681		-23.437500
5682		-27.343750
5683		-25.390625
5684		-29.296875
5685		-23.437500
5686		-29.296875
5687		-25.390625
5688		-29.296875
5689		-25.390625
5690		-29.296875
5691		-25.390625
5692		-29.296875
5693		-25.390625
5694		-29.296875
5695		-25.390625
5696		-29.296875
5697		-25.390625
5698		-29.296875
5699		-27.343750
5700		-29.296875
5701		-25.390625
5702		-29.296875
5703		-25.390625
5704		-27.343750
5705		-23.437500
5706		-27.343750
5707		-23.437500
5708		-27.343750
5709		-23.437500
5710		-25.390625
5711		-23.437500
5712		-25.390625
5713		-21.484375
5714		-23.437500
5715		-21.484375
5716		-23.437500
5717		-19.531250
5718		-23.437500
5719		-19.531250
5720		-21.484375
5721		-17.578125
5722		-19.531250
5723		-15.625000
5724		-17.578125
5725		-15.625000
5726		-17.578125
5727		-13.671875
5728		-15.625000
5729		-11.718750
5730		-13.671875
5731		-9.765625
5732		-11.718750
5733		-7.812500
5734		-11.718750
5735		-7.812500
5736		-7.812500
5737		-5.859375
5738		-7.812500
5739		-1.953125
5740		-5.859375
5741		-1.953125
5742		-3.906250
5743		0.000000
5744		-1.953125
5745		1.953125
5746		0.000000
5747		3.906250
5748		1.953125
5749		5.859375
5750		3.906250
5751		9.765625
5752		5.859375
5753		9.765625
5754		7.812500
5755		11.718750
5756		9.765625
5757		13.671875
5758		11.718750
5759		15.625000
5760		13.671875
5761		17.578125
5762		15.625000
5763		19.531250
5764		17.578125
5765		21.484375
5766		19.531250
5767		23.437500
5768		21.484375
5769		25.390625
5770		23.437500
5771		27.343750
5772		25.390625
5773		29.296875
5774		27.343750
5775		31.250000
5776		29.296875
5777		33.203125
5778		31.250000
5779		35.156250
5780		31.250000
5781		37.109375
5782		35.156250
5783		37.109375
5784		35.156250
5785		39.062500
5786		37.109375
5787		41.015625
5788		39.062500
5789		42.968750
5790		39.062500
5791		42.968750
5792		41.015625
5793		44.921875
5794		42.968750
5795		46.875000
5796		42.968750
5797		46.875000
5798		44.921875
5799		46.875000
5800		44.921875
5801		48.828125
5802		46.875000
5803		48.828125
5804		46.875000
5805		50.781250
5806		48.828125
5807		50.781250
5808		46.875000
5809		52.734375
5810		48.828125
5811		52.734375
5812		48.828125
5813		54.687500
5814		50.781250
5815		52.734375
5816		50.781250
5817		52.734375
5818		48.828125
5819		54.687500
5820		50.781250
5821		54.687500
5822		50.781250
5823		54.687500
5824		48.828125
5825		54.687500
5826		50.781250
5827		54.687500
5828		50.781250
5829		52.734375
5830		48.828125
5831		52.734375
5832		48.828125
5833		52.734375
5834		48.828125
5835		52.734375
5836		46.875000
5837		50.781250
5838		46.875000
5839		50.781250
5840		46.875000
5841		50.781250
5842		44.921875
5843		48.828125
5844		44.921875
5845		46.875000
5846		41.015625
5847		46.875000
5848		42.968750
5849		44.921875
5850		41.015625
5851		44.921875
5852		39.062500
5853		42.968750
5854		37.109375
5855		42.968750
5856		35.156250
5857		41.015625
5858		33.203125
5859		39.062500
5860		33.203125
5861		39.062500
5862		31.250000
5863		37.109375
5864		29.296875
5865		35.156250
5866		29.296875
5867		31.250000
5868		25.390625
5869		31.250000
5870		25.390625
5871		29.296875
5872		21.484375
5873		27.343750
5874		21.484375
5875		25.390625
5876		19.531250
5877		25.390625
5878		15.625000
5879		21.484375
5880		15.625000
5881		19.531250
5882		13.671875
5883		17.578125
5884		11.718750
5885		15.625000
5886		9.765625
5887		13.671875
5888		5.859375
5889		11.718750
5890		5.859375
5891		9.765625
5892		3.906250
5893		7.812500
5894		0.000000
5895		5.859375
5896		-1.953125
5897		3.906250
5898		-1.953125
5899		1.953125
5900		-3.906250
5901		0.000000
5902		-7.812500
5903		-1.953125
5904		-7.812500
5905		-3.906250
5906		-9.765625
5907		-3.906250
5908		-11.718750
5909		-7.812500
5910		-13.671875
5911		-7.812500
5912		-15.625000
5913		-9.765625
5914		-15.625000
5915		-11.718750
5916		-17.578125
5917		-13.671875
5918		-19.531250
5919		-15.625000
5920		-21.484375
5921		-15.625000
5922		-23.437500
5923		-17.578125
5924		-23.437500
5925		-17.578125
5926		-23.437500
5927		-19.531250
5928		-25.390625
5929		-19.531250
5930		-25.390625
5931		-21.484375
5932		-25.390625
5933		-23.437500
5934		-27.343750
5935		-23.437500
5936		-29.296875
5937		-23.437500
5938		-29.296875
5939		-23.437500
5940		-29.296875
5941		-25.390625
5942		-29.296875
5943		-25.390625
5944		-29.296875
5945		-25.390625
5946		-29.296875
5947		-25.390625
5948		-31.250000
5949		-25.390625
5950		-29.296875
5951		-25.390625
5952		-29.296875
5953		-25.390625
5954		-29.296875
5955		-23.437500
5956		-29.296875
5957		-23.437500
5958		-29.296875
5959		-23.437500
5960		-27.343750
5961		-23.437500
5962		-27.343750
5963		-21.484375
5964		-27.343750
5965		-21.484375
5966		-25.390625
5967		-21.484375
5968		-23.437500
5969		-21.484375
5970		-23.437500
5971		-19.531250
5972		-21.484375
5973		-17.578125
5974		-19.531250
5975		-17.578125
5976		-19.531250
5977		-15.625000
5978		-17.578125
5979		-13.671875
5980		-15.625000
5981		-13.671875
5982		-15.625000
5983		-11.718750
5984		-13.671875
5985		-9.765625
5986		-11.718750
5987		-7.812500
5988		-9.765625
5989		-5.859375
5990		-7.812500
5991		-3.906250
5992		-5.859375
5993		-1.953125
5994		-3.906250
5995		0.000000
5996		-1.953125
5997		1.953125
5998		0.000000
5999		3.906250
6000		1.953125
6001		5.859375
6002		3.906250
6003		7.812500
6004		5.859375
6005		9.765625
6006		7.812500
6007		11.718750
6008		9.765625
6009		13.671875
6010		11.718750
6011		13.671875
6012		13.671875
6013		17.578125
6014		15.625000
6015		19.531250
6016		17.578125
6017		21.484375
6018		19.531250
6019		23.437500
6020		21.484375
6021		25.390625
6022		23.437500
6023		25.390625
6024		25.390625
6025		29.296875
6026		27.343750
6027		29.296875
6028		27.343750
6029		31.250000
6030		31.250000
6031		33.203125
6032		31.250000
6033		35.156250
6034		33.203125
6035		37.109375
6036		35.156250
6037		39.062500
6038		37.109375
6039		39.062500
6040		37.109375
6041		41.015625
6042		39.062500
6043		42.968750
6044		41.015625
6045		42.968750
6046		42.968750
6047		44.921875
6048		42.968750
6049		46.875000
6050		44.921875
6051		46.875000
6052		44.921875
6053		48.828125
6054		46.875000
6055		48.828125
6056		46.875000
6057		48.828125
6058		48.828125
6059		50.781250
6060		48.828125
6061		50.781250
6062		48.828125
6063		52.734375
6064		48.828125
6065		52.734375
6066		50.781250
6067		52.734375
6068		50.781250
6069		52.734375
6070		46.875000
6071		56.640625
6072		48.828125
6073		56.640625
6074		46.875000
6075		56.640625
6076		50.781250
6077		52.734375
6078		50.781250
6079		52.734375
6080		50.781250
6081		52.734375
6082		50.781250
6083		52.734375
6084		48.828125
6085		52.734375
6086		44.921875
6087		54.687500
6088		44.921875
6089		54.687500
6090		44.921875
6091		52.734375
6092		44.921875
6093		52.734375
6094		44.921875
6095		48.828125
6096		44.921875
6097		48.828125
6098		44.921875
6099		46.875000
6100		42.968750
6101		44.921875
6102		41.015625
6103		44.921875
6104		37.109375
6105		46.875000
6106		35.156250
6107		44.921875
6108		35.156250
6109		44.921875
6110		35.156250
6111		39.062500
6112		35.156250
6113		37.109375
6114		31.250000
6115		37.109375
6116		31.250000
6117		35.156250
6118		29.296875
6119		33.203125
6120		23.437500
6121		33.203125
6122		23.437500
6123		33.203125
6124		21.484375
6125		31.250000
6126		19.531250
6127		29.296875
6128		19.531250
6129		23.437500
6130		17.578125
6131		21.484375
6132		15.625000
6133		19.531250
6134		13.671875
6135		17.578125
6136		11.718750
6137		15.625000
6138		5.859375
6139		17.578125
6140		5.859375
6141		15.625000
6142		3.906250
6143		13.671875
6144		3.906250
6145		7.812500
6146		1.953125
6147		5.859375
6148		0.000000
6149		3.906250
6150		-1.953125
6151		1.953125
6152		-3.906250
6153		0.000000
6154		-9.765625
6155		0.000000
6156		-11.718750
6157		-1.953125
6158		-11.718750
6159		-1.953125
6160		-9.765625
6161		-7.812500
6162		-11.718750
6163		-9.765625
6164		-13.671875
6165		-9.765625
6166		-15.625000
6167		-11.718750
6168		-17.578125
6169		-13.671875
6170		-21.484375
6171		-13.671875
6172		-23.437500
6173		-11.718750
6174		-23.437500
6175		-15.625000
6176		-23.437500
6177		-15.625000
6178		-23.437500
6179		-19.531250
6180		-23.437500
6181		-21.484375
6182		-25.390625
6183		-23.437500
6184		-25.390625
6185		-23.437500
6186		-27.343750
6187		-23.437500
6188		-31.250000
6189		-21.484375
6190		-33.203125
6191		-21.484375
6192		-31.250000
6193		-21.484375
6194		-29.296875
6195		-25.390625
6196		-29.296875
6197		-27.343750
6198		-29.296875
6199		-27.343750
6200		-29.296875
6201		-27.343750
6202		-29.296875
6203		-25.390625
6204		-31.250000
6205		-23.437500
6206		-31.250000
6207		-23.437500
6208		-31.250000
6209		-21.484375
6210		-31.250000
6211		-21.484375
6212		-27.343750
6213		-25.390625
6214		-27.343750
6215		-23.437500
6216		-25.390625
6217		-23.437500
6218		-25.390625
6219		-21.484375
6220		-23.437500
6221		-21.484375
6222		-27.343750
6223		-15.625000
6224		-25.390625
6225		-15.625000
6226		-23.437500
6227		-15.625000
6228		-19.531250
6229		-17.578125
6230		-17.578125
6231		-15.625000
6232		-17.578125
6233		-13.671875
6234		-15.625000
6235		-11.718750
6236		-13.671875
6237		-9.765625
6238		-13.671875
6239		-5.859375
6240		-11.718750
6241		-3.906250
6242		-11.718750
6243		-1.953125
6244		-7.812500
6245		-3.906250
6246		-5.859375
6247		-1.953125
6248		-3.906250
6249		0.000000
6250		-1.953125
6251		1.953125
6252		0.000000
6253		3.906250
6254		1.953125
6255		5.859375
6256		3.906250
6257		9.765625
6258		3.906250
6259		11.718750
6260		5.859375
6261		13.671875
6262		9.765625
6263		13.671875
6264		11.718750
6265		15.625000
6266		13.671875
6267		17.578125
6268		15.625000
6269		19.531250
6270		17.578125
6271		21.484375
6272		19.531250
6273		23.437500
6274		19.531250
6275		27.343750
6276		21.484375
6277		29.296875
6278		25.390625
6279		29.296875
6280		27.343750
6281		31.250000
6282		29.296875
6283		33.203125
6284		31.250000
6285		35.156250
6286		31.250000
6287		35.156250
6288		33.203125
6289		37.109375
6290		35.156250
6291		41.015625
6292		35.156250
6293		41.015625
6294		39.062500
6295		42.968750
6296		39.062500
6297		42.968750
6298		41.015625
6299		44.921875
6300		42.968750
6301		44.921875
6302		42.968750
6303		46.875000
6304		44.921875
6305		48.828125
6306		44.921875
6307		48.828125
6308		46.875000
6309		48.828125
6310		46.875000
6311		50.781250
6312		48.828125
6313		50.781250
6314		48.828125
6315		50.781250
6316		48.828125
6317		50.781250
6318		48.828125
6319		52.734375
6320		48.828125
6321		52.734375
6322		50.781250
6323		52.734375
6324		50.781250
6325		52.734375
6326		50.781250
6327		52.734375
6328		50.781250
6329		52.734375
6330		50.781250
6331		54.687500
6332		50.781250
6333		52.734375
6334		50.781250
6335		52.734375
6336		48.828125
6337		52.734375
6338		48.828125
6339		50.781250
6340		48.828125
6341		50.781250
6342		48.828125
6343		50.781250
6344		46.875000
6345		48.828125
6346		46.875000
6347		48.828125
6348		44.921875
6349		48.828125
6350		42.968750
6351		46.875000
6352		42.968750
6353		46.875000
6354		41.015625
6355		44.921875
6356		41.015625
6357		44.921875
6358		39.062500
6359		42.968750
6360		37.109375
6361		41.015625
6362		35.156250
6363		39.062500
6364		35.156250
6365		39.062500
6366		33.203125
6367		37.109375
6368		31.250000
6369		35.156250
6370		29.296875
6371		33.203125
6372		27.343750
6373		31.250000
6374		25.390625
6375		29.296875
6376		23.437500
6377		27.343750
6378		21.484375
6379		25.390625
6380		19.531250
6381		25.390625
6382		19.531250
6383		23.437500
6384		17.578125
6385		19.531250
6386		15.625000
6387		17.578125
6388		13.671875
6389		17.578125
6390		9.765625
6391		15.625000
6392		9.765625
6393		13.671875
6394		7.812500
6395		9.765625
6396		3.906250
6397		7.812500
6398		1.953125
6399		7.812500
6400		0.000000
6401		3.906250
6402		0.000000
6403		1.953125
6404		-3.906250
6405		0.000000
6406		-5.859375
6407		0.000000
6408		-7.812500
6409		-1.953125
6410		-7.812500
6411		-3.906250
6412		-11.718750
6413		-5.859375
6414		-11.718750
6415		-7.812500
6416		-13.671875
6417		-9.765625
6418		-15.625000
6419		-11.718750
6420		-17.578125
6421		-13.671875
6422		-19.531250
6423		-13.671875
6424		-21.484375
6425		-15.625000
6426		-21.484375
6427		-17.578125
6428		-21.484375
6429		-19.531250
6430		-23.437500
6431		-19.531250
6432		-23.437500
6433		-19.531250
6434		-25.390625
6435		-21.484375
6436		-25.390625
6437		-23.437500
6438		-27.343750
6439		-23.437500
6440		-29.296875
6441		-23.437500
6442		-27.343750
6443		-25.390625
6444		-27.343750
6445		-25.390625
6446		-29.296875
6447		-25.390625
6448		-29.296875
6449		-25.390625
6450		-29.296875
6451		-27.343750
6452		-29.296875
6453		-27.343750
6454		-29.296875
6455		-27.343750
6456		-31.250000
6457		-25.390625
6458		-29.296875
6459		-25.390625
6460		-29.296875
6461		-25.390625
6462		-29.296875
6463		-25.390625
6464		-27.343750
6465		-25.390625
6466		-27.343750
6467		-25.390625
6468		-27.343750
6469		-23.437500
6470		-25.390625
6471		-23.437500
6472		-25.390625
6473		-21.484375
6474		-25.390625
6475		-19.531250
6476		-23.437500
6477		-19.531250
6478		-21.484375
6479		-19.531250
6480		-21.484375
6481		-17.578125
6482		-19.531250
6483		-15.625000
6484		-17.578125
6485		-13.671875
6486		-17.578125
6487		-13.671875
6488		-15.625000
6489		-11.718750
6490		-13.671875
6491		-7.812500
6492		-11.718750
6493		-7.812500
6494		-9.765625
6495		-5.859375
6496		-7.812500
6497		-3.906250
6498		-7.812500
6499		-1.953125
6500		-3.906250
6501		-1.953125
6502		-1.953125
6503		0.000000
6504		0.000000
6505		1.953125
6506		1.953125
6507		7.812500
6508		1.953125
6509		7.812500
6510		3.906250
6511		7.812500
6512		5.859375
6513		9.765625
6514		7.812500
6515		13.671875
6516		9.765625
6517		13.671875
6518		13.671875
6519		15.625000
6520		15.625000
6521		17.578125
6522		17.578125
6523		21.484375
6524		17.578125
6525		23.437500
6526		19.531250
6527		25.390625
6528		21.484375
6529		25.390625
6530		25.390625
6531		29.296875
6532		25.390625
6533		29.296875
6534		27.343750
6535		31.250000
6536		29.296875
6537		33.203125
6538		31.250000
6539		35.156250
6540		33.203125
6541		37.109375
6542		35.156250
6543		39.062500
6544		37.109375
6545		39.062500
6546		37.109375
6547		41.015625
6548		39.062500
6549		42.968750
6550		41.015625
6551		42.968750
6552		41.015625
6553		44.921875
6554		42.968750
6555		44.921875
6556		44.921875
6557		46.875000
6558		44.921875
6559		46.875000
6560		46.875000
6561		48.828125
6562		46.875000
6563		48.828125
6564		46.875000
6565		50.781250
6566		48.828125
6567		50.781250
6568		48.828125
6569		50.781250
6570		48.828125
6571		52.734375
6572		48.828125
6573		52.734375
6574		50.781250
6575		52.734375
6576		50.781250
6577		52.734375
6578		50.781250
6579		52.734375
6580		50.781250
6581		52.734375
6582		48.828125
6583		52.734375
6584		50.781250
6585		52.734375
6586		50.781250
6587		52.734375
6588		48.828125
6589		52.734375
6590		48.828125
6591		50.781250
6592		48.828125
6593		50.781250
6594		46.875000
6595		50.781250
6596		46.875000
6597		48.828125
6598		46.875000
6599		48.828125
6600		44.921875
6601		48.828125
6602		44.921875
6603		46.875000
6604		42.968750
6605		46.875000
6606		42.968750
6607		44.921875
6608		41.015625
6609		42.968750
6610		39.062500
6611		42.968750
6612		39.062500
6613		41.015625
6614		37.109375
6615		39.062500
6616		35.156250
6617		39.062500
6618		33.203125
6619		37.109375
6620		31.250000
6621		35.156250
6622		29.296875
6623		33.203125
6624		29.296875
6625		31.250000
6626		27.343750
6627		31.250000
6628		25.390625
6629		29.296875
6630		23.437500
6631		27.343750
6632		21.484375
6633		25.390625
6634		19.531250
6635		23.437500
6636		17.578125
6637		21.484375
6638		15.625000
6639		19.531250
6640		13.671875
6641		17.578125
6642		11.718750
6643		15.625000
6644		9.765625
6645		13.671875
6646		7.812500
6647		11.718750
6648		5.859375
6649		9.765625
6650		3.906250
6651		7.812500
6652		1.953125
6653		5.859375
6654		0.000000
6655		3.906250
6656		-1.953125
6657		1.953125
6658		-5.859375
6659		0.000000
6660		-5.859375
6661		-1.953125
6662		-7.812500
6663		-3.906250
6664		-9.765625
6665		-5.859375
6666		-11.718750
6667		-7.812500
6668		-13.671875
6669		-9.765625
6670		-13.671875
6671		-11.718750
6672		-15.625000
6673		-13.671875
6674		-17.578125
6675		-13.671875
6676		-19.531250
6677		-15.625000
6678		-19.531250
6679		-17.578125
6680		-21.484375
6681		-17.578125
6682		-23.437500
6683		-19.531250
6684		-23.437500
6685		-21.484375
6686		-25.390625
6687		-21.484375
6688		-25.390625
6689		-23.437500
6690		-27.343750
6691		-23.437500
6692		-29.296875
6693		-23.437500
6694		-29.296875
6695		-23.437500
6696		-29.296875
6697		-25.390625
6698		-29.296875
6699		-25.390625
6700		-29.296875
6701		-27.343750
6702		-29.296875
6703		-27.343750
6704		-29.296875
6705		-27.343750
6706		-29.296875
6707		-27.343750
6708		-31.250000
6709		-25.390625
6710		-31.250000
6711		-25.390625
6712		-29.296875
6713		-27.343750
6714		-29.296875
6715		-25.390625
6716		-27.343750
6717		-25.390625
6718		-27.343750
6719		-25.390625
6720		-27.343750
6721		-25.390625
6722		-27.343750
6723		-23.437500
6724		-25.390625
6725		-23.437500
6726		-27.343750
6727		-19.531250
6728		-25.390625
6729		-19.531250
6730		-23.437500
6731		-19.531250
6732		-21.484375
6733		-17.578125
6734		-19.531250
6735		-17.578125
6736		-19.531250
6737		-15.625000
6738		-17.578125
6739		-13.671875
6740		-15.625000
6741		-13.671875
6742		-15.625000
6743		-9.765625
6744		-13.671875
6745		-7.812500
6746		-11.718750
6747		-7.812500
6748		-9.765625
6749		-5.859375
6750		-7.812500
6751		-3.906250
6752		-5.859375
6753		-1.953125
6754		-3.906250
6755		0.000000
6756		-1.953125
6757		1.953125
6758		0.000000
6759		3.906250
6760		0.000000
6761		7.812500
6762		1.953125
6763		7.812500
6764		5.859375
6765		9.765625
6766		7.812500
6767		11.718750
6768		9.765625
6769		13.671875
6770		11.718750
6771		15.625000
6772		13.671875
6773		17.578125
6774		15.625000
6775		19.531250
6776		15.625000
6777		23.437500
6778		17.578125
6779		23.437500
6780		21.484375
6781		25.390625
6782		23.437500
6783		27.343750
6784		25.390625
6785		29.296875
6786		27.343750
6787		31.250000
6788		29.296875
6789		33.203125
6790		29.296875
6791		33.203125
6792		31.250000
6793		37.109375
6794		31.250000
6795		39.062500
6796		33.203125
6797		39.062500
6798		37.109375
6799		39.062500
6800		39.062500
6801		41.015625
6802		39.062500
6803		42.968750
6804		41.015625
6805		42.968750
6806		41.015625
6807		44.921875
6808		42.968750
6809		46.875000
6810		42.968750
6811		48.828125
6812		42.968750
6813		48.828125
6814		46.875000
6815		48.828125
6816		46.875000
6817		48.828125
6818		46.875000
6819		50.781250
6820		48.828125
6821		50.781250
6822		48.828125
6823		50.781250
6824		48.828125
6825		52.734375
6826		48.828125
6827		54.687500
6828		48.828125
6829		54.687500
6830		50.781250
6831		52.734375
6832		48.828125
6833		52.734375
6834		50.781250
6835		52.734375
6836		48.828125
6837		52.734375
6838		48.828125
6839		52.734375
6840		48.828125
6841		50.781250
6842		48.828125
6843		50.781250
6844		46.875000
6845		52.734375
6846		46.875000
6847		52.734375
6848		46.875000
6849		48.828125
6850		46.875000
6851		48.828125
6852		44.921875
6853		48.828125
6854		44.921875
6855		46.875000
6856		42.968750
6857		46.875000
6858		42.968750
6859		44.921875
6860		41.015625
6861		46.875000
6862		39.062500
6863		44.921875
6864		39.062500
6865		41.015625
6866		37.109375
6867		41.015625
6868		35.156250
6869		39.062500
6870		35.156250
6871		37.109375
6872		33.203125
6873		35.156250
6874		31.250000
6875		35.156250
6876		29.296875
6877		33.203125
6878		27.343750
6879		31.250000
6880		25.390625
6881		29.296875
6882		23.437500
6883		27.343750
6884		21.484375
6885		25.390625
6886		19.531250
6887		23.437500
6888		17.578125
6889		21.484375
6890		15.625000
6891		19.531250
6892		13.671875
6893		17.578125
6894		11.718750
6895		17.578125
6896		9.765625
6897		13.671875
6898		7.812500
6899		11.718750
6900		5.859375
6901		9.765625
6902		3.906250
6903		7.812500
6904		1.953125
6905		5.859375
6906		0.000000
6907		3.906250
6908		-1.953125
6909		1.953125
6910		-3.906250
6911		0.000000
6912		-5.859375
6913		-1.953125
6914		-7.812500
6915		-3.906250
6916		-9.765625
6917		-5.859375
6918		-9.765625
6919		-7.812500
6920		-11.718750
6921		-9.765625
6922		-13.671875
6923		-9.765625
6924		-15.625000
6925		-11.718750
6926		-17.578125
6927		-13.671875
6928		-17.578125
6929		-15.625000
6930		-19.531250
6931		-17.578125
6932		-21.484375
6933		-17.578125
6934		-21.484375
6935		-19.531250
6936		-23.437500
6937		-21.484375
6938		-25.390625
6939		-21.484375
6940		-25.390625
6941		-23.437500
6942		-27.343750
6943		-23.437500
6944		-27.343750
6945		-25.390625
6946		-27.343750
6947		-25.390625
6948		-29.296875
6949		-25.390625
6950		-29.296875
6951		-25.390625
6952		-29.296875
6953		-27.343750
6954		-29.296875
6955		-27.343750
6956		-29.296875
6957		-27.343750
6958		-29.296875
6959		-27.343750
6960		-29.296875
6961		-27.343750
6962		-29.296875
6963		-27.343750
6964		-29.296875
6965		-27.343750
6966		-29.296875
6967		-27.343750
6968		-29.296875
6969		-25.390625
6970		-27.343750
6971		-25.390625
6972		-27.343750
6973		-25.390625
6974		-27.343750
6975		-23.437500
6976		-25.390625
6977		-23.437500
6978		-25.390625
6979		-23.437500
6980		-25.390625
6981		-21.484375
6982		-23.437500
6983		-21.484375
6984		-21.484375
6985		-19.531250
6986		-21.484375
6987		-17.578125
6988		-19.531250
6989		-15.625000
6990		-17.578125
6991		-15.625000
6992		-17.578125
6993		-13.671875
6994		-15.625000
6995		-11.718750
6996		-13.671875
6997		-9.765625
6998		-11.718750
6999		-7.812500
7000		-9.765625
7001		-7.812500
7002		-7.812500
7003		-5.859375
7004		-5.859375
7005		-3.906250
7006		-5.859375
7007		-1.953125
7008		-3.906250
7009		0.000000
7010		-1.953125
7011		1.953125
7012		0.000000
7013		3.906250
7014		1.953125
7015		5.859375
7016		3.906250
7017		7.812500
7018		5.859375
7019		9.765625
7020		7.812500
7021		11.718750
7022		9.765625
7023		13.671875
7024		13.671875
7025		15.625000
7026		13.671875
7027		17.578125
7028		17.578125
7029		19.531250
7030		17.578125
7031		21.484375
7032		19.531250
7033		23.437500
7034		21.484375
7035		25.390625
7036		23.437500
7037		27.343750
7038		25.390625
7039		29.296875
7040		27.343750
7041		31.250000
7042		29.296875
7043		33.203125
7044		31.250000
7045		35.156250
7046		33.203125
7047		37.109375
7048		35.156250
7049		37.109375
7050		35.156250
7051		39.062500
7052		37.109375
7053		41.015625
7054		39.062500
7055		41.015625
7056		41.015625
7057		42.968750
7058		41.015625
7059		44.921875
7060		42.968750
7061		44.921875
7062		42.968750
7063		46.875000
7064		44.921875
7065		46.875000
7066		44.921875
7067		48.828125
7068		46.875000
7069		48.828125
7070		46.875000
7071		48.828125
7072		48.828125
7073		50.781250
7074		48.828125
7075		50.781250
7076		48.828125
7077		50.781250
7078		48.828125
7079		52.734375
7080		48.828125
7081		52.734375
7082		48.828125
7083		52.734375
7084		50.781250
7085		52.734375
7086		50.781250
7087		52.734375
7088		48.828125
7089		52.734375
7090		48.828125
7091		52.734375
7092		48.828125
7093		52.734375
7094		48.828125
7095		52.734375
7096		48.828125
7097		50.781250
7098		48.828125
7099		50.781250
7100		46.875000
7101		50.781250
7102		46.875000
7103		48.828125
7104		46.875000
7105		48.828125
7106		44.921875
7107		46.875000
7108		44.921875
7109		46.875000
7110		42.968750
7111		44.921875
7112		41.015625
7113		44.921875
7114		41.015625
7115		42.968750
7116		39.062500
7117		42.968750
7118		37.109375
7119		41.015625
7120		37.109375
7121		39.062500
7122		35.156250
7123		39.062500
7124		33.203125
7125		37.109375
7126		31.250000
7127		35.156250
7128		29.296875
7129		33.203125
7130		29.296875
7131		31.250000
7132		27.343750
7133		29.296875
7134		25.390625
7135		29.296875
7136		23.437500
7137		27.343750
7138		21.484375
7139		25.390625
7140		19.531250
7141		21.484375
7142		17.578125
7143		21.484375
7144		15.625000
7145		19.531250
7146		13.671875
7147		15.625000
7148		11.718750
7149		15.625000
7150		9.765625
7151		11.718750
7152		7.812500
7153		11.718750
7154		5.859375
7155		9.765625
7156		3.906250
7157		5.859375
7158		1.953125
7159		5.859375
7160		0.000000
7161		1.953125
7162		-3.906250
7163		0.000000
7164		-3.906250
7165		-1.953125
7166		-5.859375
7167		-3.906250
7168		-7.812500
7169		-3.906250
7170		-9.765625
7171		-5.859375
7172		-11.718750
7173		-7.812500
7174		-13.671875
7175		-9.765625
7176		-15.625000
7177		-11.718750
7178		-15.625000
7179		-13.671875
7180		-17.578125
7181		-15.625000
7182		-19.531250
7183		-15.625000
7184		-21.484375
7185		-17.578125
7186		-21.484375
7187		-19.531250
7188		-23.437500
7189		-19.531250
7190		-23.437500
7191		-21.484375
7192		-25.390625
7193		-23.437500
7194		-25.390625
7195		-23.437500
7196		-27.343750
7197		-23.437500
7198		-27.343750
7199		-25.390625
7200		-27.343750
7201		-25.390625
7202		-29.296875
7203		-25.390625
7204		-29.296875
7205		-27.343750
7206		-29.296875
7207		-27.343750
7208		-29.296875
7209		-27.343750
7210		-29.296875
7211		-27.343750
7212		-29.296875
7213		-27.343750
7214		-29.296875
7215		-27.343750
7216		-29.296875
7217		-27.343750
7218		-29.296875
7219		-27.343750
7220		-29.296875
7221		-27.343750
7222		-29.296875
7223		-25.390625
7224		-27.343750
7225		-25.390625
7226		-27.343750
7227		-25.390625
7228		-27.343750
7229		-23.437500
7230		-25.390625
7231		-23.437500
7232		-25.390625
7233		-21.484375
7234		-23.437500
7235		-21.484375
7236		-23.437500
7237		-19.531250
7238		-21.484375
7239		-17.578125
7240		-19.531250
7241		-17.578125
7242		-19.531250
7243		-15.625000
7244		-17.578125
7245		-13.671875
7246		-15.625000
7247		-13.671875
7248		-15.625000
7249		-11.718750
7250		-13.671875
7251		-9.765625
7252		-11.718750
7253		-7.812500
7254		-9.765625
7255		-5.859375
7256		-7.812500
7257		-3.906250
7258		-5.859375
7259		-1.953125
7260		-3.906250
7261		0.000000
7262		-1.953125
7263		1.953125
7264		0.000000
7265		3.906250
7266		1.953125
7267		5.859375
7268		3.906250
7269		7.812500
7270		5.859375
7271		9.765625
7272		7.812500
7273		11.718750
7274		9.765625
7275		13.671875
7276		11.718750
7277		15.625000
7278		13.671875
7279		17.578125
7280		15.625000
7281		19.531250
7282		17.578125
7283		21.484375
7284		19.531250
7285		23.437500
7286		21.484375
7287		25.390625
7288		23.437500
7289		27.343750
7290		25.390625
7291		29.296875
7292		27.343750
7293		31.250000
7294		29.296875
7295		31.250000
7296		29.296875
7297		33.203125
7298		31.250000
7299		35.156250
7300		33.203125
7301		37.109375
7302		35.156250
7303		39.062500
7304		37.109375
7305		39.062500
7306		37.109375
7307		41.015625
7308		39.062500
7309		42.968750
7310		41.015625
7311		42.968750
7312		41.015625
7313		44.921875
7314		42.968750
7315		46.875000
7316		42.968750
7317		46.875000
7318		44.921875
7319		46.875000
7320		46.875000
7321		48.828125
7322		46.875000
7323		48.828125
7324		46.875000
7325		50.781250
7326		48.828125
7327		50.781250
7328		48.828125
7329		50.781250
7330		48.828125
7331		50.781250
7332		48.828125
7333		50.781250
7334		48.828125
7335		52.734375
7336		48.828125
7337		52.734375
7338		48.828125
7339		52.734375
7340		50.781250
7341		52.734375
7342		48.828125
7343		52.734375
7344		48.828125
7345		52.734375
7346		48.828125
7347		50.781250
7348		48.828125
7349		50.781250
7350		48.828125
7351		50.781250
7352		48.828125
7353		50.781250
7354		46.875000
7355		48.828125
7356		44.921875
7357		48.828125
7358		44.921875
7359		48.828125
7360		44.921875
7361		46.875000
7362		42.968750
7363		46.875000
7364		42.968750
7365		44.921875
7366		41.015625
7367		44.921875
7368		39.062500
7369		42.968750
7370		39.062500
7371		41.015625
7372		37.109375
7373		39.062500
7374		35.156250
7375		39.062500
7376		33.203125
7377		37.109375
7378		33.203125
7379		35.156250
7380		31.250000
7381		33.203125
7382		29.296875
7383		33.203125
7384		27.343750
7385		31.250000
7386		25.390625
7387		29.296875
7388		23.437500
7389		27.343750
7390		21.484375
7391		25.390625
7392		19.531250
7393		23.437500
7394		17.578125
7395		21.484375
7396		15.625000
7397		19.531250
7398		13.671875
7399		17.578125
7400		11.718750
7401		15.625000
7402		9.765625
7403		13.671875
7404		7.812500
7405		11.718750
7406		5.859375
7407		9.765625
7408		3.906250
7409		7.812500
7410		1.953125
7411		5.859375
7412		0.000000
7413		3.906250
7414		-1.953125
7415		1.953125
7416		-3.906250
7417		0.000000
7418		-5.859375
7419		-1.953125
7420		-7.812500
7421		-3.906250
7422		-9.765625
7423		-5.859375
7424		-11.718750
7425		-7.812500
7426		-11.718750
7427		-9.765625
7428		-13.671875
7429		-11.718750
7430		-15.625000
7431		-11.718750
7432		-17.578125
7433		-13.671875
7434		-19.531250
7435		-15.625000
7436		-19.531250
7437		-17.578125
7438		-21.484375
7439		-17.578125
7440		-23.437500
7441		-19.531250
7442		-23.437500
7443		-21.484375
7444		-25.390625
7445		-21.484375
7446		-25.390625
7447		-23.437500
7448		-27.343750
7449		-23.437500
7450		-27.343750
7451		-25.390625
7452		-27.343750
7453		-25.390625
7454		-29.296875
7455		-25.390625
7456		-29.296875
7457		-27.343750
7458		-29.296875
7459		-27.343750
7460		-29.296875
7461		-27.343750
7462		-29.296875
7463		-27.343750
7464		-29.296875
7465		-27.343750
7466		-31.250000
7467		-27.343750
7468		-29.296875
7469		-27.343750
7470		-29.296875
7471		-27.343750
7472		-29.296875
7473		-27.343750
7474		-29.296875
7475		-27.343750
7476		-27.343750
7477		-25.390625
7478		-27.343750
7479		-25.390625
7480		-27.343750
7481		-23.437500
7482		-27.343750
7483		-23.437500
7484		-25.390625
7485		-23.437500
7486		-25.390625
7487		-21.484375
7488		-23.437500
7489		-21.484375
7490		-23.437500
7491		-19.531250
7492		-21.484375
7493		-17.578125
7494		-19.531250
7495		-17.578125
7496		-17.578125
7497		-15.625000
7498		-17.578125
7499		-13.671875
7500		-15.625000
7501		-11.718750
7502		-13.671875
7503		-9.765625
7504		-11.718750
7505		-7.812500
7506		-9.765625
7507		-7.812500
7508		-7.812500
7509		-5.859375
7510		-7.812500
7511		-3.906250
7512		-5.859375
7513		-1.953125
7514		-3.906250
7515		0.000000
7516		-1.953125
7517		1.953125
7518		0.000000
7519		3.906250
7520		1.953125
7521		5.859375
7522		3.906250
7523		7.812500
7524		5.859375
7525		9.765625
7526		7.812500
7527		11.718750
7528		9.765625
7529		13.671875
7530		11.718750
7531		15.625000
7532		13.671875
7533		17.578125
7534		15.625000
7535		19.531250
7536		17.578125
7537		21.484375
7538		21.484375
7539		23.437500
7540		21.484375
7541		25.390625
7542		23.437500
7543		27.343750
7544		25.390625
7545		29.296875
7546		27.343750
7547		31.250000
7548		29.296875
7549		33.203125
7550		31.250000
7551		35.156250
7552		33.203125
7553		37.109375
7554		35.156250
7555		37.109375
7556		35.156250
7557		39.062500
7558		37.109375
7559		41.015625
7560		39.062500
7561		41.015625
7562		41.015625
7563		42.968750
7564		41.015625
7565		44.921875
7566		42.968750
7567		44.921875
7568		42.968750
7569		46.875000
7570		44.921875
7571		46.875000
7572		44.921875
7573		48.828125
7574		46.875000
7575		48.828125
7576		46.875000
7577		48.828125
7578		46.875000
7579		50.781250
7580		48.828125
7581		50.781250
7582		48.828125
7583		50.781250
7584		48.828125
7585		50.781250
7586		48.828125
7587		50.781250
7588		48.828125
7589		52.734375
7590		48.828125
7591		52.734375
7592		48.828125
7593		52.734375
7594		48.828125
7595		52.734375
7596		48.828125
7597		52.734375
7598		48.828125
7599		50.781250
7600		48.828125
7601		50.781250
7602		48.828125
7603		50.781250
7604		48.828125
7605		50.781250
7606		46.875000
7607		50.781250
7608		46.875000
7609		48.828125
7610		44.921875
7611		48.828125
7612		44.921875
7613		46.875000
7614		42.968750
7615		46.875000
7616		42.968750
7617		44.921875
7618		41.015625
7619		44.921875
7620		39.062500
7621		42.968750
7622		39.062500
7623		42.968750
7624		37.109375
7625		41.015625
7626		37.109375
7627		39.062500
7628		35.156250
7629		37.109375
7630		33.203125
7631		37.109375
7632		31.250000
7633		35.156250
7634		29.296875
7635		33.203125
7636		27.343750
7637		31.250000
7638		25.390625
7639		29.296875
7640		23.437500
7641		27.343750
7642		21.484375
7643		25.390625
7644		21.484375
7645		23.437500
7646		17.578125
7647		23.437500
7648		17.578125
7649		19.531250
7650		15.625000
7651		17.578125
7652		13.671875
7653		15.625000
7654		9.765625
7655		13.671875
7656		7.812500
7657		11.718750
7658		7.812500
7659		9.765625
7660		3.906250
7661		7.812500
7662		1.953125
7663		5.859375
7664		0.000000
7665		3.906250
7666		-1.953125
7667		1.953125
7668		-1.953125
7669		0.000000
7670		-3.906250
7671		-1.953125
7672		-5.859375
7673		-3.906250
7674		-7.812500
7675		-5.859375
7676		-11.718750
7677		-5.859375
7678		-11.718750
7679		-7.812500
7680		-13.671875
7681		-9.765625
7682		-15.625000
7683		-11.718750
7684		-17.578125
7685		-13.671875
7686		-17.578125
7687		-15.625000
7688		-19.531250
7689		-17.578125
7690		-21.484375
7691		-17.578125
7692		-21.484375
7693		-19.531250
7694		-23.437500
7695		-21.484375
7696		-23.437500
7697		-21.484375
7698		-25.390625
7699		-23.437500
7700		-27.343750
7701		-23.437500
7702		-27.343750
7703		-25.390625
7704		-27.343750
7705		-25.390625
7706		-29.296875
7707		-25.390625
7708		-29.296875
7709		-27.343750
7710		-29.296875
7711		-27.343750
7712		-29.296875
7713		-27.343750
7714		-29.296875
7715		-27.343750
7716		-31.250000
7717		-27.343750
7718		-29.296875
7719		-27.343750
7720		-29.296875
7721		-27.343750
7722		-31.250000
7723		-25.390625
7724		-29.296875
7725		-27.343750
7726		-31.250000
7727		-25.390625
7728		-29.296875
7729		-27.343750
7730		-29.296875
7731		-25.390625
7732		-27.343750
7733		-25.390625
7734		-27.343750
7735		-23.437500
7736		-25.390625
7737		-23.437500
7738		-27.343750
7739		-21.484375
7740		-23.437500
7741		-21.484375
7742		-23.437500
7743		-17.578125
7744		-21.484375
7745		-19.531250
7746		-21.484375
7747		-15.625000
7748		-19.531250
7749		-15.625000
7750		-17.578125
7751		-15.625000
7752		-17.578125
7753		-13.671875
7754		-15.625000
7755		-9.765625
7756		-13.671875
7757		-9.765625
7758		-11.718750
7759		-7.812500
7760		-11.718750
7761		-5.859375
7762		-9.765625
7763		-1.953125
7764		-5.859375
7765		-1.953125
7766		-3.906250
7767		0.000000
7768		-3.906250
7769		1.953125
7770		-1.953125
7771		1.953125
7772		0.000000
7773		5.859375
7774		1.953125
7775		7.812500
7776		3.906250
7777		9.765625
7778		5.859375
7779		11.718750
7780		5.859375
7781		15.625000
7782		11.718750
7783		15.625000
7784		13.671875
7785		17.578125
7786		13.671875
7787		21.484375
7788		15.625000
7789		23.437500
7790		17.578125
7791		23.437500
7792		21.484375
7793		25.390625
7794		21.484375
7795		27.343750
7796		23.437500
7797		31.250000
7798		25.390625
7799		29.296875
7800		27.343750
7801		31.250000
7802		29.296875
7803		35.156250
7804		29.296875
7805		37.109375
7806		33.203125
7807		37.109375
7808		35.156250
7809		39.062500
7810		33.203125
7811		42.968750
7812		37.109375
7813		41.015625
7814		35.156250
7815		42.968750
7816		41.015625
7817		42.968750
7818		41.015625
7819		44.921875
7820		41.015625
7821		48.828125
7822		42.968750
7823		48.828125
7824		44.921875
7825		48.828125
7826		42.968750
7827		50.781250
7828		42.968750
7829		52.734375
7830		42.968750
7831		52.734375
7832		46.875000
7833		50.781250
7834		48.828125
7835		50.781250
7836		46.875000
7837		52.734375
7838		46.875000
7839		54.687500
7840		48.828125
7841		52.734375
7842		48.828125
7843		52.734375
7844		46.875000
7845		56.640625
7846		46.875000
7847		54.687500
7848		48.828125
7849		52.734375
7850		48.828125
7851		52.734375
7852		48.828125
7853		52.734375
7854		44.921875
7855		54.687500
7856		46.875000
7857		52.734375
7858		46.875000
7859		50.781250
7860		42.968750
7861		50.781250
7862		42.968750
7863		52.734375
7864		42.968750
7865		50.781250
7866		44.921875
7867		46.875000
7868		41.015625
7869		46.875000
7870		39.062500
7871		46.875000
7872		39.062500
7873		46.875000
7874		39.062500
7875		42.968750
7876		37.109375
7877		41.015625
7878		33.203125
7879		42.968750
7880		33.203125
7881		41.015625
7882		33.203125
7883		37.109375
7884		31.250000
7885		35.156250
7886		29.296875
7887		35.156250
7888		27.343750
7889		35.156250
7890		25.390625
7891		31.250000
7892		25.390625
7893		29.296875
7894		19.531250
7895		29.296875
7896		21.484375
7897		27.343750
7898		15.625000
7899		25.390625
7900		17.578125
7901		21.484375
7902		13.671875
7903		19.531250
7904		9.765625
7905		19.531250
7906		9.765625
7907		17.578125
7908		9.765625
7909		13.671875
7910		5.859375
7911		13.671875
7912		1.953125
7913		11.718750
7914		1.953125
7915		9.765625
7916		1.953125
7917		5.859375
7918		0.000000
7919		3.906250
7920		-3.906250
7921		1.953125
7922		-5.859375
7923		1.953125
7924		-5.859375
7925		-1.953125
7926		-7.812500
7927		-3.906250
7928		-13.671875
7929		-3.906250
7930		-13.671875
7931		-5.859375
7932		-13.671875
7933		-9.765625
7934		-15.625000
7935		-11.718750
7936		-17.578125
7937		-13.671875
7938		-21.484375
7939		-11.718750
7940		-19.531250
7941		-15.625000
7942		-21.484375
7943		-17.578125
7944		-23.437500
7945		-17.578125
7946		-25.390625
7947		-17.578125
7948		-23.437500
7949		-19.531250
7950		-25.390625
7951		-21.484375
7952		-25.390625
7953		-23.437500
7954		-29.296875
7955		-21.484375
7956		-29.296875
7957		-21.484375
7958		-29.296875
7959		-25.390625
7960		-29.296875
7961		-27.343750
7962		-33.203125
7963		-23.437500
7964		-31.250000
7965		-25.390625
7966		-29.296875
7967		-27.343750
7968		-29.296875
7969		-27.343750
7970		-31.250000
7971		-27.343750
7972		-31.250000
7973		-25.390625
7974		-33.203125
7975		-27.343750
7976		-29.296875
7977		-27.343750
7978		-33.203125
7979		-23.437500
7980		-33.203125
7981		-25.390625
7982		-31.250000
7983		-23.437500
7984		-27.343750
7985		-25.390625
7986		-27.343750
7987		-23.437500
7988		-29.296875
7989		-21.484375
7990		-25.390625
7991		-21.484375
7992		-25.390625
7993		-21.484375
7994		-23.437500
7995		-17.578125
7996		-21.484375
7997		-19.531250
7998		-23.437500
7999		-15.625000
8000		-19.531250
8001		-17.578125
8002		-19.531250
8003		-15.625000
8004		-17.578125
8005		-13.671875
8006		-17.578125
8007		-9.765625
8008		-13.671875
8009		-9.765625
8010		-11.718750
8011		-7.812500
8012		-11.718750
8013		-5.859375
8014		-9.765625
8015		-5.859375
8016		-7.812500
8017		-3.906250
8018		-5.859375
8019		-1.953125
8020		-3.906250
8021		0.000000
8022		-1.953125
8023		1.953125
8024		0.000000
8025		3.906250
8026		1.953125
8027		5.859375
8028		3.906250
8029		7.812500
8030		5.859375
8031		9.765625
8032		7.812500
8033		11.718750
8034		9.765625
8035		13.671875
8036		11.718750
8037		17.578125
8038		13.671875
8039		17.578125
8040		15.625000
8041		19.531250
8042		17.578125
8043		21.484375
8044		19.531250
8045		23.437500
8046		21.484375
8047		25.390625
8048		23.437500
8049		29.296875
8050		25.390625
8051		29.296875
8052		27.343750
8053		31.250000
8054		29.296875
8055		33.203125
8056		31.250000
8057		35.156250
8058		33.203125
8059		37.109375
8060		33.203125
8061		37.109375
8062		35.156250
8063		39.062500
8064		37.109375
8065		41.015625
8066		37.109375
8067		41.015625
8068		39.062500
8069		42.968750
8070		41.015625
8071		44.921875
8072		41.015625
8073		46.875000
8074		42.968750
8075		46.875000
8076		42.968750
8077		48.828125
8078		44.921875
8079		48.828125
8080		44.921875
8081		50.781250
8082		44.921875
8083		50.781250
8084		46.875000
8085		50.781250
8086		48.828125
8087		50.781250
8088		46.875000
8089		52.734375
8090		48.828125
8091		52.734375
8092		46.875000
8093		52.734375
8094		48.828125
8095		52.734375
8096		48.828125
8097		52.734375
8098		48.828125
8099		52.734375
8100		48.828125
8101		52.734375
8102		48.828125
8103		52.734375
8104		46.875000
8105		52.734375
8106		46.875000
8107		52.734375
8108		46.875000
8109		52.734375
8110		46.875000
8111		50.781250
8112		44.921875
8113		50.781250
8114		44.921875
8115		50.781250
8116		44.921875
8117		48.828125
8118		44.921875
8119		46.875000
8120		42.968750
8121		46.875000
8122		41.015625
8123		46.875000
8124		41.015625
8125		44.921875
8126		37.109375
8127		44.921875
8128		37.109375
8129		44.921875
8130		35.156250
8131		41.015625
8132		35.156250
8133		41.015625
8134		35.156250
8135		37.109375
8136		33.203125
8137		35.156250
8138		31.250000
8139		35.156250
8140		29.296875
8141		33.203125
8142		27.343750
8143		31.250000
8144		25.390625
8145		31.250000
8146		23.437500
8147		29.296875
8148		21.484375
8149		25.390625
8150		19.531250
8151		23.437500
8152		17.578125
8153		21.484375
8154		15.625000
8155		19.531250
8156		13.671875
8157		19.531250
8158		11.718750
8159		17.578125
8160		7.812500
8161		15.625000
8162		7.812500
8163		11.718750
8164		5.859375
8165		9.765625
8166		3.906250
8167		9.765625
8168		1.953125
8169		5.859375
8170		0.000000
8171		3.906250
8172		-1.953125
8173		1.953125
8174		-3.906250
8175		0.000000
8176		-5.859375
8177		0.000000
8178		-7.812500
8179		-1.953125
8180		-9.765625
8181		-3.906250
8182		-11.718750
8183		-7.812500
8184		-11.718750
8185		-7.812500
8186		-13.671875
8187		-9.765625
8188		-15.625000
8189		-11.718750
8190		-17.578125
8191		-13.671875
8192		-19.531250
8193		-15.625000
8194		-21.484375
8195		-15.625000
8196		-21.484375
8197		-17.578125
8198		-23.437500
8199		-19.531250
8200		-25.390625
8201		-21.484375
8202		-25.390625
8203		-21.484375
8204		-25.390625
8205		-23.437500
8206		-27.343750
8207		-23.437500
8208		-27.343750
8209		-25.390625
8210		-29.296875
8211		-23.437500
8212		-31.250000
8213		-25.390625
8214		-29.296875
8215		-25.390625
8216		-29.296875
8217		-27.343750
8218		-29.296875
8219		-27.343750
8220		-31.250000
8221		-27.343750
8222		-31.250000
8223		-27.343750
8224		-31.250000
8225		-27.343750
8226		-31.250000
8227		-27.343750
8228		-33.203125
8229		-25.390625
8230		-31.250000
8231		-27.343750
8232		-29.296875
8233		-27.343750
8234		-31.250000
8235		-27.343750
8236		-29.296875
8237		-25.390625
8238		-29.296875
8239		-25.390625
8240		-27.343750
8241		-23.437500
8242		-27.343750
8243		-23.437500
8244		-25.390625
8245		-19.531250
8246		-25.390625
8247		-21.484375
8248		-23.437500
8249		-19.531250
8250		-23.437500
8251		-17.578125
8252		-21.484375
8253		-17.578125
8254		-19.531250
8255		-15.625000
8256		-17.578125
8257		-13.671875
8258		-17.578125
8259		-13.671875
8260		-15.625000
8261		-11.718750
8262		-13.671875
8263		-9.765625
8264		-11.718750
8265		-7.812500
8266		-9.765625
8267		-5.859375
8268		-9.765625
8269		-3.906250
8270		-5.859375
8271		-1.953125
8272		-3.906250
8273		0.000000
8274		-1.953125
8275		1.953125
8276		-1.953125
8277		3.906250
8278		0.000000
8279		5.859375
8280		1.953125
8281		5.859375
8282		5.859375
8283		9.765625
8284		5.859375
8285		11.718750
8286		9.765625
8287		11.718750
8288		11.718750
8289		15.625000
8290		11.718750
8291		17.578125
8292		15.625000
8293		19.531250
8294		17.578125
8295		21.484375
8296		17.578125
8297		23.437500
8298		21.484375
8299		25.390625
8300		21.484375
8301		27.343750
8302		25.390625
8303		27.343750
8304		25.390625
8305		29.296875
8306		27.343750
8307		33.203125
8308		29.296875
8309		33.203125
8310		31.250000
8311		35.156250
8312		31.250000
8313		37.109375
8314		35.156250
8315		39.062500
8316		35.156250
8317		39.062500
8318		37.109375
8319		41.015625
8320		39.062500
8321		42.968750
8322		41.015625
8323		44.921875
8324		41.015625
8325		44.921875
8326		42.968750
8327		44.921875
8328		42.968750
8329		46.875000
8330		42.968750
8331		46.875000
8332		44.921875
8333		48.828125
8334		44.921875
8335		48.828125
8336		46.875000
8337		48.828125
8338		46.875000
8339		50.781250
8340		48.828125
8341		50.781250
8342		48.828125
8343		50.781250
8344		48.828125
8345		50.781250
8346		48.828125
8347		52.734375
8348		48.828125
8349		52.734375
8350		48.828125
8351		52.734375
8352		48.828125
8353		52.734375
8354		48.828125
8355		52.734375
8356		48.828125
8357		52.734375
8358		46.875000
8359		50.781250
8360		46.875000
8361		50.781250
8362		46.875000
8363		50.781250
8364		46.875000
8365		50.781250
8366		44.921875
8367		48.828125
8368		44.921875
8369		48.828125
8370		44.921875
8371		46.875000
8372		42.968750
8373		46.875000
8374		42.968750
8375		46.875000
8376		41.015625
8377		44.921875
8378		39.062500
8379		42.968750
8380		39.062500
8381		42.968750
8382		37.109375
8383		41.015625
8384		35.156250
8385		39.062500
8386		35.156250
8387		39.062500
8388		33.203125
8389		37.109375
8390		31.250000
8391		35.156250
8392		29.296875
8393		33.203125
8394		27.343750
8395		31.250000
8396		25.390625
8397		29.296875
8398		23.437500
8399		27.343750
8400		23.437500
8401		27.343750
8402		21.484375
8403		25.390625
8404		19.531250
8405		23.437500
8406		15.625000
8407		21.484375
8408		13.671875
8409		19.531250
8410		11.718750
8411		17.578125
8412		11.718750
8413		15.625000
8414		9.765625
8415		13.671875
8416		5.859375
8417		11.718750
8418		3.906250
8419		9.765625
8420		3.906250
8421		5.859375
8422		1.953125
8423		5.859375
8424		-1.953125
8425		3.906250
8426		-3.906250
8427		0.000000
8428		-5.859375
8429		0.000000
8430		-5.859375
8431		-3.906250
8432		-7.812500
8433		-3.906250
8434		-11.718750
8435		-5.859375
8436		-11.718750
8437		-7.812500
8438		-13.671875
8439		-9.765625
8440		-15.625000
8441		-11.718750
8442		-17.578125
8443		-13.671875
8444		-17.578125
8445		-13.671875
8446		-19.531250
8447		-15.625000
8448		-21.484375
8449		-17.578125
8450		-21.484375
8451		-19.531250
8452		-25.390625
8453		-19.531250
8454		-25.390625
8455		-21.484375
8456		-25.390625
8457		-23.437500
8458		-27.343750
8459		-23.437500
8460		-27.343750
8461		-23.437500
8462		-29.296875
8463		-25.390625
8464		-29.296875
8465		-25.390625
8466		-29.296875
8467		-25.390625
8468		-31.250000
8469		-27.343750
8470		-31.250000
8471		-27.343750
8472		-31.250000
8473		-27.343750
8474		-31.250000
8475		-27.343750
8476		-31.250000
8477		-27.343750
8478		-31.250000
8479		-27.343750
8480		-31.250000
8481		-27.343750
8482		-31.250000
8483		-27.343750
8484		-29.296875
8485		-27.343750
8486		-29.296875
8487		-27.343750
8488		-29.296875
8489		-27.343750
8490		-29.296875
8491		-25.390625
8492		-29.296875
8493		-23.437500
8494		-27.343750
8495		-23.437500
8496		-27.343750
8497		-23.437500
8498		-25.390625
8499		-21.484375
8500		-25.390625
8501		-21.484375
8502		-23.437500
8503		-19.531250
8504		-21.484375
8505		-19.531250
8506		-19.531250
8507		-17.578125
8508		-19.531250
8509		-13.671875
8510		-17.578125
8511		-13.671875
8512		-15.625000
8513		-11.718750
8514		-13.671875
8515		-11.718750
8516		-13.671875
8517		-9.765625
8518		-11.718750
8519		-7.812500
8520		-9.765625
8521		-5.859375
8522		-7.812500
8523		-3.906250
8524		-5.859375
8525		-1.953125
8526		-3.906250
8527		0.000000
8528		-1.953125
8529		1.953125
8530		0.000000
8531		3.906250
8532		1.953125
8533		5.859375
8534		3.906250
8535		7.812500
8536		5.859375
8537		9.765625
8538		7.812500
8539		11.718750
8540		9.765625
8541		13.671875
8542		11.718750
8543		15.625000
8544		13.671875
8545		17.578125
8546		15.625000
8547		19.531250
8548		17.578125
8549		21.484375
8550		19.531250
8551		23.437500
8552		21.484375
8553		25.390625
8554		23.437500
8555		27.343750
8556		25.390625
8557		29.296875
8558		27.343750
8559		31.250000
8560		29.296875
8561		33.203125
8562		31.250000
8563		33.203125
8564		31.250000
8565		37.109375
8566		33.203125
8567		37.109375
8568		35.156250
8569		39.062500
8570		37.109375
8571		41.015625
8572		37.109375
8573		41.015625
8574		39.062500
8575		42.968750
8576		41.015625
8577		44.921875
8578		41.015625
8579		44.921875
8580		42.968750
8581		46.875000
8582		42.968750
8583		46.875000
8584		44.921875
8585		48.828125
8586		44.921875
8587		50.781250
8588		46.875000
8589		48.828125
8590		46.875000
8591		48.828125
8592		46.875000
8593		50.781250
8594		46.875000
8595		50.781250
8596		46.875000
8597		50.781250
8598		48.828125
8599		50.781250
8600		48.828125
8601		52.734375
8602		48.828125
8603		52.734375
8604		48.828125
8605		52.734375
8606		48.828125
8607		50.781250
8608		48.828125
8609		52.734375
8610		48.828125
8611		50.781250
8612		46.875000
8613		50.781250
8614		48.828125
8615		50.781250
8616		46.875000
8617		50.781250
8618		46.875000
8619		48.828125
8620		44.921875
8621		48.828125
8622		44.921875
8623		46.875000
8624		44.921875
8625		46.875000
8626		42.968750
8627		46.875000
8628		41.015625
8629		44.921875
8630		39.062500
8631		42.968750
8632		39.062500
8633		42.968750
8634		37.109375
8635		41.015625
8636		37.109375
8637		41.015625
8638		35.156250
8639		39.062500
8640		33.203125
8641		37.109375
8642		31.250000
8643		35.156250
8644		29.296875
8645		33.203125
8646		29.296875
8647		33.203125
8648		27.343750
8649		31.250000
8650		25.390625
8651		29.296875
8652		23.437500
8653		27.343750
8654		21.484375
8655		25.390625
8656		19.531250
8657		23.437500
8658		15.625000
8659		21.484375
8660		15.625000
8661		19.531250
8662		13.671875
8663		17.578125
8664		11.718750
8665		15.625000
8666		9.765625
8667		13.671875
8668		7.812500
8669		11.718750
8670		3.906250
8671		9.765625
8672		3.906250
8673		7.812500
8674		1.953125
8675		5.859375
8676		0.000000
8677		3.906250
8678		-1.953125
8679		1.953125
8680		-3.906250
8681		0.000000
8682		-5.859375
8683		-1.953125
8684		-7.812500
8685		-3.906250
8686		-9.765625
8687		-5.859375
8688		-11.718750
8689		-7.812500
8690		-13.671875
8691		-9.765625
8692		-15.625000
8693		-11.718750
8694		-17.578125
8695		-11.718750
8696		-19.531250
8697		-13.671875
8698		-19.531250
8699		-15.625000
8700		-21.484375
8701		-17.578125
8702		-21.484375
8703		-19.531250
8704		-23.437500
8705		-19.531250
8706		-23.437500
8707		-21.484375
8708		-25.390625
8709		-21.484375
8710		-27.343750
8711		-23.437500
8712		-27.343750
8713		-23.437500
8714		-27.343750
8715		-25.390625
8716		-29.296875
8717		-25.390625
8718		-29.296875
8719		-25.390625
8720		-29.296875
8721		-27.343750
8722		-31.250000
8723		-27.343750
8724		-31.250000
8725		-27.343750
8726		-31.250000
8727		-27.343750
8728		-31.250000
8729		-27.343750
8730		-31.250000
8731		-27.343750
8732		-31.250000
8733		-27.343750
8734		-31.250000
8735		-27.343750
8736		-31.250000
8737		-27.343750
8738		-31.250000
8739		-27.343750
8740		-29.296875
8741		-27.343750
8742		-29.296875
8743		-25.390625
8744		-29.296875
8745		-25.390625
8746		-27.343750
8747		-25.390625
8748		-27.343750
8749		-23.437500
8750		-25.390625
8751		-21.484375
8752		-25.390625
8753		-21.484375
8754		-23.437500
8755		-19.531250
8756		-23.437500
8757		-19.531250
8758		-21.484375
8759		-17.578125
8760		-19.531250
8761		-15.625000
8762		-19.531250
8763		-13.671875
8764		-17.578125
8765		-13.671875
8766		-15.625000
8767		-11.718750
8768		-13.671875
8769		-9.765625
8770		-11.718750
8771		-7.812500
8772		-9.765625
8773		-5.859375
8774		-7.812500
8775		-3.906250
8776		-5.859375
8777		-1.953125
8778		-5.859375
8779		0.000000
8780		-3.906250
8781		1.953125
8782		0.000000
8783		3.906250
8784		1.953125
8785		5.859375
8786		3.906250
8787		7.812500
8788		3.906250
8789		9.765625
8790		5.859375
8791		9.765625
8792		9.765625
8793		11.718750
8794		9.765625
8795		13.671875
8796		13.671875
8797		17.578125
8798		13.671875
8799		19.531250
8800		17.578125
8801		21.484375
8802		19.531250
8803		23.437500
8804		21.484375
8805		25.390625
8806		21.484375
8807		25.390625
8808		25.390625
8809		27.343750
8810		25.390625
8811		31.250000
8812		27.343750
8813		31.250000
8814		29.296875
8815		33.203125
8816		31.250000
8817		35.156250
8818		33.203125
8819		37.109375
8820		35.156250
8821		37.109375
8822		35.156250
8823		41.015625
8824		37.109375
8825		41.015625
8826		39.062500
8827		41.015625
8828		39.062500
8829		42.968750
8830		41.015625
8831		44.921875
8832		41.015625
8833		46.875000
8834		42.968750
8835		46.875000
8836		44.921875
8837		46.875000
8838		44.921875
8839		48.828125
8840		46.875000
8841		48.828125
8842		46.875000
8843		48.828125
8844		46.875000
8845		50.781250
8846		46.875000
8847		50.781250
8848		48.828125
8849		50.781250
8850		48.828125
8851		50.781250
8852		48.828125
8853		50.781250
8854		48.828125
8855		52.734375
8856		48.828125
8857		52.734375
8858		48.828125
8859		50.781250
8860		48.828125
8861		52.734375
8862		48.828125
8863		52.734375
8864		46.875000
8865		50.781250
8866		46.875000
8867		50.781250
8868		46.875000
8869		50.781250
8870		46.875000
8871		48.828125
8872		44.921875
8873		48.828125
8874		44.921875
8875		48.828125
8876		44.921875
8877		46.875000
8878		42.968750
8879		46.875000
8880		42.968750
8881		44.921875
8882		41.015625
8883		44.921875
8884		39.062500
8885		42.968750
8886		39.062500
8887		41.015625
8888		37.109375
8889		41.015625
8890		35.156250
8891		39.062500
8892		35.156250
8893		37.109375
8894		33.203125
8895		37.109375
8896		31.250000
8897		35.156250
8898		29.296875
8899		33.203125
8900		27.343750
8901		31.250000
8902		25.390625
8903		31.250000
8904		23.437500
8905		27.343750
8906		21.484375
8907		25.390625
8908		21.484375
8909		23.437500
8910		19.531250
8911		23.437500
8912		17.578125
8913		21.484375
8914		15.625000
8915		17.578125
8916		11.718750
8917		15.625000
8918		11.718750
8919		13.671875
8920		9.765625
8921		11.718750
8922		5.859375
8923		11.718750
8924		5.859375
8925		9.765625
8926		1.953125
8927		5.859375
8928		0.000000
8929		5.859375
8930		-1.953125
8931		3.906250
8932		-1.953125
8933		0.000000
8934		-3.906250
8935		0.000000
8936		-7.812500
8937		-3.906250
8938		-7.812500
8939		-5.859375
8940		-9.765625
8941		-5.859375
8942		-11.718750
8943		-7.812500
8944		-13.671875
8945		-9.765625
8946		-15.625000
8947		-11.718750
8948		-17.578125
8949		-13.671875
8950		-17.578125
8951		-15.625000
8952		-19.531250
8953		-15.625000
8954		-21.484375
8955		-17.578125
8956		-23.437500
8957		-19.531250
8958		-23.437500
8959		-21.484375
8960		-25.390625
8961		-21.484375
8962		-27.343750
8963		-23.437500
8964		-27.343750
8965		-23.437500
8966		-27.343750
8967		-23.437500
8968		-29.296875
8969		-25.390625
8970		-29.296875
8971		-25.390625
8972		-29.296875
8973		-25.390625
8974		-31.250000
8975		-27.343750
8976		-31.250000
8977		-27.343750
8978		-31.250000
8979		-27.343750
8980		-31.250000
8981		-27.343750
8982		-31.250000
8983		-27.343750
8984		-31.250000
8985		-27.343750
8986		-31.250000
8987		-27.343750
8988		-31.250000
8989		-27.343750
8990		-31.250000
8991		-27.343750
8992		-29.296875
8993		-27.343750
8994		-29.296875
8995		-27.343750
8996		-29.296875
8997		-25.390625
8998		-29.296875
8999		-25.390625
9000		-27.343750
9001		-23.437500
9002		-25.390625
9003		-23.437500
9004		-25.390625
9005		-21.484375
9006		-23.437500
9007		-21.484375
9008		-23.437500
9009		-19.531250
9010		-21.484375
9011		-17.578125
9012		-21.484375
9013		-17.578125
9014		-19.531250
9015		-15.625000
9016		-17.578125
9017		-13.671875
9018		-15.625000
9019		-11.718750
9020		-13.671875
9021		-11.718750
9022		-13.671875
9023		-7.812500
9024		-11.718750
9025		-7.812500
9026		-9.765625
9027		-5.859375
9028		-7.812500
9029		-3.906250
9030		-5.859375
9031		-1.953125
9032		-3.906250
9033		0.000000
9034		-1.953125
9035		1.953125
9036		0.000000
9037		3.906250
9038		1.953125
9039		5.859375
9040		3.906250
9041		7.812500
9042		5.859375
9043		9.765625
9044		7.812500
9045		11.718750
9046		9.765625
9047		13.671875
9048		11.718750
9049		15.625000
9050		13.671875
9051		17.578125
9052		15.625000
9053		19.531250
9054		17.578125
9055		21.484375
9056		19.531250
9057		23.437500
9058		21.484375
9059		25.390625
9060		23.437500
9061		27.343750
9062		25.390625
9063		29.296875
9064		27.343750
9065		31.250000
9066		29.296875
9067		33.203125
9068		31.250000
9069		35.156250
9070		31.250000
9071		35.156250
9072		33.203125
9073		37.109375
9074		35.156250
9075		39.062500
9076		37.109375
9077		41.015625
9078		39.062500
9079		41.015625
9080		39.062500
9081		42.968750
9082		41.015625
9083		44.921875
9084		41.015625
9085		44.921875
9086		42.968750
9087		46.875000
9088		42.968750
9089		46.875000
9090		44.921875
9091		48.828125
9092		44.921875
9093		48.828125
9094		46.875000
9095		48.828125
9096		46.875000
9097		50.781250
9098		46.875000
9099		50.781250
9100		46.875000
9101		50.781250
9102		48.828125
9103		50.781250
9104		48.828125
9105		50.781250
9106		48.828125
9107		52.734375
9108		48.828125
9109		52.734375
9110		48.828125
9111		52.734375
9112		48.828125
9113		52.734375
9114		48.828125
9115		52.734375
9116		48.828125
9117		50.781250
9118		48.828125
9119		50.781250
9120		46.875000
9121		50.781250
9122		46.875000
9123		50.781250
9124		46.875000
9125		48.828125
9126		44.921875
9127		48.828125
9128		44.921875
9129		46.875000
9130		42.968750
9131		46.875000
9132		41.015625
9133		46.875000
9134		41.015625
9135		44.921875
9136		41.015625
9137		42.968750
9138		39.062500
9139		42.968750
9140		37.109375
9141		41.015625
9142		37.109375
9143		41.015625
9144		35.156250
9145		39.062500
9146		33.203125
9147		37.109375
9148		31.250000
9149		35.156250
9150		29.296875
9151		35.156250
9152		29.296875
9153		33.203125
9154		27.343750
9155		31.250000
9156		25.390625
9157		29.296875
9158		23.437500
9159		27.343750
9160		21.484375
9161		25.390625
9162		19.531250
9163		23.437500
9164		17.578125
9165		23.437500
9166		15.625000
9167		19.531250
9168		13.671875
9169		17.578125
9170		11.718750
9171		15.625000
9172		9.765625
9173		13.671875
9174		7.812500
9175		11.718750
9176		5.859375
9177		11.718750
9178		3.906250
9179		7.812500
9180		0.000000
9181		5.859375
9182		0.000000
9183		3.906250
9184		-1.953125
9185		1.953125
9186		-3.906250
9187		0.000000
9188		-5.859375
9189		-1.953125
9190		-7.812500
9191		-3.906250
9192		-9.765625
9193		-5.859375
9194		-11.718750
9195		-7.812500
9196		-13.671875
9197		-9.765625
9198		-13.671875
9199		-9.765625
9200		-15.625000
9201		-11.718750
9202		-17.578125
9203		-13.671875
9204		-19.531250
9205		-15.625000
9206		-21.484375
9207		-15.625000
9208		-23.437500
9209		-17.578125
9210		-23.437500
9211		-19.531250
9212		-23.437500
9213		-21.484375
9214		-25.390625
9215		-21.484375
9216		-25.390625
9217		-23.437500
9218		-27.343750
9219		-23.437500
9220		-27.343750
9221		-25.390625
9222		-29.296875
9223		-25.390625
9224		-29.296875
9225		-25.390625
9226		-31.250000
9227		-27.343750
9228		-29.296875
9229		-27.343750
9230		-31.250000
9231		-27.343750
9232		-31.250000
9233		-27.343750
9234		-31.250000
9235		-27.343750
9236		-31.250000
9237		-27.343750
9238		-31.250000
9239		-27.343750
9240		-31.250000
9241		-27.343750
9242		-31.250000
9243		-27.343750
9244		-31.250000
9245		-27.343750
9246		-29.296875
9247		-27.343750
9248		-29.296875
9249		-25.390625
9250		-29.296875
9251		-25.390625
9252		-27.343750
9253		-23.437500
9254		-27.343750
9255		-23.437500
9256		-25.390625
9257		-21.484375
9258		-25.390625
9259		-21.484375
9260		-25.390625
9261		-19.531250
9262		-21.484375
9263		-19.531250
9264		-21.484375
9265		-17.578125
9266		-19.531250
9267		-15.625000
9268		-17.578125
9269		-13.671875
9270		-17.578125
9271		-13.671875
9272		-15.625000
9273		-11.718750
9274		-13.671875
9275		-9.765625
9276		-11.718750
9277		-7.812500
9278		-9.765625
9279		-5.859375
9280		-7.812500
9281		-3.906250
9282		-7.812500
9283		-1.953125
9284		-3.906250
9285		0.000000
9286		-1.953125
9287		1.953125
9288		-1.953125
9289		3.906250
9290		0.000000
9291		5.859375
9292		3.906250
9293		7.812500
9294		5.859375
9295		9.765625
9296		7.812500
9297		11.718750
9298		9.765625
9299		13.671875
9300		11.718750
9301		15.625000
9302		13.671875
9303		17.578125
9304		15.625000
9305		19.531250
9306		15.625000
9307		21.484375
9308		19.531250
9309		23.437500
9310		19.531250
9311		25.390625
9312		23.437500
9313		27.343750
9314		25.390625
9315		29.296875
9316		27.343750
9317		29.296875
9318		27.343750
9319		33.203125
9320		29.296875
9321		33.203125
9322		31.250000
9323		35.156250
9324		33.203125
9325		37.109375
9326		33.203125
9327		39.062500
9328		37.109375
9329		39.062500
9330		37.109375
9331		41.015625
9332		37.109375
9333		42.968750
9334		41.015625
9335		44.921875
9336		41.015625
9337		44.921875
9338		42.968750
9339		46.875000
9340		42.968750
9341		46.875000
9342		44.921875
9343		48.828125
9344		44.921875
9345		48.828125
9346		46.875000
9347		48.828125
9348		46.875000
9349		50.781250
9350		46.875000
9351		50.781250
9352		46.875000
9353		50.781250
9354		48.828125
9355		50.781250
9356		48.828125
9357		52.734375
9358		48.828125
9359		52.734375
9360		46.875000
9361		52.734375
9362		48.828125
9363		52.734375
9364		48.828125
9365		52.734375
9366		48.828125
9367		52.734375
9368		48.828125
9369		52.734375
9370		48.828125
9371		50.781250
9372		46.875000
9373		50.781250
9374		46.875000
9375		50.781250
9376		44.921875
9377		48.828125
9378		46.875000
9379		48.828125
9380		44.921875
9381		48.828125
9382		42.968750
9383		46.875000
9384		42.968750
9385		46.875000
9386		42.968750
9387		44.921875
9388		41.015625
9389		44.921875
9390		39.062500
9391		42.968750
9392		39.062500
9393		42.968750
9394		37.109375
9395		41.015625
9396		35.156250
9397		39.062500
9398		33.203125
9399		37.109375
9400		33.203125
9401		37.109375
9402		31.250000
9403		35.156250
9404		29.296875
9405		33.203125
9406		27.343750
9407		31.250000
9408		25.390625
9409		29.296875
9410		23.437500
9411		27.343750
9412		21.484375
9413		25.390625
9414		21.484375
9415		23.437500
9416		17.578125
9417		23.437500
9418		17.578125
9419		19.531250
9420		15.625000
9421		19.531250
9422		13.671875
9423		17.578125
9424		9.765625
9425		15.625000
9426		7.812500
9427		11.718750
9428		5.859375
9429		11.718750
9430		3.906250
9431		7.812500
9432		1.953125
9433		5.859375
9434		0.000000
9435		3.906250
9436		-1.953125
9437		3.906250
9438		-3.906250
9439		0.000000
9440		-3.906250
9441		-1.953125
9442		-5.859375
9443		-3.906250
9444		-9.765625
9445		-5.859375
9446		-9.765625
9447		-7.812500
9448		-11.718750
9449		-7.812500
9450		-13.671875
9451		-9.765625
9452		-15.625000
9453		-11.718750
9454		-17.578125
9455		-13.671875
9456		-17.578125
9457		-15.625000
9458		-19.531250
9459		-15.625000
9460		-21.484375
9461		-17.578125
9462		-23.437500
9463		-19.531250
9464		-23.437500
9465		-19.531250
9466		-25.390625
9467		-21.484375
9468		-25.390625
9469		-21.484375
9470		-27.343750
9471		-23.437500
9472		-27.343750
9473		-23.437500
9474		-29.296875
9475		-25.390625
9476		-29.296875
9477		-25.390625
9478		-29.296875
9479		-25.390625
9480		-29.296875
9481		-27.343750
9482		-31.250000
9483		-27.343750
9484		-31.250000
9485		-27.343750
9486		-31.250000
9487		-27.343750
9488		-31.250000
9489		-27.343750
9490		-31.250000
9491		-27.343750
9492		-31.250000
9493		-27.343750
9494		-31.250000
9495		-27.343750
9496		-29.296875
9497		-27.343750
9498		-29.296875
9499		-27.343750
9500		-29.296875
9501		-25.390625
9502		-29.296875
9503		-25.390625
9504		-27.343750
9505		-25.390625
9506		-27.343750
9507		-23.437500
9508		-25.390625
9509		-21.484375
9510		-25.390625
9511		-21.484375
9512		-25.390625
9513		-21.484375
9514		-23.437500
9515		-19.531250
9516		-21.484375
9517		-17.578125
9518		-19.531250
9519		-17.578125
9520		-19.531250
9521		-15.625000
9522		-17.578125
9523		-13.671875
9524		-15.625000
9525		-11.718750
9526		-13.671875
9527		-9.765625
9528		-13.671875
9529		-9.765625
9530		-9.765625
9531		-7.812500
9532		-9.765625
9533		-5.859375
9534		-7.812500
9535		-3.906250
9536		-5.859375
9537		-1.953125
9538		-3.906250
9539		0.000000
9540		-1.953125
9541		1.953125
9542		0.000000
9543		5.859375
9544		1.953125
9545		5.859375
9546		3.906250
9547		7.812500
9548		5.859375
9549		9.765625
9550		7.812500
9551		11.718750
9552		9.765625
9553		13.671875
9554		11.718750
9555		15.625000
9556		13.671875
9557		19.531250
9558		15.625000
9559		21.484375
9560		17.578125
9561		21.484375
9562		19.531250
9563		23.437500
9564		21.484375
9565		25.390625
9566		23.437500
9567		29.296875
9568		25.390625
9569		29.296875
9570		27.343750
9571		31.250000
9572		29.296875
9573		33.203125
9574		31.250000
9575		35.156250
9576		31.250000
9577		37.109375
9578		33.203125
9579		39.062500
9580		35.156250
9581		39.062500
9582		37.109375
9583		41.015625
9584		37.109375
9585		42.968750
9586		39.062500
9587		42.968750
9588		41.015625
9589		44.921875
9590		42.968750
9591		44.921875
9592		42.968750
9593		46.875000
9594		44.921875
9595		46.875000
9596		42.968750
9597		48.828125
9598		44.921875
9599		48.828125
9600		46.875000
9601		50.781250
9602		46.875000
9603		50.781250
9604		46.875000
9605		50.781250
9606		48.828125
9607		50.781250
9608		48.828125
9609		50.781250
9610		48.828125
9611		52.734375
9612		48.828125
9613		52.734375
9614		48.828125
9615		52.734375
9616		48.828125
9617		52.734375
9618		48.828125
9619		52.734375
9620		48.828125
9621		52.734375
9622		48.828125
9623		50.781250
9624		48.828125
9625		50.781250
9626		46.875000
9627		50.781250
9628		46.875000
9629		50.781250
9630		46.875000
9631		50.781250
9632		44.921875
9633		48.828125
9634		44.921875
9635		48.828125
9636		42.968750
9637		46.875000
9638		42.968750
9639		46.875000
9640		41.015625
9641		44.921875
9642		41.015625
9643		44.921875
9644		39.062500
9645		42.968750
9646		37.109375
9647		41.015625
9648		37.109375
9649		41.015625
9650		35.156250
9651		39.062500
9652		33.203125
9653		37.109375
9654		31.250000
9655		37.109375
9656		31.250000
9657		35.156250
9658		27.343750
9659		33.203125
9660		27.343750
9661		31.250000
9662		25.390625
9663		29.296875
9664		23.437500
9665		27.343750
9666		21.484375
9667		25.390625
9668		19.531250
9669		23.437500
9670		17.578125
9671		21.484375
9672		15.625000
9673		19.531250
9674		13.671875
9675		17.578125
9676		11.718750
9677		17.578125
9678		9.765625
9679		13.671875
9680		7.812500
9681		11.718750
9682		5.859375
9683		9.765625
9684		3.906250
9685		7.812500
9686		1.953125
9687		5.859375
9688		0.000000
9689		3.906250
9690		-1.953125
9691		1.953125
9692		-3.906250
9693		0.000000
9694		-5.859375
9695		-1.953125
9696		-7.812500
9697		-3.906250
9698		-9.765625
9699		-5.859375
9700		-11.718750
9701		-7.812500
9702		-13.671875
9703		-7.812500
9704		-15.625000
9705		-9.765625
9706		-15.625000
9707		-11.718750
9708		-17.578125
9709		-13.671875
9710		-19.531250
9711		-15.625000
9712		-21.484375
9713		-17.578125
9714		-21.484375
9715		-17.578125
9716		-23.437500
9717		-19.531250
9718		-23.437500
9719		-19.531250
9720		-25.390625
9721		-21.484375
9722		-27.343750
9723		-23.437500
9724		-27.343750
9725		-23.437500
9726		-27.343750
9727		-25.390625
9728		-29.296875
9729		-25.390625
9730		-29.296875
9731		-25.390625
9732		-29.296875
9733		-27.343750
9734		-31.250000
9735		-27.343750
9736		-31.250000
9737		-27.343750
9738		-31.250000
9739		-27.343750
9740		-31.250000
9741		-27.343750
9742		-31.250000
9743		-27.343750
9744		-31.250000
9745		-27.343750
9746		-31.250000
9747		-27.343750
9748		-29.296875
9749		-27.343750
9750		-29.296875
9751		-27.343750
9752		-29.296875
9753		-25.390625
9754		-29.296875
9755		-25.390625
9756		-27.343750
9757		-25.390625
9758		-29.296875
9759		-23.437500
9760		-25.390625
9761		-23.437500
9762		-25.390625
9763		-21.484375
9764		-25.390625
9765		-21.484375
9766		-23.437500
9767		-19.531250
9768		-21.484375
9769		-17.578125
9770		-21.484375
9771		-17.578125
9772		-19.531250
9773		-15.625000
9774		-17.578125
9775		-13.671875
9776		-15.625000
9777		-11.718750
9778		-15.625000
9779		-11.718750
9780		-13.671875
9781		-9.765625
9782		-11.718750
9783		-7.812500
9784		-9.765625
9785		-5.859375
9786		-7.812500
9787		-3.906250
9788		-5.859375
9789		-1.953125
9790		-3.906250
9791		0.000000
9792		-1.953125
9793		1.953125
9794		0.000000
9795		3.906250
9796		1.953125
9797		5.859375
9798		1.953125
9799		7.812500
9800		5.859375
9801		9.765625
9802		7.812500
9803		11.718750
9804		9.765625
9805		13.671875
9806		11.718750
9807		15.625000
9808		13.671875
9809		17.578125
9810		15.625000
9811		19.531250
9812		17.578125
9813		21.484375
9814		19.531250
9815		23.437500
9816		21.484375
9817		25.390625
9818		23.437500
9819		27.343750
9820		25.390625
9821		29.296875
9822		27.343750
9823		31.250000
9824		27.343750
9825		31.250000
9826		31.250000
9827		33.203125
9828		31.250000
9829		35.156250
9830		33.203125
9831		37.109375
9832		35.156250
9833		39.062500
9834		37.109375
9835		39.062500
9836		37.109375
9837		41.015625
9838		39.062500
9839		42.968750
9840		41.015625
9841		44.921875
9842		41.015625
9843		44.921875
9844		42.968750
9845		46.875000
9846		42.968750
9847		46.875000
9848		44.921875
9849		48.828125
9850		46.875000
9851		48.828125
9852		46.875000
9853		50.781250
9854		46.875000
9855		50.781250
9856		46.875000
9857		50.781250
9858		46.875000
9859		50.781250
9860		48.828125
9861		52.734375
9862		48.828125
9863		52.734375
9864		48.828125
9865		52.734375
9866		48.828125
9867		52.734375
9868		48.828125
9869		52.734375
9870		48.828125
9871		52.734375
9872		48.828125
9873		52.734375
9874		48.828125
9875		50.781250
9876		48.828125
9877		52.734375
9878		48.828125
9879		50.781250
9880		46.875000
9881		50.781250
9882		46.875000
9883		50.781250
9884		46.875000
9885		48.828125
9886		44.921875
9887		48.828125
9888		44.921875
9889		48.828125
9890		42.968750
9891		46.875000
9892		42.968750
9893		46.875000
9894		41.015625
9895		44.921875
9896		39.062500
9897		42.968750
9898		39.062500
9899		42.968750
9900		37.109375
9901		41.015625
9902		35.156250
9903		39.062500
9904		35.156250
9905		37.109375
9906		33.203125
9907		37.109375
9908		31.250000
9909		35.156250
9910		29.296875
9911		33.203125
9912		27.343750
9913		33.203125
9914		25.390625
9915		29.296875
9916		25.390625
9917		27.343750
9918		23.437500
9919		25.390625
9920		19.531250
9921		25.390625
9922		19.531250
9923		23.437500
9924		17.578125
9925		21.484375
9926		13.671875
9927		19.531250
9928		11.718750
9929		17.578125
9930		11.718750
9931		15.625000
9932		9.765625
9933		13.671875
9934		5.859375
9935		9.765625
9936		3.906250
9937		9.765625
9938		1.953125
9939		7.812500
9940		0.000000
9941		5.859375
9942		0.000000
9943		3.906250
9944		-3.906250
9945		1.953125
9946		-3.906250
9947		-1.953125
9948		-7.812500
9949		-1.953125
9950		-7.812500
9951		-5.859375
9952		-9.765625
9953		-5.859375
9954		-11.718750
9955		-7.812500
9956		-15.625000
9957		-9.765625
9958		-15.625000
9959		-11.718750
9960		-17.578125
9961		-13.671875
9962		-17.578125
9963		-13.671875
9964		-21.484375
9965		-15.625000
9966		-21.484375
9967		-17.578125
9968		-23.437500
9969		-19.531250
9970		-23.437500
9971		-19.531250
9972		-25.390625
9973		-21.484375
9974		-25.390625
9975		-21.484375
9976		-27.343750
9977		-23.437500
9978		-27.343750
9979		-23.437500
9980		-29.296875
9981		-25.390625
9982		-29.296875
9983		-25.390625
9984		-29.296875
9985		-27.343750
9986		-31.250000
9987		-25.390625
9988		-31.250000
9989		-27.343750
9990		-31.250000
9991		-27.343750
9992		-31.250000
9993		-27.343750
9994		-31.250000
9995		-27.343750
9996		-31.250000
9997		-27.343750
9998		-31.250000
9999		-27.343750
10000		-29.296875
