Channel              :		CH1
Frequency            :		1.975kHz
Period               :		0.506ms
PK-PK                :		179.7mV
Probe attenuation    :		1X
Voltage per ADC value:		0.122070mV
Time interval        :		2.00000us

index		CH1_Voltage(mV)
1		85.937500
2		85.937500
3		93.750000
4		85.937500
5		93.750000
6		85.937500
7		91.796875
8		85.937500
9		89.843750
10		85.937500
11		87.890625
12		82.031250
13		89.843750
14		82.031250
15		87.890625
16		80.078125
17		87.890625
18		78.125000
19		85.937500
20		76.171875
21		83.984375
22		74.218750
23		82.031250
24		74.218750
25		80.078125
26		72.265625
27		76.171875
28		68.359375
29		74.218750
30		64.453125
31		74.218750
32		62.500000
33		70.312500
34		58.593750
35		68.359375
36		56.640625
37		64.453125
38		52.734375
39		62.500000
40		50.781250
41		58.593750
42		48.828125
43		52.734375
44		44.921875
45		50.781250
46		39.062500
47		48.828125
48		35.156250
49		44.921875
50		31.250000
51		41.015625
52		27.343750
53		37.109375
54		23.437500
55		33.203125
56		19.531250
57		29.296875
58		17.578125
59		25.390625
60		13.671875
61		19.531250
62		7.812500
63		15.625000
64		3.906250
65		13.671875
66		0.000000
67		7.812500
68		-3.906250
69		3.906250
70		-9.765625
71		0.000000
72		-13.671875
73		-3.906250
74		-15.625000
75		-7.812500
76		-19.531250
77		-13.671875
78		-25.390625
79		-17.578125
80		-29.296875
81		-19.531250
82		-33.203125
83		-23.437500
84		-37.109375
85		-27.343750
86		-41.015625
87		-31.250000
88		-44.921875
89		-35.156250
90		-46.875000
91		-39.062500
92		-48.828125
93		-44.921875
94		-52.734375
95		-46.875000
96		-56.640625
97		-50.781250
98		-58.593750
99		-52.734375
100		-62.500000
101		-54.687500
102		-64.453125
103		-58.593750
104		-66.406250
105		-60.546875
106		-68.359375
107		-62.500000
108		-70.312500
109		-64.453125
110		-70.312500
111		-68.359375
112		-74.218750
113		-68.359375
114		-76.171875
115		-68.359375
116		-78.125000
117		-70.312500
118		-78.125000
119		-70.312500
120		-78.125000
121		-72.265625
122		-80.078125
123		-72.265625
124		-80.078125
125		-72.265625
126		-78.125000
127		-74.218750
128		-76.171875
129		-74.218750
130		-78.125000
131		-72.265625
132		-78.125000
133		-72.265625
134		-78.125000
135		-70.312500
136		-76.171875
137		-68.359375
138		-76.171875
139		-68.359375
140		-74.218750
141		-66.406250
142		-70.312500
143		-66.406250
144		-68.359375
145		-64.453125
146		-68.359375
147		-60.546875
148		-66.406250
149		-58.593750
150		-64.453125
151		-54.687500
152		-62.500000
153		-52.734375
154		-58.593750
155		-50.781250
156		-56.640625
157		-46.875000
158		-52.734375
159		-46.875000
160		-46.875000
161		-42.968750
162		-44.921875
163		-37.109375
164		-42.968750
165		-33.203125
166		-39.062500
167		-29.296875
168		-35.156250
169		-25.390625
170		-31.250000
171		-21.484375
172		-27.343750
173		-17.578125
174		-23.437500
175		-15.625000
176		-17.578125
177		-11.718750
178		-13.671875
179		-7.812500
180		-9.765625
181		-1.953125
182		-7.812500
183		1.953125
184		-3.906250
185		5.859375
186		1.953125
187		9.765625
188		3.906250
189		13.671875
190		9.765625
191		19.531250
192		13.671875
193		21.484375
194		19.531250
195		25.390625
196		23.437500
197		31.250000
198		25.390625
199		35.156250
200		29.296875
201		39.062500
202		33.203125
203		42.968750
204		37.109375
205		46.875000
206		41.015625
207		48.828125
208		44.921875
209		52.734375
210		50.781250
211		54.687500
212		52.734375
213		58.593750
214		54.687500
215		64.453125
216		58.593750
217		66.406250
218		60.546875
219		68.359375
220		62.500000
221		72.265625
222		66.406250
223		74.218750
224		68.359375
225		78.125000
226		70.312500
227		78.125000
228		76.171875
229		80.078125
230		76.171875
231		83.984375
232		76.171875
233		85.937500
234		80.078125
235		85.937500
236		80.078125
237		87.890625
238		82.031250
239		89.843750
240		83.984375
241		89.843750
242		83.984375
243		91.796875
244		87.890625
245		89.843750
246		87.890625
247		91.796875
248		85.937500
249		93.750000
250		87.890625
251		93.750000
252		87.890625
253		93.750000
254		85.937500
255		93.750000
256		87.890625
257		93.750000
258		85.937500
259		93.750000
260		87.890625
261		91.796875
262		87.890625
263		89.843750
264		83.984375
265		91.796875
266		82.031250
267		89.843750
268		82.031250
269		89.843750
270		80.078125
271		87.890625
272		78.125000
273		85.937500
274		76.171875
275		83.984375
276		76.171875
277		82.031250
278		74.218750
279		78.125000
280		70.312500
281		76.171875
282		68.359375
283		76.171875
284		64.453125
285		74.218750
286		62.500000
287		70.312500
288		58.593750
289		68.359375
290		56.640625
291		64.453125
292		54.687500
293		62.500000
294		52.734375
295		56.640625
296		48.828125
297		52.734375
298		42.968750
299		50.781250
300		39.062500
301		48.828125
302		35.156250
303		44.921875
304		31.250000
305		41.015625
306		27.343750
307		37.109375
308		23.437500
309		31.250000
310		21.484375
311		29.296875
312		17.578125
313		23.437500
314		11.718750
315		19.531250
316		7.812500
317		17.578125
318		1.953125
319		11.718750
320		-1.953125
321		7.812500
322		-5.859375
323		3.906250
324		-9.765625
325		0.000000
326		-11.718750
327		-3.906250
328		-15.625000
329		-9.765625
330		-19.531250
331		-15.625000
332		-25.390625
333		-17.578125
334		-29.296875
335		-21.484375
336		-33.203125
337		-25.390625
338		-37.109375
339		-29.296875
340		-41.015625
341		-33.203125
342		-44.921875
343		-37.109375
344		-46.875000
345		-41.015625
346		-48.828125
347		-44.921875
348		-54.687500
349		-46.875000
350		-56.640625
351		-48.828125
352		-60.546875
353		-50.781250
354		-62.500000
355		-54.687500
356		-66.406250
357		-56.640625
358		-68.359375
359		-60.546875
360		-68.359375
361		-62.500000
362		-70.312500
363		-66.406250
364		-72.265625
365		-66.406250
366		-74.218750
367		-66.406250
368		-76.171875
369		-68.359375
370		-78.125000
371		-70.312500
372		-78.125000
373		-70.312500
374		-78.125000
375		-72.265625
376		-80.078125
377		-72.265625
378		-78.125000
379		-74.218750
380		-76.171875
381		-74.218750
382		-78.125000
383		-72.265625
384		-80.078125
385		-72.265625
386		-78.125000
387		-72.265625
388		-78.125000
389		-70.312500
390		-76.171875
391		-70.312500
392		-76.171875
393		-68.359375
394		-72.265625
395		-66.406250
396		-70.312500
397		-66.406250
398		-68.359375
399		-62.500000
400		-68.359375
401		-60.546875
402		-64.453125
403		-56.640625
404		-64.453125
405		-54.687500
406		-60.546875
407		-52.734375
408		-56.640625
409		-48.828125
410		-54.687500
411		-46.875000
412		-48.828125
413		-44.921875
414		-46.875000
415		-41.015625
416		-44.921875
417		-37.109375
418		-42.968750
419		-33.203125
420		-39.062500
421		-29.296875
422		-35.156250
423		-25.390625
424		-31.250000
425		-21.484375
426		-27.343750
427		-17.578125
428		-21.484375
429		-15.625000
430		-15.625000
431		-9.765625
432		-13.671875
433		-3.906250
434		-9.765625
435		0.000000
436		-5.859375
437		3.906250
438		-1.953125
439		7.812500
440		1.953125
441		11.718750
442		5.859375
443		15.625000
444		9.765625
445		17.578125
446		17.578125
447		21.484375
448		21.484375
449		27.343750
450		21.484375
451		31.250000
452		27.343750
453		37.109375
454		29.296875
455		41.015625
456		35.156250
457		42.968750
458		39.062500
459		46.875000
460		42.968750
461		50.781250
462		46.875000
463		52.734375
464		50.781250
465		56.640625
466		52.734375
467		60.546875
468		56.640625
469		64.453125
470		58.593750
471		66.406250
472		60.546875
473		70.312500
474		64.453125
475		72.265625
476		66.406250
477		74.218750
478		68.359375
479		76.171875
480		74.218750
481		78.125000
482		76.171875
483		82.031250
484		76.171875
485		83.984375
486		78.125000
487		85.937500
488		80.078125
489		87.890625
490		82.031250
491		89.843750
492		82.031250
493		89.843750
494		83.984375
495		89.843750
496		87.890625
497		89.843750
498		87.890625
499		89.843750
500		85.937500
501		93.750000
502		87.890625
503		93.750000
504		87.890625
505		93.750000
506		87.890625
507		93.750000
508		87.890625
509		93.750000
510		87.890625
511		93.750000
512		87.890625
513		91.796875
514		87.890625
515		89.843750
516		85.937500
517		91.796875
518		83.984375
519		89.843750
520		82.031250
521		89.843750
522		82.031250
523		87.890625
524		80.078125
525		87.890625
526		78.125000
527		85.937500
528		78.125000
529		83.984375
530		76.171875
531		80.078125
532		70.312500
533		78.125000
534		68.359375
535		78.125000
536		66.406250
537		74.218750
538		64.453125
539		72.265625
540		60.546875
541		70.312500
542		58.593750
543		66.406250
544		54.687500
545		64.453125
546		52.734375
547		58.593750
548		50.781250
549		54.687500
550		44.921875
551		52.734375
552		41.015625
553		50.781250
554		37.109375
555		44.921875
556		33.203125
557		42.968750
558		29.296875
559		39.062500
560		25.390625
561		35.156250
562		23.437500
563		31.250000
564		19.531250
565		25.390625
566		13.671875
567		21.484375
568		9.765625
569		19.531250
570		5.859375
571		13.671875
572		1.953125
573		9.765625
574		-3.906250
575		5.859375
576		-7.812500
577		1.953125
578		-9.765625
579		-1.953125
580		-13.671875
581		-7.812500
582		-17.578125
583		-11.718750
584		-23.437500
585		-15.625000
586		-29.296875
587		-17.578125
588		-33.203125
589		-23.437500
590		-35.156250
591		-27.343750
592		-39.062500
593		-29.296875
594		-42.968750
595		-33.203125
596		-44.921875
597		-39.062500
598		-46.875000
599		-42.968750
600		-52.734375
601		-46.875000
602		-56.640625
603		-46.875000
604		-58.593750
605		-50.781250
606		-62.500000
607		-52.734375
608		-64.453125
609		-56.640625
610		-68.359375
611		-58.593750
612		-68.359375
613		-62.500000
614		-68.359375
615		-64.453125
616		-72.265625
617		-66.406250
618		-74.218750
619		-66.406250
620		-76.171875
621		-68.359375
622		-76.171875
623		-70.312500
624		-78.125000
625		-72.265625
626		-80.078125
627		-72.265625
628		-80.078125
629		-72.265625
630		-78.125000
631		-74.218750
632		-78.125000
633		-76.171875
634		-80.078125
635		-74.218750
636		-80.078125
637		-72.265625
638		-80.078125
639		-72.265625
640		-78.125000
641		-72.265625
642		-78.125000
643		-70.312500
644		-76.171875
645		-70.312500
646		-74.218750
647		-68.359375
648		-72.265625
649		-68.359375
650		-70.312500
651		-64.453125
652		-70.312500
653		-62.500000
654		-68.359375
655		-60.546875
656		-66.406250
657		-58.593750
658		-62.500000
659		-54.687500
660		-60.546875
661		-52.734375
662		-58.593750
663		-50.781250
664		-52.734375
665		-48.828125
666		-48.828125
667		-44.921875
668		-46.875000
669		-39.062500
670		-44.921875
671		-35.156250
672		-41.015625
673		-31.250000
674		-37.109375
675		-27.343750
676		-33.203125
677		-23.437500
678		-29.296875
679		-19.531250
680		-25.390625
681		-17.578125
682		-19.531250
683		-13.671875
684		-15.625000
685		-7.812500
686		-13.671875
687		-3.906250
688		-9.765625
689		0.000000
690		-5.859375
691		3.906250
692		-1.953125
693		9.765625
694		3.906250
695		11.718750
696		7.812500
697		15.625000
698		13.671875
699		19.531250
700		17.578125
701		25.390625
702		19.531250
703		29.296875
704		23.437500
705		33.203125
706		27.343750
707		37.109375
708		31.250000
709		41.015625
710		35.156250
711		44.921875
712		39.062500
713		46.875000
714		44.921875
715		48.828125
716		48.828125
717		52.734375
718		50.781250
719		58.593750
720		52.734375
721		60.546875
722		56.640625
723		64.453125
724		58.593750
725		68.359375
726		62.500000
727		70.312500
728		64.453125
729		74.218750
730		66.406250
731		74.218750
732		72.265625
733		76.171875
734		74.218750
735		80.078125
736		74.218750
737		82.031250
738		76.171875
739		83.984375
740		78.125000
741		85.937500
742		80.078125
743		87.890625
744		80.078125
745		89.843750
746		82.031250
747		89.843750
748		85.937500
749		87.890625
750		85.937500
751		89.843750
752		85.937500
753		91.796875
754		85.937500
755		91.796875
756		85.937500
757		93.750000
758		85.937500
759		93.750000
760		85.937500
761		93.750000
762		85.937500
763		93.750000
764		85.937500
765		91.796875
766		87.890625
767		89.843750
768		83.984375
769		91.796875
770		83.984375
771		89.843750
772		82.031250
773		89.843750
774		82.031250
775		87.890625
776		80.078125
777		87.890625
778		78.125000
779		85.937500
780		78.125000
781		83.984375
782		76.171875
783		80.078125
784		72.265625
785		78.125000
786		70.312500
787		78.125000
788		68.359375
789		74.218750
790		64.453125
791		74.218750
792		62.500000
793		70.312500
794		58.593750
795		68.359375
796		56.640625
797		64.453125
798		54.687500
799		58.593750
800		50.781250
801		56.640625
802		46.875000
803		52.734375
804		42.968750
805		50.781250
806		39.062500
807		48.828125
808		35.156250
809		44.921875
810		31.250000
811		41.015625
812		27.343750
813		37.109375
814		25.390625
815		31.250000
816		21.484375
817		27.343750
818		15.625000
819		21.484375
820		9.765625
821		19.531250
822		5.859375
823		15.625000
824		1.953125
825		11.718750
826		-1.953125
827		7.812500
828		-5.859375
829		3.906250
830		-7.812500
831		0.000000
832		-11.718750
833		-5.859375
834		-15.625000
835		-9.765625
836		-21.484375
837		-13.671875
838		-27.343750
839		-17.578125
840		-31.250000
841		-21.484375
842		-33.203125
843		-25.390625
844		-39.062500
845		-29.296875
846		-41.015625
847		-33.203125
848		-42.968750
849		-37.109375
850		-46.875000
851		-41.015625
852		-52.734375
853		-44.921875
854		-56.640625
855		-46.875000
856		-58.593750
857		-48.828125
858		-60.546875
859		-52.734375
860		-62.500000
861		-54.687500
862		-66.406250
863		-58.593750
864		-66.406250
865		-60.546875
866		-68.359375
867		-64.453125
868		-70.312500
869		-66.406250
870		-74.218750
871		-66.406250
872		-76.171875
873		-68.359375
874		-78.125000
875		-70.312500
876		-78.125000
877		-70.312500
878		-80.078125
879		-72.265625
880		-80.078125
881		-72.265625
882		-78.125000
883		-76.171875
884		-78.125000
885		-76.171875
886		-80.078125
887		-74.218750
888		-80.078125
889		-74.218750
890		-80.078125
891		-74.218750
892		-80.078125
893		-72.265625
894		-78.125000
895		-72.265625
896		-78.125000
897		-70.312500
898		-76.171875
899		-70.312500
900		-72.265625
901		-70.312500
902		-72.265625
903		-66.406250
904		-72.265625
905		-64.453125
906		-70.312500
907		-62.500000
908		-66.406250
909		-58.593750
910		-64.453125
911		-56.640625
912		-62.500000
913		-54.687500
914		-60.546875
915		-52.734375
916		-54.687500
917		-50.781250
918		-50.781250
919		-46.875000
920		-48.828125
921		-41.015625
922		-46.875000
923		-39.062500
924		-44.921875
925		-35.156250
926		-41.015625
927		-31.250000
928		-37.109375
929		-27.343750
930		-33.203125
931		-23.437500
932		-29.296875
933		-21.484375
934		-21.484375
935		-17.578125
936		-19.531250
937		-11.718750
938		-15.625000
939		-5.859375
940		-11.718750
941		-1.953125
942		-7.812500
943		1.953125
944		-3.906250
945		5.859375
946		0.000000
947		9.765625
948		3.906250
949		11.718750
950		9.765625
951		15.625000
952		13.671875
953		19.531250
954		15.625000
955		25.390625
956		21.484375
957		31.250000
958		25.390625
959		33.203125
960		27.343750
961		39.062500
962		33.203125
963		41.015625
964		37.109375
965		44.921875
966		41.015625
967		46.875000
968		44.921875
969		50.781250
970		48.828125
971		56.640625
972		50.781250
973		60.546875
974		52.734375
975		62.500000
976		56.640625
977		64.453125
978		60.546875
979		68.359375
980		62.500000
981		70.312500
982		64.453125
983		72.265625
984		70.312500
985		74.218750
986		72.265625
987		78.125000
988		72.265625
989		80.078125
990		74.218750
991		82.031250
992		76.171875
993		83.984375
994		78.125000
995		85.937500
996		80.078125
997		87.890625
998		82.031250
999		87.890625
1000		83.984375
1001		87.890625
1002		85.937500
1003		87.890625
1004		83.984375
1005		91.796875
1006		85.937500
1007		91.796875
1008		85.937500
1009		93.750000
1010		85.937500
1011		93.750000
1012		85.937500
1013		93.750000
1014		85.937500
1015		93.750000
1016		85.937500
1017		91.796875
1018		87.890625
1019		89.843750
1020		83.984375
1021		91.796875
1022		83.984375
1023		91.796875
1024		83.984375
1025		89.843750
1026		82.031250
1027		89.843750
1028		80.078125
1029		87.890625
1030		78.125000
1031		85.937500
1032		78.125000
1033		85.937500
1034		78.125000
1035		82.031250
1036		76.171875
1037		80.078125
1038		70.312500
1039		80.078125
1040		68.359375
1041		78.125000
1042		66.406250
1043		74.218750
1044		64.453125
1045		72.265625
1046		60.546875
1047		70.312500
1048		58.593750
1049		66.406250
1050		56.640625
1051		62.500000
1052		52.734375
1053		58.593750
1054		48.828125
1055		54.687500
1056		44.921875
1057		54.687500
1058		41.015625
1059		50.781250
1060		37.109375
1061		46.875000
1062		33.203125
1063		42.968750
1064		29.296875
1065		39.062500
1066		27.343750
1067		35.156250
1068		23.437500
1069		29.296875
1070		19.531250
1071		25.390625
1072		13.671875
1073		23.437500
1074		9.765625
1075		19.531250
1076		5.859375
1077		15.625000
1078		1.953125
1079		11.718750
1080		-1.953125
1081		5.859375
1082		-7.812500
1083		1.953125
1084		-9.765625
1085		-3.906250
1086		-13.671875
1087		-7.812500
1088		-19.531250
1089		-11.718750
1090		-23.437500
1091		-13.671875
1092		-27.343750
1093		-17.578125
1094		-31.250000
1095		-21.484375
1096		-35.156250
1097		-25.390625
1098		-39.062500
1099		-29.296875
1100		-41.015625
1101		-33.203125
1102		-42.968750
1103		-39.062500
1104		-48.828125
1105		-42.968750
1106		-52.734375
1107		-44.921875
1108		-54.687500
1109		-46.875000
1110		-58.593750
1111		-48.828125
1112		-60.546875
1113		-52.734375
1114		-64.453125
1115		-56.640625
1116		-66.406250
1117		-58.593750
1118		-66.406250
1119		-62.500000
1120		-68.359375
1121		-64.453125
1122		-72.265625
1123		-64.453125
1124		-74.218750
1125		-66.406250
1126		-76.171875
1127		-68.359375
1128		-76.171875
1129		-68.359375
1130		-78.125000
1131		-70.312500
1132		-78.125000
1133		-72.265625
1134		-78.125000
1135		-74.218750
1136		-78.125000
1137		-74.218750
1138		-80.078125
1139		-72.265625
1140		-80.078125
1141		-72.265625
1142		-80.078125
1143		-72.265625
1144		-80.078125
1145		-72.265625
1146		-78.125000
1147		-72.265625
1148		-78.125000
1149		-70.312500
1150		-76.171875
1151		-70.312500
1152		-72.265625
1153		-70.312500
1154		-72.265625
1155		-66.406250
1156		-72.265625
1157		-64.453125
1158		-70.312500
1159		-62.500000
1160		-68.359375
1161		-60.546875
1162		-66.406250
1163		-56.640625
1164		-62.500000
1165		-54.687500
1166		-60.546875
1167		-52.734375
1168		-56.640625
1169		-50.781250
1170		-52.734375
1171		-48.828125
1172		-50.781250
1173		-42.968750
1174		-46.875000
1175		-39.062500
1176		-44.921875
1177		-35.156250
1178		-41.015625
1179		-31.250000
1180		-37.109375
1181		-27.343750
1182		-33.203125
1183		-25.390625
1184		-29.296875
1185		-23.437500
1186		-23.437500
1187		-17.578125
1188		-19.531250
1189		-13.671875
1190		-17.578125
1191		-7.812500
1192		-13.671875
1193		-3.906250
1194		-9.765625
1195		0.000000
1196		-5.859375
1197		3.906250
1198		-1.953125
1199		7.812500
1200		1.953125
1201		11.718750
1202		9.765625
1203		13.671875
1204		13.671875
1205		17.578125
1206		15.625000
1207		25.390625
1208		19.531250
1209		29.296875
1210		21.484375
1211		33.203125
1212		27.343750
1213		37.109375
1214		31.250000
1215		41.015625
1216		35.156250
1217		42.968750
1218		39.062500
1219		44.921875
1220		42.968750
1221		48.828125
1222		46.875000
1223		54.687500
1224		48.828125
1225		58.593750
1226		52.734375
1227		60.546875
1228		56.640625
1229		64.453125
1230		58.593750
1231		66.406250
1232		62.500000
1233		70.312500
1234		64.453125
1235		72.265625
1236		68.359375
1237		72.265625
1238		72.265625
1239		76.171875
1240		70.312500
1241		80.078125
1242		74.218750
1243		82.031250
1244		76.171875
1245		83.984375
1246		78.125000
1247		85.937500
1248		80.078125
1249		87.890625
1250		82.031250
1251		87.890625
1252		83.984375
1253		87.890625
1254		85.937500
1255		87.890625
1256		85.937500
1257		91.796875
1258		85.937500
1259		91.796875
1260		85.937500
1261		93.750000
1262		85.937500
1263		93.750000
1264		85.937500
1265		93.750000
1266		87.890625
1267		93.750000
1268		85.937500
1269		93.750000
1270		87.890625
1271		91.796875
1272		87.890625
1273		91.796875
1274		85.937500
1275		91.796875
1276		83.984375
1277		91.796875
1278		83.984375
1279		89.843750
1280		82.031250
1281		89.843750
1282		80.078125
1283		87.890625
1284		80.078125
1285		85.937500
1286		80.078125
1287		82.031250
1288		78.125000
1289		82.031250
1290		72.265625
1291		80.078125
1292		70.312500
1293		80.078125
1294		68.359375
1295		78.125000
1296		66.406250
1297		74.218750
1298		62.500000
1299		72.265625
1300		60.546875
1301		68.359375
1302		58.593750
1303		66.406250
1304		56.640625
1305		60.546875
1306		50.781250
1307		58.593750
1308		48.828125
1309		56.640625
1310		44.921875
1311		52.734375
1312		41.015625
1313		48.828125
1314		37.109375
1315		44.921875
1316		33.203125
1317		42.968750
1318		31.250000
1319		39.062500
1320		27.343750
1321		33.203125
1322		21.484375
1323		27.343750
1324		17.578125
1325		27.343750
1326		11.718750
1327		23.437500
1328		7.812500
1329		19.531250
1330		5.859375
1331		13.671875
1332		1.953125
1333		9.765625
1334		-3.906250
1335		5.859375
1336		-5.859375
1337		0.000000
1338		-9.765625
1339		-3.906250
1340		-15.625000
1341		-7.812500
1342		-19.531250
1343		-11.718750
1344		-25.390625
1345		-15.625000
1346		-29.296875
1347		-19.531250
1348		-33.203125
1349		-23.437500
1350		-37.109375
1351		-27.343750
1352		-37.109375
1353		-31.250000
1354		-41.015625
1355		-37.109375
1356		-46.875000
1357		-41.015625
1358		-50.781250
1359		-41.015625
1360		-52.734375
1361		-44.921875
1362		-56.640625
1363		-46.875000
1364		-58.593750
1365		-50.781250
1366		-60.546875
1367		-52.734375
1368		-64.453125
1369		-56.640625
1370		-64.453125
1371		-60.546875
1372		-66.406250
1373		-64.453125
1374		-72.265625
1375		-64.453125
1376		-72.265625
1377		-64.453125
1378		-74.218750
1379		-66.406250
1380		-76.171875
1381		-68.359375
1382		-78.125000
1383		-70.312500
1384		-78.125000
1385		-70.312500
1386		-78.125000
1387		-72.265625
1388		-78.125000
1389		-74.218750
1390		-80.078125
1391		-74.218750
1392		-80.078125
1393		-72.265625
1394		-80.078125
1395		-74.218750
1396		-80.078125
1397		-74.218750
1398		-80.078125
1399		-72.265625
1400		-78.125000
1401		-72.265625
1402		-78.125000
1403		-70.312500
1404		-74.218750
1405		-72.265625
1406		-72.265625
1407		-68.359375
1408		-74.218750
1409		-66.406250
1410		-72.265625
1411		-64.453125
1412		-70.312500
1413		-62.500000
1414		-68.359375
1415		-60.546875
1416		-66.406250
1417		-56.640625
1418		-62.500000
1419		-54.687500
1420		-58.593750
1421		-54.687500
1422		-54.687500
1423		-50.781250
1424		-52.734375
1425		-44.921875
1426		-50.781250
1427		-42.968750
1428		-48.828125
1429		-39.062500
1430		-44.921875
1431		-35.156250
1432		-41.015625
1433		-31.250000
1434		-37.109375
1435		-27.343750
1436		-33.203125
1437		-25.390625
1438		-27.343750
1439		-21.484375
1440		-23.437500
1441		-15.625000
1442		-21.484375
1443		-11.718750
1444		-17.578125
1445		-7.812500
1446		-13.671875
1447		-3.906250
1448		-9.765625
1449		0.000000
1450		-5.859375
1451		3.906250
1452		-1.953125
1453		7.812500
1454		5.859375
1455		9.765625
1456		9.765625
1457		13.671875
1458		11.718750
1459		19.531250
1460		15.625000
1461		25.390625
1462		19.531250
1463		29.296875
1464		23.437500
1465		33.203125
1466		27.343750
1467		37.109375
1468		31.250000
1469		41.015625
1470		35.156250
1471		42.968750
1472		41.015625
1473		46.875000
1474		44.921875
1475		50.781250
1476		46.875000
1477		54.687500
1478		48.828125
1479		58.593750
1480		52.734375
1481		60.546875
1482		56.640625
1483		64.453125
1484		58.593750
1485		66.406250
1486		60.546875
1487		68.359375
1488		66.406250
1489		70.312500
1490		68.359375
1491		74.218750
1492		68.359375
1493		78.125000
1494		70.312500
1495		80.078125
1496		74.218750
1497		82.031250
1498		76.171875
1499		83.984375
1500		78.125000
1501		85.937500
1502		78.125000
1503		85.937500
1504		82.031250
1505		85.937500
1506		83.984375
1507		85.937500
1508		83.984375
1509		89.843750
1510		83.984375
1511		89.843750
1512		83.984375
1513		91.796875
1514		85.937500
1515		91.796875
1516		85.937500
1517		91.796875
1518		85.937500
1519		91.796875
1520		85.937500
1521		91.796875
1522		87.890625
1523		89.843750
1524		85.937500
1525		91.796875
1526		83.984375
1527		91.796875
1528		83.984375
1529		89.843750
1530		82.031250
1531		89.843750
1532		80.078125
1533		87.890625
1534		80.078125
1535		87.890625
1536		80.078125
1537		85.937500
1538		80.078125
1539		82.031250
1540		78.125000
1541		80.078125
1542		72.265625
1543		80.078125
1544		70.312500
1545		78.125000
1546		68.359375
1547		76.171875
1548		66.406250
1549		74.218750
1550		64.453125
1551		72.265625
1552		60.546875
1553		70.312500
1554		58.593750
1555		66.406250
1556		56.640625
1557		60.546875
1558		52.734375
1559		58.593750
1560		48.828125
1561		56.640625
1562		44.921875
1563		54.687500
1564		41.015625
1565		50.781250
1566		37.109375
1567		46.875000
1568		33.203125
1569		42.968750
1570		31.250000
1571		39.062500
1572		29.296875
1573		33.203125
1574		23.437500
1575		29.296875
1576		17.578125
1577		27.343750
1578		15.625000
1579		23.437500
1580		9.765625
1581		19.531250
1582		5.859375
1583		15.625000
1584		1.953125
1585		9.765625
1586		-3.906250
1587		5.859375
1588		-5.859375
1589		0.000000
1590		-9.765625
1591		-3.906250
1592		-15.625000
1593		-7.812500
1594		-19.531250
1595		-9.765625
1596		-25.390625
1597		-13.671875
1598		-27.343750
1599		-17.578125
1600		-31.250000
1601		-23.437500
1602		-35.156250
1603		-25.390625
1604		-37.109375
1605		-31.250000
1606		-41.015625
1607		-35.156250
1608		-44.921875
1609		-39.062500
1610		-48.828125
1611		-41.015625
1612		-52.734375
1613		-42.968750
1614		-56.640625
1615		-48.828125
1616		-60.546875
1617		-50.781250
1618		-62.500000
1619		-54.687500
1620		-64.453125
1621		-56.640625
1622		-64.453125
1623		-60.546875
1624		-68.359375
1625		-64.453125
1626		-72.265625
1627		-64.453125
1628		-74.218750
1629		-66.406250
1630		-76.171875
1631		-68.359375
1632		-78.125000
1633		-70.312500
1634		-78.125000
1635		-72.265625
1636		-80.078125
1637		-72.265625
1638		-80.078125
1639		-74.218750
1640		-80.078125
1641		-76.171875
1642		-82.031250
1643		-76.171875
1644		-82.031250
1645		-74.218750
1646		-82.031250
1647		-76.171875
1648		-82.031250
1649		-74.218750
1650		-82.031250
1651		-74.218750
1652		-82.031250
1653		-74.218750
1654		-80.078125
1655		-74.218750
1656		-76.171875
1657		-74.218750
1658		-76.171875
1659		-72.265625
1660		-76.171875
1661		-70.312500
1662		-74.218750
1663		-66.406250
1664		-72.265625
1665		-64.453125
1666		-72.265625
1667		-64.453125
1668		-68.359375
1669		-60.546875
1670		-66.406250
1671		-58.593750
1672		-62.500000
1673		-58.593750
1674		-60.546875
1675		-54.687500
1676		-56.640625
1677		-50.781250
1678		-54.687500
1679		-46.875000
1680		-52.734375
1681		-42.968750
1682		-48.828125
1683		-39.062500
1684		-44.921875
1685		-35.156250
1686		-41.015625
1687		-31.250000
1688		-37.109375
1689		-31.250000
1690		-31.250000
1691		-27.343750
1692		-27.343750
1693		-21.484375
1694		-25.390625
1695		-15.625000
1696		-21.484375
1697		-11.718750
1698		-17.578125
1699		-9.765625
1700		-13.671875
1701		-3.906250
1702		-9.765625
1703		0.000000
1704		-5.859375
1705		3.906250
1706		0.000000
1707		5.859375
1708		3.906250
1709		9.765625
1710		7.812500
1711		17.578125
1712		11.718750
1713		21.484375
1714		15.625000
1715		25.390625
1716		19.531250
1717		29.296875
1718		23.437500
1719		33.203125
1720		27.343750
1721		37.109375
1722		31.250000
1723		39.062500
1724		37.109375
1725		42.968750
1726		41.015625
1727		46.875000
1728		42.968750
1729		52.734375
1730		46.875000
1731		54.687500
1732		48.828125
1733		58.593750
1734		52.734375
1735		60.546875
1736		54.687500
1737		64.453125
1738		58.593750
1739		66.406250
1740		64.453125
1741		68.359375
1742		66.406250
1743		70.312500
1744		66.406250
1745		76.171875
1746		68.359375
1747		78.125000
1748		72.265625
1749		80.078125
1750		74.218750
1751		82.031250
1752		76.171875
1753		83.984375
1754		78.125000
1755		83.984375
1756		80.078125
1757		83.984375
1758		83.984375
1759		85.937500
1760		82.031250
1761		87.890625
1762		82.031250
1763		89.843750
1764		83.984375
1765		91.796875
1766		83.984375
1767		91.796875
1768		85.937500
1769		91.796875
1770		85.937500
1771		91.796875
1772		85.937500
1773		91.796875
1774		87.890625
1775		89.843750
1776		87.890625
1777		89.843750
1778		85.937500
1779		91.796875
1780		85.937500
1781		89.843750
1782		83.984375
1783		89.843750
1784		83.984375
1785		87.890625
1786		82.031250
1787		87.890625
1788		82.031250
1789		87.890625
1790		80.078125
1791		83.984375
1792		78.125000
1793		82.031250
1794		76.171875
1795		82.031250
1796		72.265625
1797		80.078125
1798		70.312500
1799		78.125000
1800		68.359375
1801		76.171875
1802		66.406250
1803		74.218750
1804		62.500000
1805		72.265625
1806		62.500000
1807		68.359375
1808		58.593750
1809		64.453125
1810		54.687500
1811		60.546875
1812		50.781250
1813		60.546875
1814		48.828125
1815		56.640625
1816		42.968750
1817		52.734375
1818		41.015625
1819		48.828125
1820		37.109375
1821		46.875000
1822		35.156250
1823		42.968750
1824		31.250000
1825		37.109375
1826		27.343750
1827		33.203125
1828		21.484375
1829		29.296875
1830		17.578125
1831		27.343750
1832		13.671875
1833		23.437500
1834		7.812500
1835		19.531250
1836		3.906250
1837		13.671875
1838		0.000000
1839		9.765625
1840		-1.953125
1841		5.859375
1842		-5.859375
1843		0.000000
1844		-11.718750
1845		-3.906250
1846		-15.625000
1847		-5.859375
1848		-19.531250
1849		-9.765625
1850		-23.437500
1851		-15.625000
1852		-27.343750
1853		-19.531250
1854		-33.203125
1855		-23.437500
1856		-35.156250
1857		-27.343750
1858		-37.109375
1859		-33.203125
1860		-42.968750
1861		-37.109375
1862		-46.875000
1863		-37.109375
1864		-50.781250
1865		-41.015625
1866		-52.734375
1867		-44.921875
1868		-56.640625
1869		-48.828125
1870		-60.546875
1871		-52.734375
1872		-62.500000
1873		-54.687500
1874		-62.500000
1875		-58.593750
1876		-66.406250
1877		-62.500000
1878		-70.312500
1879		-62.500000
1880		-72.265625
1881		-64.453125
1882		-74.218750
1883		-66.406250
1884		-76.171875
1885		-68.359375
1886		-76.171875
1887		-70.312500
1888		-78.125000
1889		-70.312500
1890		-78.125000
1891		-72.265625
1892		-78.125000
1893		-76.171875
1894		-80.078125
1895		-74.218750
1896		-80.078125
1897		-74.218750
1898		-82.031250
1899		-74.218750
1900		-82.031250
1901		-74.218750
1902		-82.031250
1903		-74.218750
1904		-80.078125
1905		-72.265625
1906		-80.078125
1907		-72.265625
1908		-76.171875
1909		-74.218750
1910		-76.171875
1911		-72.265625
1912		-76.171875
1913		-70.312500
1914		-76.171875
1915		-68.359375
1916		-74.218750
1917		-66.406250
1918		-72.265625
1919		-62.500000
1920		-70.312500
1921		-60.546875
1922		-66.406250
1923		-58.593750
1924		-64.453125
1925		-58.593750
1926		-60.546875
1927		-54.687500
1928		-58.593750
1929		-50.781250
1930		-56.640625
1931		-46.875000
1932		-52.734375
1933		-44.921875
1934		-50.781250
1935		-41.015625
1936		-46.875000
1937		-37.109375
1938		-42.968750
1939		-35.156250
1940		-39.062500
1941		-31.250000
1942		-33.203125
1943		-27.343750
1944		-29.296875
1945		-23.437500
1946		-27.343750
1947		-17.578125
1948		-23.437500
1949		-13.671875
1950		-19.531250
1951		-9.765625
1952		-15.625000
1953		-5.859375
1954		-11.718750
1955		-1.953125
1956		-7.812500
1957		1.953125
1958		-1.953125
1959		3.906250
1960		3.906250
1961		9.765625
1962		7.812500
1963		15.625000
1964		9.765625
1965		19.531250
1966		13.671875
1967		23.437500
1968		17.578125
1969		27.343750
1970		21.484375
1971		31.250000
1972		25.390625
1973		35.156250
1974		29.296875
1975		37.109375
1976		35.156250
1977		41.015625
1978		39.062500
1979		46.875000
1980		41.015625
1981		50.781250
1982		44.921875
1983		54.687500
1984		46.875000
1985		56.640625
1986		50.781250
1987		60.546875
1988		54.687500
1989		64.453125
1990		56.640625
1991		66.406250
1992		62.500000
1993		66.406250
1994		66.406250
1995		70.312500
1996		64.453125
1997		74.218750
1998		68.359375
1999		76.171875
2000		72.265625
2001		78.125000
2002		72.265625
2003		80.078125
2004		74.218750
2005		83.984375
2006		76.171875
2007		85.937500
2008		78.125000
2009		83.984375
2010		82.031250
2011		85.937500
2012		82.031250
2013		89.843750
2014		82.031250
2015		89.843750
2016		83.984375
2017		91.796875
2018		83.984375
2019		91.796875
2020		85.937500
2021		91.796875
2022		85.937500
2023		91.796875
2024		85.937500
2025		91.796875
2026		87.890625
2027		91.796875
2028		87.890625
2029		91.796875
2030		85.937500
2031		93.750000
2032		85.937500
2033		91.796875
2034		83.984375
2035		91.796875
2036		83.984375
2037		91.796875
2038		83.984375
2039		89.843750
2040		82.031250
2041		89.843750
2042		82.031250
2043		85.937500
2044		80.078125
2045		83.984375
2046		76.171875
2047		83.984375
2048		74.218750
2049		82.031250
2050		72.265625
2051		80.078125
2052		70.312500
2053		78.125000
2054		68.359375
2055		76.171875
2056		66.406250
2057		74.218750
2058		64.453125
2059		72.265625
2060		62.500000
2061		66.406250
2062		56.640625
2063		64.453125
2064		54.687500
2065		62.500000
2066		50.781250
2067		58.593750
2068		46.875000
2069		54.687500
2070		42.968750
2071		52.734375
2072		39.062500
2073		48.828125
2074		37.109375
2075		44.921875
2076		35.156250
2077		39.062500
2078		31.250000
2079		35.156250
2080		23.437500
2081		33.203125
2082		19.531250
2083		29.296875
2084		15.625000
2085		25.390625
2086		11.718750
2087		21.484375
2088		7.812500
2089		17.578125
2090		3.906250
2091		13.671875
2092		1.953125
2093		7.812500
2094		-1.953125
2095		3.906250
2096		-7.812500
2097		-1.953125
2098		-11.718750
2099		-3.906250
2100		-17.578125
2101		-7.812500
2102		-21.484375
2103		-11.718750
2104		-25.390625
2105		-15.625000
2106		-29.296875
2107		-19.531250
2108		-31.250000
2109		-23.437500
2110		-35.156250
2111		-29.296875
2112		-39.062500
2113		-33.203125
2114		-42.968750
2115		-35.156250
2116		-48.828125
2117		-39.062500
2118		-50.781250
2119		-41.015625
2120		-54.687500
2121		-44.921875
2122		-56.640625
2123		-48.828125
2124		-60.546875
2125		-50.781250
2126		-60.546875
2127		-56.640625
2128		-62.500000
2129		-58.593750
2130		-68.359375
2131		-60.546875
2132		-70.312500
2133		-62.500000
2134		-72.265625
2135		-64.453125
2136		-74.218750
2137		-66.406250
2138		-76.171875
2139		-68.359375
2140		-76.171875
2141		-68.359375
2142		-76.171875
2143		-70.312500
2144		-76.171875
2145		-74.218750
2146		-80.078125
2147		-74.218750
2148		-80.078125
2149		-72.265625
2150		-80.078125
2151		-74.218750
2152		-80.078125
2153		-74.218750
2154		-80.078125
2155		-72.265625
2156		-80.078125
2157		-72.265625
2158		-80.078125
2159		-72.265625
2160		-76.171875
2161		-74.218750
2162		-76.171875
2163		-72.265625
2164		-76.171875
2165		-68.359375
2166		-76.171875
2167		-66.406250
2168		-74.218750
2169		-66.406250
2170		-72.265625
2171		-64.453125
2172		-70.312500
2173		-62.500000
2174		-68.359375
2175		-60.546875
2176		-66.406250
2177		-58.593750
2178		-60.546875
2179		-56.640625
2180		-58.593750
2181		-50.781250
2182		-56.640625
2183		-48.828125
2184		-54.687500
2185		-44.921875
2186		-50.781250
2187		-41.015625
2188		-48.828125
2189		-39.062500
2190		-44.921875
2191		-35.156250
2192		-41.015625
2193		-33.203125
2194		-35.156250
2195		-29.296875
2196		-31.250000
2197		-25.390625
2198		-29.296875
2199		-19.531250
2200		-23.437500
2201		-15.625000
2202		-21.484375
2203		-11.718750
2204		-17.578125
2205		-7.812500
2206		-11.718750
2207		-3.906250
2208		-7.812500
2209		1.953125
2210		-1.953125
2211		1.953125
2212		1.953125
2213		7.812500
2214		5.859375
2215		13.671875
2216		7.812500
2217		17.578125
2218		11.718750
2219		21.484375
2220		17.578125
2221		25.390625
2222		19.531250
2223		29.296875
2224		25.390625
2225		33.203125
2226		29.296875
2227		35.156250
2228		33.203125
2229		39.062500
2230		37.109375
2231		44.921875
2232		39.062500
2233		48.828125
2234		42.968750
2235		52.734375
2236		46.875000
2237		54.687500
2238		50.781250
2239		58.593750
2240		52.734375
2241		62.500000
2242		56.640625
2243		64.453125
2244		62.500000
2245		66.406250
2246		64.453125
2247		68.359375
2248		66.406250
2249		74.218750
2250		68.359375
2251		76.171875
2252		70.312500
2253		78.125000
2254		72.265625
2255		80.078125
2256		76.171875
2257		82.031250
2258		76.171875
2259		83.984375
2260		78.125000
2261		83.984375
2262		82.031250
2263		85.937500
2264		82.031250
2265		89.843750
2266		82.031250
2267		89.843750
2268		83.984375
2269		89.843750
2270		83.984375
2271		91.796875
2272		85.937500
2273		91.796875
2274		85.937500
2275		93.750000
2276		87.890625
2277		93.750000
2278		89.843750
2279		91.796875
2280		89.843750
2281		91.796875
2282		85.937500
2283		93.750000
2284		85.937500
2285		93.750000
2286		85.937500
2287		91.796875
2288		83.984375
2289		91.796875
2290		83.984375
2291		91.796875
2292		82.031250
2293		89.843750
2294		83.984375
2295		85.937500
2296		82.031250
2297		85.937500
2298		78.125000
2299		83.984375
2300		76.171875
2301		83.984375
2302		74.218750
2303		82.031250
2304		74.218750
2305		78.125000
2306		70.312500
2307		78.125000
2308		68.359375
2309		74.218750
2310		66.406250
2311		72.265625
2312		64.453125
2313		68.359375
2314		60.546875
2315		64.453125
2316		54.687500
2317		64.453125
2318		52.734375
2319		60.546875
2320		50.781250
2321		56.640625
2322		46.875000
2323		52.734375
2324		44.921875
2325		48.828125
2326		39.062500
2327		46.875000
2328		37.109375
2329		41.015625
2330		33.203125
2331		39.062500
2332		27.343750
2333		35.156250
2334		23.437500
2335		33.203125
2336		21.484375
2337		27.343750
2338		17.578125
2339		21.484375
2340		11.718750
2341		19.531250
2342		7.812500
2343		13.671875
2344		3.906250
2345		11.718750
2346		0.000000
2347		5.859375
2348		-3.906250
2349		1.953125
2350		-7.812500
2351		-1.953125
2352		-11.718750
2353		-5.859375
2354		-17.578125
2355		-11.718750
2356		-21.484375
2357		-13.671875
2358		-25.390625
2359		-19.531250
2360		-29.296875
2361		-21.484375
2362		-33.203125
2363		-27.343750
2364		-35.156250
2365		-31.250000
2366		-39.062500
2367		-33.203125
2368		-42.968750
2369		-37.109375
2370		-46.875000
2371		-41.015625
2372		-50.781250
2373		-44.921875
2374		-52.734375
2375		-46.875000
2376		-56.640625
2377		-50.781250
2378		-58.593750
2379		-54.687500
2380		-62.500000
2381		-56.640625
2382		-64.453125
2383		-60.546875
2384		-66.406250
2385		-62.500000
2386		-68.359375
2387		-64.453125
2388		-70.312500
2389		-66.406250
2390		-72.265625
2391		-68.359375
2392		-74.218750
2393		-70.312500
2394		-76.171875
2395		-72.265625
2396		-76.171875
2397		-72.265625
2398		-78.125000
2399		-74.218750
2400		-78.125000
2401		-74.218750
2402		-78.125000
2403		-74.218750
2404		-78.125000
2405		-74.218750
2406		-78.125000
2407		-76.171875
2408		-78.125000
2409		-76.171875
2410		-78.125000
2411		-74.218750
2412		-78.125000
2413		-74.218750
2414		-76.171875
2415		-74.218750
2416		-76.171875
2417		-70.312500
2418		-74.218750
2419		-70.312500
2420		-74.218750
2421		-68.359375
2422		-70.312500
2423		-68.359375
2424		-70.312500
2425		-66.406250
2426		-68.359375
2427		-62.500000
2428		-64.453125
2429		-60.546875
2430		-62.500000
2431		-58.593750
2432		-60.546875
2433		-54.687500
2434		-56.640625
2435		-52.734375
2436		-54.687500
2437		-48.828125
2438		-50.781250
2439		-46.875000
2440		-48.828125
2441		-42.968750
2442		-44.921875
2443		-39.062500
2444		-41.015625
2445		-37.109375
2446		-37.109375
2447		-33.203125
2448		-33.203125
2449		-29.296875
2450		-31.250000
2451		-25.390625
2452		-27.343750
2453		-19.531250
2454		-21.484375
2455		-17.578125
2456		-19.531250
2457		-13.671875
2458		-13.671875
2459		-7.812500
2460		-9.765625
2461		-3.906250
2462		-5.859375
2463		0.000000
2464		-1.953125
2465		3.906250
2466		1.953125
2467		7.812500
2468		5.859375
2469		13.671875
2470		9.765625
2471		15.625000
2472		13.671875
2473		21.484375
2474		19.531250
2475		23.437500
2476		23.437500
2477		27.343750
2478		27.343750
2479		31.250000
2480		31.250000
2481		37.109375
2482		35.156250
2483		41.015625
2484		37.109375
2485		44.921875
2486		41.015625
2487		46.875000
2488		44.921875
2489		50.781250
2490		48.828125
2491		52.734375
2492		50.781250
2493		56.640625
2494		54.687500
2495		60.546875
2496		58.593750
2497		62.500000
2498		62.500000
2499		66.406250
2500		64.453125
2501		70.312500
2502		66.406250
2503		70.312500
2504		70.312500
2505		74.218750
2506		72.265625
2507		76.171875
2508		74.218750
2509		78.125000
2510		76.171875
2511		80.078125
2512		76.171875
2513		82.031250
2514		80.078125
2515		83.984375
2516		82.031250
2517		85.937500
2518		82.031250
2519		85.937500
2520		83.984375
2521		87.890625
2522		85.937500
2523		87.890625
2524		85.937500
2525		87.890625
2526		85.937500
2527		89.843750
2528		85.937500
2529		89.843750
2530		87.890625
2531		89.843750
2532		87.890625
2533		89.843750
2534		87.890625
2535		89.843750
2536		85.937500
2537		89.843750
2538		85.937500
2539		89.843750
2540		85.937500
2541		87.890625
2542		85.937500
2543		87.890625
2544		83.984375
2545		87.890625
2546		83.984375
2547		85.937500
2548		82.031250
2549		85.937500
2550		80.078125
2551		83.984375
2552		78.125000
2553		82.031250
2554		76.171875
2555		80.078125
2556		74.218750
2557		78.125000
2558		72.265625
2559		76.171875
2560		70.312500
2561		74.218750
2562		66.406250
2563		72.265625
2564		64.453125
2565		68.359375
2566		60.546875
2567		66.406250
2568		58.593750
2569		62.500000
2570		54.687500
2571		60.546875
2572		52.734375
2573		56.640625
2574		48.828125
2575		52.734375
2576		44.921875
2577		50.781250
2578		41.015625
2579		46.875000
2580		37.109375
2581		42.968750
2582		33.203125
2583		39.062500
2584		29.296875
2585		35.156250
2586		25.390625
2587		31.250000
2588		21.484375
2589		27.343750
2590		17.578125
2591		23.437500
2592		13.671875
2593		19.531250
2594		9.765625
2595		15.625000
2596		5.859375
2597		11.718750
2598		1.953125
2599		5.859375
2600		-3.906250
2601		1.953125
2602		-7.812500
2603		0.000000
2604		-11.718750
2605		-5.859375
2606		-15.625000
2607		-9.765625
2608		-19.531250
2609		-13.671875
2610		-23.437500
2611		-17.578125
2612		-27.343750
2613		-21.484375
2614		-31.250000
2615		-25.390625
2616		-35.156250
2617		-29.296875
2618		-39.062500
2619		-33.203125
2620		-42.968750
2621		-37.109375
2622		-46.875000
2623		-41.015625
2624		-48.828125
2625		-44.921875
2626		-52.734375
2627		-48.828125
2628		-56.640625
2629		-50.781250
2630		-58.593750
2631		-54.687500
2632		-62.500000
2633		-58.593750
2634		-64.453125
2635		-60.546875
2636		-68.359375
2637		-62.500000
2638		-68.359375
2639		-64.453125
2640		-72.265625
2641		-66.406250
2642		-74.218750
2643		-70.312500
2644		-76.171875
2645		-72.265625
2646		-76.171875
2647		-72.265625
2648		-78.125000
2649		-74.218750
2650		-80.078125
2651		-76.171875
2652		-80.078125
2653		-76.171875
2654		-80.078125
2655		-76.171875
2656		-80.078125
2657		-78.125000
2658		-80.078125
2659		-78.125000
2660		-82.031250
2661		-78.125000
2662		-80.078125
2663		-76.171875
2664		-80.078125
2665		-78.125000
2666		-80.078125
2667		-76.171875
2668		-78.125000
2669		-76.171875
2670		-78.125000
2671		-74.218750
2672		-76.171875
2673		-72.265625
2674		-74.218750
2675		-70.312500
2676		-72.265625
2677		-68.359375
2678		-70.312500
2679		-66.406250
2680		-70.312500
2681		-64.453125
2682		-66.406250
2683		-62.500000
2684		-64.453125
2685		-58.593750
2686		-62.500000
2687		-56.640625
2688		-58.593750
2689		-52.734375
2690		-54.687500
2691		-50.781250
2692		-52.734375
2693		-46.875000
2694		-48.828125
2695		-44.921875
2696		-46.875000
2697		-41.015625
2698		-42.968750
2699		-37.109375
2700		-39.062500
2701		-33.203125
2702		-35.156250
2703		-29.296875
2704		-31.250000
2705		-25.390625
2706		-27.343750
2707		-21.484375
2708		-23.437500
2709		-17.578125
2710		-19.531250
2711		-13.671875
2712		-15.625000
2713		-9.765625
2714		-11.718750
2715		-5.859375
2716		-5.859375
2717		-1.953125
2718		-1.953125
2719		3.906250
2720		1.953125
2721		7.812500
2722		5.859375
2723		11.718750
2724		9.765625
2725		17.578125
2726		13.671875
2727		19.531250
2728		17.578125
2729		23.437500
2730		23.437500
2731		27.343750
2732		27.343750
2733		31.250000
2734		31.250000
2735		37.109375
2736		33.203125
2737		39.062500
2738		37.109375
2739		42.968750
2740		41.015625
2741		46.875000
2742		44.921875
2743		50.781250
2744		48.828125
2745		54.687500
2746		52.734375
2747		56.640625
2748		54.687500
2749		60.546875
2750		58.593750
2751		62.500000
2752		60.546875
2753		66.406250
2754		64.453125
2755		68.359375
2756		66.406250
2757		70.312500
2758		70.312500
2759		74.218750
2760		70.312500
2761		76.171875
2762		74.218750
2763		78.125000
2764		76.171875
2765		80.078125
2766		78.125000
2767		82.031250
2768		78.125000
2769		83.984375
2770		80.078125
2771		83.984375
2772		82.031250
2773		85.937500
2774		83.984375
2775		85.937500
2776		83.984375
2777		87.890625
2778		85.937500
2779		87.890625
2780		85.937500
2781		89.843750
2782		85.937500
2783		89.843750
2784		87.890625
2785		89.843750
2786		85.937500
2787		89.843750
2788		85.937500
2789		89.843750
2790		85.937500
2791		89.843750
2792		85.937500
2793		89.843750
2794		83.984375
2795		87.890625
2796		83.984375
2797		87.890625
2798		83.984375
2799		87.890625
2800		82.031250
2801		83.984375
2802		80.078125
2803		83.984375
2804		80.078125
2805		82.031250
2806		76.171875
2807		82.031250
2808		74.218750
2809		78.125000
2810		72.265625
2811		78.125000
2812		70.312500
2813		76.171875
2814		68.359375
2815		72.265625
2816		66.406250
2817		70.312500
2818		62.500000
2819		66.406250
2820		60.546875
2821		64.453125
2822		56.640625
2823		62.500000
2824		54.687500
2825		58.593750
2826		50.781250
2827		54.687500
2828		46.875000
2829		52.734375
2830		42.968750
2831		48.828125
2832		41.015625
2833		44.921875
2834		37.109375
2835		42.968750
2836		33.203125
2837		37.109375
2838		29.296875
2839		33.203125
2840		25.390625
2841		29.296875
2842		21.484375
2843		27.343750
2844		17.578125
2845		23.437500
2846		11.718750
2847		17.578125
2848		7.812500
2849		13.671875
2850		3.906250
2851		9.765625
2852		-1.953125
2853		5.859375
2854		-3.906250
2855		1.953125
2856		-7.812500
2857		-1.953125
2858		-13.671875
2859		-5.859375
2860		-17.578125
2861		-11.718750
2862		-21.484375
2863		-15.625000
2864		-25.390625
2865		-19.531250
2866		-29.296875
2867		-23.437500
2868		-33.203125
2869		-27.343750
2870		-37.109375
2871		-31.250000
2872		-39.062500
2873		-35.156250
2874		-42.968750
2875		-37.109375
2876		-46.875000
2877		-42.968750
2878		-50.781250
2879		-44.921875
2880		-54.687500
2881		-48.828125
2882		-56.640625
2883		-50.781250
2884		-58.593750
2885		-54.687500
2886		-62.500000
2887		-58.593750
2888		-64.453125
2889		-60.546875
2890		-66.406250
2891		-62.500000
2892		-68.359375
2893		-64.453125
2894		-72.265625
2895		-66.406250
2896		-74.218750
2897		-68.359375
2898		-74.218750
2899		-70.312500
2900		-76.171875
2901		-72.265625
2902		-76.171875
2903		-74.218750
2904		-78.125000
2905		-74.218750
2906		-78.125000
2907		-76.171875
2908		-80.078125
2909		-76.171875
2910		-80.078125
2911		-76.171875
2912		-80.078125
2913		-76.171875
2914		-80.078125
2915		-76.171875
2916		-80.078125
2917		-76.171875
2918		-78.125000
2919		-76.171875
2920		-78.125000
2921		-74.218750
2922		-78.125000
2923		-74.218750
2924		-76.171875
2925		-72.265625
2926		-74.218750
2927		-70.312500
2928		-72.265625
2929		-68.359375
2930		-72.265625
2931		-68.359375
2932		-70.312500
2933		-64.453125
2934		-66.406250
2935		-62.500000
2936		-64.453125
2937		-60.546875
2938		-62.500000
2939		-56.640625
2940		-60.546875
2941		-54.687500
2942		-56.640625
2943		-52.734375
2944		-52.734375
2945		-48.828125
2946		-50.781250
2947		-44.921875
2948		-46.875000
2949		-41.015625
2950		-42.968750
2951		-37.109375
2952		-41.015625
2953		-35.156250
2954		-37.109375
2955		-31.250000
2956		-31.250000
2957		-27.343750
2958		-27.343750
2959		-23.437500
2960		-23.437500
2961		-19.531250
2962		-21.484375
2963		-15.625000
2964		-15.625000
2965		-9.765625
2966		-13.671875
2967		-5.859375
2968		-7.812500
2969		-1.953125
2970		-3.906250
2971		1.953125
2972		0.000000
2973		5.859375
2974		3.906250
2975		9.765625
2976		9.765625
2977		13.671875
2978		13.671875
2979		19.531250
2980		17.578125
2981		23.437500
2982		21.484375
2983		27.343750
2984		25.390625
2985		31.250000
2986		29.296875
2987		35.156250
2988		31.250000
2989		39.062500
2990		37.109375
2991		42.968750
2992		41.015625
2993		44.921875
2994		44.921875
2995		48.828125
2996		48.828125
2997		52.734375
2998		50.781250
2999		56.640625
3000		52.734375
3001		58.593750
3002		58.593750
3003		62.500000
3004		60.546875
3005		66.406250
3006		62.500000
3007		68.359375
3008		66.406250
3009		70.312500
3010		68.359375
3011		74.218750
3012		72.265625
3013		76.171875
3014		74.218750
3015		78.125000
3016		74.218750
3017		80.078125
3018		78.125000
3019		82.031250
3020		80.078125
3021		83.984375
3022		82.031250
3023		85.937500
3024		83.984375
3025		85.937500
3026		83.984375
3027		87.890625
3028		85.937500
3029		89.843750
3030		85.937500
3031		89.843750
3032		85.937500
3033		91.796875
3034		87.890625
3035		89.843750
3036		87.890625
3037		89.843750
3038		87.890625
3039		91.796875
3040		87.890625
3041		91.796875
3042		87.890625
3043		91.796875
3044		87.890625
3045		89.843750
3046		87.890625
3047		91.796875
3048		85.937500
3049		89.843750
3050		85.937500
3051		89.843750
3052		83.984375
3053		87.890625
3054		82.031250
3055		87.890625
3056		82.031250
3057		85.937500
3058		80.078125
3059		83.984375
3060		78.125000
3061		82.031250
3062		76.171875
3063		80.078125
3064		74.218750
3065		78.125000
3066		72.265625
3067		76.171875
3068		70.312500
3069		74.218750
3070		66.406250
3071		70.312500
3072		64.453125
3073		70.312500
3074		60.546875
3075		66.406250
3076		58.593750
3077		62.500000
3078		54.687500
3079		58.593750
3080		50.781250
3081		56.640625
3082		46.875000
3083		52.734375
3084		44.921875
3085		50.781250
3086		41.015625
3087		46.875000
3088		37.109375
3089		42.968750
3090		33.203125
3091		39.062500
3092		29.296875
3093		35.156250
3094		25.390625
3095		31.250000
3096		21.484375
3097		27.343750
3098		17.578125
3099		23.437500
3100		13.671875
3101		17.578125
3102		7.812500
3103		13.671875
3104		1.953125
3105		9.765625
3106		0.000000
3107		5.859375
3108		-3.906250
3109		1.953125
3110		-7.812500
3111		-1.953125
3112		-11.718750
3113		-7.812500
3114		-15.625000
3115		-9.765625
3116		-21.484375
3117		-15.625000
3118		-25.390625
3119		-19.531250
3120		-29.296875
3121		-23.437500
3122		-33.203125
3123		-27.343750
3124		-37.109375
3125		-31.250000
3126		-41.015625
3127		-35.156250
3128		-42.968750
3129		-39.062500
3130		-46.875000
3131		-41.015625
3132		-50.781250
3133		-44.921875
3134		-52.734375
3135		-46.875000
3136		-56.640625
3137		-50.781250
3138		-60.546875
3139		-54.687500
3140		-62.500000
3141		-56.640625
3142		-64.453125
3143		-60.546875
3144		-66.406250
3145		-62.500000
3146		-68.359375
3147		-64.453125
3148		-70.312500
3149		-66.406250
3150		-72.265625
3151		-68.359375
3152		-74.218750
3153		-70.312500
3154		-74.218750
3155		-72.265625
3156		-76.171875
3157		-72.265625
3158		-78.125000
3159		-74.218750
3160		-78.125000
3161		-74.218750
3162		-78.125000
3163		-76.171875
3164		-80.078125
3165		-74.218750
3166		-78.125000
3167		-74.218750
3168		-80.078125
3169		-74.218750
3170		-78.125000
3171		-76.171875
3172		-78.125000
3173		-74.218750
3174		-76.171875
3175		-74.218750
3176		-76.171875
3177		-72.265625
3178		-74.218750
3179		-70.312500
3180		-74.218750
3181		-70.312500
3182		-72.265625
3183		-68.359375
3184		-68.359375
3185		-66.406250
3186		-68.359375
3187		-62.500000
3188		-64.453125
3189		-60.546875
3190		-62.500000
3191		-58.593750
3192		-60.546875
3193		-54.687500
3194		-56.640625
3195		-52.734375
3196		-54.687500
3197		-48.828125
3198		-50.781250
3199		-46.875000
3200		-48.828125
3201		-42.968750
3202		-44.921875
3203		-39.062500
3204		-41.015625
3205		-37.109375
3206		-37.109375
3207		-31.250000
3208		-33.203125
3209		-29.296875
3210		-31.250000
3211		-23.437500
3212		-25.390625
3213		-19.531250
3214		-21.484375
3215		-15.625000
3216		-17.578125
3217		-11.718750
3218		-13.671875
3219		-7.812500
3220		-9.765625
3221		-3.906250
3222		-5.859375
3223		0.000000
3224		-1.953125
3225		3.906250
3226		3.906250
3227		9.765625
3228		5.859375
3229		13.671875
3230		9.765625
3231		17.578125
3232		15.625000
3233		21.484375
3234		19.531250
3235		25.390625
3236		23.437500
3237		29.296875
3238		27.343750
3239		33.203125
3240		31.250000
3241		37.109375
3242		35.156250
3243		41.015625
3244		39.062500
3245		44.921875
3246		42.968750
3247		48.828125
3248		46.875000
3249		50.781250
3250		48.828125
3251		54.687500
3252		52.734375
3253		58.593750
3254		56.640625
3255		60.546875
3256		58.593750
3257		64.453125
3258		62.500000
3259		66.406250
3260		64.453125
3261		70.312500
3262		68.359375
3263		72.265625
3264		70.312500
3265		74.218750
3266		72.265625
3267		76.171875
3268		74.218750
3269		78.125000
3270		76.171875
3271		80.078125
3272		78.125000
3273		83.984375
3274		80.078125
3275		83.984375
3276		82.031250
3277		85.937500
3278		83.984375
3279		87.890625
3280		83.984375
3281		87.890625
3282		85.937500
3283		89.843750
3284		85.937500
3285		89.843750
3286		87.890625
3287		89.843750
3288		87.890625
3289		89.843750
3290		87.890625
3291		91.796875
3292		87.890625
3293		91.796875
3294		87.890625
3295		91.796875
3296		87.890625
3297		91.796875
3298		87.890625
3299		89.843750
3300		87.890625
3301		89.843750
3302		85.937500
3303		89.843750
3304		83.984375
3305		87.890625
3306		82.031250
3307		85.937500
3308		82.031250
3309		85.937500
3310		80.078125
3311		85.937500
3312		80.078125
3313		82.031250
3314		76.171875
3315		80.078125
3316		74.218750
3317		80.078125
3318		72.265625
3319		78.125000
3320		70.312500
3321		74.218750
3322		68.359375
3323		72.265625
3324		64.453125
3325		70.312500
3326		60.546875
3327		66.406250
3328		58.593750
3329		64.453125
3330		56.640625
3331		60.546875
3332		52.734375
3333		58.593750
3334		48.828125
3335		54.687500
3336		44.921875
3337		50.781250
3338		42.968750
3339		46.875000
3340		39.062500
3341		42.968750
3342		35.156250
3343		41.015625
3344		31.250000
3345		37.109375
3346		25.390625
3347		33.203125
3348		23.437500
3349		29.296875
3350		19.531250
3351		25.390625
3352		15.625000
3353		19.531250
3354		9.765625
3355		15.625000
3356		5.859375
3357		11.718750
3358		1.953125
3359		9.765625
3360		-1.953125
3361		3.906250
3362		-5.859375
3363		0.000000
3364		-9.765625
3365		-5.859375
3366		-15.625000
3367		-9.765625
3368		-19.531250
3369		-13.671875
3370		-21.484375
3371		-17.578125
3372		-27.343750
3373		-21.484375
3374		-31.250000
3375		-25.390625
3376		-35.156250
3377		-29.296875
3378		-39.062500
3379		-33.203125
3380		-42.968750
3381		-37.109375
3382		-44.921875
3383		-39.062500
3384		-48.828125
3385		-42.968750
3386		-52.734375
3387		-46.875000
3388		-56.640625
3389		-50.781250
3390		-58.593750
3391		-52.734375
3392		-60.546875
3393		-56.640625
3394		-62.500000
3395		-58.593750
3396		-66.406250
3397		-62.500000
3398		-68.359375
3399		-64.453125
3400		-70.312500
3401		-66.406250
3402		-72.265625
3403		-68.359375
3404		-74.218750
3405		-70.312500
3406		-74.218750
3407		-72.265625
3408		-76.171875
3409		-72.265625
3410		-78.125000
3411		-74.218750
3412		-78.125000
3413		-74.218750
3414		-78.125000
3415		-76.171875
3416		-80.078125
3417		-76.171875
3418		-80.078125
3419		-76.171875
3420		-80.078125
3421		-76.171875
3422		-78.125000
3423		-76.171875
3424		-78.125000
3425		-76.171875
3426		-78.125000
3427		-76.171875
3428		-78.125000
3429		-74.218750
3430		-76.171875
3431		-72.265625
3432		-76.171875
3433		-72.265625
3434		-74.218750
3435		-70.312500
3436		-72.265625
3437		-68.359375
3438		-70.312500
3439		-66.406250
3440		-68.359375
3441		-64.453125
3442		-66.406250
3443		-60.546875
3444		-62.500000
3445		-58.593750
3446		-60.546875
3447		-54.687500
3448		-56.640625
3449		-52.734375
3450		-54.687500
3451		-48.828125
3452		-50.781250
3453		-44.921875
3454		-48.828125
3455		-42.968750
3456		-44.921875
3457		-39.062500
3458		-41.015625
3459		-37.109375
3460		-37.109375
3461		-31.250000
3462		-33.203125
3463		-27.343750
3464		-29.296875
3465		-25.390625
3466		-25.390625
3467		-19.531250
3468		-21.484375
3469		-15.625000
3470		-17.578125
3471		-11.718750
3472		-13.671875
3473		-7.812500
3474		-9.765625
3475		-3.906250
3476		-5.859375
3477		0.000000
3478		-1.953125
3479		3.906250
3480		1.953125
3481		7.812500
3482		7.812500
3483		13.671875
3484		11.718750
3485		17.578125
3486		15.625000
3487		21.484375
3488		19.531250
3489		25.390625
3490		23.437500
3491		29.296875
3492		27.343750
3493		33.203125
3494		31.250000
3495		37.109375
3496		33.203125
3497		41.015625
3498		39.062500
3499		44.921875
3500		41.015625
3501		46.875000
3502		46.875000
3503		50.781250
3504		48.828125
3505		54.687500
3506		52.734375
3507		56.640625
3508		54.687500
3509		60.546875
3510		58.593750
3511		64.453125
3512		60.546875
3513		66.406250
3514		64.453125
3515		68.359375
3516		66.406250
3517		72.265625
3518		70.312500
3519		74.218750
3520		72.265625
3521		76.171875
3522		74.218750
3523		78.125000
3524		76.171875
3525		80.078125
3526		76.171875
3527		82.031250
3528		78.125000
3529		83.984375
3530		82.031250
3531		83.984375
3532		82.031250
3533		85.937500
3534		83.984375
3535		87.890625
3536		83.984375
3537		87.890625
3538		85.937500
3539		87.890625
3540		85.937500
3541		87.890625
3542		85.937500
3543		89.843750
3544		85.937500
3545		89.843750
3546		85.937500
3547		89.843750
3548		85.937500
3549		89.843750
3550		85.937500
3551		89.843750
3552		85.937500
3553		87.890625
3554		83.984375
3555		87.890625
3556		83.984375
3557		85.937500
3558		82.031250
3559		85.937500
3560		82.031250
3561		85.937500
3562		80.078125
3563		83.984375
3564		78.125000
3565		83.984375
3566		76.171875
3567		80.078125
3568		74.218750
3569		78.125000
3570		70.312500
3571		76.171875
3572		70.312500
3573		74.218750
3574		68.359375
3575		72.265625
3576		64.453125
3577		70.312500
3578		62.500000
3579		66.406250
3580		58.593750
3581		64.453125
3582		56.640625
3583		60.546875
3584		52.734375
3585		58.593750
3586		50.781250
3587		54.687500
3588		46.875000
3589		52.734375
3590		42.968750
3591		48.828125
3592		39.062500
3593		44.921875
3594		35.156250
3595		41.015625
3596		31.250000
3597		37.109375
3598		27.343750
3599		33.203125
3600		23.437500
3601		29.296875
3602		19.531250
3603		25.390625
3604		15.625000
3605		21.484375
3606		11.718750
3607		17.578125
3608		7.812500
3609		13.671875
3610		3.906250
3611		9.765625
3612		-1.953125
3613		3.906250
3614		-5.859375
3615		1.953125
3616		-9.765625
3617		-3.906250
3618		-13.671875
3619		-7.812500
3620		-17.578125
3621		-11.718750
3622		-21.484375
3623		-15.625000
3624		-25.390625
3625		-21.484375
3626		-29.296875
3627		-25.390625
3628		-33.203125
3629		-27.343750
3630		-37.109375
3631		-33.203125
3632		-41.015625
3633		-37.109375
3634		-44.921875
3635		-41.015625
3636		-48.828125
3637		-42.968750
3638		-50.781250
3639		-46.875000
3640		-54.687500
3641		-50.781250
3642		-58.593750
3643		-52.734375
3644		-60.546875
3645		-56.640625
3646		-64.453125
3647		-58.593750
3648		-66.406250
3649		-60.546875
3650		-68.359375
3651		-64.453125
3652		-70.312500
3653		-66.406250
3654		-74.218750
3655		-68.359375
3656		-74.218750
3657		-70.312500
3658		-76.171875
3659		-72.265625
3660		-78.125000
3661		-74.218750
3662		-78.125000
3663		-74.218750
3664		-80.078125
3665		-76.171875
3666		-80.078125
3667		-78.125000
3668		-80.078125
3669		-78.125000
3670		-82.031250
3671		-78.125000
3672		-80.078125
3673		-78.125000
3674		-80.078125
3675		-78.125000
3676		-82.031250
3677		-76.171875
3678		-80.078125
3679		-78.125000
3680		-80.078125
3681		-76.171875
3682		-78.125000
3683		-76.171875
3684		-76.171875
3685		-74.218750
3686		-76.171875
3687		-72.265625
3688		-74.218750
3689		-70.312500
3690		-72.265625
3691		-68.359375
3692		-70.312500
3693		-66.406250
3694		-68.359375
3695		-64.453125
3696		-66.406250
3697		-60.546875
3698		-64.453125
3699		-58.593750
3700		-60.546875
3701		-54.687500
3702		-58.593750
3703		-50.781250
3704		-54.687500
3705		-48.828125
3706		-52.734375
3707		-46.875000
3708		-48.828125
3709		-42.968750
3710		-44.921875
3711		-39.062500
3712		-41.015625
3713		-35.156250
3714		-37.109375
3715		-33.203125
3716		-33.203125
3717		-27.343750
3718		-29.296875
3719		-23.437500
3720		-25.390625
3721		-19.531250
3722		-21.484375
3723		-15.625000
3724		-17.578125
3725		-11.718750
3726		-13.671875
3727		-7.812500
3728		-9.765625
3729		-3.906250
3730		-5.859375
3731		0.000000
3732		0.000000
3733		3.906250
3734		3.906250
3735		9.765625
3736		7.812500
3737		13.671875
3738		11.718750
3739		17.578125
3740		15.625000
3741		21.484375
3742		19.531250
3743		25.390625
3744		23.437500
3745		29.296875
3746		27.343750
3747		33.203125
3748		31.250000
3749		37.109375
3750		35.156250
3751		41.015625
3752		39.062500
3753		44.921875
3754		42.968750
3755		46.875000
3756		44.921875
3757		50.781250
3758		48.828125
3759		54.687500
3760		52.734375
3761		58.593750
3762		56.640625
3763		60.546875
3764		58.593750
3765		64.453125
3766		62.500000
3767		66.406250
3768		64.453125
3769		68.359375
3770		66.406250
3771		70.312500
3772		70.312500
3773		74.218750
3774		72.265625
3775		76.171875
3776		74.218750
3777		78.125000
3778		76.171875
3779		80.078125
3780		78.125000
3781		82.031250
3782		80.078125
3783		82.031250
3784		80.078125
3785		83.984375
3786		82.031250
3787		85.937500
3788		83.984375
3789		85.937500
3790		83.984375
3791		87.890625
3792		85.937500
3793		87.890625
3794		85.937500
3795		89.843750
3796		85.937500
3797		89.843750
3798		85.937500
3799		89.843750
3800		85.937500
3801		89.843750
3802		85.937500
3803		89.843750
3804		85.937500
3805		89.843750
3806		83.984375
3807		87.890625
3808		83.984375
3809		87.890625
3810		82.031250
3811		85.937500
3812		82.031250
3813		85.937500
3814		80.078125
3815		83.984375
3816		80.078125
3817		83.984375
3818		78.125000
3819		82.031250
3820		76.171875
3821		80.078125
3822		72.265625
3823		78.125000
3824		72.265625
3825		74.218750
3826		68.359375
3827		74.218750
3828		66.406250
3829		70.312500
3830		64.453125
3831		68.359375
3832		60.546875
3833		66.406250
3834		58.593750
3835		62.500000
3836		54.687500
3837		60.546875
3838		52.734375
3839		56.640625
3840		48.828125
3841		54.687500
3842		44.921875
3843		50.781250
3844		41.015625
3845		46.875000
3846		37.109375
3847		44.921875
3848		33.203125
3849		39.062500
3850		29.296875
3851		35.156250
3852		25.390625
3853		31.250000
3854		21.484375
3855		27.343750
3856		17.578125
3857		23.437500
3858		13.671875
3859		19.531250
3860		9.765625
3861		15.625000
3862		5.859375
3863		11.718750
3864		1.953125
3865		7.812500
3866		-1.953125
3867		3.906250
3868		-7.812500
3869		-1.953125
3870		-9.765625
3871		-5.859375
3872		-15.625000
3873		-9.765625
3874		-19.531250
3875		-13.671875
3876		-23.437500
3877		-17.578125
3878		-27.343750
3879		-21.484375
3880		-31.250000
3881		-25.390625
3882		-35.156250
3883		-29.296875
3884		-39.062500
3885		-33.203125
3886		-42.968750
3887		-37.109375
3888		-46.875000
3889		-41.015625
3890		-48.828125
3891		-44.921875
3892		-52.734375
3893		-48.828125
3894		-56.640625
3895		-50.781250
3896		-58.593750
3897		-54.687500
3898		-62.500000
3899		-56.640625
3900		-64.453125
3901		-60.546875
3902		-66.406250
3903		-62.500000
3904		-68.359375
3905		-64.453125
3906		-72.265625
3907		-66.406250
3908		-72.265625
3909		-70.312500
3910		-74.218750
3911		-72.265625
3912		-76.171875
3913		-72.265625
3914		-78.125000
3915		-74.218750
3916		-78.125000
3917		-74.218750
3918		-80.078125
3919		-76.171875
3920		-80.078125
3921		-76.171875
3922		-80.078125
3923		-78.125000
3924		-82.031250
3925		-78.125000
3926		-80.078125
3927		-78.125000
3928		-80.078125
3929		-76.171875
3930		-80.078125
3931		-76.171875
3932		-80.078125
3933		-76.171875
3934		-78.125000
3935		-76.171875
3936		-78.125000
3937		-74.218750
3938		-76.171875
3939		-72.265625
3940		-76.171875
3941		-70.312500
3942		-72.265625
3943		-70.312500
3944		-70.312500
3945		-68.359375
3946		-70.312500
3947		-64.453125
3948		-66.406250
3949		-62.500000
3950		-66.406250
3951		-60.546875
3952		-62.500000
3953		-56.640625
3954		-58.593750
3955		-54.687500
3956		-56.640625
3957		-50.781250
3958		-54.687500
3959		-48.828125
3960		-48.828125
3961		-44.921875
3962		-46.875000
3963		-41.015625
3964		-42.968750
3965		-37.109375
3966		-39.062500
3967		-33.203125
3968		-35.156250
3969		-29.296875
3970		-31.250000
3971		-25.390625
3972		-27.343750
3973		-21.484375
3974		-23.437500
3975		-17.578125
3976		-19.531250
3977		-13.671875
3978		-15.625000
3979		-9.765625
3980		-11.718750
3981		-5.859375
3982		-7.812500
3983		-1.953125
3984		-3.906250
3985		1.953125
3986		1.953125
3987		7.812500
3988		5.859375
3989		11.718750
3990		9.765625
3991		17.578125
3992		13.671875
3993		19.531250
3994		17.578125
3995		23.437500
3996		21.484375
3997		27.343750
3998		25.390625
3999		31.250000
4000		31.250000
4001		37.109375
4002		33.203125
4003		39.062500
4004		37.109375
4005		42.968750
4006		41.015625
4007		46.875000
4008		44.921875
4009		50.781250
4010		48.828125
4011		52.734375
4012		52.734375
4013		56.640625
4014		54.687500
4015		60.546875
4016		58.593750
4017		62.500000
4018		60.546875
4019		66.406250
4020		64.453125
4021		70.312500
4022		66.406250
4023		70.312500
4024		68.359375
4025		74.218750
4026		72.265625
4027		76.171875
4028		74.218750
4029		78.125000
4030		74.218750
4031		80.078125
4032		78.125000
4033		82.031250
4034		80.078125
4035		83.984375
4036		82.031250
4037		85.937500
4038		82.031250
4039		85.937500
4040		83.984375
4041		87.890625
4042		83.984375
4043		87.890625
4044		85.937500
4045		89.843750
4046		85.937500
4047		89.843750
4048		87.890625
4049		89.843750
4050		87.890625
4051		89.843750
4052		87.890625
4053		89.843750
4054		85.937500
4055		89.843750
4056		85.937500
4057		89.843750
4058		85.937500
4059		89.843750
4060		85.937500
4061		87.890625
4062		85.937500
4063		87.890625
4064		83.984375
4065		87.890625
4066		82.031250
4067		85.937500
4068		82.031250
4069		85.937500
4070		80.078125
4071		83.984375
4072		78.125000
4073		82.031250
4074		76.171875
4075		80.078125
4076		74.218750
4077		78.125000
4078		72.265625
4079		76.171875
4080		70.312500
4081		74.218750
4082		66.406250
4083		72.265625
4084		64.453125
4085		68.359375
4086		62.500000
4087		66.406250
4088		58.593750
4089		62.500000
4090		54.687500
4091		60.546875
4092		52.734375
4093		56.640625
4094		48.828125
4095		54.687500
4096		44.921875
4097		50.781250
4098		41.015625
4099		46.875000
4100		39.062500
4101		42.968750
4102		35.156250
4103		41.015625
4104		29.296875
4105		35.156250
4106		27.343750
4107		33.203125
4108		21.484375
4109		27.343750
4110		19.531250
4111		23.437500
4112		13.671875
4113		19.531250
4114		9.765625
4115		15.625000
4116		5.859375
4117		11.718750
4118		1.953125
4119		7.812500
4120		-1.953125
4121		3.906250
4122		-5.859375
4123		0.000000
4124		-9.765625
4125		-3.906250
4126		-13.671875
4127		-7.812500
4128		-19.531250
4129		-13.671875
4130		-23.437500
4131		-17.578125
4132		-27.343750
4133		-21.484375
4134		-31.250000
4135		-25.390625
4136		-35.156250
4137		-29.296875
4138		-39.062500
4139		-31.250000
4140		-42.968750
4141		-37.109375
4142		-44.921875
4143		-41.015625
4144		-48.828125
4145		-44.921875
4146		-52.734375
4147		-46.875000
4148		-54.687500
4149		-50.781250
4150		-58.593750
4151		-52.734375
4152		-60.546875
4153		-56.640625
4154		-64.453125
4155		-58.593750
4156		-66.406250
4157		-62.500000
4158		-68.359375
4159		-64.453125
4160		-70.312500
4161		-64.453125
4162		-72.265625
4163		-68.359375
4164		-74.218750
4165		-70.312500
4166		-74.218750
4167		-70.312500
4168		-76.171875
4169		-72.265625
4170		-78.125000
4171		-72.265625
4172		-78.125000
4173		-74.218750
4174		-78.125000
4175		-74.218750
4176		-78.125000
4177		-76.171875
4178		-78.125000
4179		-76.171875
4180		-78.125000
4181		-74.218750
4182		-78.125000
4183		-74.218750
4184		-78.125000
4185		-74.218750
4186		-78.125000
4187		-74.218750
4188		-78.125000
4189		-72.265625
4190		-76.171875
4191		-70.312500
4192		-74.218750
4193		-70.312500
4194		-72.265625
4195		-68.359375
4196		-70.312500
4197		-68.359375
4198		-68.359375
4199		-64.453125
4200		-66.406250
4201		-62.500000
4202		-64.453125
4203		-58.593750
4204		-62.500000
4205		-56.640625
4206		-60.546875
4207		-54.687500
4208		-56.640625
4209		-50.781250
4210		-54.687500
4211		-48.828125
4212		-50.781250
4213		-44.921875
4214		-46.875000
4215		-41.015625
4216		-42.968750
4217		-39.062500
4218		-41.015625
4219		-35.156250
4220		-37.109375
4221		-31.250000
4222		-33.203125
4223		-25.390625
4224		-29.296875
4225		-23.437500
4226		-25.390625
4227		-19.531250
4228		-21.484375
4229		-15.625000
4230		-17.578125
4231		-11.718750
4232		-13.671875
4233		-5.859375
4234		-9.765625
4235		-1.953125
4236		-5.859375
4237		1.953125
4238		-1.953125
4239		5.859375
4240		1.953125
4241		9.765625
4242		7.812500
4243		15.625000
4244		9.765625
4245		17.578125
4246		15.625000
4247		21.484375
4248		19.531250
4249		27.343750
4250		23.437500
4251		31.250000
4252		27.343750
4253		35.156250
4254		31.250000
4255		39.062500
4256		35.156250
4257		42.968750
4258		39.062500
4259		46.875000
4260		42.968750
4261		48.828125
4262		46.875000
4263		52.734375
4264		50.781250
4265		56.640625
4266		52.734375
4267		58.593750
4268		56.640625
4269		62.500000
4270		58.593750
4271		64.453125
4272		62.500000
4273		68.359375
4274		64.453125
4275		72.265625
4276		66.406250
4277		74.218750
4278		70.312500
4279		74.218750
4280		72.265625
4281		76.171875
4282		74.218750
4283		80.078125
4284		76.171875
4285		82.031250
4286		78.125000
4287		83.984375
4288		80.078125
4289		85.937500
4290		82.031250
4291		85.937500
4292		82.031250
4293		87.890625
4294		83.984375
4295		87.890625
4296		85.937500
4297		87.890625
4298		85.937500
4299		89.843750
4300		87.890625
4301		89.843750
4302		85.937500
4303		89.843750
4304		87.890625
4305		89.843750
4306		87.890625
4307		89.843750
4308		87.890625
4309		89.843750
4310		87.890625
4311		89.843750
4312		87.890625
4313		89.843750
4314		85.937500
4315		89.843750
4316		85.937500
4317		87.890625
4318		83.984375
4319		87.890625
4320		83.984375
4321		85.937500
4322		82.031250
4323		83.984375
4324		80.078125
4325		83.984375
4326		78.125000
4327		82.031250
4328		76.171875
4329		80.078125
4330		74.218750
4331		78.125000
4332		72.265625
4333		76.171875
4334		68.359375
4335		74.218750
4336		66.406250
4337		70.312500
4338		64.453125
4339		68.359375
4340		60.546875
4341		64.453125
4342		58.593750
4343		62.500000
4344		54.687500
4345		58.593750
4346		50.781250
4347		56.640625
4348		46.875000
4349		52.734375
4350		44.921875
4351		48.828125
4352		41.015625
4353		44.921875
4354		37.109375
4355		42.968750
4356		33.203125
4357		39.062500
4358		29.296875
4359		35.156250
4360		23.437500
4361		31.250000
4362		21.484375
4363		27.343750
4364		17.578125
4365		21.484375
4366		13.671875
4367		17.578125
4368		7.812500
4369		13.671875
4370		3.906250
4371		9.765625
4372		0.000000
4373		5.859375
4374		-3.906250
4375		1.953125
4376		-7.812500
4377		-3.906250
4378		-11.718750
4379		-7.812500
4380		-17.578125
4381		-11.718750
4382		-21.484375
4383		-15.625000
4384		-25.390625
4385		-19.531250
4386		-29.296875
4387		-23.437500
4388		-33.203125
4389		-27.343750
4390		-37.109375
4391		-31.250000
4392		-41.015625
4393		-35.156250
4394		-42.968750
4395		-39.062500
4396		-46.875000
4397		-42.968750
4398		-50.781250
4399		-46.875000
4400		-54.687500
4401		-46.875000
4402		-58.593750
4403		-48.828125
4404		-62.500000
4405		-52.734375
4406		-62.500000
4407		-58.593750
4408		-66.406250
4409		-60.546875
4410		-68.359375
4411		-64.453125
4412		-70.312500
4413		-66.406250
4414		-72.265625
4415		-68.359375
4416		-76.171875
4417		-68.359375
4418		-78.125000
4419		-70.312500
4420		-80.078125
4421		-70.312500
4422		-78.125000
4423		-74.218750
4424		-78.125000
4425		-76.171875
4426		-80.078125
4427		-76.171875
4428		-80.078125
4429		-78.125000
4430		-80.078125
4431		-78.125000
4432		-83.984375
4433		-76.171875
4434		-83.984375
4435		-74.218750
4436		-82.031250
4437		-74.218750
4438		-82.031250
4439		-74.218750
4440		-78.125000
4441		-76.171875
4442		-78.125000
4443		-74.218750
4444		-76.171875
4445		-74.218750
4446		-76.171875
4447		-72.265625
4448		-74.218750
4449		-70.312500
4450		-76.171875
4451		-64.453125
4452		-72.265625
4453		-62.500000
4454		-70.312500
4455		-60.546875
4456		-66.406250
4457		-62.500000
4458		-62.500000
4459		-58.593750
4460		-60.546875
4461		-56.640625
4462		-56.640625
4463		-52.734375
4464		-54.687500
4465		-48.828125
4466		-52.734375
4467		-42.968750
4468		-50.781250
4469		-39.062500
4470		-48.828125
4471		-35.156250
4472		-44.921875
4473		-35.156250
4474		-37.109375
4475		-31.250000
4476		-33.203125
4477		-29.296875
4478		-29.296875
4479		-25.390625
4480		-25.390625
4481		-19.531250
4482		-21.484375
4483		-15.625000
4484		-19.531250
4485		-9.765625
4486		-15.625000
4487		-5.859375
4488		-11.718750
4489		-1.953125
4490		-5.859375
4491		0.000000
4492		-1.953125
4493		3.906250
4494		3.906250
4495		7.812500
4496		7.812500
4497		13.671875
4498		11.718750
4499		17.578125
4500		13.671875
4501		25.390625
4502		15.625000
4503		29.296875
4504		21.484375
4505		33.203125
4506		27.343750
4507		33.203125
4508		31.250000
4509		37.109375
4510		35.156250
4511		41.015625
4512		39.062500
4513		44.921875
4514		42.968750
4515		48.828125
4516		44.921875
4517		54.687500
4518		44.921875
4519		56.640625
4520		48.828125
4521		60.546875
4522		52.734375
4523		62.500000
4524		58.593750
4525		62.500000
4526		62.500000
4527		66.406250
4528		64.453125
4529		68.359375
4530		66.406250
4531		70.312500
4532		70.312500
4533		74.218750
4534		68.359375
4535		78.125000
4536		70.312500
4537		82.031250
4538		72.265625
4539		82.031250
4540		78.125000
4541		82.031250
4542		80.078125
4543		82.031250
4544		82.031250
4545		83.984375
4546		82.031250
4547		83.984375
4548		83.984375
4549		85.937500
4550		82.031250
4551		89.843750
4552		82.031250
4553		91.796875
4554		82.031250
4555		91.796875
4556		83.984375
4557		91.796875
4558		85.937500
4559		87.890625
4560		85.937500
4561		87.890625
4562		85.937500
4563		87.890625
4564		85.937500
4565		87.890625
4566		83.984375
4567		87.890625
4568		80.078125
4569		89.843750
4570		80.078125
4571		89.843750
4572		78.125000
4573		87.890625
4574		80.078125
4575		83.984375
4576		78.125000
4577		82.031250
4578		78.125000
4579		80.078125
4580		76.171875
4581		78.125000
4582		72.265625
4583		76.171875
4584		70.312500
4585		74.218750
4586		68.359375
4587		74.218750
4588		64.453125
4589		72.265625
4590		62.500000
4591		68.359375
4592		60.546875
4593		64.453125
4594		58.593750
4595		62.500000
4596		54.687500
4597		58.593750
4598		50.781250
4599		56.640625
4600		48.828125
4601		52.734375
4602		41.015625
4603		48.828125
4604		39.062500
4605		46.875000
4606		37.109375
4607		44.921875
4608		33.203125
4609		39.062500
4610		29.296875
4611		35.156250
4612		25.390625
4613		31.250000
4614		21.484375
4615		27.343750
4616		17.578125
4617		23.437500
4618		13.671875
4619		19.531250
4620		7.812500
4621		15.625000
4622		3.906250
4623		11.718750
4624		0.000000
4625		5.859375
4626		-3.906250
4627		1.953125
4628		-7.812500
4629		-1.953125
4630		-11.718750
4631		-5.859375
4632		-15.625000
4633		-9.765625
4634		-19.531250
4635		-15.625000
4636		-23.437500
4637		-19.531250
4638		-29.296875
4639		-23.437500
4640		-31.250000
4641		-27.343750
4642		-37.109375
4643		-31.250000
4644		-39.062500
4645		-35.156250
4646		-42.968750
4647		-39.062500
4648		-46.875000
4649		-42.968750
4650		-50.781250
4651		-44.921875
4652		-54.687500
4653		-48.828125
4654		-56.640625
4655		-52.734375
4656		-60.546875
4657		-56.640625
4658		-62.500000
4659		-58.593750
4660		-66.406250
4661		-60.546875
4662		-68.359375
4663		-64.453125
4664		-70.312500
4665		-66.406250
4666		-72.265625
4667		-68.359375
4668		-74.218750
4669		-70.312500
4670		-76.171875
4671		-72.265625
4672		-78.125000
4673		-74.218750
4674		-78.125000
4675		-76.171875
4676		-80.078125
4677		-76.171875
4678		-80.078125
4679		-76.171875
4680		-82.031250
4681		-78.125000
4682		-82.031250
4683		-80.078125
4684		-82.031250
4685		-80.078125
4686		-82.031250
4687		-80.078125
4688		-82.031250
4689		-78.125000
4690		-82.031250
4691		-78.125000
4692		-82.031250
4693		-78.125000
4694		-80.078125
4695		-78.125000
4696		-78.125000
4697		-76.171875
4698		-78.125000
4699		-74.218750
4700		-76.171875
4701		-72.265625
4702		-76.171875
4703		-70.312500
4704		-72.265625
4705		-68.359375
4706		-70.312500
4707		-66.406250
4708		-68.359375
4709		-64.453125
4710		-66.406250
4711		-62.500000
4712		-62.500000
4713		-58.593750
4714		-60.546875
4715		-56.640625
4716		-58.593750
4717		-52.734375
4718		-54.687500
4719		-48.828125
4720		-52.734375
4721		-44.921875
4722		-46.875000
4723		-42.968750
4724		-44.921875
4725		-39.062500
4726		-41.015625
4727		-35.156250
4728		-37.109375
4729		-31.250000
4730		-33.203125
4731		-27.343750
4732		-29.296875
4733		-23.437500
4734		-25.390625
4735		-19.531250
4736		-21.484375
4737		-15.625000
4738		-17.578125
4739		-11.718750
4740		-11.718750
4741		-7.812500
4742		-7.812500
4743		-1.953125
4744		-5.859375
4745		1.953125
4746		0.000000
4747		5.859375
4748		3.906250
4749		9.765625
4750		7.812500
4751		13.671875
4752		11.718750
4753		19.531250
4754		15.625000
4755		23.437500
4756		21.484375
4757		25.390625
4758		25.390625
4759		31.250000
4760		27.343750
4761		35.156250
4762		33.203125
4763		37.109375
4764		37.109375
4765		41.015625
4766		41.015625
4767		44.921875
4768		42.968750
4769		50.781250
4770		46.875000
4771		52.734375
4772		50.781250
4773		54.687500
4774		54.687500
4775		58.593750
4776		56.640625
4777		62.500000
4778		58.593750
4779		64.453125
4780		62.500000
4781		68.359375
4782		66.406250
4783		70.312500
4784		68.359375
4785		72.265625
4786		70.312500
4787		74.218750
4788		72.265625
4789		76.171875
4790		74.218750
4791		78.125000
4792		76.171875
4793		80.078125
4794		78.125000
4795		82.031250
4796		80.078125
4797		83.984375
4798		82.031250
4799		83.984375
4800		82.031250
4801		85.937500
4802		82.031250
4803		87.890625
4804		83.984375
4805		87.890625
4806		83.984375
4807		87.890625
4808		85.937500
4809		87.890625
4810		85.937500
4811		89.843750
4812		85.937500
4813		89.843750
4814		85.937500
4815		89.843750
4816		85.937500
4817		87.890625
4818		85.937500
4819		87.890625
4820		83.984375
4821		87.890625
4822		83.984375
4823		87.890625
4824		83.984375
4825		85.937500
4826		82.031250
4827		85.937500
4828		80.078125
4829		83.984375
4830		78.125000
4831		82.031250
4832		78.125000
4833		80.078125
4834		76.171875
4835		78.125000
4836		72.265625
4837		78.125000
4838		70.312500
4839		76.171875
4840		68.359375
4841		74.218750
4842		66.406250
4843		70.312500
4844		62.500000
4845		68.359375
4846		60.546875
4847		64.453125
4848		56.640625
4849		62.500000
4850		54.687500
4851		58.593750
4852		50.781250
4853		56.640625
4854		46.875000
4855		54.687500
4856		44.921875
4857		48.828125
4858		41.015625
4859		44.921875
4860		37.109375
4861		42.968750
4862		33.203125
4863		41.015625
4864		29.296875
4865		35.156250
4866		25.390625
4867		31.250000
4868		21.484375
4869		27.343750
4870		17.578125
4871		23.437500
4872		13.671875
4873		17.578125
4874		7.812500
4875		15.625000
4876		3.906250
4877		9.765625
4878		0.000000
4879		5.859375
4880		-3.906250
4881		1.953125
4882		-7.812500
4883		-1.953125
4884		-11.718750
4885		-5.859375
4886		-15.625000
4887		-9.765625
4888		-19.531250
4889		-15.625000
4890		-25.390625
4891		-19.531250
4892		-27.343750
4893		-23.437500
4894		-33.203125
4895		-27.343750
4896		-35.156250
4897		-29.296875
4898		-39.062500
4899		-35.156250
4900		-42.968750
4901		-39.062500
4902		-46.875000
4903		-41.015625
4904		-50.781250
4905		-44.921875
4906		-52.734375
4907		-48.828125
4908		-56.640625
4909		-52.734375
4910		-58.593750
4911		-54.687500
4912		-62.500000
4913		-56.640625
4914		-64.453125
4915		-60.546875
4916		-66.406250
4917		-62.500000
4918		-68.359375
4919		-64.453125
4920		-70.312500
4921		-68.359375
4922		-72.265625
4923		-70.312500
4924		-74.218750
4925		-72.265625
4926		-76.171875
4927		-72.265625
4928		-76.171875
4929		-74.218750
4930		-78.125000
4931		-76.171875
4932		-78.125000
4933		-76.171875
4934		-80.078125
4935		-76.171875
4936		-80.078125
4937		-76.171875
4938		-80.078125
4939		-76.171875
4940		-80.078125
4941		-78.125000
4942		-80.078125
4943		-76.171875
4944		-78.125000
4945		-76.171875
4946		-78.125000
4947		-76.171875
4948		-76.171875
4949		-74.218750
4950		-76.171875
4951		-72.265625
4952		-74.218750
4953		-72.265625
4954		-72.265625
4955		-70.312500
4956		-72.265625
4957		-68.359375
4958		-70.312500
4959		-66.406250
4960		-66.406250
4961		-64.453125
4962		-64.453125
4963		-60.546875
4964		-62.500000
4965		-58.593750
4966		-60.546875
4967		-54.687500
4968		-56.640625
4969		-52.734375
4970		-54.687500
4971		-48.828125
4972		-50.781250
4973		-46.875000
4974		-46.875000
4975		-42.968750
4976		-44.921875
4977		-39.062500
4978		-41.015625
4979		-35.156250
4980		-37.109375
4981		-31.250000
4982		-33.203125
4983		-27.343750
4984		-29.296875
4985		-23.437500
4986		-25.390625
4987		-19.531250
4988		-21.484375
4989		-15.625000
4990		-17.578125
4991		-11.718750
4992		-13.671875
4993		-7.812500
4994		-9.765625
4995		-3.906250
4996		-5.859375
4997		0.000000
4998		0.000000
4999		5.859375
5000		3.906250
5001		9.765625
5002		7.812500
5003		13.671875
5004		11.718750
5005		17.578125
5006		15.625000
5007		21.484375
5008		19.531250
5009		25.390625
5010		23.437500
5011		29.296875
5012		29.296875
5013		33.203125
5014		33.203125
5015		37.109375
5016		37.109375
5017		41.015625
5018		39.062500
5019		44.921875
5020		42.968750
5021		48.828125
5022		44.921875
5023		52.734375
5024		48.828125
5025		54.687500
5026		54.687500
5027		58.593750
5028		56.640625
5029		62.500000
5030		60.546875
5031		64.453125
5032		62.500000
5033		66.406250
5034		66.406250
5035		70.312500
5036		68.359375
5037		72.265625
5038		70.312500
5039		76.171875
5040		72.265625
5041		78.125000
5042		76.171875
5043		78.125000
5044		78.125000
5045		80.078125
5046		80.078125
5047		82.031250
5048		82.031250
5049		83.984375
5050		82.031250
5051		85.937500
5052		83.984375
5053		85.937500
5054		83.984375
5055		89.843750
5056		83.984375
5057		89.843750
5058		85.937500
5059		89.843750
5060		87.890625
5061		89.843750
5062		87.890625
5063		89.843750
5064		87.890625
5065		89.843750
5066		87.890625
5067		89.843750
5068		87.890625
5069		89.843750
5070		87.890625
5071		89.843750
5072		85.937500
5073		91.796875
5074		83.984375
5075		91.796875
5076		85.937500
5077		87.890625
5078		83.984375
5079		87.890625
5080		83.984375
5081		85.937500
5082		82.031250
5083		83.984375
5084		80.078125
5085		83.984375
5086		78.125000
5087		82.031250
5088		74.218750
5089		80.078125
5090		72.265625
5091		78.125000
5092		72.265625
5093		76.171875
5094		70.312500
5095		72.265625
5096		66.406250
5097		70.312500
5098		64.453125
5099		68.359375
5100		60.546875
5101		64.453125
5102		58.593750
5103		62.500000
5104		54.687500
5105		58.593750
5106		50.781250
5107		58.593750
5108		48.828125
5109		54.687500
5110		44.921875
5111		48.828125
5112		41.015625
5113		46.875000
5114		37.109375
5115		42.968750
5116		33.203125
5117		39.062500
5118		29.296875
5119		35.156250
5120		25.390625
5121		31.250000
5122		19.531250
5123		27.343750
5124		17.578125
5125		23.437500
5126		13.671875
5127		17.578125
5128		7.812500
5129		13.671875
5130		5.859375
5131		9.765625
5132		0.000000
5133		5.859375
5134		-3.906250
5135		1.953125
5136		-7.812500
5137		-1.953125
5138		-13.671875
5139		-5.859375
5140		-17.578125
5141		-9.765625
5142		-19.531250
5143		-13.671875
5144		-23.437500
5145		-19.531250
5146		-27.343750
5147		-23.437500
5148		-31.250000
5149		-27.343750
5150		-37.109375
5151		-31.250000
5152		-39.062500
5153		-33.203125
5154		-42.968750
5155		-37.109375
5156		-46.875000
5157		-41.015625
5158		-48.828125
5159		-42.968750
5160		-52.734375
5161		-48.828125
5162		-56.640625
5163		-50.781250
5164		-58.593750
5165		-54.687500
5166		-60.546875
5167		-56.640625
5168		-64.453125
5169		-60.546875
5170		-66.406250
5171		-62.500000
5172		-70.312500
5173		-64.453125
5174		-72.265625
5175		-64.453125
5176		-72.265625
5177		-68.359375
5178		-74.218750
5179		-70.312500
5180		-74.218750
5181		-72.265625
5182		-76.171875
5183		-72.265625
5184		-76.171875
5185		-74.218750
5186		-78.125000
5187		-74.218750
5188		-78.125000
5189		-76.171875
5190		-80.078125
5191		-74.218750
5192		-80.078125
5193		-74.218750
5194		-78.125000
5195		-76.171875
5196		-78.125000
5197		-76.171875
5198		-78.125000
5199		-74.218750
5200		-76.171875
5201		-74.218750
5202		-76.171875
5203		-72.265625
5204		-74.218750
5205		-72.265625
5206		-72.265625
5207		-70.312500
5208		-72.265625
5209		-68.359375
5210		-70.312500
5211		-66.406250
5212		-68.359375
5213		-64.453125
5214		-66.406250
5215		-60.546875
5216		-62.500000
5217		-58.593750
5218		-60.546875
5219		-56.640625
5220		-58.593750
5221		-52.734375
5222		-54.687500
5223		-48.828125
5224		-52.734375
5225		-46.875000
5226		-48.828125
5227		-42.968750
5228		-44.921875
5229		-41.015625
5230		-41.015625
5231		-37.109375
5232		-37.109375
5233		-33.203125
5234		-35.156250
5235		-29.296875
5236		-31.250000
5237		-25.390625
5238		-27.343750
5239		-21.484375
5240		-23.437500
5241		-17.578125
5242		-19.531250
5243		-13.671875
5244		-13.671875
5245		-9.765625
5246		-9.765625
5247		-5.859375
5248		-5.859375
5249		0.000000
5250		-1.953125
5251		3.906250
5252		1.953125
5253		7.812500
5254		5.859375
5255		11.718750
5256		9.765625
5257		15.625000
5258		13.671875
5259		19.531250
5260		17.578125
5261		23.437500
5262		21.484375
5263		27.343750
5264		27.343750
5265		31.250000
5266		31.250000
5267		35.156250
5268		35.156250
5269		39.062500
5270		39.062500
5271		42.968750
5272		41.015625
5273		46.875000
5274		44.921875
5275		50.781250
5276		48.828125
5277		52.734375
5278		52.734375
5279		56.640625
5280		54.687500
5281		60.546875
5282		58.593750
5283		62.500000
5284		62.500000
5285		66.406250
5286		64.453125
5287		68.359375
5288		66.406250
5289		72.265625
5290		70.312500
5291		74.218750
5292		72.265625
5293		76.171875
5294		74.218750
5295		78.125000
5296		76.171875
5297		80.078125
5298		78.125000
5299		82.031250
5300		80.078125
5301		83.984375
5302		82.031250
5303		83.984375
5304		83.984375
5305		85.937500
5306		83.984375
5307		87.890625
5308		85.937500
5309		87.890625
5310		85.937500
5311		89.843750
5312		87.890625
5313		89.843750
5314		87.890625
5315		89.843750
5316		87.890625
5317		89.843750
5318		87.890625
5319		89.843750
5320		87.890625
5321		89.843750
5322		87.890625
5323		89.843750
5324		87.890625
5325		89.843750
5326		85.937500
5327		89.843750
5328		85.937500
5329		87.890625
5330		85.937500
5331		87.890625
5332		83.984375
5333		85.937500
5334		82.031250
5335		85.937500
5336		80.078125
5337		83.984375
5338		80.078125
5339		82.031250
5340		78.125000
5341		80.078125
5342		74.218750
5343		78.125000
5344		72.265625
5345		76.171875
5346		70.312500
5347		74.218750
5348		68.359375
5349		72.265625
5350		64.453125
5351		70.312500
5352		62.500000
5353		66.406250
5354		58.593750
5355		64.453125
5356		56.640625
5357		60.546875
5358		52.734375
5359		58.593750
5360		48.828125
5361		54.687500
5362		46.875000
5363		50.781250
5364		42.968750
5365		46.875000
5366		39.062500
5367		44.921875
5368		35.156250
5369		41.015625
5370		31.250000
5371		37.109375
5372		27.343750
5373		33.203125
5374		23.437500
5375		29.296875
5376		19.531250
5377		25.390625
5378		15.625000
5379		21.484375
5380		11.718750
5381		15.625000
5382		5.859375
5383		11.718750
5384		1.953125
5385		7.812500
5386		-1.953125
5387		3.906250
5388		-5.859375
5389		0.000000
5390		-9.765625
5391		-3.906250
5392		-13.671875
5393		-9.765625
5394		-17.578125
5395		-13.671875
5396		-23.437500
5397		-17.578125
5398		-27.343750
5399		-21.484375
5400		-31.250000
5401		-25.390625
5402		-35.156250
5403		-29.296875
5404		-39.062500
5405		-33.203125
5406		-41.015625
5407		-37.109375
5408		-44.921875
5409		-41.015625
5410		-48.828125
5411		-44.921875
5412		-52.734375
5413		-46.875000
5414		-54.687500
5415		-50.781250
5416		-58.593750
5417		-52.734375
5418		-60.546875
5419		-56.640625
5420		-64.453125
5421		-60.546875
5422		-66.406250
5423		-62.500000
5424		-68.359375
5425		-64.453125
5426		-70.312500
5427		-66.406250
5428		-72.265625
5429		-68.359375
5430		-74.218750
5431		-70.312500
5432		-76.171875
5433		-72.265625
5434		-76.171875
5435		-74.218750
5436		-78.125000
5437		-76.171875
5438		-80.078125
5439		-76.171875
5440		-80.078125
5441		-76.171875
5442		-80.078125
5443		-78.125000
5444		-80.078125
5445		-78.125000
5446		-80.078125
5447		-78.125000
5448		-80.078125
5449		-78.125000
5450		-80.078125
5451		-78.125000
5452		-80.078125
5453		-76.171875
5454		-78.125000
5455		-76.171875
5456		-78.125000
5457		-74.218750
5458		-76.171875
5459		-72.265625
5460		-74.218750
5461		-72.265625
5462		-72.265625
5463		-70.312500
5464		-70.312500
5465		-68.359375
5466		-68.359375
5467		-64.453125
5468		-66.406250
5469		-62.500000
5470		-64.453125
5471		-60.546875
5472		-62.500000
5473		-56.640625
5474		-58.593750
5475		-54.687500
5476		-56.640625
5477		-52.734375
5478		-52.734375
5479		-48.828125
5480		-50.781250
5481		-44.921875
5482		-46.875000
5483		-41.015625
5484		-42.968750
5485		-39.062500
5486		-39.062500
5487		-35.156250
5488		-35.156250
5489		-29.296875
5490		-31.250000
5491		-27.343750
5492		-27.343750
5493		-23.437500
5494		-23.437500
5495		-19.531250
5496		-19.531250
5497		-15.625000
5498		-15.625000
5499		-9.765625
5500		-11.718750
5501		-5.859375
5502		-7.812500
5503		-1.953125
5504		-3.906250
5505		1.953125
5506		0.000000
5507		5.859375
5508		3.906250
5509		9.765625
5510		9.765625
5511		13.671875
5512		13.671875
5513		19.531250
5514		17.578125
5515		23.437500
5516		21.484375
5517		27.343750
5518		25.390625
5519		29.296875
5520		29.296875
5521		35.156250
5522		33.203125
5523		39.062500
5524		37.109375
5525		41.015625
5526		41.015625
5527		44.921875
5528		44.921875
5529		48.828125
5530		46.875000
5531		52.734375
5532		50.781250
5533		54.687500
5534		54.687500
5535		58.593750
5536		56.640625
5537		62.500000
5538		60.546875
5539		64.453125
5540		62.500000
5541		66.406250
5542		66.406250
5543		70.312500
5544		68.359375
5545		72.265625
5546		70.312500
5547		74.218750
5548		72.265625
5549		76.171875
5550		74.218750
5551		78.125000
5552		76.171875
5553		80.078125
5554		78.125000
5555		82.031250
5556		80.078125
5557		82.031250
5558		82.031250
5559		83.984375
5560		82.031250
5561		85.937500
5562		83.984375
5563		85.937500
5564		83.984375
5565		87.890625
5566		85.937500
5567		87.890625
5568		85.937500
5569		87.890625
5570		85.937500
5571		87.890625
5572		85.937500
5573		87.890625
5574		85.937500
5575		87.890625
5576		85.937500
5577		87.890625
5578		85.937500
5579		87.890625
5580		83.984375
5581		87.890625
5582		83.984375
5583		85.937500
5584		82.031250
5585		85.937500
5586		82.031250
5587		83.984375
5588		80.078125
5589		83.984375
5590		78.125000
5591		82.031250
5592		76.171875
5593		80.078125
5594		74.218750
5595		78.125000
5596		72.265625
5597		76.171875
5598		70.312500
5599		74.218750
5600		68.359375
5601		72.265625
5602		64.453125
5603		68.359375
5604		62.500000
5605		66.406250
5606		58.593750
5607		64.453125
5608		56.640625
5609		60.546875
5610		52.734375
5611		58.593750
5612		50.781250
5613		54.687500
5614		46.875000
5615		50.781250
5616		42.968750
5617		48.828125
5618		39.062500
5619		44.921875
5620		35.156250
5621		41.015625
5622		31.250000
5623		37.109375
5624		27.343750
5625		33.203125
5626		23.437500
5627		29.296875
5628		19.531250
5629		25.390625
5630		15.625000
5631		21.484375
5632		11.718750
5633		17.578125
5634		7.812500
5635		13.671875
5636		3.906250
5637		7.812500
5638		-1.953125
5639		3.906250
5640		-5.859375
5641		0.000000
5642		-9.765625
5643		-3.906250
5644		-13.671875
5645		-7.812500
5646		-17.578125
5647		-11.718750
5648		-21.484375
5649		-15.625000
5650		-25.390625
5651		-21.484375
5652		-29.296875
5653		-25.390625
5654		-33.203125
5655		-29.296875
5656		-37.109375
5657		-33.203125
5658		-41.015625
5659		-37.109375
5660		-44.921875
5661		-39.062500
5662		-48.828125
5663		-42.968750
5664		-52.734375
5665		-46.875000
5666		-54.687500
5667		-50.781250
5668		-58.593750
5669		-54.687500
5670		-60.546875
5671		-56.640625
5672		-64.453125
5673		-60.546875
5674		-66.406250
5675		-62.500000
5676		-68.359375
5677		-64.453125
5678		-70.312500
5679		-66.406250
5680		-74.218750
5681		-70.312500
5682		-76.171875
5683		-72.265625
5684		-76.171875
5685		-74.218750
5686		-78.125000
5687		-76.171875
5688		-80.078125
5689		-76.171875
5690		-80.078125
5691		-78.125000
5692		-82.031250
5693		-78.125000
5694		-82.031250
5695		-80.078125
5696		-82.031250
5697		-80.078125
5698		-82.031250
5699		-80.078125
5700		-82.031250
5701		-80.078125
5702		-82.031250
5703		-80.078125
5704		-82.031250
5705		-78.125000
5706		-80.078125
5707		-78.125000
5708		-80.078125
5709		-78.125000
5710		-78.125000
5711		-76.171875
5712		-78.125000
5713		-74.218750
5714		-76.171875
5715		-72.265625
5716		-74.218750
5717		-70.312500
5718		-72.265625
5719		-68.359375
5720		-70.312500
5721		-66.406250
5722		-68.359375
5723		-64.453125
5724		-66.406250
5725		-60.546875
5726		-62.500000
5727		-58.593750
5728		-60.546875
5729		-54.687500
5730		-56.640625
5731		-52.734375
5732		-52.734375
5733		-48.828125
5734		-50.781250
5735		-44.921875
5736		-46.875000
5737		-41.015625
5738		-42.968750
5739		-39.062500
5740		-39.062500
5741		-35.156250
5742		-35.156250
5743		-31.250000
5744		-31.250000
5745		-27.343750
5746		-27.343750
5747		-23.437500
5748		-23.437500
5749		-17.578125
5750		-19.531250
5751		-13.671875
5752		-15.625000
5753		-9.765625
5754		-11.718750
5755		-5.859375
5756		-7.812500
5757		-1.953125
5758		-3.906250
5759		1.953125
5760		1.953125
5761		5.859375
5762		5.859375
5763		11.718750
5764		9.765625
5765		15.625000
5766		13.671875
5767		19.531250
5768		17.578125
5769		23.437500
5770		21.484375
5771		27.343750
5772		25.390625
5773		31.250000
5774		29.296875
5775		35.156250
5776		33.203125
5777		39.062500
5778		37.109375
5779		42.968750
5780		41.015625
5781		46.875000
5782		44.921875
5783		48.828125
5784		48.828125
5785		52.734375
5786		50.781250
5787		56.640625
5788		54.687500
5789		60.546875
5790		58.593750
5791		62.500000
5792		60.546875
5793		64.453125
5794		64.453125
5795		68.359375
5796		66.406250
5797		70.312500
5798		68.359375
5799		72.265625
5800		70.312500
5801		76.171875
5802		74.218750
5803		78.125000
5804		76.171875
5805		78.125000
5806		78.125000
5807		80.078125
5808		78.125000
5809		82.031250
5810		80.078125
5811		83.984375
5812		82.031250
5813		83.984375
5814		82.031250
5815		85.937500
5816		83.984375
5817		85.937500
5818		85.937500
5819		87.890625
5820		85.937500
5821		87.890625
5822		85.937500
5823		87.890625
5824		85.937500
5825		87.890625
5826		85.937500
5827		89.843750
5828		85.937500
5829		87.890625
5830		85.937500
5831		87.890625
5832		85.937500
5833		87.890625
5834		83.984375
5835		87.890625
5836		83.984375
5837		85.937500
5838		82.031250
5839		85.937500
5840		82.031250
5841		83.984375
5842		80.078125
5843		83.984375
5844		78.125000
5845		82.031250
5846		76.171875
5847		80.078125
5848		74.218750
5849		78.125000
5850		72.265625
5851		76.171875
5852		70.312500
5853		74.218750
5854		68.359375
5855		72.265625
5856		64.453125
5857		70.312500
5858		62.500000
5859		66.406250
5860		58.593750
5861		64.453125
5862		56.640625
5863		60.546875
5864		52.734375
5865		58.593750
5866		50.781250
5867		54.687500
5868		46.875000
5869		50.781250
5870		42.968750
5871		46.875000
5872		39.062500
5873		44.921875
5874		35.156250
5875		41.015625
5876		31.250000
5877		37.109375
5878		27.343750
5879		33.203125
5880		23.437500
5881		29.296875
5882		19.531250
5883		25.390625
5884		15.625000
5885		21.484375
5886		11.718750
5887		17.578125
5888		7.812500
5889		13.671875
5890		3.906250
5891		9.765625
5892		0.000000
5893		3.906250
5894		-5.859375
5895		0.000000
5896		-9.765625
5897		-3.906250
5898		-13.671875
5899		-7.812500
5900		-17.578125
5901		-11.718750
5902		-21.484375
5903		-15.625000
5904		-25.390625
5905		-19.531250
5906		-29.296875
5907		-23.437500
5908		-33.203125
5909		-27.343750
5910		-37.109375
5911		-31.250000
5912		-41.015625
5913		-35.156250
5914		-44.921875
5915		-39.062500
5916		-48.828125
5917		-42.968750
5918		-50.781250
5919		-46.875000
5920		-54.687500
5921		-48.828125
5922		-56.640625
5923		-52.734375
5924		-60.546875
5925		-56.640625
5926		-62.500000
5927		-58.593750
5928		-64.453125
5929		-60.546875
5930		-68.359375
5931		-62.500000
5932		-70.312500
5933		-66.406250
5934		-72.265625
5935		-68.359375
5936		-72.265625
5937		-70.312500
5938		-74.218750
5939		-72.265625
5940		-76.171875
5941		-72.265625
5942		-78.125000
5943		-74.218750
5944		-78.125000
5945		-76.171875
5946		-78.125000
5947		-76.171875
5948		-78.125000
5949		-76.171875
5950		-80.078125
5951		-76.171875
5952		-80.078125
5953		-78.125000
5954		-80.078125
5955		-76.171875
5956		-78.125000
5957		-76.171875
5958		-78.125000
5959		-76.171875
5960		-78.125000
5961		-74.218750
5962		-76.171875
5963		-74.218750
5964		-76.171875
5965		-72.265625
5966		-74.218750
5967		-70.312500
5968		-72.265625
5969		-68.359375
5970		-70.312500
5971		-66.406250
5972		-68.359375
5973		-64.453125
5974		-66.406250
5975		-62.500000
5976		-64.453125
5977		-60.546875
5978		-60.546875
5979		-56.640625
5980		-58.593750
5981		-54.687500
5982		-56.640625
5983		-50.781250
5984		-52.734375
5985		-48.828125
5986		-48.828125
5987		-44.921875
5988		-46.875000
5989		-41.015625
5990		-42.968750
5991		-37.109375
5992		-39.062500
5993		-33.203125
5994		-35.156250
5995		-29.296875
5996		-31.250000
5997		-25.390625
5998		-27.343750
5999		-21.484375
6000		-23.437500
6001		-17.578125
6002		-19.531250
6003		-13.671875
6004		-15.625000
6005		-9.765625
6006		-11.718750
6007		-5.859375
6008		-7.812500
6009		-1.953125
6010		-1.953125
6011		1.953125
6012		1.953125
6013		7.812500
6014		5.859375
6015		11.718750
6016		9.765625
6017		15.625000
6018		13.671875
6019		19.531250
6020		17.578125
6021		23.437500
6022		21.484375
6023		27.343750
6024		25.390625
6025		31.250000
6026		31.250000
6027		35.156250
6028		33.203125
6029		39.062500
6030		37.109375
6031		42.968750
6032		41.015625
6033		46.875000
6034		44.921875
6035		50.781250
6036		48.828125
6037		54.687500
6038		52.734375
6039		56.640625
6040		54.687500
6041		60.546875
6042		58.593750
6043		62.500000
6044		62.500000
6045		66.406250
6046		64.453125
6047		68.359375
6048		66.406250
6049		72.265625
6050		70.312500
6051		76.171875
6052		70.312500
6053		76.171875
6054		74.218750
6055		80.078125
6056		74.218750
6057		80.078125
6058		78.125000
6059		82.031250
6060		80.078125
6061		83.984375
6062		82.031250
6063		85.937500
6064		83.984375
6065		85.937500
6066		83.984375
6067		87.890625
6068		83.984375
6069		89.843750
6070		87.890625
6071		89.843750
6072		85.937500
6073		91.796875
6074		87.890625
6075		91.796875
6076		87.890625
6077		91.796875
6078		89.843750
6079		91.796875
6080		87.890625
6081		91.796875
6082		87.890625
6083		91.796875
6084		85.937500
6085		91.796875
6086		87.890625
6087		89.843750
6088		83.984375
6089		89.843750
6090		85.937500
6091		87.890625
6092		82.031250
6093		89.843750
6094		83.984375
6095		85.937500
6096		82.031250
6097		85.937500
6098		80.078125
6099		83.984375
6100		76.171875
6101		82.031250
6102		76.171875
6103		80.078125
6104		74.218750
6105		78.125000
6106		72.265625
6107		78.125000
6108		66.406250
6109		74.218750
6110		66.406250
6111		70.312500
6112		64.453125
6113		68.359375
6114		60.546875
6115		66.406250
6116		56.640625
6117		64.453125
6118		54.687500
6119		60.546875
6120		50.781250
6121		56.640625
6122		46.875000
6123		52.734375
6124		44.921875
6125		48.828125
6126		41.015625
6127		48.828125
6128		37.109375
6129		42.968750
6130		33.203125
6131		39.062500
6132		27.343750
6133		35.156250
6134		25.390625
6135		33.203125
6136		21.484375
6137		27.343750
6138		15.625000
6139		21.484375
6140		11.718750
6141		21.484375
6142		7.812500
6143		13.671875
6144		3.906250
6145		9.765625
6146		0.000000
6147		5.859375
6148		-3.906250
6149		1.953125
6150		-7.812500
6151		0.000000
6152		-11.718750
6153		-5.859375
6154		-15.625000
6155		-11.718750
6156		-23.437500
6157		-13.671875
6158		-25.390625
6159		-19.531250
6160		-29.296875
6161		-21.484375
6162		-31.250000
6163		-27.343750
6164		-37.109375
6165		-31.250000
6166		-42.968750
6167		-33.203125
6168		-44.921875
6169		-37.109375
6170		-46.875000
6171		-41.015625
6172		-52.734375
6173		-44.921875
6174		-54.687500
6175		-44.921875
6176		-58.593750
6177		-48.828125
6178		-58.593750
6179		-54.687500
6180		-60.546875
6181		-56.640625
6182		-66.406250
6183		-58.593750
6184		-68.359375
6185		-60.546875
6186		-68.359375
6187		-64.453125
6188		-70.312500
6189		-66.406250
6190		-76.171875
6191		-64.453125
6192		-76.171875
6193		-66.406250
6194		-74.218750
6195		-72.265625
6196		-76.171875
6197		-72.265625
6198		-78.125000
6199		-72.265625
6200		-80.078125
6201		-72.265625
6202		-78.125000
6203		-72.265625
6204		-78.125000
6205		-76.171875
6206		-80.078125
6207		-72.265625
6208		-80.078125
6209		-72.265625
6210		-80.078125
6211		-72.265625
6212		-76.171875
6213		-74.218750
6214		-76.171875
6215		-72.265625
6216		-76.171875
6217		-68.359375
6218		-76.171875
6219		-68.359375
6220		-72.265625
6221		-68.359375
6222		-70.312500
6223		-66.406250
6224		-70.312500
6225		-60.546875
6226		-68.359375
6227		-60.546875
6228		-64.453125
6229		-60.546875
6230		-62.500000
6231		-56.640625
6232		-58.593750
6233		-54.687500
6234		-58.593750
6235		-50.781250
6236		-54.687500
6237		-48.828125
6238		-50.781250
6239		-44.921875
6240		-48.828125
6241		-39.062500
6242		-46.875000
6243		-39.062500
6244		-42.968750
6245		-35.156250
6246		-35.156250
6247		-31.250000
6248		-33.203125
6249		-25.390625
6250		-29.296875
6251		-19.531250
6252		-25.390625
6253		-19.531250
6254		-21.484375
6255		-15.625000
6256		-17.578125
6257		-7.812500
6258		-15.625000
6259		-5.859375
6260		-9.765625
6261		-1.953125
6262		-3.906250
6263		1.953125
6264		0.000000
6265		5.859375
6266		3.906250
6267		11.718750
6268		5.859375
6269		15.625000
6270		11.718750
6271		17.578125
6272		15.625000
6273		23.437500
6274		19.531250
6275		29.296875
6276		23.437500
6277		33.203125
6278		29.296875
6279		33.203125
6280		33.203125
6281		37.109375
6282		35.156250
6283		42.968750
6284		39.062500
6285		46.875000
6286		42.968750
6287		48.828125
6288		46.875000
6289		52.734375
6290		50.781250
6291		58.593750
6292		50.781250
6293		60.546875
6294		56.640625
6295		62.500000
6296		60.546875
6297		64.453125
6298		62.500000
6299		68.359375
6300		64.453125
6301		70.312500
6302		66.406250
6303		74.218750
6304		70.312500
6305		74.218750
6306		72.265625
6307		78.125000
6308		72.265625
6309		82.031250
6310		76.171875
6311		83.984375
6312		80.078125
6313		82.031250
6314		82.031250
6315		83.984375
6316		82.031250
6317		85.937500
6318		82.031250
6319		89.843750
6320		82.031250
6321		89.843750
6322		85.937500
6323		89.843750
6324		85.937500
6325		89.843750
6326		87.890625
6327		89.843750
6328		85.937500
6329		93.750000
6330		87.890625
6331		89.843750
6332		87.890625
6333		89.843750
6334		85.937500
6335		93.750000
6336		85.937500
6337		91.796875
6338		87.890625
6339		89.843750
6340		83.984375
6341		91.796875
6342		85.937500
6343		87.890625
6344		83.984375
6345		87.890625
6346		83.984375
6347		85.937500
6348		82.031250
6349		85.937500
6350		80.078125
6351		83.984375
6352		78.125000
6353		82.031250
6354		76.171875
6355		82.031250
6356		74.218750
6357		78.125000
6358		72.265625
6359		78.125000
6360		70.312500
6361		74.218750
6362		66.406250
6363		72.265625
6364		64.453125
6365		68.359375
6366		60.546875
6367		66.406250
6368		58.593750
6369		62.500000
6370		54.687500
6371		60.546875
6372		52.734375
6373		56.640625
6374		48.828125
6375		52.734375
6376		44.921875
6377		50.781250
6378		41.015625
6379		46.875000
6380		37.109375
6381		42.968750
6382		33.203125
6383		39.062500
6384		29.296875
6385		35.156250
6386		25.390625
6387		31.250000
6388		21.484375
6389		27.343750
6390		17.578125
6391		25.390625
6392		13.671875
6393		19.531250
6394		7.812500
6395		15.625000
6396		3.906250
6397		9.765625
6398		0.000000
6399		5.859375
6400		-3.906250
6401		1.953125
6402		-7.812500
6403		-1.953125
6404		-13.671875
6405		-5.859375
6406		-17.578125
6407		-9.765625
6408		-21.484375
6409		-13.671875
6410		-25.390625
6411		-17.578125
6412		-27.343750
6413		-21.484375
6414		-33.203125
6415		-27.343750
6416		-37.109375
6417		-31.250000
6418		-41.015625
6419		-33.203125
6420		-44.921875
6421		-37.109375
6422		-48.828125
6423		-39.062500
6424		-50.781250
6425		-44.921875
6426		-54.687500
6427		-48.828125
6428		-56.640625
6429		-50.781250
6430		-58.593750
6431		-54.687500
6432		-62.500000
6433		-58.593750
6434		-66.406250
6435		-60.546875
6436		-68.359375
6437		-62.500000
6438		-70.312500
6439		-64.453125
6440		-72.265625
6441		-66.406250
6442		-74.218750
6443		-68.359375
6444		-76.171875
6445		-70.312500
6446		-76.171875
6447		-72.265625
6448		-78.125000
6449		-74.218750
6450		-80.078125
6451		-74.218750
6452		-80.078125
6453		-76.171875
6454		-80.078125
6455		-76.171875
6456		-82.031250
6457		-76.171875
6458		-82.031250
6459		-76.171875
6460		-82.031250
6461		-76.171875
6462		-80.078125
6463		-76.171875
6464		-80.078125
6465		-76.171875
6466		-78.125000
6467		-76.171875
6468		-78.125000
6469		-74.218750
6470		-78.125000
6471		-72.265625
6472		-76.171875
6473		-70.312500
6474		-76.171875
6475		-68.359375
6476		-72.265625
6477		-66.406250
6478		-70.312500
6479		-64.453125
6480		-68.359375
6481		-64.453125
6482		-66.406250
6483		-62.500000
6484		-62.500000
6485		-58.593750
6486		-60.546875
6487		-54.687500
6488		-58.593750
6489		-52.734375
6490		-56.640625
6491		-48.828125
6492		-52.734375
6493		-44.921875
6494		-48.828125
6495		-42.968750
6496		-44.921875
6497		-39.062500
6498		-41.015625
6499		-35.156250
6500		-37.109375
6501		-31.250000
6502		-35.156250
6503		-27.343750
6504		-29.296875
6505		-25.390625
6506		-25.390625
6507		-17.578125
6508		-21.484375
6509		-15.625000
6510		-17.578125
6511		-11.718750
6512		-13.671875
6513		-7.812500
6514		-9.765625
6515		-3.906250
6516		-5.859375
6517		0.000000
6518		-1.953125
6519		3.906250
6520		1.953125
6521		7.812500
6522		5.859375
6523		13.671875
6524		9.765625
6525		17.578125
6526		15.625000
6527		21.484375
6528		19.531250
6529		25.390625
6530		23.437500
6531		29.296875
6532		27.343750
6533		33.203125
6534		31.250000
6535		37.109375
6536		35.156250
6537		41.015625
6538		37.109375
6539		44.921875
6540		42.968750
6541		48.828125
6542		44.921875
6543		50.781250
6544		48.828125
6545		54.687500
6546		52.734375
6547		58.593750
6548		56.640625
6549		60.546875
6550		58.593750
6551		62.500000
6552		60.546875
6553		66.406250
6554		64.453125
6555		68.359375
6556		66.406250
6557		74.218750
6558		68.359375
6559		74.218750
6560		72.265625
6561		76.171875
6562		74.218750
6563		78.125000
6564		76.171875
6565		80.078125
6566		78.125000
6567		82.031250
6568		78.125000
6569		82.031250
6570		80.078125
6571		83.984375
6572		82.031250
6573		85.937500
6574		82.031250
6575		87.890625
6576		83.984375
6577		87.890625
6578		85.937500
6579		87.890625
6580		85.937500
6581		87.890625
6582		85.937500
6583		87.890625
6584		85.937500
6585		89.843750
6586		85.937500
6587		89.843750
6588		85.937500
6589		89.843750
6590		85.937500
6591		87.890625
6592		85.937500
6593		87.890625
6594		83.984375
6595		87.890625
6596		82.031250
6597		87.890625
6598		82.031250
6599		85.937500
6600		80.078125
6601		83.984375
6602		78.125000
6603		83.984375
6604		78.125000
6605		82.031250
6606		76.171875
6607		80.078125
6608		72.265625
6609		78.125000
6610		72.265625
6611		76.171875
6612		68.359375
6613		74.218750
6614		66.406250
6615		72.265625
6616		64.453125
6617		68.359375
6618		60.546875
6619		66.406250
6620		58.593750
6621		62.500000
6622		54.687500
6623		60.546875
6624		52.734375
6625		56.640625
6626		48.828125
6627		54.687500
6628		44.921875
6629		50.781250
6630		41.015625
6631		46.875000
6632		39.062500
6633		42.968750
6634		35.156250
6635		39.062500
6636		31.250000
6637		37.109375
6638		27.343750
6639		33.203125
6640		23.437500
6641		27.343750
6642		17.578125
6643		25.390625
6644		13.671875
6645		19.531250
6646		9.765625
6647		15.625000
6648		5.859375
6649		13.671875
6650		1.953125
6651		7.812500
6652		-1.953125
6653		1.953125
6654		-5.859375
6655		0.000000
6656		-9.765625
6657		-3.906250
6658		-15.625000
6659		-9.765625
6660		-19.531250
6661		-13.671875
6662		-23.437500
6663		-17.578125
6664		-27.343750
6665		-21.484375
6666		-31.250000
6667		-25.390625
6668		-35.156250
6669		-29.296875
6670		-39.062500
6671		-33.203125
6672		-42.968750
6673		-37.109375
6674		-46.875000
6675		-41.015625
6676		-48.828125
6677		-44.921875
6678		-52.734375
6679		-46.875000
6680		-56.640625
6681		-50.781250
6682		-58.593750
6683		-54.687500
6684		-62.500000
6685		-56.640625
6686		-64.453125
6687		-60.546875
6688		-66.406250
6689		-62.500000
6690		-70.312500
6691		-64.453125
6692		-72.265625
6693		-68.359375
6694		-74.218750
6695		-70.312500
6696		-74.218750
6697		-72.265625
6698		-76.171875
6699		-72.265625
6700		-78.125000
6701		-74.218750
6702		-80.078125
6703		-76.171875
6704		-80.078125
6705		-76.171875
6706		-80.078125
6707		-78.125000
6708		-80.078125
6709		-78.125000
6710		-82.031250
6711		-78.125000
6712		-82.031250
6713		-78.125000
6714		-82.031250
6715		-78.125000
6716		-80.078125
6717		-78.125000
6718		-80.078125
6719		-78.125000
6720		-80.078125
6721		-76.171875
6722		-78.125000
6723		-74.218750
6724		-78.125000
6725		-74.218750
6726		-76.171875
6727		-72.265625
6728		-74.218750
6729		-70.312500
6730		-72.265625
6731		-68.359375
6732		-72.265625
6733		-66.406250
6734		-68.359375
6735		-64.453125
6736		-66.406250
6737		-60.546875
6738		-64.453125
6739		-58.593750
6740		-60.546875
6741		-56.640625
6742		-56.640625
6743		-52.734375
6744		-54.687500
6745		-48.828125
6746		-52.734375
6747		-46.875000
6748		-46.875000
6749		-42.968750
6750		-44.921875
6751		-39.062500
6752		-41.015625
6753		-35.156250
6754		-37.109375
6755		-31.250000
6756		-33.203125
6757		-27.343750
6758		-29.296875
6759		-23.437500
6760		-25.390625
6761		-19.531250
6762		-21.484375
6763		-15.625000
6764		-17.578125
6765		-9.765625
6766		-13.671875
6767		-7.812500
6768		-7.812500
6769		-3.906250
6770		-3.906250
6771		1.953125
6772		0.000000
6773		5.859375
6774		3.906250
6775		9.765625
6776		7.812500
6777		13.671875
6778		11.718750
6779		17.578125
6780		15.625000
6781		21.484375
6782		19.531250
6783		25.390625
6784		25.390625
6785		29.296875
6786		29.296875
6787		35.156250
6788		31.250000
6789		37.109375
6790		35.156250
6791		41.015625
6792		39.062500
6793		44.921875
6794		42.968750
6795		48.828125
6796		46.875000
6797		52.734375
6798		48.828125
6799		54.687500
6800		54.687500
6801		58.593750
6802		56.640625
6803		60.546875
6804		58.593750
6805		64.453125
6806		62.500000
6807		68.359375
6808		64.453125
6809		70.312500
6810		68.359375
6811		72.265625
6812		70.312500
6813		74.218750
6814		72.265625
6815		76.171875
6816		74.218750
6817		78.125000
6818		76.171875
6819		80.078125
6820		78.125000
6821		82.031250
6822		80.078125
6823		83.984375
6824		82.031250
6825		85.937500
6826		82.031250
6827		85.937500
6828		83.984375
6829		87.890625
6830		83.984375
6831		87.890625
6832		85.937500
6833		89.843750
6834		85.937500
6835		89.843750
6836		85.937500
6837		89.843750
6838		85.937500
6839		89.843750
6840		87.890625
6841		89.843750
6842		85.937500
6843		89.843750
6844		85.937500
6845		89.843750
6846		85.937500
6847		89.843750
6848		83.984375
6849		87.890625
6850		83.984375
6851		85.937500
6852		82.031250
6853		85.937500
6854		80.078125
6855		83.984375
6856		80.078125
6857		82.031250
6858		78.125000
6859		82.031250
6860		76.171875
6861		80.078125
6862		74.218750
6863		78.125000
6864		72.265625
6865		76.171875
6866		70.312500
6867		74.218750
6868		66.406250
6869		72.265625
6870		64.453125
6871		68.359375
6872		62.500000
6873		66.406250
6874		58.593750
6875		62.500000
6876		56.640625
6877		60.546875
6878		50.781250
6879		56.640625
6880		48.828125
6881		52.734375
6882		44.921875
6883		50.781250
6884		42.968750
6885		46.875000
6886		39.062500
6887		42.968750
6888		35.156250
6889		41.015625
6890		31.250000
6891		35.156250
6892		27.343750
6893		33.203125
6894		21.484375
6895		27.343750
6896		19.531250
6897		23.437500
6898		13.671875
6899		21.484375
6900		9.765625
6901		17.578125
6902		5.859375
6903		11.718750
6904		1.953125
6905		7.812500
6906		-3.906250
6907		3.906250
6908		-7.812500
6909		0.000000
6910		-11.718750
6911		-3.906250
6912		-13.671875
6913		-9.765625
6914		-19.531250
6915		-13.671875
6916		-23.437500
6917		-17.578125
6918		-27.343750
6919		-21.484375
6920		-31.250000
6921		-25.390625
6922		-35.156250
6923		-29.296875
6924		-37.109375
6925		-33.203125
6926		-41.015625
6927		-37.109375
6928		-44.921875
6929		-41.015625
6930		-48.828125
6931		-42.968750
6932		-52.734375
6933		-46.875000
6934		-54.687500
6935		-50.781250
6936		-58.593750
6937		-52.734375
6938		-60.546875
6939		-56.640625
6940		-62.500000
6941		-58.593750
6942		-66.406250
6943		-62.500000
6944		-68.359375
6945		-64.453125
6946		-70.312500
6947		-66.406250
6948		-72.265625
6949		-68.359375
6950		-74.218750
6951		-70.312500
6952		-74.218750
6953		-72.265625
6954		-76.171875
6955		-72.265625
6956		-78.125000
6957		-74.218750
6958		-78.125000
6959		-74.218750
6960		-78.125000
6961		-76.171875
6962		-78.125000
6963		-76.171875
6964		-80.078125
6965		-76.171875
6966		-80.078125
6967		-76.171875
6968		-78.125000
6969		-76.171875
6970		-78.125000
6971		-76.171875
6972		-78.125000
6973		-74.218750
6974		-78.125000
6975		-74.218750
6976		-76.171875
6977		-72.265625
6978		-74.218750
6979		-70.312500
6980		-72.265625
6981		-70.312500
6982		-72.265625
6983		-68.359375
6984		-70.312500
6985		-66.406250
6986		-66.406250
6987		-64.453125
6988		-64.453125
6989		-60.546875
6990		-62.500000
6991		-58.593750
6992		-60.546875
6993		-54.687500
6994		-56.640625
6995		-52.734375
6996		-54.687500
6997		-48.828125
6998		-50.781250
6999		-44.921875
7000		-46.875000
7001		-42.968750
7002		-44.921875
7003		-39.062500
7004		-41.015625
7005		-33.203125
7006		-37.109375
7007		-31.250000
7008		-33.203125
7009		-27.343750
7010		-29.296875
7011		-23.437500
7012		-25.390625
7013		-19.531250
7014		-21.484375
7015		-15.625000
7016		-17.578125
7017		-9.765625
7018		-13.671875
7019		-7.812500
7020		-9.765625
7021		-3.906250
7022		-5.859375
7023		0.000000
7024		-1.953125
7025		3.906250
7026		3.906250
7027		9.765625
7028		7.812500
7029		13.671875
7030		11.718750
7031		17.578125
7032		15.625000
7033		21.484375
7034		19.531250
7035		25.390625
7036		23.437500
7037		29.296875
7038		29.296875
7039		33.203125
7040		31.250000
7041		37.109375
7042		35.156250
7043		41.015625
7044		39.062500
7045		44.921875
7046		42.968750
7047		48.828125
7048		46.875000
7049		52.734375
7050		50.781250
7051		56.640625
7052		54.687500
7053		58.593750
7054		56.640625
7055		62.500000
7056		58.593750
7057		64.453125
7058		62.500000
7059		68.359375
7060		64.453125
7061		70.312500
7062		68.359375
7063		74.218750
7064		70.312500
7065		74.218750
7066		72.265625
7067		78.125000
7068		76.171875
7069		80.078125
7070		78.125000
7071		82.031250
7072		80.078125
7073		83.984375
7074		82.031250
7075		83.984375
7076		82.031250
7077		85.937500
7078		83.984375
7079		87.890625
7080		85.937500
7081		89.843750
7082		85.937500
7083		89.843750
7084		85.937500
7085		91.796875
7086		87.890625
7087		89.843750
7088		89.843750
7089		91.796875
7090		87.890625
7091		91.796875
7092		87.890625
7093		91.796875
7094		87.890625
7095		91.796875
7096		87.890625
7097		91.796875
7098		87.890625
7099		91.796875
7100		85.937500
7101		91.796875
7102		87.890625
7103		89.843750
7104		85.937500
7105		87.890625
7106		83.984375
7107		87.890625
7108		83.984375
7109		85.937500
7110		82.031250
7111		83.984375
7112		80.078125
7113		83.984375
7114		78.125000
7115		82.031250
7116		76.171875
7117		80.078125
7118		74.218750
7119		78.125000
7120		70.312500
7121		76.171875
7122		68.359375
7123		72.265625
7124		64.453125
7125		70.312500
7126		62.500000
7127		68.359375
7128		58.593750
7129		66.406250
7130		56.640625
7131		60.546875
7132		52.734375
7133		58.593750
7134		50.781250
7135		54.687500
7136		46.875000
7137		50.781250
7138		42.968750
7139		48.828125
7140		39.062500
7141		44.921875
7142		35.156250
7143		41.015625
7144		31.250000
7145		37.109375
7146		27.343750
7147		33.203125
7148		23.437500
7149		29.296875
7150		19.531250
7151		25.390625
7152		15.625000
7153		21.484375
7154		11.718750
7155		17.578125
7156		5.859375
7157		13.671875
7158		3.906250
7159		7.812500
7160		-1.953125
7161		3.906250
7162		-5.859375
7163		0.000000
7164		-9.765625
7165		-1.953125
7166		-13.671875
7167		-7.812500
7168		-17.578125
7169		-11.718750
7170		-21.484375
7171		-15.625000
7172		-25.390625
7173		-19.531250
7174		-29.296875
7175		-23.437500
7176		-33.203125
7177		-27.343750
7178		-37.109375
7179		-31.250000
7180		-41.015625
7181		-35.156250
7182		-44.921875
7183		-39.062500
7184		-48.828125
7185		-42.968750
7186		-50.781250
7187		-44.921875
7188		-54.687500
7189		-48.828125
7190		-56.640625
7191		-52.734375
7192		-60.546875
7193		-54.687500
7194		-62.500000
7195		-56.640625
7196		-64.453125
7197		-60.546875
7198		-66.406250
7199		-62.500000
7200		-68.359375
7201		-64.453125
7202		-70.312500
7203		-66.406250
7204		-72.265625
7205		-68.359375
7206		-74.218750
7207		-70.312500
7208		-74.218750
7209		-70.312500
7210		-76.171875
7211		-72.265625
7212		-76.171875
7213		-72.265625
7214		-76.171875
7215		-74.218750
7216		-78.125000
7217		-74.218750
7218		-78.125000
7219		-74.218750
7220		-76.171875
7221		-74.218750
7222		-76.171875
7223		-74.218750
7224		-76.171875
7225		-72.265625
7226		-76.171875
7227		-72.265625
7228		-76.171875
7229		-70.312500
7230		-74.218750
7231		-70.312500
7232		-72.265625
7233		-68.359375
7234		-70.312500
7235		-66.406250
7236		-70.312500
7237		-64.453125
7238		-66.406250
7239		-62.500000
7240		-64.453125
7241		-60.546875
7242		-62.500000
7243		-58.593750
7244		-60.546875
7245		-56.640625
7246		-56.640625
7247		-52.734375
7248		-54.687500
7249		-50.781250
7250		-50.781250
7251		-46.875000
7252		-48.828125
7253		-42.968750
7254		-44.921875
7255		-39.062500
7256		-41.015625
7257		-37.109375
7258		-39.062500
7259		-33.203125
7260		-35.156250
7261		-29.296875
7262		-29.296875
7263		-25.390625
7264		-27.343750
7265		-21.484375
7266		-23.437500
7267		-17.578125
7268		-19.531250
7269		-13.671875
7270		-15.625000
7271		-9.765625
7272		-9.765625
7273		-5.859375
7274		-5.859375
7275		0.000000
7276		-1.953125
7277		3.906250
7278		1.953125
7279		7.812500
7280		5.859375
7281		11.718750
7282		9.765625
7283		15.625000
7284		13.671875
7285		19.531250
7286		17.578125
7287		23.437500
7288		23.437500
7289		27.343750
7290		27.343750
7291		33.203125
7292		29.296875
7293		37.109375
7294		35.156250
7295		41.015625
7296		39.062500
7297		42.968750
7298		41.015625
7299		46.875000
7300		44.921875
7301		50.781250
7302		48.828125
7303		54.687500
7304		52.734375
7305		56.640625
7306		54.687500
7307		60.546875
7308		58.593750
7309		64.453125
7310		62.500000
7311		66.406250
7312		64.453125
7313		68.359375
7314		66.406250
7315		72.265625
7316		70.312500
7317		74.218750
7318		72.265625
7319		76.171875
7320		74.218750
7321		78.125000
7322		76.171875
7323		80.078125
7324		78.125000
7325		82.031250
7326		80.078125
7327		83.984375
7328		82.031250
7329		85.937500
7330		83.984375
7331		85.937500
7332		83.984375
7333		87.890625
7334		85.937500
7335		89.843750
7336		85.937500
7337		89.843750
7338		87.890625
7339		89.843750
7340		87.890625
7341		91.796875
7342		87.890625
7343		91.796875
7344		87.890625
7345		91.796875
7346		89.843750
7347		91.796875
7348		87.890625
7349		91.796875
7350		87.890625
7351		91.796875
7352		87.890625
7353		91.796875
7354		87.890625
7355		89.843750
7356		85.937500
7357		87.890625
7358		83.984375
7359		87.890625
7360		83.984375
7361		85.937500
7362		82.031250
7363		85.937500
7364		80.078125
7365		83.984375
7366		78.125000
7367		82.031250
7368		76.171875
7369		80.078125
7370		74.218750
7371		78.125000
7372		72.265625
7373		76.171875
7374		68.359375
7375		74.218750
7376		66.406250
7377		72.265625
7378		64.453125
7379		68.359375
7380		60.546875
7381		66.406250
7382		58.593750
7383		62.500000
7384		54.687500
7385		60.546875
7386		50.781250
7387		56.640625
7388		46.875000
7389		52.734375
7390		44.921875
7391		48.828125
7392		39.062500
7393		44.921875
7394		37.109375
7395		42.968750
7396		33.203125
7397		39.062500
7398		29.296875
7399		35.156250
7400		25.390625
7401		31.250000
7402		21.484375
7403		27.343750
7404		17.578125
7405		23.437500
7406		13.671875
7407		17.578125
7408		7.812500
7409		13.671875
7410		3.906250
7411		9.765625
7412		0.000000
7413		5.859375
7414		-5.859375
7415		1.953125
7416		-7.812500
7417		-1.953125
7418		-13.671875
7419		-7.812500
7420		-17.578125
7421		-11.718750
7422		-21.484375
7423		-15.625000
7424		-25.390625
7425		-19.531250
7426		-29.296875
7427		-21.484375
7428		-33.203125
7429		-27.343750
7430		-37.109375
7431		-31.250000
7432		-41.015625
7433		-35.156250
7434		-42.968750
7435		-39.062500
7436		-46.875000
7437		-41.015625
7438		-50.781250
7439		-44.921875
7440		-52.734375
7441		-48.828125
7442		-56.640625
7443		-52.734375
7444		-60.546875
7445		-54.687500
7446		-62.500000
7447		-58.593750
7448		-66.406250
7449		-60.546875
7450		-66.406250
7451		-62.500000
7452		-70.312500
7453		-64.453125
7454		-72.265625
7455		-66.406250
7456		-72.265625
7457		-70.312500
7458		-76.171875
7459		-70.312500
7460		-76.171875
7461		-72.265625
7462		-78.125000
7463		-74.218750
7464		-78.125000
7465		-74.218750
7466		-78.125000
7467		-76.171875
7468		-80.078125
7469		-76.171875
7470		-80.078125
7471		-76.171875
7472		-80.078125
7473		-76.171875
7474		-78.125000
7475		-76.171875
7476		-80.078125
7477		-76.171875
7478		-78.125000
7479		-74.218750
7480		-78.125000
7481		-74.218750
7482		-76.171875
7483		-74.218750
7484		-76.171875
7485		-72.265625
7486		-74.218750
7487		-70.312500
7488		-74.218750
7489		-68.359375
7490		-70.312500
7491		-66.406250
7492		-68.359375
7493		-64.453125
7494		-68.359375
7495		-62.500000
7496		-64.453125
7497		-60.546875
7498		-62.500000
7499		-56.640625
7500		-60.546875
7501		-54.687500
7502		-56.640625
7503		-50.781250
7504		-52.734375
7505		-48.828125
7506		-48.828125
7507		-44.921875
7508		-46.875000
7509		-41.015625
7510		-42.968750
7511		-37.109375
7512		-39.062500
7513		-33.203125
7514		-35.156250
7515		-29.296875
7516		-31.250000
7517		-25.390625
7518		-27.343750
7519		-21.484375
7520		-25.390625
7521		-17.578125
7522		-21.484375
7523		-13.671875
7524		-15.625000
7525		-9.765625
7526		-11.718750
7527		-5.859375
7528		-7.812500
7529		0.000000
7530		-3.906250
7531		1.953125
7532		0.000000
7533		5.859375
7534		3.906250
7535		9.765625
7536		9.765625
7537		15.625000
7538		13.671875
7539		19.531250
7540		17.578125
7541		23.437500
7542		21.484375
7543		27.343750
7544		25.390625
7545		31.250000
7546		29.296875
7547		35.156250
7548		33.203125
7549		39.062500
7550		37.109375
7551		42.968750
7552		41.015625
7553		44.921875
7554		44.921875
7555		50.781250
7556		46.875000
7557		52.734375
7558		50.781250
7559		56.640625
7560		54.687500
7561		58.593750
7562		56.640625
7563		62.500000
7564		60.546875
7565		64.453125
7566		62.500000
7567		68.359375
7568		66.406250
7569		70.312500
7570		68.359375
7571		72.265625
7572		70.312500
7573		74.218750
7574		72.265625
7575		76.171875
7576		76.171875
7577		80.078125
7578		76.171875
7579		82.031250
7580		78.125000
7581		82.031250
7582		80.078125
7583		83.984375
7584		82.031250
7585		85.937500
7586		83.984375
7587		85.937500
7588		83.984375
7589		87.890625
7590		85.937500
7591		87.890625
7592		85.937500
7593		87.890625
7594		85.937500
7595		89.843750
7596		85.937500
7597		89.843750
7598		85.937500
7599		89.843750
7600		85.937500
7601		89.843750
7602		85.937500
7603		89.843750
7604		85.937500
7605		89.843750
7606		85.937500
7607		89.843750
7608		83.984375
7609		87.890625
7610		82.031250
7611		85.937500
7612		82.031250
7613		85.937500
7614		80.078125
7615		83.984375
7616		80.078125
7617		83.984375
7618		76.171875
7619		80.078125
7620		74.218750
7621		80.078125
7622		74.218750
7623		78.125000
7624		70.312500
7625		74.218750
7626		68.359375
7627		72.265625
7628		66.406250
7629		70.312500
7630		62.500000
7631		68.359375
7632		60.546875
7633		64.453125
7634		58.593750
7635		62.500000
7636		54.687500
7637		58.593750
7638		50.781250
7639		56.640625
7640		48.828125
7641		52.734375
7642		44.921875
7643		48.828125
7644		41.015625
7645		44.921875
7646		37.109375
7647		42.968750
7648		31.250000
7649		39.062500
7650		29.296875
7651		35.156250
7652		25.390625
7653		31.250000
7654		21.484375
7655		27.343750
7656		17.578125
7657		23.437500
7658		13.671875
7659		17.578125
7660		7.812500
7661		13.671875
7662		3.906250
7663		9.765625
7664		0.000000
7665		5.859375
7666		-3.906250
7667		1.953125
7668		-7.812500
7669		-1.953125
7670		-11.718750
7671		-5.859375
7672		-15.625000
7673		-11.718750
7674		-21.484375
7675		-15.625000
7676		-23.437500
7677		-19.531250
7678		-29.296875
7679		-21.484375
7680		-33.203125
7681		-27.343750
7682		-37.109375
7683		-29.296875
7684		-41.015625
7685		-35.156250
7686		-42.968750
7687		-39.062500
7688		-46.875000
7689		-42.968750
7690		-50.781250
7691		-44.921875
7692		-52.734375
7693		-48.828125
7694		-58.593750
7695		-52.734375
7696		-60.546875
7697		-54.687500
7698		-62.500000
7699		-58.593750
7700		-66.406250
7701		-60.546875
7702		-68.359375
7703		-62.500000
7704		-70.312500
7705		-66.406250
7706		-72.265625
7707		-68.359375
7708		-74.218750
7709		-70.312500
7710		-76.171875
7711		-72.265625
7712		-76.171875
7713		-72.265625
7714		-78.125000
7715		-74.218750
7716		-80.078125
7717		-76.171875
7718		-80.078125
7719		-76.171875
7720		-82.031250
7721		-78.125000
7722		-82.031250
7723		-78.125000
7724		-80.078125
7725		-78.125000
7726		-80.078125
7727		-78.125000
7728		-82.031250
7729		-78.125000
7730		-80.078125
7731		-76.171875
7732		-80.078125
7733		-76.171875
7734		-80.078125
7735		-76.171875
7736		-78.125000
7737		-74.218750
7738		-76.171875
7739		-72.265625
7740		-74.218750
7741		-72.265625
7742		-72.265625
7743		-70.312500
7744		-72.265625
7745		-66.406250
7746		-70.312500
7747		-64.453125
7748		-66.406250
7749		-62.500000
7750		-64.453125
7751		-58.593750
7752		-62.500000
7753		-56.640625
7754		-58.593750
7755		-54.687500
7756		-56.640625
7757		-50.781250
7758		-52.734375
7759		-48.828125
7760		-48.828125
7761		-44.921875
7762		-46.875000
7763		-41.015625
7764		-42.968750
7765		-37.109375
7766		-39.062500
7767		-33.203125
7768		-35.156250
7769		-29.296875
7770		-31.250000
7771		-25.390625
7772		-27.343750
7773		-21.484375
7774		-23.437500
7775		-17.578125
7776		-19.531250
7777		-13.671875
7778		-15.625000
7779		-9.765625
7780		-11.718750
7781		-5.859375
7782		-7.812500
7783		0.000000
7784		-1.953125
7785		3.906250
7786		1.953125
7787		7.812500
7788		5.859375
7789		11.718750
7790		9.765625
7791		15.625000
7792		13.671875
7793		19.531250
7794		17.578125
7795		23.437500
7796		21.484375
7797		27.343750
7798		25.390625
7799		31.250000
7800		31.250000
7801		35.156250
7802		35.156250
7803		39.062500
7804		37.109375
7805		44.921875
7806		41.015625
7807		46.875000
7808		44.921875
7809		50.781250
7810		48.828125
7811		52.734375
7812		52.734375
7813		56.640625
7814		54.687500
7815		60.546875
7816		58.593750
7817		62.500000
7818		60.546875
7819		66.406250
7820		64.453125
7821		68.359375
7822		66.406250
7823		72.265625
7824		68.359375
7825		74.218750
7826		72.265625
7827		76.171875
7828		74.218750
7829		78.125000
7830		76.171875
7831		80.078125
7832		78.125000
7833		82.031250
7834		80.078125
7835		82.031250
7836		80.078125
7837		83.984375
7838		82.031250
7839		85.937500
7840		82.031250
7841		87.890625
7842		83.984375
7843		87.890625
7844		85.937500
7845		87.890625
7846		85.937500
7847		89.843750
7848		85.937500
7849		89.843750
7850		87.890625
7851		89.843750
7852		87.890625
7853		89.843750
7854		85.937500
7855		89.843750
7856		85.937500
7857		89.843750
7858		85.937500
7859		89.843750
7860		85.937500
7861		87.890625
7862		83.984375
7863		87.890625
7864		83.984375
7865		87.890625
7866		82.031250
7867		85.937500
7868		82.031250
7869		83.984375
7870		80.078125
7871		83.984375
7872		76.171875
7873		82.031250
7874		76.171875
7875		80.078125
7876		74.218750
7877		78.125000
7878		72.265625
7879		76.171875
7880		68.359375
7881		74.218750
7882		66.406250
7883		70.312500
7884		64.453125
7885		68.359375
7886		60.546875
7887		64.453125
7888		58.593750
7889		62.500000
7890		54.687500
7891		60.546875
7892		50.781250
7893		56.640625
7894		48.828125
7895		52.734375
7896		44.921875
7897		48.828125
7898		41.015625
7899		46.875000
7900		37.109375
7901		42.968750
7902		33.203125
7903		39.062500
7904		29.296875
7905		35.156250
7906		25.390625
7907		31.250000
7908		21.484375
7909		27.343750
7910		17.578125
7911		23.437500
7912		11.718750
7913		19.531250
7914		9.765625
7915		15.625000
7916		5.859375
7917		9.765625
7918		0.000000
7919		5.859375
7920		-3.906250
7921		1.953125
7922		-7.812500
7923		-1.953125
7924		-11.718750
7925		-5.859375
7926		-15.625000
7927		-9.765625
7928		-19.531250
7929		-13.671875
7930		-23.437500
7931		-19.531250
7932		-27.343750
7933		-23.437500
7934		-31.250000
7935		-25.390625
7936		-35.156250
7937		-31.250000
7938		-39.062500
7939		-33.203125
7940		-42.968750
7941		-37.109375
7942		-46.875000
7943		-41.015625
7944		-48.828125
7945		-44.921875
7946		-52.734375
7947		-46.875000
7948		-56.640625
7949		-50.781250
7950		-58.593750
7951		-54.687500
7952		-60.546875
7953		-56.640625
7954		-64.453125
7955		-58.593750
7956		-66.406250
7957		-62.500000
7958		-68.359375
7959		-64.453125
7960		-70.312500
7961		-66.406250
7962		-72.265625
7963		-68.359375
7964		-74.218750
7965		-68.359375
7966		-76.171875
7967		-72.265625
7968		-76.171875
7969		-74.218750
7970		-76.171875
7971		-74.218750
7972		-78.125000
7973		-74.218750
7974		-78.125000
7975		-76.171875
7976		-80.078125
7977		-76.171875
7978		-78.125000
7979		-76.171875
7980		-78.125000
7981		-76.171875
7982		-78.125000
7983		-74.218750
7984		-78.125000
7985		-74.218750
7986		-76.171875
7987		-74.218750
7988		-76.171875
7989		-72.265625
7990		-74.218750
7991		-72.265625
7992		-74.218750
7993		-70.312500
7994		-72.265625
7995		-68.359375
7996		-70.312500
7997		-66.406250
7998		-68.359375
7999		-62.500000
8000		-66.406250
8001		-62.500000
8002		-64.453125
8003		-58.593750
8004		-60.546875
8005		-56.640625
8006		-58.593750
8007		-52.734375
8008		-54.687500
8009		-48.828125
8010		-52.734375
8011		-46.875000
8012		-48.828125
8013		-42.968750
8014		-44.921875
8015		-41.015625
8016		-42.968750
8017		-37.109375
8018		-39.062500
8019		-33.203125
8020		-35.156250
8021		-29.296875
8022		-31.250000
8023		-25.390625
8024		-27.343750
8025		-21.484375
8026		-23.437500
8027		-17.578125
8028		-19.531250
8029		-13.671875
8030		-15.625000
8031		-7.812500
8032		-11.718750
8033		-5.859375
8034		-5.859375
8035		0.000000
8036		-1.953125
8037		3.906250
8038		1.953125
8039		7.812500
8040		5.859375
8041		11.718750
8042		9.765625
8043		15.625000
8044		13.671875
8045		19.531250
8046		19.531250
8047		23.437500
8048		21.484375
8049		29.296875
8050		25.390625
8051		33.203125
8052		31.250000
8053		35.156250
8054		35.156250
8055		39.062500
8056		39.062500
8057		42.968750
8058		41.015625
8059		46.875000
8060		44.921875
8061		50.781250
8062		48.828125
8063		54.687500
8064		52.734375
8065		56.640625
8066		56.640625
8067		60.546875
8068		58.593750
8069		64.453125
8070		62.500000
8071		68.359375
8072		64.453125
8073		70.312500
8074		66.406250
8075		72.265625
8076		70.312500
8077		74.218750
8078		72.265625
8079		76.171875
8080		74.218750
8081		80.078125
8082		76.171875
8083		80.078125
8084		80.078125
8085		82.031250
8086		82.031250
8087		83.984375
8088		82.031250
8089		85.937500
8090		83.984375
8091		87.890625
8092		85.937500
8093		89.843750
8094		85.937500
8095		89.843750
8096		87.890625
8097		89.843750
8098		87.890625
8099		91.796875
8100		89.843750
8101		91.796875
8102		89.843750
8103		91.796875
8104		89.843750
8105		91.796875
8106		87.890625
8107		93.750000
8108		89.843750
8109		91.796875
8110		87.890625
8111		91.796875
8112		87.890625
8113		91.796875
8114		87.890625
8115		89.843750
8116		87.890625
8117		89.843750
8118		85.937500
8119		89.843750
8120		83.984375
8121		87.890625
8122		82.031250
8123		85.937500
8124		82.031250
8125		85.937500
8126		78.125000
8127		83.984375
8128		78.125000
8129		82.031250
8130		76.171875
8131		80.078125
8132		72.265625
8133		78.125000
8134		70.312500
8135		74.218750
8136		68.359375
8137		72.265625
8138		64.453125
8139		70.312500
8140		62.500000
8141		66.406250
8142		58.593750
8143		64.453125
8144		56.640625
8145		62.500000
8146		52.734375
8147		56.640625
8148		48.828125
8149		54.687500
8150		44.921875
8151		50.781250
8152		41.015625
8153		46.875000
8154		39.062500
8155		42.968750
8156		35.156250
8157		39.062500
8158		29.296875
8159		37.109375
8160		27.343750
8161		33.203125
8162		21.484375
8163		27.343750
8164		17.578125
8165		23.437500
8166		13.671875
8167		21.484375
8168		9.765625
8169		15.625000
8170		5.859375
8171		11.718750
8172		1.953125
8173		7.812500
8174		-1.953125
8175		3.906250
8176		-7.812500
8177		0.000000
8178		-9.765625
8179		-5.859375
8180		-15.625000
8181		-9.765625
8182		-19.531250
8183		-13.671875
8184		-23.437500
8185		-17.578125
8186		-27.343750
8187		-21.484375
8188		-31.250000
8189		-25.390625
8190		-35.156250
8191		-27.343750
8192		-39.062500
8193		-33.203125
8194		-41.015625
8195		-35.156250
8196		-44.921875
8197		-41.015625
8198		-48.828125
8199		-42.968750
8200		-50.781250
8201		-46.875000
8202		-54.687500
8203		-50.781250
8204		-56.640625
8205		-52.734375
8206		-60.546875
8207		-54.687500
8208		-64.453125
8209		-58.593750
8210		-66.406250
8211		-58.593750
8212		-66.406250
8213		-62.500000
8214		-68.359375
8215		-64.453125
8216		-70.312500
8217		-64.453125
8218		-74.218750
8219		-66.406250
8220		-74.218750
8221		-68.359375
8222		-76.171875
8223		-68.359375
8224		-76.171875
8225		-70.312500
8226		-78.125000
8227		-72.265625
8228		-76.171875
8229		-72.265625
8230		-76.171875
8231		-74.218750
8232		-78.125000
8233		-72.265625
8234		-78.125000
8235		-72.265625
8236		-78.125000
8237		-72.265625
8238		-76.171875
8239		-70.312500
8240		-76.171875
8241		-70.312500
8242		-76.171875
8243		-68.359375
8244		-74.218750
8245		-68.359375
8246		-72.265625
8247		-68.359375
8248		-70.312500
8249		-66.406250
8250		-68.359375
8251		-62.500000
8252		-68.359375
8253		-60.546875
8254		-64.453125
8255		-56.640625
8256		-62.500000
8257		-54.687500
8258		-60.546875
8259		-52.734375
8260		-56.640625
8261		-48.828125
8262		-52.734375
8263		-48.828125
8264		-48.828125
8265		-44.921875
8266		-46.875000
8267		-39.062500
8268		-44.921875
8269		-35.156250
8270		-42.968750
8271		-33.203125
8272		-37.109375
8273		-29.296875
8274		-35.156250
8275		-25.390625
8276		-31.250000
8277		-21.484375
8278		-27.343750
8279		-19.531250
8280		-21.484375
8281		-15.625000
8282		-15.625000
8283		-9.765625
8284		-13.671875
8285		-5.859375
8286		-9.765625
8287		-1.953125
8288		-5.859375
8289		1.953125
8290		-1.953125
8291		7.812500
8292		1.953125
8293		11.718750
8294		5.859375
8295		13.671875
8296		13.671875
8297		17.578125
8298		17.578125
8299		21.484375
8300		19.531250
8301		27.343750
8302		23.437500
8303		31.250000
8304		25.390625
8305		35.156250
8306		29.296875
8307		39.062500
8308		33.203125
8309		44.921875
8310		37.109375
8311		46.875000
8312		41.015625
8313		48.828125
8314		46.875000
8315		52.734375
8316		50.781250
8317		58.593750
8318		52.734375
8319		60.546875
8320		54.687500
8321		64.453125
8322		58.593750
8323		66.406250
8324		60.546875
8325		70.312500
8326		64.453125
8327		72.265625
8328		66.406250
8329		74.218750
8330		72.265625
8331		76.171875
8332		74.218750
8333		78.125000
8334		74.218750
8335		82.031250
8336		76.171875
8337		83.984375
8338		78.125000
8339		85.937500
8340		80.078125
8341		87.890625
8342		82.031250
8343		89.843750
8344		82.031250
8345		89.843750
8346		85.937500
8347		89.843750
8348		87.890625
8349		89.843750
8350		85.937500
8351		93.750000
8352		87.890625
8353		93.750000
8354		87.890625
8355		93.750000
8356		87.890625
8357		95.703125
8358		85.937500
8359		93.750000
8360		87.890625
8361		93.750000
8362		85.937500
8363		93.750000
8364		87.890625
8365		91.796875
8366		85.937500
8367		93.750000
8368		85.937500
8369		91.796875
8370		83.984375
8371		91.796875
8372		82.031250
8373		89.843750
8374		82.031250
8375		89.843750
8376		80.078125
8377		87.890625
8378		78.125000
8379		85.937500
8380		78.125000
8381		82.031250
8382		76.171875
8383		80.078125
8384		72.265625
8385		78.125000
8386		68.359375
8387		78.125000
8388		66.406250
8389		76.171875
8390		64.453125
8391		74.218750
8392		62.500000
8393		70.312500
8394		58.593750
8395		66.406250
8396		56.640625
8397		64.453125
8398		54.687500
8399		58.593750
8400		48.828125
8401		56.640625
8402		44.921875
8403		54.687500
8404		41.015625
8405		50.781250
8406		39.062500
8407		46.875000
8408		33.203125
8409		42.968750
8410		31.250000
8411		41.015625
8412		27.343750
8413		35.156250
8414		25.390625
8415		29.296875
8416		21.484375
8417		25.390625
8418		13.671875
8419		23.437500
8420		9.765625
8421		19.531250
8422		5.859375
8423		15.625000
8424		1.953125
8425		11.718750
8426		-1.953125
8427		5.859375
8428		-5.859375
8429		1.953125
8430		-9.765625
8431		-1.953125
8432		-13.671875
8433		-7.812500
8434		-19.531250
8435		-11.718750
8436		-23.437500
8437		-13.671875
8438		-27.343750
8439		-17.578125
8440		-31.250000
8441		-21.484375
8442		-35.156250
8443		-25.390625
8444		-39.062500
8445		-29.296875
8446		-41.015625
8447		-33.203125
8448		-44.921875
8449		-39.062500
8450		-48.828125
8451		-42.968750
8452		-52.734375
8453		-44.921875
8454		-56.640625
8455		-46.875000
8456		-58.593750
8457		-50.781250
8458		-60.546875
8459		-52.734375
8460		-64.453125
8461		-56.640625
8462		-66.406250
8463		-58.593750
8464		-66.406250
8465		-62.500000
8466		-68.359375
8467		-64.453125
8468		-72.265625
8469		-66.406250
8470		-74.218750
8471		-66.406250
8472		-76.171875
8473		-68.359375
8474		-78.125000
8475		-70.312500
8476		-78.125000
8477		-70.312500
8478		-78.125000
8479		-72.265625
8480		-80.078125
8481		-72.265625
8482		-78.125000
8483		-76.171875
8484		-80.078125
8485		-74.218750
8486		-80.078125
8487		-74.218750
8488		-80.078125
8489		-72.265625
8490		-80.078125
8491		-72.265625
8492		-80.078125
8493		-72.265625
8494		-78.125000
8495		-70.312500
8496		-76.171875
8497		-70.312500
8498		-74.218750
8499		-70.312500
8500		-72.265625
8501		-68.359375
8502		-72.265625
8503		-64.453125
8504		-72.265625
8505		-62.500000
8506		-68.359375
8507		-60.546875
8508		-66.406250
8509		-58.593750
8510		-64.453125
8511		-56.640625
8512		-62.500000
8513		-52.734375
8514		-56.640625
8515		-52.734375
8516		-52.734375
8517		-48.828125
8518		-50.781250
8519		-42.968750
8520		-48.828125
8521		-41.015625
8522		-44.921875
8523		-37.109375
8524		-41.015625
8525		-33.203125
8526		-39.062500
8527		-29.296875
8528		-35.156250
8529		-25.390625
8530		-31.250000
8531		-23.437500
8532		-25.390625
8533		-19.531250
8534		-21.484375
8535		-13.671875
8536		-19.531250
8537		-9.765625
8538		-15.625000
8539		-5.859375
8540		-11.718750
8541		-1.953125
8542		-5.859375
8543		1.953125
8544		-3.906250
8545		5.859375
8546		1.953125
8547		9.765625
8548		7.812500
8549		13.671875
8550		11.718750
8551		17.578125
8552		15.625000
8553		23.437500
8554		19.531250
8555		27.343750
8556		21.484375
8557		31.250000
8558		27.343750
8559		35.156250
8560		29.296875
8561		39.062500
8562		33.203125
8563		42.968750
8564		37.109375
8565		44.921875
8566		42.968750
8567		48.828125
8568		46.875000
8569		52.734375
8570		48.828125
8571		56.640625
8572		50.781250
8573		60.546875
8574		54.687500
8575		62.500000
8576		58.593750
8577		66.406250
8578		60.546875
8579		70.312500
8580		62.500000
8581		70.312500
8582		68.359375
8583		72.265625
8584		70.312500
8585		74.218750
8586		70.312500
8587		78.125000
8588		72.265625
8589		80.078125
8590		74.218750
8591		82.031250
8592		76.171875
8593		83.984375
8594		78.125000
8595		85.937500
8596		80.078125
8597		87.890625
8598		82.031250
8599		85.937500
8600		83.984375
8601		87.890625
8602		83.984375
8603		89.843750
8604		83.984375
8605		91.796875
8606		83.984375
8607		91.796875
8608		85.937500
8609		91.796875
8610		85.937500
8611		91.796875
8612		85.937500
8613		91.796875
8614		85.937500
8615		93.750000
8616		87.890625
8617		89.843750
8618		83.984375
8619		89.843750
8620		83.984375
8621		91.796875
8622		82.031250
8623		89.843750
8624		80.078125
8625		89.843750
8626		80.078125
8627		87.890625
8628		80.078125
8629		85.937500
8630		78.125000
8631		85.937500
8632		78.125000
8633		82.031250
8634		76.171875
8635		80.078125
8636		72.265625
8637		78.125000
8638		70.312500
8639		78.125000
8640		66.406250
8641		76.171875
8642		64.453125
8643		72.265625
8644		60.546875
8645		70.312500
8646		58.593750
8647		66.406250
8648		56.640625
8649		64.453125
8650		54.687500
8651		58.593750
8652		48.828125
8653		56.640625
8654		44.921875
8655		54.687500
8656		41.015625
8657		50.781250
8658		39.062500
8659		46.875000
8660		35.156250
8661		42.968750
8662		31.250000
8663		39.062500
8664		29.296875
8665		37.109375
8666		25.390625
8667		31.250000
8668		21.484375
8669		27.343750
8670		15.625000
8671		23.437500
8672		11.718750
8673		21.484375
8674		5.859375
8675		15.625000
8676		1.953125
8677		11.718750
8678		-1.953125
8679		7.812500
8680		-5.859375
8681		3.906250
8682		-7.812500
8683		-1.953125
8684		-11.718750
8685		-5.859375
8686		-19.531250
8687		-11.718750
8688		-21.484375
8689		-13.671875
8690		-25.390625
8691		-17.578125
8692		-31.250000
8693		-21.484375
8694		-35.156250
8695		-23.437500
8696		-39.062500
8697		-29.296875
8698		-41.015625
8699		-33.203125
8700		-42.968750
8701		-39.062500
8702		-48.828125
8703		-42.968750
8704		-52.734375
8705		-42.968750
8706		-56.640625
8707		-46.875000
8708		-58.593750
8709		-50.781250
8710		-62.500000
8711		-52.734375
8712		-64.453125
8713		-56.640625
8714		-66.406250
8715		-58.593750
8716		-66.406250
8717		-62.500000
8718		-70.312500
8719		-66.406250
8720		-74.218750
8721		-66.406250
8722		-76.171875
8723		-66.406250
8724		-76.171875
8725		-70.312500
8726		-78.125000
8727		-70.312500
8728		-80.078125
8729		-72.265625
8730		-80.078125
8731		-74.218750
8732		-80.078125
8733		-74.218750
8734		-80.078125
8735		-76.171875
8736		-82.031250
8737		-76.171875
8738		-82.031250
8739		-76.171875
8740		-82.031250
8741		-76.171875
8742		-82.031250
8743		-74.218750
8744		-80.078125
8745		-74.218750
8746		-80.078125
8747		-72.265625
8748		-80.078125
8749		-72.265625
8750		-76.171875
8751		-74.218750
8752		-74.218750
8753		-72.265625
8754		-74.218750
8755		-68.359375
8756		-74.218750
8757		-64.453125
8758		-72.265625
8759		-64.453125
8760		-68.359375
8761		-60.546875
8762		-66.406250
8763		-58.593750
8764		-64.453125
8765		-56.640625
8766		-60.546875
8767		-54.687500
8768		-56.640625
8769		-52.734375
8770		-54.687500
8771		-46.875000
8772		-52.734375
8773		-42.968750
8774		-48.828125
8775		-41.015625
8776		-44.921875
8777		-37.109375
8778		-42.968750
8779		-33.203125
8780		-37.109375
8781		-29.296875
8782		-35.156250
8783		-27.343750
8784		-27.343750
8785		-23.437500
8786		-25.390625
8787		-17.578125
8788		-23.437500
8789		-13.671875
8790		-17.578125
8791		-9.765625
8792		-15.625000
8793		-3.906250
8794		-11.718750
8795		0.000000
8796		-5.859375
8797		3.906250
8798		-1.953125
8799		7.812500
8800		3.906250
8801		9.765625
8802		9.765625
8803		13.671875
8804		11.718750
8805		19.531250
8806		15.625000
8807		23.437500
8808		19.531250
8809		27.343750
8810		23.437500
8811		33.203125
8812		25.390625
8813		35.156250
8814		31.250000
8815		39.062500
8816		35.156250
8817		42.968750
8818		41.015625
8819		44.921875
8820		44.921875
8821		50.781250
8822		44.921875
8823		54.687500
8824		48.828125
8825		58.593750
8826		52.734375
8827		60.546875
8828		54.687500
8829		64.453125
8830		58.593750
8831		66.406250
8832		62.500000
8833		68.359375
8834		66.406250
8835		70.312500
8836		68.359375
8837		72.265625
8838		70.312500
8839		76.171875
8840		72.265625
8841		80.078125
8842		72.265625
8843		82.031250
8844		76.171875
8845		83.984375
8846		78.125000
8847		83.984375
8848		78.125000
8849		85.937500
8850		80.078125
8851		85.937500
8852		83.984375
8853		85.937500
8854		83.984375
8855		89.843750
8856		83.984375
8857		91.796875
8858		83.984375
8859		91.796875
8860		83.984375
8861		91.796875
8862		85.937500
8863		91.796875
8864		85.937500
8865		91.796875
8866		85.937500
8867		91.796875
8868		87.890625
8869		89.843750
8870		87.890625
8871		89.843750
8872		83.984375
8873		91.796875
8874		83.984375
8875		91.796875
8876		82.031250
8877		89.843750
8878		82.031250
8879		89.843750
8880		80.078125
8881		87.890625
8882		80.078125
8883		85.937500
8884		80.078125
8885		82.031250
8886		78.125000
8887		82.031250
8888		74.218750
8889		80.078125
8890		72.265625
8891		80.078125
8892		68.359375
8893		76.171875
8894		66.406250
8895		74.218750
8896		64.453125
8897		72.265625
8898		60.546875
8899		70.312500
8900		60.546875
8901		66.406250
8902		56.640625
8903		62.500000
8904		52.734375
8905		58.593750
8906		48.828125
8907		56.640625
8908		44.921875
8909		54.687500
8910		42.968750
8911		50.781250
8912		37.109375
8913		46.875000
8914		33.203125
8915		42.968750
8916		31.250000
8917		39.062500
8918		27.343750
8919		33.203125
8920		25.390625
8921		29.296875
8922		19.531250
8923		27.343750
8924		15.625000
8925		23.437500
8926		9.765625
8927		19.531250
8928		5.859375
8929		15.625000
8930		1.953125
8931		9.765625
8932		-1.953125
8933		5.859375
8934		-3.906250
8935		1.953125
8936		-7.812500
8937		-1.953125
8938		-15.625000
8939		-7.812500
8940		-17.578125
8941		-9.765625
8942		-21.484375
8943		-13.671875
8944		-25.390625
8945		-17.578125
8946		-31.250000
8947		-21.484375
8948		-35.156250
8949		-25.390625
8950		-37.109375
8951		-29.296875
8952		-39.062500
8953		-35.156250
8954		-42.968750
8955		-39.062500
8956		-48.828125
8957		-41.015625
8958		-52.734375
8959		-44.921875
8960		-56.640625
8961		-46.875000
8962		-58.593750
8963		-48.828125
8964		-60.546875
8965		-52.734375
8966		-64.453125
8967		-54.687500
8968		-64.453125
8969		-60.546875
8970		-66.406250
8971		-62.500000
8972		-70.312500
8973		-62.500000
8974		-72.265625
8975		-64.453125
8976		-74.218750
8977		-66.406250
8978		-76.171875
8979		-68.359375
8980		-76.171875
8981		-70.312500
8982		-78.125000
8983		-70.312500
8984		-78.125000
8985		-70.312500
8986		-78.125000
8987		-74.218750
8988		-80.078125
8989		-72.265625
8990		-80.078125
8991		-72.265625
8992		-80.078125
8993		-74.218750
8994		-80.078125
8995		-72.265625
8996		-80.078125
8997		-72.265625
8998		-78.125000
8999		-72.265625
9000		-78.125000
9001		-70.312500
9002		-74.218750
9003		-72.265625
9004		-74.218750
9005		-70.312500
9006		-74.218750
9007		-66.406250
9008		-72.265625
9009		-64.453125
9010		-70.312500
9011		-62.500000
9012		-68.359375
9013		-60.546875
9014		-66.406250
9015		-56.640625
9016		-64.453125
9017		-54.687500
9018		-60.546875
9019		-52.734375
9020		-56.640625
9021		-50.781250
9022		-52.734375
9023		-46.875000
9024		-52.734375
9025		-42.968750
9026		-48.828125
9027		-39.062500
9028		-46.875000
9029		-37.109375
9030		-42.968750
9031		-33.203125
9032		-39.062500
9033		-29.296875
9034		-35.156250
9035		-27.343750
9036		-29.296875
9037		-23.437500
9038		-25.390625
9039		-19.531250
9040		-23.437500
9041		-13.671875
9042		-19.531250
9043		-9.765625
9044		-13.671875
9045		-3.906250
9046		-11.718750
9047		-1.953125
9048		-5.859375
9049		3.906250
9050		-1.953125
9051		7.812500
9052		3.906250
9053		9.765625
9054		7.812500
9055		13.671875
9056		11.718750
9057		19.531250
9058		15.625000
9059		23.437500
9060		19.531250
9061		27.343750
9062		21.484375
9063		31.250000
9064		27.343750
9065		35.156250
9066		31.250000
9067		41.015625
9068		35.156250
9069		42.968750
9070		41.015625
9071		44.921875
9072		44.921875
9073		50.781250
9074		44.921875
9075		54.687500
9076		48.828125
9077		58.593750
9078		52.734375
9079		62.500000
9080		56.640625
9081		64.453125
9082		60.546875
9083		68.359375
9084		60.546875
9085		70.312500
9086		66.406250
9087		70.312500
9088		70.312500
9089		74.218750
9090		70.312500
9091		78.125000
9092		72.265625
9093		80.078125
9094		74.218750
9095		82.031250
9096		76.171875
9097		83.984375
9098		78.125000
9099		85.937500
9100		80.078125
9101		87.890625
9102		82.031250
9103		87.890625
9104		85.937500
9105		87.890625
9106		85.937500
9107		91.796875
9108		85.937500
9109		93.750000
9110		85.937500
9111		93.750000
9112		87.890625
9113		93.750000
9114		87.890625
9115		95.703125
9116		87.890625
9117		95.703125
9118		87.890625
9119		95.703125
9120		89.843750
9121		93.750000
9122		89.843750
9123		91.796875
9124		87.890625
9125		95.703125
9126		87.890625
9127		93.750000
9128		85.937500
9129		93.750000
9130		85.937500
9131		91.796875
9132		83.984375
9133		91.796875
9134		82.031250
9135		89.843750
9136		83.984375
9137		87.890625
9138		82.031250
9139		83.984375
9140		78.125000
9141		83.984375
9142		74.218750
9143		83.984375
9144		72.265625
9145		82.031250
9146		70.312500
9147		78.125000
9148		68.359375
9149		76.171875
9150		66.406250
9151		74.218750
9152		64.453125
9153		72.265625
9154		62.500000
9155		66.406250
9156		58.593750
9157		64.453125
9158		54.687500
9159		62.500000
9160		50.781250
9161		58.593750
9162		46.875000
9163		54.687500
9164		42.968750
9165		52.734375
9166		39.062500
9167		48.828125
9168		35.156250
9169		44.921875
9170		33.203125
9171		39.062500
9172		29.296875
9173		35.156250
9174		23.437500
9175		33.203125
9176		19.531250
9177		29.296875
9178		15.625000
9179		25.390625
9180		11.718750
9181		21.484375
9182		7.812500
9183		17.578125
9184		3.906250
9185		13.671875
9186		1.953125
9187		7.812500
9188		-1.953125
9189		1.953125
9190		-7.812500
9191		-1.953125
9192		-13.671875
9193		-3.906250
9194		-17.578125
9195		-9.765625
9196		-21.484375
9197		-11.718750
9198		-25.390625
9199		-17.578125
9200		-29.296875
9201		-19.531250
9202		-31.250000
9203		-23.437500
9204		-35.156250
9205		-29.296875
9206		-39.062500
9207		-33.203125
9208		-44.921875
9209		-35.156250
9210		-46.875000
9211		-39.062500
9212		-50.781250
9213		-42.968750
9214		-52.734375
9215		-44.921875
9216		-56.640625
9217		-46.875000
9218		-60.546875
9219		-50.781250
9220		-60.546875
9221		-54.687500
9222		-62.500000
9223		-58.593750
9224		-66.406250
9225		-60.546875
9226		-68.359375
9227		-60.546875
9228		-70.312500
9229		-62.500000
9230		-72.265625
9231		-64.453125
9232		-74.218750
9233		-66.406250
9234		-74.218750
9235		-66.406250
9236		-74.218750
9237		-68.359375
9238		-74.218750
9239		-72.265625
9240		-76.171875
9241		-70.312500
9242		-78.125000
9243		-70.312500
9244		-78.125000
9245		-70.312500
9246		-78.125000
9247		-70.312500
9248		-78.125000
9249		-70.312500
9250		-76.171875
9251		-70.312500
9252		-76.171875
9253		-70.312500
9254		-74.218750
9255		-70.312500
9256		-72.265625
9257		-68.359375
9258		-72.265625
9259		-66.406250
9260		-72.265625
9261		-64.453125
9262		-70.312500
9263		-62.500000
9264		-68.359375
9265		-60.546875
9266		-66.406250
9267		-58.593750
9268		-62.500000
9269		-54.687500
9270		-60.546875
9271		-54.687500
9272		-56.640625
9273		-52.734375
9274		-52.734375
9275		-46.875000
9276		-52.734375
9277		-42.968750
9278		-48.828125
9279		-39.062500
9280		-44.921875
9281		-37.109375
9282		-42.968750
9283		-33.203125
9284		-39.062500
9285		-29.296875
9286		-35.156250
9287		-27.343750
9288		-29.296875
9289		-23.437500
9290		-25.390625
9291		-19.531250
9292		-23.437500
9293		-15.625000
9294		-19.531250
9295		-11.718750
9296		-15.625000
9297		-5.859375
9298		-11.718750
9299		-1.953125
9300		-7.812500
9301		1.953125
9302		-3.906250
9303		5.859375
9304		1.953125
9305		7.812500
9306		7.812500
9307		11.718750
9308		11.718750
9309		17.578125
9310		13.671875
9311		23.437500
9312		17.578125
9313		27.343750
9314		21.484375
9315		31.250000
9316		25.390625
9317		35.156250
9318		29.296875
9319		39.062500
9320		33.203125
9321		41.015625
9322		39.062500
9323		42.968750
9324		42.968750
9325		50.781250
9326		44.921875
9327		52.734375
9328		46.875000
9329		56.640625
9330		50.781250
9331		60.546875
9332		54.687500
9333		62.500000
9334		58.593750
9335		66.406250
9336		60.546875
9337		68.359375
9338		64.453125
9339		70.312500
9340		68.359375
9341		72.265625
9342		70.312500
9343		76.171875
9344		70.312500
9345		80.078125
9346		74.218750
9347		82.031250
9348		76.171875
9349		83.984375
9350		78.125000
9351		85.937500
9352		80.078125
9353		87.890625
9354		82.031250
9355		87.890625
9356		83.984375
9357		87.890625
9358		85.937500
9359		89.843750
9360		85.937500
9361		91.796875
9362		85.937500
9363		93.750000
9364		87.890625
9365		93.750000
9366		87.890625
9367		93.750000
9368		87.890625
9369		93.750000
9370		87.890625
9371		95.703125
9372		89.843750
9373		93.750000
9374		89.843750
9375		91.796875
9376		87.890625
9377		93.750000
9378		85.937500
9379		93.750000
9380		85.937500
9381		93.750000
9382		85.937500
9383		91.796875
9384		83.984375
9385		91.796875
9386		83.984375
9387		89.843750
9388		82.031250
9389		87.890625
9390		82.031250
9391		85.937500
9392		78.125000
9393		83.984375
9394		76.171875
9395		83.984375
9396		74.218750
9397		82.031250
9398		72.265625
9399		80.078125
9400		68.359375
9401		78.125000
9402		66.406250
9403		74.218750
9404		66.406250
9405		72.265625
9406		62.500000
9407		68.359375
9408		58.593750
9409		64.453125
9410		54.687500
9411		64.453125
9412		50.781250
9413		60.546875
9414		46.875000
9415		56.640625
9416		44.921875
9417		54.687500
9418		41.015625
9419		50.781250
9420		37.109375
9421		46.875000
9422		35.156250
9423		41.015625
9424		31.250000
9425		37.109375
9426		25.390625
9427		33.203125
9428		21.484375
9429		31.250000
9430		17.578125
9431		27.343750
9432		13.671875
9433		23.437500
9434		7.812500
9435		19.531250
9436		3.906250
9437		13.671875
9438		1.953125
9439		9.765625
9440		-1.953125
9441		3.906250
9442		-7.812500
9443		0.000000
9444		-11.718750
9445		-1.953125
9446		-15.625000
9447		-5.859375
9448		-19.531250
9449		-9.765625
9450		-23.437500
9451		-15.625000
9452		-27.343750
9453		-19.531250
9454		-31.250000
9455		-23.437500
9456		-33.203125
9457		-29.296875
9458		-37.109375
9459		-33.203125
9460		-42.968750
9461		-35.156250
9462		-46.875000
9463		-37.109375
9464		-50.781250
9465		-41.015625
9466		-52.734375
9467		-44.921875
9468		-56.640625
9469		-46.875000
9470		-60.546875
9471		-50.781250
9472		-60.546875
9473		-52.734375
9474		-62.500000
9475		-58.593750
9476		-66.406250
9477		-60.546875
9478		-68.359375
9479		-60.546875
9480		-72.265625
9481		-64.453125
9482		-72.265625
9483		-66.406250
9484		-74.218750
9485		-66.406250
9486		-76.171875
9487		-68.359375
9488		-76.171875
9489		-70.312500
9490		-76.171875
9491		-72.265625
9492		-76.171875
9493		-74.218750
9494		-80.078125
9495		-72.265625
9496		-80.078125
9497		-74.218750
9498		-80.078125
9499		-72.265625
9500		-80.078125
9501		-72.265625
9502		-80.078125
9503		-72.265625
9504		-80.078125
9505		-72.265625
9506		-76.171875
9507		-74.218750
9508		-76.171875
9509		-72.265625
9510		-76.171875
9511		-68.359375
9512		-74.218750
9513		-68.359375
9514		-74.218750
9515		-66.406250
9516		-72.265625
9517		-64.453125
9518		-70.312500
9519		-60.546875
9520		-68.359375
9521		-60.546875
9522		-64.453125
9523		-58.593750
9524		-60.546875
9525		-56.640625
9526		-58.593750
9527		-50.781250
9528		-56.640625
9529		-48.828125
9530		-54.687500
9531		-44.921875
9532		-50.781250
9533		-42.968750
9534		-48.828125
9535		-39.062500
9536		-44.921875
9537		-35.156250
9538		-41.015625
9539		-31.250000
9540		-35.156250
9541		-29.296875
9542		-31.250000
9543		-25.390625
9544		-29.296875
9545		-19.531250
9546		-25.390625
9547		-15.625000
9548		-21.484375
9549		-11.718750
9550		-17.578125
9551		-7.812500
9552		-11.718750
9553		-3.906250
9554		-7.812500
9555		0.000000
9556		-3.906250
9557		1.953125
9558		1.953125
9559		5.859375
9560		5.859375
9561		13.671875
9562		7.812500
9563		17.578125
9564		11.718750
9565		21.484375
9566		15.625000
9567		25.390625
9568		19.531250
9569		29.296875
9570		23.437500
9571		33.203125
9572		27.343750
9573		35.156250
9574		33.203125
9575		39.062500
9576		37.109375
9577		42.968750
9578		39.062500
9579		48.828125
9580		42.968750
9581		50.781250
9582		46.875000
9583		54.687500
9584		48.828125
9585		58.593750
9586		52.734375
9587		62.500000
9588		56.640625
9589		64.453125
9590		60.546875
9591		64.453125
9592		64.453125
9593		68.359375
9594		66.406250
9595		72.265625
9596		66.406250
9597		74.218750
9598		68.359375
9599		78.125000
9600		70.312500
9601		80.078125
9602		74.218750
9603		82.031250
9604		76.171875
9605		83.984375
9606		78.125000
9607		83.984375
9608		82.031250
9609		83.984375
9610		82.031250
9611		87.890625
9612		82.031250
9613		87.890625
9614		82.031250
9615		89.843750
9616		83.984375
9617		91.796875
9618		83.984375
9619		91.796875
9620		85.937500
9621		91.796875
9622		85.937500
9623		91.796875
9624		87.890625
9625		89.843750
9626		87.890625
9627		89.843750
9628		85.937500
9629		91.796875
9630		85.937500
9631		91.796875
9632		83.984375
9633		91.796875
9634		83.984375
9635		91.796875
9636		82.031250
9637		89.843750
9638		82.031250
9639		87.890625
9640		82.031250
9641		87.890625
9642		80.078125
9643		83.984375
9644		76.171875
9645		83.984375
9646		76.171875
9647		82.031250
9648		74.218750
9649		82.031250
9650		70.312500
9651		78.125000
9652		68.359375
9653		76.171875
9654		66.406250
9655		74.218750
9656		64.453125
9657		72.265625
9658		62.500000
9659		66.406250
9660		60.546875
9661		64.453125
9662		54.687500
9663		64.453125
9664		50.781250
9665		60.546875
9666		48.828125
9667		56.640625
9668		44.921875
9669		52.734375
9670		41.015625
9671		48.828125
9672		37.109375
9673		46.875000
9674		35.156250
9675		42.968750
9676		31.250000
9677		37.109375
9678		25.390625
9679		33.203125
9680		21.484375
9681		31.250000
9682		17.578125
9683		27.343750
9684		13.671875
9685		23.437500
9686		9.765625
9687		19.531250
9688		5.859375
9689		15.625000
9690		3.906250
9691		11.718750
9692		-1.953125
9693		3.906250
9694		-5.859375
9695		0.000000
9696		-11.718750
9697		-1.953125
9698		-15.625000
9699		-5.859375
9700		-19.531250
9701		-9.765625
9702		-23.437500
9703		-13.671875
9704		-29.296875
9705		-19.531250
9706		-31.250000
9707		-23.437500
9708		-33.203125
9709		-29.296875
9710		-37.109375
9711		-33.203125
9712		-42.968750
9713		-35.156250
9714		-46.875000
9715		-39.062500
9716		-50.781250
9717		-41.015625
9718		-52.734375
9719		-44.921875
9720		-56.640625
9721		-46.875000
9722		-60.546875
9723		-50.781250
9724		-60.546875
9725		-54.687500
9726		-62.500000
9727		-58.593750
9728		-68.359375
9729		-60.546875
9730		-70.312500
9731		-62.500000
9732		-72.265625
9733		-64.453125
9734		-74.218750
9735		-66.406250
9736		-76.171875
9737		-68.359375
9738		-78.125000
9739		-70.312500
9740		-78.125000
9741		-70.312500
9742		-78.125000
9743		-74.218750
9744		-78.125000
9745		-76.171875
9746		-82.031250
9747		-74.218750
9748		-82.031250
9749		-74.218750
9750		-82.031250
9751		-74.218750
9752		-82.031250
9753		-74.218750
9754		-82.031250
9755		-74.218750
9756		-82.031250
9757		-74.218750
9758		-78.125000
9759		-74.218750
9760		-78.125000
9761		-74.218750
9762		-78.125000
9763		-72.265625
9764		-78.125000
9765		-70.312500
9766		-76.171875
9767		-68.359375
9768		-74.218750
9769		-66.406250
9770		-72.265625
9771		-64.453125
9772		-70.312500
9773		-62.500000
9774		-68.359375
9775		-62.500000
9776		-64.453125
9777		-60.546875
9778		-60.546875
9779		-54.687500
9780		-60.546875
9781		-52.734375
9782		-56.640625
9783		-48.828125
9784		-54.687500
9785		-44.921875
9786		-50.781250
9787		-42.968750
9788		-46.875000
9789		-39.062500
9790		-44.921875
9791		-35.156250
9792		-39.062500
9793		-33.203125
9794		-35.156250
9795		-29.296875
9796		-31.250000
9797		-23.437500
9798		-29.296875
9799		-19.531250
9800		-25.390625
9801		-15.625000
9802		-21.484375
9803		-11.718750
9804		-17.578125
9805		-7.812500
9806		-13.671875
9807		-3.906250
9808		-9.765625
9809		-1.953125
9810		-1.953125
9811		3.906250
9812		1.953125
9813		9.765625
9814		3.906250
9815		13.671875
9816		7.812500
9817		17.578125
9818		13.671875
9819		21.484375
9820		15.625000
9821		25.390625
9822		21.484375
9823		29.296875
9824		25.390625
9825		33.203125
9826		31.250000
9827		35.156250
9828		35.156250
9829		39.062500
9830		37.109375
9831		44.921875
9832		39.062500
9833		48.828125
9834		42.968750
9835		52.734375
9836		46.875000
9837		56.640625
9838		50.781250
9839		58.593750
9840		52.734375
9841		62.500000
9842		56.640625
9843		62.500000
9844		60.546875
9845		66.406250
9846		64.453125
9847		70.312500
9848		64.453125
9849		72.265625
9850		68.359375
9851		76.171875
9852		70.312500
9853		78.125000
9854		72.265625
9855		80.078125
9856		74.218750
9857		82.031250
9858		76.171875
9859		82.031250
9860		80.078125
9861		83.984375
9862		82.031250
9863		85.937500
9864		80.078125
9865		87.890625
9866		82.031250
9867		89.843750
9868		82.031250
9869		89.843750
9870		83.984375
9871		91.796875
9872		83.984375
9873		91.796875
9874		85.937500
9875		91.796875
9876		87.890625
9877		89.843750
9878		87.890625
9879		89.843750
9880		85.937500
9881		91.796875
9882		85.937500
9883		91.796875
9884		85.937500
9885		91.796875
9886		83.984375
9887		91.796875
9888		83.984375
9889		91.796875
9890		82.031250
9891		89.843750
9892		82.031250
9893		89.843750
9894		82.031250
9895		85.937500
9896		80.078125
9897		85.937500
9898		76.171875
9899		83.984375
9900		74.218750
9901		82.031250
9902		74.218750
9903		80.078125
9904		70.312500
9905		78.125000
9906		68.359375
9907		76.171875
9908		66.406250
9909		74.218750
9910		64.453125
9911		70.312500
9912		62.500000
9913		66.406250
9914		56.640625
9915		64.453125
9916		54.687500
9917		64.453125
9918		50.781250
9919		60.546875
9920		48.828125
9921		56.640625
9922		44.921875
9923		52.734375
9924		41.015625
9925		48.828125
9926		39.062500
9927		44.921875
9928		35.156250
9929		41.015625
9930		29.296875
9931		37.109375
9932		25.390625
9933		35.156250
9934		21.484375
9935		29.296875
9936		17.578125
9937		25.390625
9938		13.671875
9939		23.437500
9940		7.812500
9941		19.531250
9942		5.859375
9943		15.625000
9944		1.953125
9945		7.812500
9946		-1.953125
9947		3.906250
9948		-7.812500
9949		1.953125
9950		-11.718750
9951		-1.953125
9952		-15.625000
9953		-7.812500
9954		-19.531250
9955		-9.765625
9956		-23.437500
9957		-15.625000
9958		-27.343750
9959		-19.531250
9960		-29.296875
9961		-25.390625
9962		-33.203125
9963		-29.296875
9964		-39.062500
9965		-31.250000
9966		-42.968750
9967		-35.156250
9968		-46.875000
9969		-37.109375
9970		-50.781250
9971		-41.015625
9972		-52.734375
9973		-44.921875
9974		-56.640625
9975		-46.875000
9976		-56.640625
9977		-50.781250
9978		-60.546875
9979		-54.687500
9980		-64.453125
9981		-58.593750
9982		-66.406250
9983		-58.593750
9984		-68.359375
9985		-60.546875
9986		-70.312500
9987		-64.453125
9988		-72.265625
9989		-64.453125
9990		-74.218750
9991		-66.406250
9992		-76.171875
9993		-68.359375
9994		-74.218750
9995		-72.265625
9996		-76.171875
9997		-74.218750
9998		-78.125000
9999		-72.265625
10000		-80.078125
