Channel              :		CH1
Frequency            :		1.973kHz
Period               :		0.507ms
PK-PK                :		130.9mV
Probe attenuation    :		1X
Voltage per ADC value:		0.122070mV
Time interval        :		2.00000us

index		CH1_Voltage(mV)
1		68.359375
2		68.359375
3		66.406250
4		68.359375
5		64.453125
6		68.359375
7		64.453125
8		68.359375
9		62.500000
10		66.406250
11		62.500000
12		66.406250
13		62.500000
14		66.406250
15		60.546875
16		64.453125
17		58.593750
18		64.453125
19		58.593750
20		62.500000
21		56.640625
22		60.546875
23		54.687500
24		58.593750
25		52.734375
26		58.593750
27		52.734375
28		56.640625
29		50.781250
30		54.687500
31		48.828125
32		52.734375
33		46.875000
34		50.781250
35		44.921875
36		48.828125
37		41.015625
38		44.921875
39		39.062500
40		44.921875
41		37.109375
42		41.015625
43		35.156250
44		39.062500
45		31.250000
46		35.156250
47		29.296875
48		33.203125
49		25.390625
50		31.250000
51		23.437500
52		27.343750
53		21.484375
54		25.390625
55		17.578125
56		23.437500
57		15.625000
58		19.531250
59		11.718750
60		17.578125
61		7.812500
62		13.671875
63		5.859375
64		11.718750
65		1.953125
66		7.812500
67		-1.953125
68		3.906250
69		-3.906250
70		1.953125
71		-5.859375
72		-1.953125
73		-9.765625
74		-1.953125
75		-11.718750
76		-7.812500
77		-13.671875
78		-9.765625
79		-17.578125
80		-13.671875
81		-19.531250
82		-15.625000
83		-25.390625
84		-19.531250
85		-25.390625
86		-21.484375
87		-29.296875
88		-23.437500
89		-31.250000
90		-27.343750
91		-33.203125
92		-29.296875
93		-35.156250
94		-31.250000
95		-39.062500
96		-33.203125
97		-39.062500
98		-35.156250
99		-42.968750
100		-37.109375
101		-42.968750
102		-39.062500
103		-44.921875
104		-41.015625
105		-48.828125
106		-42.968750
107		-48.828125
108		-44.921875
109		-48.828125
110		-44.921875
111		-50.781250
112		-46.875000
113		-52.734375
114		-48.828125
115		-52.734375
116		-48.828125
117		-54.687500
118		-48.828125
119		-52.734375
120		-50.781250
121		-54.687500
122		-50.781250
123		-54.687500
124		-50.781250
125		-54.687500
126		-50.781250
127		-54.687500
128		-50.781250
129		-54.687500
130		-50.781250
131		-54.687500
132		-50.781250
133		-52.734375
134		-50.781250
135		-52.734375
136		-48.828125
137		-52.734375
138		-48.828125
139		-50.781250
140		-46.875000
141		-50.781250
142		-46.875000
143		-48.828125
144		-44.921875
145		-46.875000
146		-42.968750
147		-46.875000
148		-41.015625
149		-42.968750
150		-39.062500
151		-42.968750
152		-37.109375
153		-39.062500
154		-37.109375
155		-37.109375
156		-33.203125
157		-37.109375
158		-31.250000
159		-35.156250
160		-29.296875
161		-31.250000
162		-27.343750
163		-29.296875
164		-23.437500
165		-25.390625
166		-21.484375
167		-23.437500
168		-17.578125
169		-21.484375
170		-15.625000
171		-17.578125
172		-13.671875
173		-15.625000
174		-9.765625
175		-11.718750
176		-7.812500
177		-9.765625
178		-3.906250
179		-7.812500
180		-1.953125
181		-3.906250
182		1.953125
183		0.000000
184		3.906250
185		1.953125
186		7.812500
187		5.859375
188		9.765625
189		7.812500
190		13.671875
191		11.718750
192		15.625000
193		13.671875
194		19.531250
195		17.578125
196		21.484375
197		19.531250
198		25.390625
199		21.484375
200		27.343750
201		25.390625
202		31.250000
203		29.296875
204		33.203125
205		31.250000
206		35.156250
207		33.203125
208		39.062500
209		37.109375
210		41.015625
211		39.062500
212		42.968750
213		41.015625
214		44.921875
215		42.968750
216		46.875000
217		46.875000
218		50.781250
219		46.875000
220		50.781250
221		50.781250
222		52.734375
223		50.781250
224		56.640625
225		52.734375
226		56.640625
227		54.687500
228		58.593750
229		56.640625
230		60.546875
231		58.593750
232		60.546875
233		58.593750
234		62.500000
235		58.593750
236		64.453125
237		62.500000
238		64.453125
239		62.500000
240		66.406250
241		62.500000
242		66.406250
243		62.500000
244		66.406250
245		64.453125
246		68.359375
247		64.453125
248		68.359375
249		64.453125
250		68.359375
251		64.453125
252		68.359375
253		66.406250
254		68.359375
255		66.406250
256		68.359375
257		62.500000
258		68.359375
259		64.453125
260		68.359375
261		64.453125
262		66.406250
263		64.453125
264		66.406250
265		62.500000
266		66.406250
267		60.546875
268		64.453125
269		60.546875
270		64.453125
271		58.593750
272		62.500000
273		56.640625
274		60.546875
275		56.640625
276		60.546875
277		54.687500
278		58.593750
279		52.734375
280		56.640625
281		50.781250
282		54.687500
283		48.828125
284		52.734375
285		46.875000
286		50.781250
287		44.921875
288		48.828125
289		42.968750
290		46.875000
291		41.015625
292		44.921875
293		39.062500
294		42.968750
295		35.156250
296		41.015625
297		33.203125
298		37.109375
299		29.296875
300		35.156250
301		27.343750
302		33.203125
303		25.390625
304		29.296875
305		21.484375
306		27.343750
307		19.531250
308		23.437500
309		15.625000
310		21.484375
311		13.671875
312		17.578125
313		9.765625
314		15.625000
315		7.812500
316		11.718750
317		3.906250
318		9.765625
319		1.953125
320		7.812500
321		-1.953125
322		3.906250
323		-3.906250
324		0.000000
325		-7.812500
326		-1.953125
327		-9.765625
328		-5.859375
329		-13.671875
330		-9.765625
331		-17.578125
332		-11.718750
333		-19.531250
334		-13.671875
335		-21.484375
336		-17.578125
337		-25.390625
338		-19.531250
339		-27.343750
340		-23.437500
341		-29.296875
342		-25.390625
343		-33.203125
344		-27.343750
345		-35.156250
346		-29.296875
347		-37.109375
348		-33.203125
349		-39.062500
350		-35.156250
351		-41.015625
352		-37.109375
353		-42.968750
354		-39.062500
355		-44.921875
356		-41.015625
357		-46.875000
358		-42.968750
359		-48.828125
360		-44.921875
361		-48.828125
362		-44.921875
363		-50.781250
364		-46.875000
365		-50.781250
366		-48.828125
367		-52.734375
368		-48.828125
369		-54.687500
370		-50.781250
371		-52.734375
372		-50.781250
373		-54.687500
374		-50.781250
375		-54.687500
376		-50.781250
377		-54.687500
378		-52.734375
379		-54.687500
380		-50.781250
381		-54.687500
382		-52.734375
383		-54.687500
384		-50.781250
385		-54.687500
386		-50.781250
387		-54.687500
388		-50.781250
389		-52.734375
390		-48.828125
391		-52.734375
392		-46.875000
393		-50.781250
394		-46.875000
395		-48.828125
396		-46.875000
397		-48.828125
398		-44.921875
399		-46.875000
400		-41.015625
401		-44.921875
402		-41.015625
403		-44.921875
404		-39.062500
405		-41.015625
406		-37.109375
407		-39.062500
408		-35.156250
409		-39.062500
410		-33.203125
411		-35.156250
412		-31.250000
413		-33.203125
414		-29.296875
415		-31.250000
416		-25.390625
417		-29.296875
418		-23.437500
419		-25.390625
420		-21.484375
421		-23.437500
422		-17.578125
423		-21.484375
424		-15.625000
425		-17.578125
426		-13.671875
427		-13.671875
428		-9.765625
429		-11.718750
430		-5.859375
431		-7.812500
432		-3.906250
433		-5.859375
434		-1.953125
435		-1.953125
436		1.953125
437		0.000000
438		5.859375
439		3.906250
440		7.812500
441		5.859375
442		11.718750
443		9.765625
444		15.625000
445		11.718750
446		17.578125
447		15.625000
448		19.531250
449		17.578125
450		23.437500
451		21.484375
452		25.390625
453		23.437500
454		29.296875
455		27.343750
456		31.250000
457		29.296875
458		33.203125
459		31.250000
460		37.109375
461		35.156250
462		39.062500
463		37.109375
464		41.015625
465		39.062500
466		44.921875
467		41.015625
468		46.875000
469		42.968750
470		48.828125
471		44.921875
472		50.781250
473		48.828125
474		52.734375
475		50.781250
476		54.687500
477		52.734375
478		56.640625
479		52.734375
480		58.593750
481		56.640625
482		58.593750
483		56.640625
484		60.546875
485		58.593750
486		62.500000
487		58.593750
488		62.500000
489		60.546875
490		64.453125
491		62.500000
492		64.453125
493		62.500000
494		66.406250
495		62.500000
496		68.359375
497		64.453125
498		68.359375
499		64.453125
500		68.359375
501		64.453125
502		68.359375
503		64.453125
504		68.359375
505		64.453125
506		68.359375
507		64.453125
508		68.359375
509		64.453125
510		68.359375
511		64.453125
512		68.359375
513		64.453125
514		68.359375
515		64.453125
516		66.406250
517		62.500000
518		66.406250
519		62.500000
520		66.406250
521		60.546875
522		64.453125
523		60.546875
524		62.500000
525		58.593750
526		62.500000
527		56.640625
528		60.546875
529		54.687500
530		60.546875
531		54.687500
532		58.593750
533		52.734375
534		56.640625
535		50.781250
536		54.687500
537		46.875000
538		52.734375
539		46.875000
540		50.781250
541		42.968750
542		48.828125
543		42.968750
544		46.875000
545		39.062500
546		44.921875
547		37.109375
548		41.015625
549		35.156250
550		39.062500
551		31.250000
552		37.109375
553		29.296875
554		33.203125
555		27.343750
556		31.250000
557		23.437500
558		29.296875
559		21.484375
560		25.390625
561		17.578125
562		23.437500
563		13.671875
564		19.531250
565		11.718750
566		17.578125
567		9.765625
568		13.671875
569		5.859375
570		11.718750
571		1.953125
572		7.812500
573		0.000000
574		3.906250
575		-1.953125
576		1.953125
577		-5.859375
578		0.000000
579		-7.812500
580		-3.906250
581		-11.718750
582		-7.812500
583		-13.671875
584		-9.765625
585		-17.578125
586		-11.718750
587		-19.531250
588		-15.625000
589		-23.437500
590		-17.578125
591		-25.390625
592		-21.484375
593		-27.343750
594		-23.437500
595		-31.250000
596		-25.390625
597		-33.203125
598		-27.343750
599		-35.156250
600		-29.296875
601		-37.109375
602		-33.203125
603		-41.015625
604		-35.156250
605		-42.968750
606		-37.109375
607		-42.968750
608		-39.062500
609		-44.921875
610		-41.015625
611		-46.875000
612		-42.968750
613		-48.828125
614		-44.921875
615		-50.781250
616		-44.921875
617		-50.781250
618		-46.875000
619		-50.781250
620		-48.828125
621		-52.734375
622		-48.828125
623		-52.734375
624		-50.781250
625		-52.734375
626		-50.781250
627		-54.687500
628		-50.781250
629		-54.687500
630		-50.781250
631		-54.687500
632		-52.734375
633		-54.687500
634		-52.734375
635		-54.687500
636		-50.781250
637		-54.687500
638		-50.781250
639		-54.687500
640		-48.828125
641		-52.734375
642		-50.781250
643		-52.734375
644		-48.828125
645		-50.781250
646		-46.875000
647		-50.781250
648		-46.875000
649		-48.828125
650		-44.921875
651		-46.875000
652		-42.968750
653		-46.875000
654		-42.968750
655		-44.921875
656		-41.015625
657		-42.968750
658		-39.062500
659		-41.015625
660		-37.109375
661		-39.062500
662		-35.156250
663		-37.109375
664		-33.203125
665		-35.156250
666		-29.296875
667		-31.250000
668		-27.343750
669		-29.296875
670		-23.437500
671		-27.343750
672		-21.484375
673		-25.390625
674		-19.531250
675		-21.484375
676		-17.578125
677		-19.531250
678		-13.671875
679		-17.578125
680		-11.718750
681		-15.625000
682		-7.812500
683		-9.765625
684		-5.859375
685		-7.812500
686		-1.953125
687		-3.906250
688		1.953125
689		-1.953125
690		3.906250
691		1.953125
692		5.859375
693		3.906250
694		9.765625
695		7.812500
696		11.718750
697		9.765625
698		15.625000
699		13.671875
700		17.578125
701		15.625000
702		21.484375
703		19.531250
704		25.390625
705		21.484375
706		27.343750
707		25.390625
708		29.296875
709		27.343750
710		31.250000
711		31.250000
712		35.156250
713		33.203125
714		37.109375
715		35.156250
716		39.062500
717		39.062500
718		42.968750
719		41.015625
720		44.921875
721		42.968750
722		46.875000
723		44.921875
724		48.828125
725		46.875000
726		50.781250
727		48.828125
728		52.734375
729		50.781250
730		54.687500
731		52.734375
732		56.640625
733		54.687500
734		58.593750
735		56.640625
736		60.546875
737		58.593750
738		60.546875
739		58.593750
740		62.500000
741		60.546875
742		64.453125
743		62.500000
744		64.453125
745		62.500000
746		66.406250
747		62.500000
748		66.406250
749		64.453125
750		68.359375
751		64.453125
752		68.359375
753		64.453125
754		68.359375
755		66.406250
756		68.359375
757		64.453125
758		68.359375
759		66.406250
760		68.359375
761		64.453125
762		68.359375
763		64.453125
764		68.359375
765		64.453125
766		68.359375
767		64.453125
768		68.359375
769		62.500000
770		66.406250
771		62.500000
772		66.406250
773		60.546875
774		64.453125
775		60.546875
776		64.453125
777		60.546875
778		62.500000
779		58.593750
780		62.500000
781		56.640625
782		60.546875
783		54.687500
784		58.593750
785		54.687500
786		58.593750
787		50.781250
788		56.640625
789		48.828125
790		54.687500
791		48.828125
792		52.734375
793		46.875000
794		48.828125
795		42.968750
796		46.875000
797		41.015625
798		46.875000
799		39.062500
800		42.968750
801		37.109375
802		41.015625
803		35.156250
804		39.062500
805		31.250000
806		37.109375
807		29.296875
808		33.203125
809		25.390625
810		31.250000
811		21.484375
812		27.343750
813		19.531250
814		25.390625
815		17.578125
816		23.437500
817		13.671875
818		19.531250
819		11.718750
820		17.578125
821		7.812500
822		13.671875
823		5.859375
824		9.765625
825		1.953125
826		7.812500
827		0.000000
828		3.906250
829		-3.906250
830		1.953125
831		-5.859375
832		-1.953125
833		-9.765625
834		-3.906250
835		-11.718750
836		-7.812500
837		-15.625000
838		-9.765625
839		-17.578125
840		-13.671875
841		-21.484375
842		-15.625000
843		-23.437500
844		-19.531250
845		-25.390625
846		-21.484375
847		-29.296875
848		-25.390625
849		-31.250000
850		-27.343750
851		-33.203125
852		-29.296875
853		-35.156250
854		-31.250000
855		-39.062500
856		-33.203125
857		-41.015625
858		-35.156250
859		-42.968750
860		-37.109375
861		-44.921875
862		-41.015625
863		-44.921875
864		-41.015625
865		-46.875000
866		-42.968750
867		-48.828125
868		-44.921875
869		-50.781250
870		-46.875000
871		-50.781250
872		-46.875000
873		-52.734375
874		-48.828125
875		-52.734375
876		-48.828125
877		-52.734375
878		-50.781250
879		-54.687500
880		-48.828125
881		-54.687500
882		-50.781250
883		-54.687500
884		-50.781250
885		-54.687500
886		-50.781250
887		-54.687500
888		-50.781250
889		-54.687500
890		-50.781250
891		-54.687500
892		-50.781250
893		-52.734375
894		-50.781250
895		-52.734375
896		-48.828125
897		-52.734375
898		-48.828125
899		-50.781250
900		-46.875000
901		-50.781250
902		-46.875000
903		-48.828125
904		-44.921875
905		-46.875000
906		-42.968750
907		-44.921875
908		-41.015625
909		-42.968750
910		-39.062500
911		-41.015625
912		-37.109375
913		-39.062500
914		-35.156250
915		-37.109375
916		-33.203125
917		-35.156250
918		-31.250000
919		-33.203125
920		-29.296875
921		-31.250000
922		-27.343750
923		-29.296875
924		-23.437500
925		-27.343750
926		-21.484375
927		-23.437500
928		-19.531250
929		-21.484375
930		-15.625000
931		-17.578125
932		-13.671875
933		-15.625000
934		-9.765625
935		-11.718750
936		-7.812500
937		-9.765625
938		-3.906250
939		-5.859375
940		-1.953125
941		-3.906250
942		1.953125
943		0.000000
944		3.906250
945		1.953125
946		7.812500
947		3.906250
948		9.765625
949		7.812500
950		13.671875
951		11.718750
952		15.625000
953		15.625000
954		19.531250
955		17.578125
956		21.484375
957		19.531250
958		25.390625
959		23.437500
960		27.343750
961		25.390625
962		31.250000
963		29.296875
964		33.203125
965		31.250000
966		37.109375
967		33.203125
968		39.062500
969		37.109375
970		41.015625
971		39.062500
972		42.968750
973		41.015625
974		46.875000
975		42.968750
976		46.875000
977		46.875000
978		50.781250
979		48.828125
980		52.734375
981		50.781250
982		54.687500
983		52.734375
984		54.687500
985		52.734375
986		56.640625
987		54.687500
988		58.593750
989		56.640625
990		60.546875
991		58.593750
992		62.500000
993		60.546875
994		62.500000
995		60.546875
996		64.453125
997		60.546875
998		66.406250
999		62.500000
1000		66.406250
1001		64.453125
1002		66.406250
1003		64.453125
1004		66.406250
1005		64.453125
1006		68.359375
1007		64.453125
1008		68.359375
1009		66.406250
1010		68.359375
1011		66.406250
1012		68.359375
1013		64.453125
1014		68.359375
1015		64.453125
1016		68.359375
1017		64.453125
1018		68.359375
1019		64.453125
1020		68.359375
1021		64.453125
1022		66.406250
1023		64.453125
1024		66.406250
1025		62.500000
1026		66.406250
1027		60.546875
1028		64.453125
1029		60.546875
1030		64.453125
1031		58.593750
1032		64.453125
1033		56.640625
1034		60.546875
1035		56.640625
1036		60.546875
1037		54.687500
1038		58.593750
1039		52.734375
1040		56.640625
1041		50.781250
1042		56.640625
1043		48.828125
1044		54.687500
1045		46.875000
1046		50.781250
1047		44.921875
1048		48.828125
1049		42.968750
1050		46.875000
1051		41.015625
1052		44.921875
1053		37.109375
1054		42.968750
1055		35.156250
1056		39.062500
1057		33.203125
1058		39.062500
1059		29.296875
1060		35.156250
1061		27.343750
1062		31.250000
1063		25.390625
1064		29.296875
1065		21.484375
1066		27.343750
1067		19.531250
1068		23.437500
1069		15.625000
1070		21.484375
1071		13.671875
1072		19.531250
1073		9.765625
1074		15.625000
1075		5.859375
1076		11.718750
1077		3.906250
1078		9.765625
1079		1.953125
1080		5.859375
1081		-1.953125
1082		3.906250
1083		-3.906250
1084		0.000000
1085		-7.812500
1086		-1.953125
1087		-9.765625
1088		-5.859375
1089		-13.671875
1090		-7.812500
1091		-17.578125
1092		-11.718750
1093		-19.531250
1094		-13.671875
1095		-21.484375
1096		-17.578125
1097		-25.390625
1098		-19.531250
1099		-27.343750
1100		-21.484375
1101		-29.296875
1102		-25.390625
1103		-31.250000
1104		-27.343750
1105		-35.156250
1106		-29.296875
1107		-37.109375
1108		-33.203125
1109		-39.062500
1110		-35.156250
1111		-41.015625
1112		-37.109375
1113		-42.968750
1114		-39.062500
1115		-44.921875
1116		-41.015625
1117		-46.875000
1118		-42.968750
1119		-46.875000
1120		-42.968750
1121		-48.828125
1122		-46.875000
1123		-50.781250
1124		-46.875000
1125		-50.781250
1126		-46.875000
1127		-52.734375
1128		-48.828125
1129		-52.734375
1130		-50.781250
1131		-52.734375
1132		-50.781250
1133		-54.687500
1134		-50.781250
1135		-54.687500
1136		-50.781250
1137		-54.687500
1138		-52.734375
1139		-54.687500
1140		-50.781250
1141		-54.687500
1142		-50.781250
1143		-54.687500
1144		-50.781250
1145		-54.687500
1146		-50.781250
1147		-52.734375
1148		-48.828125
1149		-52.734375
1150		-48.828125
1151		-50.781250
1152		-48.828125
1153		-50.781250
1154		-46.875000
1155		-48.828125
1156		-44.921875
1157		-48.828125
1158		-44.921875
1159		-46.875000
1160		-42.968750
1161		-44.921875
1162		-41.015625
1163		-42.968750
1164		-39.062500
1165		-41.015625
1166		-37.109375
1167		-39.062500
1168		-35.156250
1169		-37.109375
1170		-33.203125
1171		-35.156250
1172		-31.250000
1173		-33.203125
1174		-27.343750
1175		-29.296875
1176		-25.390625
1177		-27.343750
1178		-23.437500
1179		-25.390625
1180		-19.531250
1181		-21.484375
1182		-17.578125
1183		-19.531250
1184		-15.625000
1185		-17.578125
1186		-11.718750
1187		-13.671875
1188		-7.812500
1189		-11.718750
1190		-5.859375
1191		-7.812500
1192		-3.906250
1193		-5.859375
1194		0.000000
1195		-1.953125
1196		1.953125
1197		1.953125
1198		5.859375
1199		3.906250
1200		7.812500
1201		5.859375
1202		11.718750
1203		9.765625
1204		13.671875
1205		11.718750
1206		17.578125
1207		15.625000
1208		19.531250
1209		17.578125
1210		23.437500
1211		21.484375
1212		25.390625
1213		23.437500
1214		29.296875
1215		27.343750
1216		31.250000
1217		29.296875
1218		33.203125
1219		31.250000
1220		37.109375
1221		33.203125
1222		39.062500
1223		37.109375
1224		41.015625
1225		39.062500
1226		44.921875
1227		42.968750
1228		46.875000
1229		44.921875
1230		48.828125
1231		46.875000
1232		52.734375
1233		46.875000
1234		52.734375
1235		50.781250
1236		54.687500
1237		52.734375
1238		56.640625
1239		54.687500
1240		58.593750
1241		56.640625
1242		60.546875
1243		56.640625
1244		60.546875
1245		58.593750
1246		62.500000
1247		60.546875
1248		62.500000
1249		60.546875
1250		64.453125
1251		60.546875
1252		64.453125
1253		62.500000
1254		66.406250
1255		64.453125
1256		66.406250
1257		64.453125
1258		68.359375
1259		64.453125
1260		68.359375
1261		64.453125
1262		68.359375
1263		66.406250
1264		68.359375
1265		66.406250
1266		68.359375
1267		64.453125
1268		68.359375
1269		66.406250
1270		68.359375
1271		64.453125
1272		68.359375
1273		64.453125
1274		68.359375
1275		62.500000
1276		68.359375
1277		62.500000
1278		66.406250
1279		62.500000
1280		64.453125
1281		60.546875
1282		64.453125
1283		58.593750
1284		64.453125
1285		58.593750
1286		62.500000
1287		56.640625
1288		60.546875
1289		54.687500
1290		58.593750
1291		54.687500
1292		58.593750
1293		52.734375
1294		56.640625
1295		50.781250
1296		54.687500
1297		48.828125
1298		52.734375
1299		46.875000
1300		50.781250
1301		44.921875
1302		48.828125
1303		42.968750
1304		46.875000
1305		39.062500
1306		42.968750
1307		37.109375
1308		41.015625
1309		35.156250
1310		39.062500
1311		31.250000
1312		37.109375
1313		29.296875
1314		33.203125
1315		27.343750
1316		31.250000
1317		23.437500
1318		29.296875
1319		21.484375
1320		25.390625
1321		17.578125
1322		23.437500
1323		15.625000
1324		19.531250
1325		11.718750
1326		17.578125
1327		7.812500
1328		13.671875
1329		5.859375
1330		11.718750
1331		3.906250
1332		7.812500
1333		0.000000
1334		5.859375
1335		-1.953125
1336		1.953125
1337		-5.859375
1338		0.000000
1339		-9.765625
1340		-3.906250
1341		-11.718750
1342		-7.812500
1343		-13.671875
1344		-9.765625
1345		-17.578125
1346		-11.718750
1347		-19.531250
1348		-15.625000
1349		-23.437500
1350		-17.578125
1351		-25.390625
1352		-21.484375
1353		-27.343750
1354		-23.437500
1355		-29.296875
1356		-25.390625
1357		-33.203125
1358		-29.296875
1359		-35.156250
1360		-31.250000
1361		-37.109375
1362		-33.203125
1363		-39.062500
1364		-35.156250
1365		-41.015625
1366		-37.109375
1367		-44.921875
1368		-37.109375
1369		-46.875000
1370		-39.062500
1371		-46.875000
1372		-42.968750
1373		-48.828125
1374		-44.921875
1375		-50.781250
1376		-44.921875
1377		-52.734375
1378		-46.875000
1379		-50.781250
1380		-48.828125
1381		-52.734375
1382		-48.828125
1383		-54.687500
1384		-48.828125
1385		-56.640625
1386		-48.828125
1387		-56.640625
1388		-48.828125
1389		-54.687500
1390		-50.781250
1391		-56.640625
1392		-50.781250
1393		-56.640625
1394		-50.781250
1395		-54.687500
1396		-50.781250
1397		-54.687500
1398		-50.781250
1399		-52.734375
1400		-50.781250
1401		-54.687500
1402		-46.875000
1403		-52.734375
1404		-46.875000
1405		-52.734375
1406		-44.921875
1407		-52.734375
1408		-44.921875
1409		-50.781250
1410		-44.921875
1411		-48.828125
1412		-42.968750
1413		-46.875000
1414		-42.968750
1415		-42.968750
1416		-41.015625
1417		-42.968750
1418		-37.109375
1419		-42.968750
1420		-35.156250
1421		-39.062500
1422		-33.203125
1423		-39.062500
1424		-31.250000
1425		-35.156250
1426		-29.296875
1427		-33.203125
1428		-25.390625
1429		-31.250000
1430		-25.390625
1431		-27.343750
1432		-21.484375
1433		-23.437500
1434		-17.578125
1435		-23.437500
1436		-13.671875
1437		-21.484375
1438		-11.718750
1439		-17.578125
1440		-9.765625
1441		-13.671875
1442		-7.812500
1443		-11.718750
1444		-3.906250
1445		-9.765625
1446		-1.953125
1447		-3.906250
1448		0.000000
1449		-1.953125
1450		3.906250
1451		0.000000
1452		9.765625
1453		3.906250
1454		11.718750
1455		5.859375
1456		15.625000
1457		9.765625
1458		17.578125
1459		11.718750
1460		19.531250
1461		13.671875
1462		23.437500
1463		17.578125
1464		23.437500
1465		21.484375
1466		27.343750
1467		25.390625
1468		33.203125
1469		25.390625
1470		35.156250
1471		29.296875
1472		37.109375
1473		31.250000
1474		39.062500
1475		33.203125
1476		41.015625
1477		37.109375
1478		44.921875
1479		39.062500
1480		44.921875
1481		42.968750
1482		46.875000
1483		44.921875
1484		48.828125
1485		44.921875
1486		52.734375
1487		46.875000
1488		54.687500
1489		48.828125
1490		56.640625
1491		50.781250
1492		58.593750
1493		52.734375
1494		60.546875
1495		54.687500
1496		62.500000
1497		56.640625
1498		60.546875
1499		58.593750
1500		62.500000
1501		58.593750
1502		66.406250
1503		60.546875
1504		66.406250
1505		60.546875
1506		68.359375
1507		60.546875
1508		68.359375
1509		62.500000
1510		68.359375
1511		62.500000
1512		70.312500
1513		62.500000
1514		70.312500
1515		66.406250
1516		68.359375
1517		64.453125
1518		70.312500
1519		62.500000
1520		70.312500
1521		62.500000
1522		70.312500
1523		62.500000
1524		70.312500
1525		62.500000
1526		70.312500
1527		62.500000
1528		70.312500
1529		62.500000
1530		68.359375
1531		62.500000
1532		66.406250
1533		62.500000
1534		64.453125
1535		58.593750
1536		64.453125
1537		56.640625
1538		64.453125
1539		56.640625
1540		64.453125
1541		54.687500
1542		62.500000
1543		52.734375
1544		60.546875
1545		50.781250
1546		58.593750
1547		50.781250
1548		58.593750
1549		50.781250
1550		52.734375
1551		44.921875
1552		52.734375
1553		42.968750
1554		50.781250
1555		41.015625
1556		50.781250
1557		39.062500
1558		46.875000
1559		37.109375
1560		44.921875
1561		33.203125
1562		42.968750
1563		33.203125
1564		41.015625
1565		31.250000
1566		35.156250
1567		29.296875
1568		33.203125
1569		21.484375
1570		31.250000
1571		21.484375
1572		29.296875
1573		17.578125
1574		27.343750
1575		13.671875
1576		23.437500
1577		11.718750
1578		21.484375
1579		9.765625
1580		17.578125
1581		7.812500
1582		13.671875
1583		5.859375
1584		9.765625
1585		0.000000
1586		7.812500
1587		-3.906250
1588		5.859375
1589		-5.859375
1590		3.906250
1591		-9.765625
1592		0.000000
1593		-11.718750
1594		-3.906250
1595		-13.671875
1596		-5.859375
1597		-15.625000
1598		-9.765625
1599		-17.578125
1600		-13.671875
1601		-23.437500
1602		-15.625000
1603		-27.343750
1604		-17.578125
1605		-29.296875
1606		-19.531250
1607		-31.250000
1608		-23.437500
1609		-33.203125
1610		-25.390625
1611		-35.156250
1612		-27.343750
1613		-39.062500
1614		-29.296875
1615		-37.109375
1616		-33.203125
1617		-41.015625
1618		-37.109375
1619		-44.921875
1620		-37.109375
1621		-46.875000
1622		-39.062500
1623		-48.828125
1624		-41.015625
1625		-48.828125
1626		-41.015625
1627		-50.781250
1628		-42.968750
1629		-52.734375
1630		-44.921875
1631		-50.781250
1632		-44.921875
1633		-52.734375
1634		-48.828125
1635		-54.687500
1636		-48.828125
1637		-56.640625
1638		-48.828125
1639		-56.640625
1640		-48.828125
1641		-56.640625
1642		-48.828125
1643		-56.640625
1644		-48.828125
1645		-56.640625
1646		-48.828125
1647		-56.640625
1648		-48.828125
1649		-54.687500
1650		-50.781250
1651		-52.734375
1652		-50.781250
1653		-54.687500
1654		-48.828125
1655		-54.687500
1656		-46.875000
1657		-52.734375
1658		-46.875000
1659		-52.734375
1660		-44.921875
1661		-52.734375
1662		-44.921875
1663		-50.781250
1664		-42.968750
1665		-48.828125
1666		-42.968750
1667		-44.921875
1668		-41.015625
1669		-44.921875
1670		-37.109375
1671		-44.921875
1672		-37.109375
1673		-42.968750
1674		-33.203125
1675		-39.062500
1676		-31.250000
1677		-37.109375
1678		-29.296875
1679		-35.156250
1680		-27.343750
1681		-33.203125
1682		-25.390625
1683		-29.296875
1684		-23.437500
1685		-25.390625
1686		-19.531250
1687		-25.390625
1688		-17.578125
1689		-23.437500
1690		-13.671875
1691		-19.531250
1692		-11.718750
1693		-17.578125
1694		-7.812500
1695		-13.671875
1696		-5.859375
1697		-11.718750
1698		-3.906250
1699		-5.859375
1700		-1.953125
1701		-3.906250
1702		1.953125
1703		-1.953125
1704		5.859375
1705		0.000000
1706		9.765625
1707		3.906250
1708		13.671875
1709		5.859375
1710		15.625000
1711		9.765625
1712		19.531250
1713		13.671875
1714		21.484375
1715		15.625000
1716		21.484375
1717		21.484375
1718		25.390625
1719		23.437500
1720		29.296875
1721		25.390625
1722		33.203125
1723		27.343750
1724		35.156250
1725		29.296875
1726		39.062500
1727		31.250000
1728		41.015625
1729		35.156250
1730		42.968750
1731		37.109375
1732		44.921875
1733		41.015625
1734		44.921875
1735		44.921875
1736		46.875000
1737		44.921875
1738		50.781250
1739		44.921875
1740		54.687500
1741		48.828125
1742		54.687500
1743		48.828125
1744		58.593750
1745		52.734375
1746		58.593750
1747		52.734375
1748		60.546875
1749		56.640625
1750		60.546875
1751		58.593750
1752		62.500000
1753		58.593750
1754		64.453125
1755		58.593750
1756		66.406250
1757		60.546875
1758		66.406250
1759		60.546875
1760		66.406250
1761		62.500000
1762		68.359375
1763		62.500000
1764		68.359375
1765		64.453125
1766		68.359375
1767		64.453125
1768		68.359375
1769		64.453125
1770		70.312500
1771		62.500000
1772		70.312500
1773		62.500000
1774		70.312500
1775		62.500000
1776		70.312500
1777		62.500000
1778		70.312500
1779		62.500000
1780		68.359375
1781		62.500000
1782		68.359375
1783		62.500000
1784		66.406250
1785		62.500000
1786		66.406250
1787		58.593750
1788		66.406250
1789		58.593750
1790		66.406250
1791		56.640625
1792		64.453125
1793		54.687500
1794		62.500000
1795		54.687500
1796		62.500000
1797		52.734375
1798		60.546875
1799		52.734375
1800		58.593750
1801		50.781250
1802		54.687500
1803		46.875000
1804		52.734375
1805		44.921875
1806		52.734375
1807		42.968750
1808		50.781250
1809		41.015625
1810		48.828125
1811		39.062500
1812		46.875000
1813		35.156250
1814		44.921875
1815		35.156250
1816		41.015625
1817		33.203125
1818		37.109375
1819		29.296875
1820		35.156250
1821		25.390625
1822		33.203125
1823		23.437500
1824		31.250000
1825		19.531250
1826		27.343750
1827		15.625000
1828		25.390625
1829		13.671875
1830		23.437500
1831		11.718750
1832		19.531250
1833		9.765625
1834		17.578125
1835		5.859375
1836		11.718750
1837		1.953125
1838		7.812500
1839		0.000000
1840		7.812500
1841		-3.906250
1842		3.906250
1843		-5.859375
1844		1.953125
1845		-9.765625
1846		-1.953125
1847		-11.718750
1848		-3.906250
1849		-15.625000
1850		-5.859375
1851		-17.578125
1852		-11.718750
1853		-19.531250
1854		-15.625000
1855		-23.437500
1856		-15.625000
1857		-27.343750
1858		-19.531250
1859		-29.296875
1860		-21.484375
1861		-33.203125
1862		-23.437500
1863		-35.156250
1864		-25.390625
1865		-37.109375
1866		-27.343750
1867		-37.109375
1868		-33.203125
1869		-39.062500
1870		-35.156250
1871		-42.968750
1872		-35.156250
1873		-44.921875
1874		-37.109375
1875		-46.875000
1876		-39.062500
1877		-48.828125
1878		-41.015625
1879		-50.781250
1880		-42.968750
1881		-50.781250
1882		-44.921875
1883		-50.781250
1884		-44.921875
1885		-50.781250
1886		-48.828125
1887		-54.687500
1888		-48.828125
1889		-54.687500
1890		-46.875000
1891		-56.640625
1892		-48.828125
1893		-56.640625
1894		-48.828125
1895		-56.640625
1896		-48.828125
1897		-56.640625
1898		-50.781250
1899		-56.640625
1900		-48.828125
1901		-54.687500
1902		-52.734375
1903		-54.687500
1904		-50.781250
1905		-56.640625
1906		-48.828125
1907		-54.687500
1908		-48.828125
1909		-54.687500
1910		-46.875000
1911		-52.734375
1912		-46.875000
1913		-52.734375
1914		-44.921875
1915		-50.781250
1916		-42.968750
1917		-50.781250
1918		-44.921875
1919		-46.875000
1920		-42.968750
1921		-44.921875
1922		-39.062500
1923		-44.921875
1924		-37.109375
1925		-42.968750
1926		-35.156250
1927		-41.015625
1928		-33.203125
1929		-39.062500
1930		-29.296875
1931		-37.109375
1932		-29.296875
1933		-33.203125
1934		-27.343750
1935		-29.296875
1936		-25.390625
1937		-27.343750
1938		-23.437500
1939		-27.343750
1940		-17.578125
1941		-23.437500
1942		-15.625000
1943		-21.484375
1944		-13.671875
1945		-19.531250
1946		-9.765625
1947		-15.625000
1948		-5.859375
1949		-13.671875
1950		-3.906250
1951		-7.812500
1952		-3.906250
1953		-5.859375
1954		0.000000
1955		-1.953125
1956		3.906250
1957		-1.953125
1958		7.812500
1959		1.953125
1960		11.718750
1961		5.859375
1962		13.671875
1963		7.812500
1964		15.625000
1965		11.718750
1966		19.531250
1967		13.671875
1968		21.484375
1969		19.531250
1970		23.437500
1971		21.484375
1972		29.296875
1973		21.484375
1974		31.250000
1975		25.390625
1976		33.203125
1977		27.343750
1978		37.109375
1979		31.250000
1980		39.062500
1981		33.203125
1982		41.015625
1983		35.156250
1984		42.968750
1985		41.015625
1986		44.921875
1987		42.968750
1988		46.875000
1989		42.968750
1990		50.781250
1991		44.921875
1992		52.734375
1993		46.875000
1994		54.687500
1995		48.828125
1996		56.640625
1997		50.781250
1998		58.593750
1999		52.734375
2000		60.546875
2001		52.734375
2002		58.593750
2003		56.640625
2004		60.546875
2005		56.640625
2006		64.453125
2007		58.593750
2008		64.453125
2009		58.593750
2010		66.406250
2011		60.546875
2012		68.359375
2013		60.546875
2014		68.359375
2015		60.546875
2016		68.359375
2017		62.500000
2018		68.359375
2019		64.453125
2020		68.359375
2021		66.406250
2022		68.359375
2023		62.500000
2024		70.312500
2025		62.500000
2026		70.312500
2027		62.500000
2028		70.312500
2029		62.500000
2030		70.312500
2031		62.500000
2032		70.312500
2033		62.500000
2034		70.312500
2035		62.500000
2036		68.359375
2037		62.500000
2038		66.406250
2039		60.546875
2040		66.406250
2041		58.593750
2042		66.406250
2043		58.593750
2044		66.406250
2045		56.640625
2046		64.453125
2047		54.687500
2048		62.500000
2049		54.687500
2050		60.546875
2051		52.734375
2052		60.546875
2053		52.734375
2054		56.640625
2055		46.875000
2056		54.687500
2057		46.875000
2058		52.734375
2059		44.921875
2060		52.734375
2061		41.015625
2062		50.781250
2063		39.062500
2064		48.828125
2065		37.109375
2066		46.875000
2067		35.156250
2068		42.968750
2069		35.156250
2070		39.062500
2071		33.203125
2072		37.109375
2073		27.343750
2074		35.156250
2075		25.390625
2076		33.203125
2077		21.484375
2078		31.250000
2079		17.578125
2080		27.343750
2081		15.625000
2082		23.437500
2083		13.671875
2084		21.484375
2085		11.718750
2086		19.531250
2087		9.765625
2088		13.671875
2089		3.906250
2090		11.718750
2091		0.000000
2092		9.765625
2093		-1.953125
2094		7.812500
2095		-3.906250
2096		3.906250
2097		-7.812500
2098		0.000000
2099		-9.765625
2100		-1.953125
2101		-13.671875
2102		-5.859375
2103		-13.671875
2104		-9.765625
2105		-17.578125
2106		-13.671875
2107		-21.484375
2108		-13.671875
2109		-25.390625
2110		-15.625000
2111		-27.343750
2112		-19.531250
2113		-31.250000
2114		-21.484375
2115		-33.203125
2116		-23.437500
2117		-35.156250
2118		-27.343750
2119		-35.156250
2120		-29.296875
2121		-37.109375
2122		-33.203125
2123		-41.015625
2124		-35.156250
2125		-42.968750
2126		-35.156250
2127		-44.921875
2128		-37.109375
2129		-46.875000
2130		-39.062500
2131		-48.828125
2132		-41.015625
2133		-50.781250
2134		-42.968750
2135		-50.781250
2136		-42.968750
2137		-50.781250
2138		-46.875000
2139		-52.734375
2140		-46.875000
2141		-54.687500
2142		-46.875000
2143		-54.687500
2144		-46.875000
2145		-56.640625
2146		-48.828125
2147		-56.640625
2148		-48.828125
2149		-56.640625
2150		-50.781250
2151		-56.640625
2152		-50.781250
2153		-54.687500
2154		-50.781250
2155		-54.687500
2156		-50.781250
2157		-56.640625
2158		-48.828125
2159		-56.640625
2160		-48.828125
2161		-54.687500
2162		-46.875000
2163		-54.687500
2164		-46.875000
2165		-52.734375
2166		-44.921875
2167		-50.781250
2168		-44.921875
2169		-50.781250
2170		-44.921875
2171		-46.875000
2172		-42.968750
2173		-46.875000
2174		-41.015625
2175		-46.875000
2176		-39.062500
2177		-44.921875
2178		-37.109375
2179		-42.968750
2180		-33.203125
2181		-41.015625
2182		-31.250000
2183		-37.109375
2184		-29.296875
2185		-37.109375
2186		-27.343750
2187		-31.250000
2188		-27.343750
2189		-29.296875
2190		-25.390625
2191		-27.343750
2192		-19.531250
2193		-25.390625
2194		-17.578125
2195		-23.437500
2196		-13.671875
2197		-21.484375
2198		-11.718750
2199		-17.578125
2200		-9.765625
2201		-15.625000
2202		-5.859375
2203		-11.718750
2204		-3.906250
2205		-7.812500
2206		-1.953125
2207		-3.906250
2208		1.953125
2209		-3.906250
2210		5.859375
2211		0.000000
2212		7.812500
2213		3.906250
2214		11.718750
2215		5.859375
2216		15.625000
2217		9.765625
2218		17.578125
2219		11.718750
2220		19.531250
2221		17.578125
2222		21.484375
2223		19.531250
2224		27.343750
2225		19.531250
2226		29.296875
2227		23.437500
2228		33.203125
2229		25.390625
2230		35.156250
2231		29.296875
2232		37.109375
2233		31.250000
2234		41.015625
2235		35.156250
2236		41.015625
2237		37.109375
2238		42.968750
2239		41.015625
2240		44.921875
2241		41.015625
2242		48.828125
2243		42.968750
2244		50.781250
2245		44.921875
2246		52.734375
2247		46.875000
2248		54.687500
2249		48.828125
2250		56.640625
2251		50.781250
2252		58.593750
2253		52.734375
2254		58.593750
2255		56.640625
2256		60.546875
2257		56.640625
2258		64.453125
2259		56.640625
2260		64.453125
2261		58.593750
2262		66.406250
2263		60.546875
2264		66.406250
2265		60.546875
2266		68.359375
2267		60.546875
2268		68.359375
2269		62.500000
2270		68.359375
2271		64.453125
2272		68.359375
2273		64.453125
2274		68.359375
2275		64.453125
2276		70.312500
2277		62.500000
2278		70.312500
2279		62.500000
2280		70.312500
2281		64.453125
2282		70.312500
2283		62.500000
2284		70.312500
2285		62.500000
2286		70.312500
2287		64.453125
2288		68.359375
2289		64.453125
2290		66.406250
2291		60.546875
2292		66.406250
2293		58.593750
2294		66.406250
2295		58.593750
2296		66.406250
2297		56.640625
2298		64.453125
2299		54.687500
2300		64.453125
2301		54.687500
2302		62.500000
2303		54.687500
2304		60.546875
2305		52.734375
2306		56.640625
2307		50.781250
2308		56.640625
2309		48.828125
2310		54.687500
2311		44.921875
2312		52.734375
2313		42.968750
2314		50.781250
2315		41.015625
2316		48.828125
2317		39.062500
2318		46.875000
2319		37.109375
2320		44.921875
2321		37.109375
2322		41.015625
2323		33.203125
2324		39.062500
2325		29.296875
2326		37.109375
2327		27.343750
2328		35.156250
2329		23.437500
2330		31.250000
2331		21.484375
2332		29.296875
2333		19.531250
2334		25.390625
2335		15.625000
2336		23.437500
2337		13.671875
2338		21.484375
2339		11.718750
2340		15.625000
2341		5.859375
2342		13.671875
2343		3.906250
2344		11.718750
2345		0.000000
2346		9.765625
2347		-1.953125
2348		5.859375
2349		-5.859375
2350		3.906250
2351		-9.765625
2352		0.000000
2353		-11.718750
2354		-1.953125
2355		-11.718750
2356		-7.812500
2357		-15.625000
2358		-9.765625
2359		-21.484375
2360		-11.718750
2361		-23.437500
2362		-13.671875
2363		-25.390625
2364		-17.578125
2365		-27.343750
2366		-19.531250
2367		-31.250000
2368		-23.437500
2369		-33.203125
2370		-25.390625
2371		-33.203125
2372		-27.343750
2373		-35.156250
2374		-31.250000
2375		-41.015625
2376		-33.203125
2377		-41.015625
2378		-35.156250
2379		-44.921875
2380		-37.109375
2381		-44.921875
2382		-37.109375
2383		-46.875000
2384		-41.015625
2385		-48.828125
2386		-41.015625
2387		-50.781250
2388		-42.968750
2389		-48.828125
2390		-46.875000
2391		-52.734375
2392		-48.828125
2393		-54.687500
2394		-46.875000
2395		-54.687500
2396		-46.875000
2397		-54.687500
2398		-48.828125
2399		-54.687500
2400		-48.828125
2401		-56.640625
2402		-48.828125
2403		-56.640625
2404		-48.828125
2405		-54.687500
2406		-50.781250
2407		-54.687500
2408		-50.781250
2409		-56.640625
2410		-48.828125
2411		-56.640625
2412		-48.828125
2413		-54.687500
2414		-48.828125
2415		-54.687500
2416		-46.875000
2417		-52.734375
2418		-46.875000
2419		-52.734375
2420		-44.921875
2421		-50.781250
2422		-44.921875
2423		-46.875000
2424		-44.921875
2425		-46.875000
2426		-41.015625
2427		-46.875000
2428		-39.062500
2429		-44.921875
2430		-37.109375
2431		-42.968750
2432		-35.156250
2433		-41.015625
2434		-33.203125
2435		-39.062500
2436		-31.250000
2437		-37.109375
2438		-29.296875
2439		-33.203125
2440		-29.296875
2441		-31.250000
2442		-25.390625
2443		-29.296875
2444		-21.484375
2445		-27.343750
2446		-17.578125
2447		-25.390625
2448		-15.625000
2449		-21.484375
2450		-13.671875
2451		-19.531250
2452		-9.765625
2453		-15.625000
2454		-7.812500
2455		-13.671875
2456		-7.812500
2457		-7.812500
2458		-3.906250
2459		-5.859375
2460		0.000000
2461		-5.859375
2462		3.906250
2463		-1.953125
2464		7.812500
2465		1.953125
2466		9.765625
2467		5.859375
2468		13.671875
2469		7.812500
2470		15.625000
2471		9.765625
2472		17.578125
2473		15.625000
2474		19.531250
2475		17.578125
2476		23.437500
2477		19.531250
2478		27.343750
2479		21.484375
2480		29.296875
2481		25.390625
2482		33.203125
2483		27.343750
2484		35.156250
2485		29.296875
2486		39.062500
2487		31.250000
2488		41.015625
2489		37.109375
2490		41.015625
2491		39.062500
2492		44.921875
2493		41.015625
2494		48.828125
2495		42.968750
2496		50.781250
2497		44.921875
2498		52.734375
2499		46.875000
2500		54.687500
2501		48.828125
2502		56.640625
2503		50.781250
2504		58.593750
2505		52.734375
2506		58.593750
2507		56.640625
2508		58.593750
2509		56.640625
2510		62.500000
2511		56.640625
2512		62.500000
2513		56.640625
2514		64.453125
2515		58.593750
2516		66.406250
2517		60.546875
2518		66.406250
2519		60.546875
2520		68.359375
2521		62.500000
2522		68.359375
2523		64.453125
2524		68.359375
2525		64.453125
2526		68.359375
2527		64.453125
2528		70.312500
2529		64.453125
2530		70.312500
2531		64.453125
2532		70.312500
2533		64.453125
2534		70.312500
2535		62.500000
2536		70.312500
2537		62.500000
2538		70.312500
2539		62.500000
2540		70.312500
2541		64.453125
2542		66.406250
2543		62.500000
2544		68.359375
2545		60.546875
2546		68.359375
2547		58.593750
2548		66.406250
2549		58.593750
2550		66.406250
2551		56.640625
2552		64.453125
2553		54.687500
2554		62.500000
2555		54.687500
2556		62.500000
2557		54.687500
2558		58.593750
2559		52.734375
2560		56.640625
2561		48.828125
2562		56.640625
2563		46.875000
2564		54.687500
2565		44.921875
2566		52.734375
2567		42.968750
2568		50.781250
2569		41.015625
2570		48.828125
2571		39.062500
2572		46.875000
2573		37.109375
2574		42.968750
2575		35.156250
2576		39.062500
2577		31.250000
2578		37.109375
2579		29.296875
2580		37.109375
2581		25.390625
2582		33.203125
2583		23.437500
2584		31.250000
2585		19.531250
2586		27.343750
2587		17.578125
2588		25.390625
2589		15.625000
2590		23.437500
2591		13.671875
2592		17.578125
2593		7.812500
2594		15.625000
2595		3.906250
2596		13.671875
2597		1.953125
2598		11.718750
2599		0.000000
2600		7.812500
2601		-3.906250
2602		3.906250
2603		-5.859375
2604		1.953125
2605		-9.765625
2606		-1.953125
2607		-9.765625
2608		-5.859375
2609		-13.671875
2610		-7.812500
2611		-17.578125
2612		-9.765625
2613		-21.484375
2614		-13.671875
2615		-23.437500
2616		-15.625000
2617		-27.343750
2618		-17.578125
2619		-29.296875
2620		-21.484375
2621		-33.203125
2622		-23.437500
2623		-31.250000
2624		-25.390625
2625		-33.203125
2626		-29.296875
2627		-39.062500
2628		-33.203125
2629		-41.015625
2630		-33.203125
2631		-42.968750
2632		-35.156250
2633		-44.921875
2634		-37.109375
2635		-46.875000
2636		-39.062500
2637		-48.828125
2638		-41.015625
2639		-48.828125
2640		-41.015625
2641		-48.828125
2642		-44.921875
2643		-50.781250
2644		-46.875000
2645		-52.734375
2646		-46.875000
2647		-54.687500
2648		-46.875000
2649		-54.687500
2650		-46.875000
2651		-54.687500
2652		-48.828125
2653		-56.640625
2654		-48.828125
2655		-56.640625
2656		-48.828125
2657		-54.687500
2658		-50.781250
2659		-54.687500
2660		-50.781250
2661		-56.640625
2662		-48.828125
2663		-56.640625
2664		-48.828125
2665		-54.687500
2666		-48.828125
2667		-54.687500
2668		-46.875000
2669		-54.687500
2670		-46.875000
2671		-52.734375
2672		-44.921875
2673		-52.734375
2674		-44.921875
2675		-48.828125
2676		-44.921875
2677		-46.875000
2678		-41.015625
2679		-46.875000
2680		-41.015625
2681		-46.875000
2682		-39.062500
2683		-44.921875
2684		-37.109375
2685		-42.968750
2686		-35.156250
2687		-41.015625
2688		-33.203125
2689		-39.062500
2690		-31.250000
2691		-35.156250
2692		-29.296875
2693		-31.250000
2694		-27.343750
2695		-31.250000
2696		-23.437500
2697		-29.296875
2698		-21.484375
2699		-25.390625
2700		-17.578125
2701		-23.437500
2702		-15.625000
2703		-19.531250
2704		-11.718750
2705		-17.578125
2706		-9.765625
2707		-15.625000
2708		-7.812500
2709		-9.765625
2710		-5.859375
2711		-7.812500
2712		0.000000
2713		-5.859375
2714		1.953125
2715		-3.906250
2716		5.859375
2717		0.000000
2718		7.812500
2719		1.953125
2720		11.718750
2721		3.906250
2722		13.671875
2723		9.765625
2724		15.625000
2725		13.671875
2726		17.578125
2727		17.578125
2728		21.484375
2729		17.578125
2730		25.390625
2731		19.531250
2732		29.296875
2733		23.437500
2734		31.250000
2735		25.390625
2736		35.156250
2737		29.296875
2738		37.109375
2739		31.250000
2740		39.062500
2741		33.203125
2742		41.015625
2743		39.062500
2744		42.968750
2745		39.062500
2746		46.875000
2747		41.015625
2748		48.828125
2749		42.968750
2750		50.781250
2751		44.921875
2752		52.734375
2753		46.875000
2754		54.687500
2755		48.828125
2756		56.640625
2757		50.781250
2758		58.593750
2759		54.687500
2760		58.593750
2761		56.640625
2762		60.546875
2763		56.640625
2764		62.500000
2765		56.640625
2766		64.453125
2767		58.593750
2768		66.406250
2769		58.593750
2770		66.406250
2771		60.546875
2772		68.359375
2773		62.500000
2774		68.359375
2775		64.453125
2776		66.406250
2777		64.453125
2778		68.359375
2779		62.500000
2780		70.312500
2781		64.453125
2782		70.312500
2783		64.453125
2784		70.312500
2785		64.453125
2786		70.312500
2787		62.500000
2788		70.312500
2789		62.500000
2790		70.312500
2791		64.453125
2792		70.312500
2793		64.453125
2794		68.359375
2795		62.500000
2796		68.359375
2797		60.546875
2798		68.359375
2799		60.546875
2800		68.359375
2801		58.593750
2802		68.359375
2803		58.593750
2804		66.406250
2805		56.640625
2806		64.453125
2807		56.640625
2808		62.500000
2809		56.640625
2810		58.593750
2811		54.687500
2812		58.593750
2813		50.781250
2814		58.593750
2815		48.828125
2816		56.640625
2817		46.875000
2818		54.687500
2819		44.921875
2820		52.734375
2821		42.968750
2822		50.781250
2823		39.062500
2824		48.828125
2825		41.015625
2826		46.875000
2827		37.109375
2828		41.015625
2829		31.250000
2830		41.015625
2831		31.250000
2832		39.062500
2833		27.343750
2834		35.156250
2835		25.390625
2836		33.203125
2837		21.484375
2838		31.250000
2839		19.531250
2840		27.343750
2841		17.578125
2842		25.390625
2843		15.625000
2844		19.531250
2845		11.718750
2846		17.578125
2847		7.812500
2848		15.625000
2849		3.906250
2850		13.671875
2851		0.000000
2852		9.765625
2853		-1.953125
2854		7.812500
2855		-3.906250
2856		3.906250
2857		-7.812500
2858		1.953125
2859		-7.812500
2860		-3.906250
2861		-11.718750
2862		-5.859375
2863		-15.625000
2864		-9.765625
2865		-17.578125
2866		-9.765625
2867		-21.484375
2868		-11.718750
2869		-23.437500
2870		-15.625000
2871		-27.343750
2872		-19.531250
2873		-29.296875
2874		-21.484375
2875		-31.250000
2876		-23.437500
2877		-33.203125
2878		-27.343750
2879		-37.109375
2880		-31.250000
2881		-39.062500
2882		-31.250000
2883		-41.015625
2884		-33.203125
2885		-42.968750
2886		-35.156250
2887		-44.921875
2888		-37.109375
2889		-46.875000
2890		-39.062500
2891		-48.828125
2892		-41.015625
2893		-46.875000
2894		-44.921875
2895		-48.828125
2896		-44.921875
2897		-52.734375
2898		-44.921875
2899		-52.734375
2900		-46.875000
2901		-54.687500
2902		-46.875000
2903		-54.687500
2904		-46.875000
2905		-54.687500
2906		-46.875000
2907		-56.640625
2908		-48.828125
2909		-56.640625
2910		-48.828125
2911		-54.687500
2912		-50.781250
2913		-56.640625
2914		-48.828125
2915		-54.687500
2916		-48.828125
2917		-54.687500
2918		-48.828125
2919		-54.687500
2920		-46.875000
2921		-54.687500
2922		-46.875000
2923		-52.734375
2924		-46.875000
2925		-52.734375
2926		-44.921875
2927		-48.828125
2928		-46.875000
2929		-46.875000
2930		-42.968750
2931		-48.828125
2932		-41.015625
2933		-46.875000
2934		-39.062500
2935		-46.875000
2936		-37.109375
2937		-44.921875
2938		-35.156250
2939		-41.015625
2940		-33.203125
2941		-39.062500
2942		-31.250000
2943		-35.156250
2944		-31.250000
2945		-33.203125
2946		-29.296875
2947		-31.250000
2948		-23.437500
2949		-29.296875
2950		-21.484375
2951		-27.343750
2952		-19.531250
2953		-25.390625
2954		-17.578125
2955		-23.437500
2956		-13.671875
2957		-19.531250
2958		-11.718750
2959		-17.578125
2960		-9.765625
2961		-11.718750
2962		-7.812500
2963		-9.765625
2964		-1.953125
2965		-7.812500
2966		0.000000
2967		-5.859375
2968		3.906250
2969		-1.953125
2970		5.859375
2971		0.000000
2972		9.765625
2973		3.906250
2974		11.718750
2975		7.812500
2976		15.625000
2977		11.718750
2978		15.625000
2979		15.625000
2980		19.531250
2981		15.625000
2982		23.437500
2983		17.578125
2984		27.343750
2985		21.484375
2986		29.296875
2987		23.437500
2988		33.203125
2989		27.343750
2990		35.156250
2991		29.296875
2992		37.109375
2993		33.203125
2994		39.062500
2995		37.109375
2996		41.015625
2997		39.062500
2998		44.921875
2999		39.062500
3000		48.828125
3001		42.968750
3002		50.781250
3003		42.968750
3004		52.734375
3005		44.921875
3006		54.687500
3007		48.828125
3008		56.640625
3009		50.781250
3010		56.640625
3011		54.687500
3012		56.640625
3013		56.640625
3014		58.593750
3015		54.687500
3016		62.500000
3017		56.640625
3018		64.453125
3019		58.593750
3020		66.406250
3021		58.593750
3022		66.406250
3023		60.546875
3024		68.359375
3025		60.546875
3026		68.359375
3027		64.453125
3028		66.406250
3029		64.453125
3030		68.359375
3031		64.453125
3032		70.312500
3033		62.500000
3034		70.312500
3035		64.453125
3036		70.312500
3037		64.453125
3038		70.312500
3039		62.500000
3040		72.265625
3041		64.453125
3042		70.312500
3043		64.453125
3044		70.312500
3045		66.406250
3046		68.359375
3047		62.500000
3048		68.359375
3049		62.500000
3050		68.359375
3051		60.546875
3052		68.359375
3053		60.546875
3054		68.359375
3055		58.593750
3056		66.406250
3057		58.593750
3058		64.453125
3059		56.640625
3060		64.453125
3061		56.640625
3062		60.546875
3063		56.640625
3064		58.593750
3065		50.781250
3066		58.593750
3067		50.781250
3068		58.593750
3069		48.828125
3070		56.640625
3071		46.875000
3072		54.687500
3073		44.921875
3074		52.734375
3075		41.015625
3076		50.781250
3077		41.015625
3078		48.828125
3079		39.062500
3080		42.968750
3081		35.156250
3082		41.015625
3083		31.250000
3084		39.062500
3085		29.296875
3086		37.109375
3087		27.343750
3088		35.156250
3089		23.437500
3090		33.203125
3091		21.484375
3092		29.296875
3093		19.531250
3094		27.343750
3095		17.578125
3096		21.484375
3097		13.671875
3098		19.531250
3099		9.765625
3100		17.578125
3101		5.859375
3102		15.625000
3103		3.906250
3104		11.718750
3105		1.953125
3106		9.765625
3107		-1.953125
3108		5.859375
3109		-5.859375
3110		3.906250
3111		-5.859375
3112		-1.953125
3113		-9.765625
3114		-3.906250
3115		-13.671875
3116		-7.812500
3117		-17.578125
3118		-9.765625
3119		-19.531250
3120		-11.718750
3121		-23.437500
3122		-13.671875
3123		-25.390625
3124		-17.578125
3125		-27.343750
3126		-19.531250
3127		-29.296875
3128		-21.484375
3129		-31.250000
3130		-25.390625
3131		-35.156250
3132		-29.296875
3133		-37.109375
3134		-29.296875
3135		-39.062500
3136		-31.250000
3137		-41.015625
3138		-35.156250
3139		-44.921875
3140		-37.109375
3141		-44.921875
3142		-37.109375
3143		-46.875000
3144		-39.062500
3145		-46.875000
3146		-42.968750
3147		-46.875000
3148		-44.921875
3149		-50.781250
3150		-44.921875
3151		-52.734375
3152		-44.921875
3153		-54.687500
3154		-44.921875
3155		-54.687500
3156		-46.875000
3157		-54.687500
3158		-48.828125
3159		-54.687500
3160		-48.828125
3161		-56.640625
3162		-48.828125
3163		-54.687500
3164		-50.781250
3165		-54.687500
3166		-48.828125
3167		-56.640625
3168		-48.828125
3169		-54.687500
3170		-46.875000
3171		-54.687500
3172		-46.875000
3173		-54.687500
3174		-46.875000
3175		-52.734375
3176		-46.875000
3177		-52.734375
3178		-46.875000
3179		-48.828125
3180		-46.875000
3181		-48.828125
3182		-44.921875
3183		-50.781250
3184		-41.015625
3185		-48.828125
3186		-41.015625
3187		-46.875000
3188		-39.062500
3189		-44.921875
3190		-37.109375
3191		-42.968750
3192		-35.156250
3193		-41.015625
3194		-33.203125
3195		-37.109375
3196		-33.203125
3197		-35.156250
3198		-29.296875
3199		-33.203125
3200		-25.390625
3201		-31.250000
3202		-23.437500
3203		-29.296875
3204		-21.484375
3205		-27.343750
3206		-17.578125
3207		-23.437500
3208		-15.625000
3209		-19.531250
3210		-13.671875
3211		-17.578125
3212		-11.718750
3213		-13.671875
3214		-9.765625
3215		-9.765625
3216		-3.906250
3217		-9.765625
3218		0.000000
3219		-5.859375
3220		1.953125
3221		-3.906250
3222		5.859375
3223		0.000000
3224		7.812500
3225		1.953125
3226		11.718750
3227		5.859375
3228		13.671875
3229		9.765625
3230		15.625000
3231		13.671875
3232		17.578125
3233		13.671875
3234		23.437500
3235		17.578125
3236		25.390625
3237		19.531250
3238		29.296875
3239		21.484375
3240		31.250000
3241		25.390625
3242		35.156250
3243		27.343750
3244		37.109375
3245		31.250000
3246		37.109375
3247		35.156250
3248		41.015625
3249		37.109375
3250		44.921875
3251		39.062500
3252		46.875000
3253		41.015625
3254		48.828125
3255		42.968750
3256		50.781250
3257		44.921875
3258		52.734375
3259		46.875000
3260		54.687500
3261		48.828125
3262		56.640625
3263		52.734375
3264		56.640625
3265		54.687500
3266		60.546875
3267		54.687500
3268		62.500000
3269		54.687500
3270		64.453125
3271		56.640625
3272		66.406250
3273		58.593750
3274		66.406250
3275		58.593750
3276		68.359375
3277		60.546875
3278		68.359375
3279		62.500000
3280		66.406250
3281		64.453125
3282		66.406250
3283		62.500000
3284		70.312500
3285		62.500000
3286		70.312500
3287		64.453125
3288		72.265625
3289		64.453125
3290		72.265625
3291		64.453125
3292		72.265625
3293		64.453125
3294		70.312500
3295		64.453125
3296		70.312500
3297		66.406250
3298		68.359375
3299		64.453125
3300		68.359375
3301		62.500000
3302		70.312500
3303		62.500000
3304		70.312500
3305		60.546875
3306		68.359375
3307		60.546875
3308		68.359375
3309		58.593750
3310		66.406250
3311		56.640625
3312		66.406250
3313		58.593750
3314		62.500000
3315		56.640625
3316		60.546875
3317		54.687500
3318		60.546875
3319		52.734375
3320		58.593750
3321		50.781250
3322		58.593750
3323		48.828125
3324		56.640625
3325		44.921875
3326		54.687500
3327		42.968750
3328		52.734375
3329		42.968750
3330		48.828125
3331		41.015625
3332		44.921875
3333		37.109375
3334		42.968750
3335		35.156250
3336		42.968750
3337		31.250000
3338		41.015625
3339		29.296875
3340		39.062500
3341		25.390625
3342		35.156250
3343		23.437500
3344		31.250000
3345		21.484375
3346		29.296875
3347		19.531250
3348		23.437500
3349		17.578125
3350		21.484375
3351		11.718750
3352		19.531250
3353		9.765625
3354		17.578125
3355		5.859375
3356		15.625000
3357		3.906250
3358		11.718750
3359		0.000000
3360		7.812500
3361		-3.906250
3362		5.859375
3363		-3.906250
3364		1.953125
3365		-7.812500
3366		-1.953125
3367		-11.718750
3368		-3.906250
3369		-15.625000
3370		-5.859375
3371		-17.578125
3372		-9.765625
3373		-19.531250
3374		-11.718750
3375		-23.437500
3376		-13.671875
3377		-25.390625
3378		-17.578125
3379		-27.343750
3380		-19.531250
3381		-29.296875
3382		-23.437500
3383		-33.203125
3384		-27.343750
3385		-35.156250
3386		-27.343750
3387		-39.062500
3388		-29.296875
3389		-39.062500
3390		-31.250000
3391		-41.015625
3392		-33.203125
3393		-44.921875
3394		-35.156250
3395		-46.875000
3396		-37.109375
3397		-44.921875
3398		-41.015625
3399		-46.875000
3400		-42.968750
3401		-48.828125
3402		-42.968750
3403		-50.781250
3404		-42.968750
3405		-52.734375
3406		-44.921875
3407		-52.734375
3408		-44.921875
3409		-54.687500
3410		-46.875000
3411		-54.687500
3412		-46.875000
3413		-54.687500
3414		-48.828125
3415		-52.734375
3416		-50.781250
3417		-54.687500
3418		-48.828125
3419		-54.687500
3420		-48.828125
3421		-54.687500
3422		-48.828125
3423		-54.687500
3424		-48.828125
3425		-54.687500
3426		-46.875000
3427		-52.734375
3428		-46.875000
3429		-52.734375
3430		-46.875000
3431		-48.828125
3432		-46.875000
3433		-48.828125
3434		-44.921875
3435		-48.828125
3436		-42.968750
3437		-46.875000
3438		-41.015625
3439		-44.921875
3440		-41.015625
3441		-42.968750
3442		-37.109375
3443		-42.968750
3444		-37.109375
3445		-41.015625
3446		-35.156250
3447		-37.109375
3448		-33.203125
3449		-35.156250
3450		-31.250000
3451		-33.203125
3452		-27.343750
3453		-31.250000
3454		-25.390625
3455		-29.296875
3456		-21.484375
3457		-27.343750
3458		-19.531250
3459		-25.390625
3460		-17.578125
3461		-23.437500
3462		-15.625000
3463		-19.531250
3464		-11.718750
3465		-13.671875
3466		-9.765625
3467		-13.671875
3468		-5.859375
3469		-11.718750
3470		-1.953125
3471		-9.765625
3472		0.000000
3473		-5.859375
3474		3.906250
3475		-1.953125
3476		5.859375
3477		0.000000
3478		9.765625
3479		3.906250
3480		11.718750
3481		9.765625
3482		13.671875
3483		11.718750
3484		15.625000
3485		13.671875
3486		21.484375
3487		15.625000
3488		23.437500
3489		19.531250
3490		25.390625
3491		21.484375
3492		29.296875
3493		23.437500
3494		31.250000
3495		27.343750
3496		35.156250
3497		29.296875
3498		35.156250
3499		35.156250
3500		39.062500
3501		37.109375
3502		42.968750
3503		37.109375
3504		44.921875
3505		39.062500
3506		46.875000
3507		42.968750
3508		48.828125
3509		44.921875
3510		52.734375
3511		46.875000
3512		52.734375
3513		48.828125
3514		54.687500
3515		52.734375
3516		56.640625
3517		54.687500
3518		56.640625
3519		54.687500
3520		58.593750
3521		56.640625
3522		60.546875
3523		58.593750
3524		62.500000
3525		58.593750
3526		64.453125
3527		60.546875
3528		66.406250
3529		62.500000
3530		66.406250
3531		62.500000
3532		66.406250
3533		64.453125
3534		68.359375
3535		64.453125
3536		68.359375
3537		64.453125
3538		70.312500
3539		66.406250
3540		70.312500
3541		66.406250
3542		70.312500
3543		64.453125
3544		72.265625
3545		66.406250
3546		72.265625
3547		66.406250
3548		70.312500
3549		66.406250
3550		68.359375
3551		66.406250
3552		68.359375
3553		64.453125
3554		68.359375
3555		64.453125
3556		68.359375
3557		64.453125
3558		68.359375
3559		62.500000
3560		66.406250
3561		62.500000
3562		66.406250
3563		60.546875
3564		66.406250
3565		60.546875
3566		62.500000
3567		58.593750
3568		62.500000
3569		56.640625
3570		60.546875
3571		54.687500
3572		58.593750
3573		52.734375
3574		56.640625
3575		50.781250
3576		54.687500
3577		48.828125
3578		52.734375
3579		46.875000
3580		52.734375
3581		44.921875
3582		50.781250
3583		42.968750
3584		46.875000
3585		41.015625
3586		44.921875
3587		37.109375
3588		42.968750
3589		35.156250
3590		41.015625
3591		33.203125
3592		37.109375
3593		29.296875
3594		35.156250
3595		27.343750
3596		31.250000
3597		23.437500
3598		29.296875
3599		21.484375
3600		27.343750
3601		19.531250
3602		23.437500
3603		15.625000
3604		21.484375
3605		11.718750
3606		17.578125
3607		9.765625
3608		15.625000
3609		7.812500
3610		13.671875
3611		3.906250
3612		7.812500
3613		0.000000
3614		5.859375
3615		-1.953125
3616		3.906250
3617		-3.906250
3618		0.000000
3619		-7.812500
3620		-3.906250
3621		-11.718750
3622		-5.859375
3623		-13.671875
3624		-7.812500
3625		-17.578125
3626		-11.718750
3627		-19.531250
3628		-13.671875
3629		-21.484375
3630		-17.578125
3631		-25.390625
3632		-19.531250
3633		-27.343750
3634		-23.437500
3635		-31.250000
3636		-25.390625
3637		-31.250000
3638		-27.343750
3639		-35.156250
3640		-29.296875
3641		-37.109375
3642		-31.250000
3643		-39.062500
3644		-35.156250
3645		-41.015625
3646		-37.109375
3647		-42.968750
3648		-39.062500
3649		-42.968750
3650		-41.015625
3651		-44.921875
3652		-41.015625
3653		-46.875000
3654		-42.968750
3655		-48.828125
3656		-44.921875
3657		-50.781250
3658		-44.921875
3659		-50.781250
3660		-46.875000
3661		-50.781250
3662		-46.875000
3663		-52.734375
3664		-48.828125
3665		-52.734375
3666		-48.828125
3667		-52.734375
3668		-48.828125
3669		-52.734375
3670		-48.828125
3671		-52.734375
3672		-50.781250
3673		-52.734375
3674		-48.828125
3675		-52.734375
3676		-50.781250
3677		-52.734375
3678		-48.828125
3679		-50.781250
3680		-48.828125
3681		-50.781250
3682		-46.875000
3683		-50.781250
3684		-46.875000
3685		-48.828125
3686		-46.875000
3687		-48.828125
3688		-44.921875
3689		-46.875000
3690		-42.968750
3691		-44.921875
3692		-41.015625
3693		-42.968750
3694		-39.062500
3695		-42.968750
3696		-39.062500
3697		-41.015625
3698		-37.109375
3699		-39.062500
3700		-35.156250
3701		-37.109375
3702		-33.203125
3703		-33.203125
3704		-29.296875
3705		-31.250000
3706		-27.343750
3707		-29.296875
3708		-25.390625
3709		-27.343750
3710		-21.484375
3711		-25.390625
3712		-19.531250
3713		-21.484375
3714		-17.578125
3715		-19.531250
3716		-13.671875
3717		-15.625000
3718		-11.718750
3719		-13.671875
3720		-7.812500
3721		-11.718750
3722		-5.859375
3723		-7.812500
3724		-3.906250
3725		-5.859375
3726		0.000000
3727		-1.953125
3728		3.906250
3729		0.000000
3730		5.859375
3731		3.906250
3732		9.765625
3733		5.859375
3734		11.718750
3735		9.765625
3736		13.671875
3737		13.671875
3738		17.578125
3739		15.625000
3740		21.484375
3741		17.578125
3742		23.437500
3743		21.484375
3744		25.390625
3745		25.390625
3746		29.296875
3747		27.343750
3748		31.250000
3749		29.296875
3750		35.156250
3751		33.203125
3752		37.109375
3753		35.156250
3754		39.062500
3755		37.109375
3756		42.968750
3757		41.015625
3758		44.921875
3759		42.968750
3760		46.875000
3761		44.921875
3762		48.828125
3763		46.875000
3764		52.734375
3765		48.828125
3766		54.687500
3767		50.781250
3768		54.687500
3769		52.734375
3770		56.640625
3771		54.687500
3772		58.593750
3773		56.640625
3774		60.546875
3775		58.593750
3776		62.500000
3777		60.546875
3778		62.500000
3779		60.546875
3780		64.453125
3781		62.500000
3782		64.453125
3783		62.500000
3784		66.406250
3785		64.453125
3786		66.406250
3787		64.453125
3788		68.359375
3789		66.406250
3790		68.359375
3791		66.406250
3792		70.312500
3793		66.406250
3794		70.312500
3795		66.406250
3796		70.312500
3797		66.406250
3798		70.312500
3799		66.406250
3800		70.312500
3801		66.406250
3802		70.312500
3803		66.406250
3804		68.359375
3805		64.453125
3806		70.312500
3807		64.453125
3808		68.359375
3809		64.453125
3810		68.359375
3811		64.453125
3812		68.359375
3813		62.500000
3814		66.406250
3815		62.500000
3816		64.453125
3817		60.546875
3818		64.453125
3819		60.546875
3820		62.500000
3821		58.593750
3822		60.546875
3823		56.640625
3824		60.546875
3825		54.687500
3826		58.593750
3827		52.734375
3828		56.640625
3829		50.781250
3830		54.687500
3831		48.828125
3832		52.734375
3833		46.875000
3834		50.781250
3835		44.921875
3836		48.828125
3837		41.015625
3838		46.875000
3839		39.062500
3840		44.921875
3841		37.109375
3842		41.015625
3843		35.156250
3844		39.062500
3845		33.203125
3846		37.109375
3847		29.296875
3848		35.156250
3849		27.343750
3850		31.250000
3851		23.437500
3852		29.296875
3853		21.484375
3854		25.390625
3855		17.578125
3856		23.437500
3857		15.625000
3858		19.531250
3859		11.718750
3860		17.578125
3861		9.765625
3862		13.671875
3863		5.859375
3864		11.718750
3865		3.906250
3866		7.812500
3867		0.000000
3868		5.859375
3869		-1.953125
3870		1.953125
3871		-5.859375
3872		-1.953125
3873		-7.812500
3874		-3.906250
3875		-11.718750
3876		-5.859375
3877		-13.671875
3878		-9.765625
3879		-17.578125
3880		-11.718750
3881		-19.531250
3882		-15.625000
3883		-23.437500
3884		-17.578125
3885		-25.390625
3886		-19.531250
3887		-27.343750
3888		-23.437500
3889		-29.296875
3890		-25.390625
3891		-33.203125
3892		-27.343750
3893		-35.156250
3894		-31.250000
3895		-37.109375
3896		-33.203125
3897		-39.062500
3898		-35.156250
3899		-41.015625
3900		-37.109375
3901		-42.968750
3902		-37.109375
3903		-44.921875
3904		-41.015625
3905		-44.921875
3906		-41.015625
3907		-46.875000
3908		-42.968750
3909		-48.828125
3910		-44.921875
3911		-48.828125
3912		-44.921875
3913		-50.781250
3914		-46.875000
3915		-50.781250
3916		-46.875000
3917		-50.781250
3918		-48.828125
3919		-52.734375
3920		-48.828125
3921		-52.734375
3922		-48.828125
3923		-52.734375
3924		-48.828125
3925		-52.734375
3926		-48.828125
3927		-52.734375
3928		-48.828125
3929		-52.734375
3930		-48.828125
3931		-52.734375
3932		-48.828125
3933		-50.781250
3934		-46.875000
3935		-50.781250
3936		-46.875000
3937		-48.828125
3938		-46.875000
3939		-48.828125
3940		-44.921875
3941		-46.875000
3942		-44.921875
3943		-46.875000
3944		-42.968750
3945		-44.921875
3946		-41.015625
3947		-42.968750
3948		-39.062500
3949		-41.015625
3950		-37.109375
3951		-41.015625
3952		-35.156250
3953		-37.109375
3954		-33.203125
3955		-35.156250
3956		-31.250000
3957		-33.203125
3958		-29.296875
3959		-31.250000
3960		-25.390625
3961		-29.296875
3962		-23.437500
3963		-27.343750
3964		-21.484375
3965		-23.437500
3966		-19.531250
3967		-21.484375
3968		-15.625000
3969		-17.578125
3970		-13.671875
3971		-15.625000
3972		-11.718750
3973		-11.718750
3974		-7.812500
3975		-9.765625
3976		-5.859375
3977		-5.859375
3978		-1.953125
3979		-3.906250
3980		1.953125
3981		0.000000
3982		3.906250
3983		1.953125
3984		7.812500
3985		3.906250
3986		9.765625
3987		7.812500
3988		13.671875
3989		11.718750
3990		15.625000
3991		13.671875
3992		19.531250
3993		17.578125
3994		21.484375
3995		19.531250
3996		25.390625
3997		23.437500
3998		27.343750
3999		25.390625
4000		31.250000
4001		29.296875
4002		33.203125
4003		31.250000
4004		35.156250
4005		33.203125
4006		39.062500
4007		35.156250
4008		41.015625
4009		39.062500
4010		42.968750
4011		41.015625
4012		44.921875
4013		42.968750
4014		46.875000
4015		44.921875
4016		50.781250
4017		48.828125
4018		52.734375
4019		50.781250
4020		54.687500
4021		52.734375
4022		56.640625
4023		54.687500
4024		58.593750
4025		56.640625
4026		58.593750
4027		56.640625
4028		60.546875
4029		58.593750
4030		62.500000
4031		58.593750
4032		64.453125
4033		60.546875
4034		64.453125
4035		62.500000
4036		66.406250
4037		64.453125
4038		66.406250
4039		64.453125
4040		68.359375
4041		64.453125
4042		68.359375
4043		66.406250
4044		70.312500
4045		66.406250
4046		70.312500
4047		66.406250
4048		70.312500
4049		66.406250
4050		70.312500
4051		66.406250
4052		70.312500
4053		66.406250
4054		70.312500
4055		66.406250
4056		70.312500
4057		66.406250
4058		70.312500
4059		66.406250
4060		68.359375
4061		64.453125
4062		68.359375
4063		64.453125
4064		68.359375
4065		64.453125
4066		66.406250
4067		62.500000
4068		66.406250
4069		62.500000
4070		66.406250
4071		60.546875
4072		64.453125
4073		58.593750
4074		62.500000
4075		56.640625
4076		60.546875
4077		56.640625
4078		60.546875
4079		54.687500
4080		58.593750
4081		52.734375
4082		56.640625
4083		50.781250
4084		54.687500
4085		48.828125
4086		52.734375
4087		46.875000
4088		50.781250
4089		42.968750
4090		48.828125
4091		41.015625
4092		46.875000
4093		39.062500
4094		42.968750
4095		37.109375
4096		41.015625
4097		35.156250
4098		39.062500
4099		31.250000
4100		35.156250
4101		27.343750
4102		33.203125
4103		25.390625
4104		31.250000
4105		23.437500
4106		27.343750
4107		19.531250
4108		25.390625
4109		17.578125
4110		21.484375
4111		13.671875
4112		19.531250
4113		11.718750
4114		17.578125
4115		7.812500
4116		13.671875
4117		5.859375
4118		9.765625
4119		1.953125
4120		7.812500
4121		-1.953125
4122		3.906250
4123		-3.906250
4124		1.953125
4125		-7.812500
4126		-1.953125
4127		-9.765625
4128		-3.906250
4129		-13.671875
4130		-7.812500
4131		-15.625000
4132		-9.765625
4133		-17.578125
4134		-13.671875
4135		-21.484375
4136		-15.625000
4137		-23.437500
4138		-19.531250
4139		-25.390625
4140		-21.484375
4141		-27.343750
4142		-23.437500
4143		-31.250000
4144		-25.390625
4145		-33.203125
4146		-29.296875
4147		-35.156250
4148		-31.250000
4149		-37.109375
4150		-33.203125
4151		-39.062500
4152		-35.156250
4153		-41.015625
4154		-37.109375
4155		-42.968750
4156		-39.062500
4157		-44.921875
4158		-41.015625
4159		-46.875000
4160		-41.015625
4161		-46.875000
4162		-44.921875
4163		-48.828125
4164		-44.921875
4165		-50.781250
4166		-46.875000
4167		-50.781250
4168		-46.875000
4169		-50.781250
4170		-46.875000
4171		-50.781250
4172		-48.828125
4173		-52.734375
4174		-48.828125
4175		-52.734375
4176		-48.828125
4177		-52.734375
4178		-48.828125
4179		-52.734375
4180		-48.828125
4181		-52.734375
4182		-48.828125
4183		-52.734375
4184		-48.828125
4185		-52.734375
4186		-48.828125
4187		-50.781250
4188		-48.828125
4189		-50.781250
4190		-46.875000
4191		-50.781250
4192		-44.921875
4193		-48.828125
4194		-44.921875
4195		-46.875000
4196		-42.968750
4197		-44.921875
4198		-42.968750
4199		-44.921875
4200		-41.015625
4201		-42.968750
4202		-39.062500
4203		-41.015625
4204		-37.109375
4205		-39.062500
4206		-35.156250
4207		-37.109375
4208		-31.250000
4209		-35.156250
4210		-31.250000
4211		-33.203125
4212		-27.343750
4213		-29.296875
4214		-25.390625
4215		-27.343750
4216		-23.437500
4217		-25.390625
4218		-21.484375
4219		-23.437500
4220		-17.578125
4221		-19.531250
4222		-15.625000
4223		-17.578125
4224		-11.718750
4225		-15.625000
4226		-9.765625
4227		-11.718750
4228		-5.859375
4229		-9.765625
4230		-3.906250
4231		-5.859375
4232		0.000000
4233		-1.953125
4234		1.953125
4235		0.000000
4236		5.859375
4237		1.953125
4238		7.812500
4239		5.859375
4240		11.718750
4241		9.765625
4242		13.671875
4243		11.718750
4244		17.578125
4245		15.625000
4246		19.531250
4247		17.578125
4248		23.437500
4249		21.484375
4250		25.390625
4251		23.437500
4252		29.296875
4253		27.343750
4254		31.250000
4255		29.296875
4256		35.156250
4257		33.203125
4258		37.109375
4259		35.156250
4260		39.062500
4261		37.109375
4262		41.015625
4263		41.015625
4264		44.921875
4265		42.968750
4266		46.875000
4267		42.968750
4268		48.828125
4269		46.875000
4270		52.734375
4271		48.828125
4272		52.734375
4273		50.781250
4274		54.687500
4275		52.734375
4276		56.640625
4277		54.687500
4278		58.593750
4279		56.640625
4280		60.546875
4281		58.593750
4282		60.546875
4283		60.546875
4284		62.500000
4285		60.546875
4286		64.453125
4287		62.500000
4288		66.406250
4289		62.500000
4290		66.406250
4291		64.453125
4292		68.359375
4293		64.453125
4294		68.359375
4295		64.453125
4296		68.359375
4297		66.406250
4298		68.359375
4299		66.406250
4300		70.312500
4301		66.406250
4302		70.312500
4303		66.406250
4304		70.312500
4305		66.406250
4306		70.312500
4307		68.359375
4308		70.312500
4309		66.406250
4310		70.312500
4311		66.406250
4312		70.312500
4313		66.406250
4314		70.312500
4315		64.453125
4316		68.359375
4317		64.453125
4318		68.359375
4319		62.500000
4320		68.359375
4321		62.500000
4322		66.406250
4323		62.500000
4324		64.453125
4325		60.546875
4326		64.453125
4327		56.640625
4328		62.500000
4329		56.640625
4330		60.546875
4331		54.687500
4332		60.546875
4333		54.687500
4334		56.640625
4335		50.781250
4336		54.687500
4337		50.781250
4338		54.687500
4339		46.875000
4340		52.734375
4341		46.875000
4342		48.828125
4343		42.968750
4344		48.828125
4345		41.015625
4346		46.875000
4347		39.062500
4348		42.968750
4349		35.156250
4350		41.015625
4351		33.203125
4352		37.109375
4353		29.296875
4354		35.156250
4355		27.343750
4356		31.250000
4357		25.390625
4358		29.296875
4359		23.437500
4360		27.343750
4361		19.531250
4362		25.390625
4363		17.578125
4364		21.484375
4365		13.671875
4366		17.578125
4367		9.765625
4368		15.625000
4369		7.812500
4370		11.718750
4371		3.906250
4372		9.765625
4373		1.953125
4374		5.859375
4375		-1.953125
4376		3.906250
4377		-5.859375
4378		0.000000
4379		-7.812500
4380		-1.953125
4381		-9.765625
4382		-5.859375
4383		-13.671875
4384		-7.812500
4385		-15.625000
4386		-11.718750
4387		-19.531250
4388		-13.671875
4389		-21.484375
4390		-17.578125
4391		-23.437500
4392		-19.531250
4393		-27.343750
4394		-21.484375
4395		-29.296875
4396		-23.437500
4397		-31.250000
4398		-27.343750
4399		-35.156250
4400		-29.296875
4401		-35.156250
4402		-31.250000
4403		-37.109375
4404		-33.203125
4405		-39.062500
4406		-35.156250
4407		-41.015625
4408		-37.109375
4409		-42.968750
4410		-39.062500
4411		-44.921875
4412		-41.015625
4413		-46.875000
4414		-42.968750
4415		-48.828125
4416		-44.921875
4417		-48.828125
4418		-44.921875
4419		-50.781250
4420		-46.875000
4421		-50.781250
4422		-46.875000
4423		-50.781250
4424		-48.828125
4425		-50.781250
4426		-48.828125
4427		-52.734375
4428		-48.828125
4429		-52.734375
4430		-48.828125
4431		-52.734375
4432		-48.828125
4433		-52.734375
4434		-48.828125
4435		-52.734375
4436		-48.828125
4437		-52.734375
4438		-46.875000
4439		-52.734375
4440		-46.875000
4441		-50.781250
4442		-46.875000
4443		-48.828125
4444		-46.875000
4445		-48.828125
4446		-44.921875
4447		-46.875000
4448		-42.968750
4449		-46.875000
4450		-41.015625
4451		-44.921875
4452		-39.062500
4453		-42.968750
4454		-39.062500
4455		-42.968750
4456		-37.109375
4457		-39.062500
4458		-35.156250
4459		-37.109375
4460		-33.203125
4461		-35.156250
4462		-31.250000
4463		-33.203125
4464		-29.296875
4465		-31.250000
4466		-27.343750
4467		-29.296875
4468		-25.390625
4469		-27.343750
4470		-21.484375
4471		-23.437500
4472		-19.531250
4473		-21.484375
4474		-15.625000
4475		-17.578125
4476		-13.671875
4477		-15.625000
4478		-11.718750
4479		-13.671875
4480		-7.812500
4481		-9.765625
4482		-3.906250
4483		-7.812500
4484		-1.953125
4485		-3.906250
4486		1.953125
4487		-1.953125
4488		3.906250
4489		1.953125
4490		5.859375
4491		5.859375
4492		9.765625
4493		7.812500
4494		13.671875
4495		9.765625
4496		15.625000
4497		13.671875
4498		17.578125
4499		15.625000
4500		21.484375
4501		19.531250
4502		23.437500
4503		21.484375
4504		27.343750
4505		25.390625
4506		29.296875
4507		27.343750
4508		33.203125
4509		31.250000
4510		35.156250
4511		33.203125
4512		39.062500
4513		35.156250
4514		41.015625
4515		39.062500
4516		42.968750
4517		41.015625
4518		44.921875
4519		42.968750
4520		46.875000
4521		44.921875
4522		48.828125
4523		46.875000
4524		52.734375
4525		50.781250
4526		54.687500
4527		52.734375
4528		56.640625
4529		52.734375
4530		58.593750
4531		56.640625
4532		60.546875
4533		56.640625
4534		60.546875
4535		58.593750
4536		62.500000
4537		58.593750
4538		64.453125
4539		60.546875
4540		66.406250
4541		62.500000
4542		66.406250
4543		64.453125
4544		68.359375
4545		64.453125
4546		68.359375
4547		66.406250
4548		68.359375
4549		66.406250
4550		70.312500
4551		66.406250
4552		70.312500
4553		66.406250
4554		70.312500
4555		66.406250
4556		70.312500
4557		68.359375
4558		70.312500
4559		68.359375
4560		70.312500
4561		66.406250
4562		70.312500
4563		66.406250
4564		70.312500
4565		66.406250
4566		70.312500
4567		66.406250
4568		70.312500
4569		64.453125
4570		68.359375
4571		64.453125
4572		68.359375
4573		62.500000
4574		68.359375
4575		62.500000
4576		66.406250
4577		60.546875
4578		64.453125
4579		60.546875
4580		64.453125
4581		58.593750
4582		62.500000
4583		56.640625
4584		60.546875
4585		54.687500
4586		58.593750
4587		52.734375
4588		56.640625
4589		50.781250
4590		56.640625
4591		48.828125
4592		52.734375
4593		46.875000
4594		50.781250
4595		44.921875
4596		48.828125
4597		42.968750
4598		46.875000
4599		41.015625
4600		44.921875
4601		37.109375
4602		42.968750
4603		35.156250
4604		39.062500
4605		33.203125
4606		37.109375
4607		29.296875
4608		35.156250
4609		27.343750
4610		31.250000
4611		23.437500
4612		29.296875
4613		21.484375
4614		27.343750
4615		17.578125
4616		23.437500
4617		15.625000
4618		21.484375
4619		13.671875
4620		17.578125
4621		9.765625
4622		15.625000
4623		5.859375
4624		11.718750
4625		3.906250
4626		9.765625
4627		0.000000
4628		5.859375
4629		-1.953125
4630		1.953125
4631		-5.859375
4632		0.000000
4633		-7.812500
4634		-3.906250
4635		-9.765625
4636		-5.859375
4637		-13.671875
4638		-7.812500
4639		-17.578125
4640		-11.718750
4641		-19.531250
4642		-13.671875
4643		-21.484375
4644		-17.578125
4645		-25.390625
4646		-19.531250
4647		-27.343750
4648		-23.437500
4649		-29.296875
4650		-25.390625
4651		-31.250000
4652		-27.343750
4653		-35.156250
4654		-29.296875
4655		-35.156250
4656		-31.250000
4657		-39.062500
4658		-33.203125
4659		-41.015625
4660		-37.109375
4661		-41.015625
4662		-39.062500
4663		-44.921875
4664		-39.062500
4665		-44.921875
4666		-41.015625
4667		-46.875000
4668		-42.968750
4669		-46.875000
4670		-42.968750
4671		-48.828125
4672		-44.921875
4673		-50.781250
4674		-46.875000
4675		-50.781250
4676		-46.875000
4677		-50.781250
4678		-48.828125
4679		-52.734375
4680		-48.828125
4681		-50.781250
4682		-48.828125
4683		-52.734375
4684		-48.828125
4685		-52.734375
4686		-48.828125
4687		-52.734375
4688		-48.828125
4689		-52.734375
4690		-48.828125
4691		-50.781250
4692		-48.828125
4693		-50.781250
4694		-46.875000
4695		-50.781250
4696		-46.875000
4697		-48.828125
4698		-44.921875
4699		-48.828125
4700		-44.921875
4701		-46.875000
4702		-42.968750
4703		-44.921875
4704		-41.015625
4705		-44.921875
4706		-41.015625
4707		-42.968750
4708		-39.062500
4709		-41.015625
4710		-37.109375
4711		-39.062500
4712		-33.203125
4713		-37.109375
4714		-31.250000
4715		-35.156250
4716		-31.250000
4717		-33.203125
4718		-27.343750
4719		-31.250000
4720		-25.390625
4721		-27.343750
4722		-23.437500
4723		-25.390625
4724		-19.531250
4725		-23.437500
4726		-17.578125
4727		-19.531250
4728		-15.625000
4729		-17.578125
4730		-11.718750
4731		-13.671875
4732		-9.765625
4733		-11.718750
4734		-5.859375
4735		-7.812500
4736		-3.906250
4737		-5.859375
4738		0.000000
4739		-5.859375
4740		5.859375
4741		0.000000
4742		5.859375
4743		1.953125
4744		7.812500
4745		5.859375
4746		11.718750
4747		7.812500
4748		13.671875
4749		11.718750
4750		17.578125
4751		15.625000
4752		19.531250
4753		17.578125
4754		23.437500
4755		21.484375
4756		25.390625
4757		23.437500
4758		29.296875
4759		27.343750
4760		31.250000
4761		29.296875
4762		33.203125
4763		31.250000
4764		37.109375
4765		33.203125
4766		41.015625
4767		37.109375
4768		41.015625
4769		39.062500
4770		44.921875
4771		42.968750
4772		46.875000
4773		44.921875
4774		48.828125
4775		44.921875
4776		50.781250
4777		48.828125
4778		52.734375
4779		50.781250
4780		54.687500
4781		52.734375
4782		56.640625
4783		54.687500
4784		58.593750
4785		56.640625
4786		60.546875
4787		58.593750
4788		60.546875
4789		58.593750
4790		62.500000
4791		60.546875
4792		64.453125
4793		62.500000
4794		66.406250
4795		62.500000
4796		66.406250
4797		64.453125
4798		68.359375
4799		64.453125
4800		68.359375
4801		66.406250
4802		70.312500
4803		66.406250
4804		70.312500
4805		66.406250
4806		70.312500
4807		66.406250
4808		70.312500
4809		68.359375
4810		70.312500
4811		66.406250
4812		70.312500
4813		66.406250
4814		70.312500
4815		66.406250
4816		70.312500
4817		66.406250
4818		70.312500
4819		66.406250
4820		70.312500
4821		66.406250
4822		68.359375
4823		64.453125
4824		68.359375
4825		64.453125
4826		68.359375
4827		62.500000
4828		66.406250
4829		62.500000
4830		66.406250
4831		60.546875
4832		64.453125
4833		58.593750
4834		62.500000
4835		58.593750
4836		62.500000
4837		56.640625
4838		60.546875
4839		54.687500
4840		58.593750
4841		52.734375
4842		56.640625
4843		50.781250
4844		54.687500
4845		48.828125
4846		52.734375
4847		46.875000
4848		50.781250
4849		44.921875
4850		48.828125
4851		42.968750
4852		46.875000
4853		39.062500
4854		42.968750
4855		37.109375
4856		41.015625
4857		35.156250
4858		39.062500
4859		31.250000
4860		37.109375
4861		29.296875
4862		33.203125
4863		27.343750
4864		31.250000
4865		23.437500
4866		29.296875
4867		19.531250
4868		25.390625
4869		17.578125
4870		21.484375
4871		15.625000
4872		19.531250
4873		11.718750
4874		15.625000
4875		7.812500
4876		13.671875
4877		5.859375
4878		9.765625
4879		1.953125
4880		7.812500
4881		0.000000
4882		5.859375
4883		-3.906250
4884		1.953125
4885		-5.859375
4886		-1.953125
4887		-9.765625
4888		-3.906250
4889		-11.718750
4890		-7.812500
4891		-15.625000
4892		-9.765625
4893		-17.578125
4894		-13.671875
4895		-19.531250
4896		-15.625000
4897		-23.437500
4898		-17.578125
4899		-25.390625
4900		-21.484375
4901		-27.343750
4902		-23.437500
4903		-29.296875
4904		-25.390625
4905		-33.203125
4906		-27.343750
4907		-35.156250
4908		-31.250000
4909		-37.109375
4910		-33.203125
4911		-39.062500
4912		-35.156250
4913		-41.015625
4914		-37.109375
4915		-42.968750
4916		-39.062500
4917		-42.968750
4918		-41.015625
4919		-44.921875
4920		-41.015625
4921		-46.875000
4922		-42.968750
4923		-46.875000
4924		-44.921875
4925		-48.828125
4926		-44.921875
4927		-50.781250
4928		-46.875000
4929		-50.781250
4930		-46.875000
4931		-50.781250
4932		-46.875000
4933		-50.781250
4934		-48.828125
4935		-50.781250
4936		-48.828125
4937		-52.734375
4938		-48.828125
4939		-52.734375
4940		-48.828125
4941		-50.781250
4942		-48.828125
4943		-52.734375
4944		-48.828125
4945		-50.781250
4946		-48.828125
4947		-50.781250
4948		-46.875000
4949		-48.828125
4950		-46.875000
4951		-48.828125
4952		-44.921875
4953		-46.875000
4954		-42.968750
4955		-46.875000
4956		-42.968750
4957		-44.921875
4958		-41.015625
4959		-42.968750
4960		-39.062500
4961		-41.015625
4962		-37.109375
4963		-39.062500
4964		-35.156250
4965		-39.062500
4966		-33.203125
4967		-37.109375
4968		-31.250000
4969		-33.203125
4970		-29.296875
4971		-31.250000
4972		-27.343750
4973		-29.296875
4974		-23.437500
4975		-25.390625
4976		-21.484375
4977		-23.437500
4978		-19.531250
4979		-21.484375
4980		-17.578125
4981		-19.531250
4982		-13.671875
4983		-15.625000
4984		-11.718750
4985		-13.671875
4986		-7.812500
4987		-11.718750
4988		-5.859375
4989		-7.812500
4990		-1.953125
4991		-3.906250
4992		0.000000
4993		-1.953125
4994		3.906250
4995		1.953125
4996		5.859375
4997		3.906250
4998		9.765625
4999		7.812500
5000		11.718750
5001		9.765625
5002		15.625000
5003		13.671875
5004		17.578125
5005		15.625000
5006		21.484375
5007		19.531250
5008		23.437500
5009		21.484375
5010		27.343750
5011		25.390625
5012		29.296875
5013		27.343750
5014		33.203125
5015		29.296875
5016		35.156250
5017		33.203125
5018		37.109375
5019		35.156250
5020		41.015625
5021		39.062500
5022		42.968750
5023		41.015625
5024		44.921875
5025		42.968750
5026		46.875000
5027		44.921875
5028		48.828125
5029		48.828125
5030		52.734375
5031		50.781250
5032		54.687500
5033		52.734375
5034		56.640625
5035		52.734375
5036		58.593750
5037		54.687500
5038		58.593750
5039		56.640625
5040		60.546875
5041		58.593750
5042		62.500000
5043		60.546875
5044		64.453125
5045		62.500000
5046		64.453125
5047		62.500000
5048		66.406250
5049		62.500000
5050		68.359375
5051		64.453125
5052		68.359375
5053		66.406250
5054		68.359375
5055		66.406250
5056		70.312500
5057		66.406250
5058		70.312500
5059		66.406250
5060		70.312500
5061		66.406250
5062		70.312500
5063		68.359375
5064		70.312500
5065		68.359375
5066		72.265625
5067		68.359375
5068		70.312500
5069		66.406250
5070		70.312500
5071		66.406250
5072		70.312500
5073		66.406250
5074		70.312500
5075		66.406250
5076		70.312500
5077		64.453125
5078		68.359375
5079		64.453125
5080		66.406250
5081		64.453125
5082		66.406250
5083		60.546875
5084		66.406250
5085		60.546875
5086		64.453125
5087		58.593750
5088		62.500000
5089		58.593750
5090		62.500000
5091		56.640625
5092		60.546875
5093		52.734375
5094		58.593750
5095		52.734375
5096		56.640625
5097		50.781250
5098		54.687500
5099		48.828125
5100		52.734375
5101		46.875000
5102		50.781250
5103		42.968750
5104		48.828125
5105		41.015625
5106		44.921875
5107		39.062500
5108		42.968750
5109		35.156250
5110		41.015625
5111		33.203125
5112		39.062500
5113		31.250000
5114		35.156250
5115		29.296875
5116		33.203125
5117		25.390625
5118		29.296875
5119		23.437500
5120		27.343750
5121		19.531250
5122		25.390625
5123		17.578125
5124		21.484375
5125		13.671875
5126		19.531250
5127		11.718750
5128		15.625000
5129		7.812500
5130		13.671875
5131		5.859375
5132		9.765625
5133		1.953125
5134		7.812500
5135		-1.953125
5136		3.906250
5137		-3.906250
5138		0.000000
5139		-5.859375
5140		-1.953125
5141		-9.765625
5142		-3.906250
5143		-11.718750
5144		-7.812500
5145		-15.625000
5146		-9.765625
5147		-17.578125
5148		-13.671875
5149		-21.484375
5150		-15.625000
5151		-23.437500
5152		-19.531250
5153		-25.390625
5154		-21.484375
5155		-29.296875
5156		-23.437500
5157		-31.250000
5158		-27.343750
5159		-33.203125
5160		-29.296875
5161		-35.156250
5162		-31.250000
5163		-37.109375
5164		-33.203125
5165		-39.062500
5166		-35.156250
5167		-41.015625
5168		-37.109375
5169		-42.968750
5170		-39.062500
5171		-44.921875
5172		-41.015625
5173		-44.921875
5174		-41.015625
5175		-46.875000
5176		-42.968750
5177		-48.828125
5178		-44.921875
5179		-48.828125
5180		-44.921875
5181		-48.828125
5182		-46.875000
5183		-50.781250
5184		-46.875000
5185		-50.781250
5186		-46.875000
5187		-50.781250
5188		-46.875000
5189		-50.781250
5190		-48.828125
5191		-50.781250
5192		-48.828125
5193		-50.781250
5194		-48.828125
5195		-50.781250
5196		-48.828125
5197		-50.781250
5198		-46.875000
5199		-50.781250
5200		-46.875000
5201		-50.781250
5202		-46.875000
5203		-48.828125
5204		-44.921875
5205		-46.875000
5206		-44.921875
5207		-46.875000
5208		-42.968750
5209		-44.921875
5210		-41.015625
5211		-44.921875
5212		-39.062500
5213		-42.968750
5214		-39.062500
5215		-41.015625
5216		-37.109375
5217		-39.062500
5218		-35.156250
5219		-37.109375
5220		-33.203125
5221		-35.156250
5222		-31.250000
5223		-33.203125
5224		-27.343750
5225		-31.250000
5226		-25.390625
5227		-27.343750
5228		-23.437500
5229		-25.390625
5230		-21.484375
5231		-23.437500
5232		-17.578125
5233		-19.531250
5234		-15.625000
5235		-17.578125
5236		-11.718750
5237		-13.671875
5238		-9.765625
5239		-11.718750
5240		-7.812500
5241		-9.765625
5242		-3.906250
5243		-5.859375
5244		-1.953125
5245		-1.953125
5246		1.953125
5247		0.000000
5248		3.906250
5249		1.953125
5250		7.812500
5251		5.859375
5252		11.718750
5253		9.765625
5254		13.671875
5255		11.718750
5256		15.625000
5257		15.625000
5258		19.531250
5259		17.578125
5260		23.437500
5261		19.531250
5262		25.390625
5263		23.437500
5264		27.343750
5265		25.390625
5266		31.250000
5267		29.296875
5268		33.203125
5269		31.250000
5270		37.109375
5271		33.203125
5272		39.062500
5273		37.109375
5274		41.015625
5275		39.062500
5276		44.921875
5277		41.015625
5278		46.875000
5279		42.968750
5280		48.828125
5281		46.875000
5282		50.781250
5283		48.828125
5284		52.734375
5285		50.781250
5286		54.687500
5287		52.734375
5288		56.640625
5289		54.687500
5290		58.593750
5291		56.640625
5292		60.546875
5293		58.593750
5294		62.500000
5295		58.593750
5296		64.453125
5297		60.546875
5298		64.453125
5299		62.500000
5300		66.406250
5301		62.500000
5302		66.406250
5303		64.453125
5304		68.359375
5305		64.453125
5306		68.359375
5307		66.406250
5308		70.312500
5309		66.406250
5310		70.312500
5311		66.406250
5312		70.312500
5313		68.359375
5314		72.265625
5315		68.359375
5316		70.312500
5317		68.359375
5318		72.265625
5319		68.359375
5320		72.265625
5321		68.359375
5322		70.312500
5323		68.359375
5324		72.265625
5325		66.406250
5326		70.312500
5327		66.406250
5328		70.312500
5329		64.453125
5330		68.359375
5331		64.453125
5332		68.359375
5333		62.500000
5334		68.359375
5335		62.500000
5336		66.406250
5337		62.500000
5338		64.453125
5339		60.546875
5340		64.453125
5341		58.593750
5342		62.500000
5343		56.640625
5344		62.500000
5345		54.687500
5346		58.593750
5347		54.687500
5348		56.640625
5349		52.734375
5350		56.640625
5351		48.828125
5352		54.687500
5353		46.875000
5354		52.734375
5355		44.921875
5356		50.781250
5357		42.968750
5358		46.875000
5359		41.015625
5360		44.921875
5361		39.062500
5362		42.968750
5363		35.156250
5364		41.015625
5365		33.203125
5366		37.109375
5367		29.296875
5368		35.156250
5369		27.343750
5370		33.203125
5371		25.390625
5372		29.296875
5373		21.484375
5374		27.343750
5375		17.578125
5376		23.437500
5377		15.625000
5378		21.484375
5379		13.671875
5380		19.531250
5381		9.765625
5382		15.625000
5383		7.812500
5384		11.718750
5385		3.906250
5386		9.765625
5387		0.000000
5388		5.859375
5389		-1.953125
5390		3.906250
5391		-3.906250
5392		0.000000
5393		-7.812500
5394		-1.953125
5395		-11.718750
5396		-5.859375
5397		-13.671875
5398		-7.812500
5399		-17.578125
5400		-11.718750
5401		-19.531250
5402		-13.671875
5403		-21.484375
5404		-17.578125
5405		-23.437500
5406		-19.531250
5407		-27.343750
5408		-21.484375
5409		-29.296875
5410		-25.390625
5411		-31.250000
5412		-27.343750
5413		-33.203125
5414		-29.296875
5415		-35.156250
5416		-31.250000
5417		-37.109375
5418		-33.203125
5419		-41.015625
5420		-35.156250
5421		-41.015625
5422		-37.109375
5423		-42.968750
5424		-39.062500
5425		-44.921875
5426		-41.015625
5427		-46.875000
5428		-42.968750
5429		-48.828125
5430		-42.968750
5431		-48.828125
5432		-44.921875
5433		-48.828125
5434		-44.921875
5435		-50.781250
5436		-46.875000
5437		-50.781250
5438		-46.875000
5439		-50.781250
5440		-46.875000
5441		-50.781250
5442		-48.828125
5443		-50.781250
5444		-48.828125
5445		-50.781250
5446		-48.828125
5447		-50.781250
5448		-46.875000
5449		-50.781250
5450		-48.828125
5451		-50.781250
5452		-46.875000
5453		-50.781250
5454		-46.875000
5455		-48.828125
5456		-46.875000
5457		-48.828125
5458		-44.921875
5459		-46.875000
5460		-42.968750
5461		-44.921875
5462		-42.968750
5463		-44.921875
5464		-39.062500
5465		-42.968750
5466		-39.062500
5467		-41.015625
5468		-37.109375
5469		-41.015625
5470		-35.156250
5471		-37.109375
5472		-33.203125
5473		-35.156250
5474		-31.250000
5475		-33.203125
5476		-29.296875
5477		-31.250000
5478		-27.343750
5479		-29.296875
5480		-23.437500
5481		-27.343750
5482		-21.484375
5483		-25.390625
5484		-19.531250
5485		-21.484375
5486		-17.578125
5487		-19.531250
5488		-13.671875
5489		-17.578125
5490		-11.718750
5491		-13.671875
5492		-7.812500
5493		-9.765625
5494		-5.859375
5495		-7.812500
5496		-1.953125
5497		-3.906250
5498		0.000000
5499		-1.953125
5500		1.953125
5501		1.953125
5502		5.859375
5503		1.953125
5504		7.812500
5505		5.859375
5506		11.718750
5507		9.765625
5508		13.671875
5509		13.671875
5510		17.578125
5511		15.625000
5512		21.484375
5513		19.531250
5514		23.437500
5515		21.484375
5516		25.390625
5517		25.390625
5518		29.296875
5519		27.343750
5520		31.250000
5521		29.296875
5522		35.156250
5523		33.203125
5524		37.109375
5525		35.156250
5526		39.062500
5527		37.109375
5528		42.968750
5529		41.015625
5530		44.921875
5531		42.968750
5532		46.875000
5533		44.921875
5534		48.828125
5535		46.875000
5536		52.734375
5537		48.828125
5538		52.734375
5539		50.781250
5540		54.687500
5541		52.734375
5542		56.640625
5543		54.687500
5544		58.593750
5545		56.640625
5546		60.546875
5547		58.593750
5548		62.500000
5549		60.546875
5550		64.453125
5551		60.546875
5552		64.453125
5553		62.500000
5554		66.406250
5555		64.453125
5556		66.406250
5557		64.453125
5558		68.359375
5559		66.406250
5560		70.312500
5561		66.406250
5562		70.312500
5563		66.406250
5564		70.312500
5565		66.406250
5566		70.312500
5567		68.359375
5568		70.312500
5569		68.359375
5570		70.312500
5571		68.359375
5572		72.265625
5573		66.406250
5574		70.312500
5575		68.359375
5576		70.312500
5577		68.359375
5578		70.312500
5579		66.406250
5580		70.312500
5581		66.406250
5582		70.312500
5583		66.406250
5584		68.359375
5585		64.453125
5586		68.359375
5587		62.500000
5588		68.359375
5589		62.500000
5590		66.406250
5591		60.546875
5592		64.453125
5593		58.593750
5594		62.500000
5595		58.593750
5596		62.500000
5597		56.640625
5598		60.546875
5599		54.687500
5600		58.593750
5601		52.734375
5602		56.640625
5603		50.781250
5604		54.687500
5605		48.828125
5606		52.734375
5607		46.875000
5608		50.781250
5609		44.921875
5610		48.828125
5611		41.015625
5612		46.875000
5613		39.062500
5614		44.921875
5615		37.109375
5616		41.015625
5617		35.156250
5618		39.062500
5619		31.250000
5620		37.109375
5621		29.296875
5622		35.156250
5623		27.343750
5624		31.250000
5625		23.437500
5626		29.296875
5627		21.484375
5628		25.390625
5629		17.578125
5630		23.437500
5631		15.625000
5632		19.531250
5633		11.718750
5634		17.578125
5635		9.765625
5636		13.671875
5637		5.859375
5638		11.718750
5639		3.906250
5640		7.812500
5641		0.000000
5642		5.859375
5643		-1.953125
5644		1.953125
5645		-5.859375
5646		0.000000
5647		-7.812500
5648		-3.906250
5649		-11.718750
5650		-5.859375
5651		-13.671875
5652		-9.765625
5653		-17.578125
5654		-11.718750
5655		-19.531250
5656		-15.625000
5657		-23.437500
5658		-17.578125
5659		-25.390625
5660		-21.484375
5661		-27.343750
5662		-23.437500
5663		-31.250000
5664		-25.390625
5665		-33.203125
5666		-27.343750
5667		-35.156250
5668		-31.250000
5669		-37.109375
5670		-33.203125
5671		-39.062500
5672		-33.203125
5673		-41.015625
5674		-37.109375
5675		-41.015625
5676		-39.062500
5677		-44.921875
5678		-41.015625
5679		-44.921875
5680		-41.015625
5681		-46.875000
5682		-42.968750
5683		-46.875000
5684		-42.968750
5685		-48.828125
5686		-44.921875
5687		-50.781250
5688		-46.875000
5689		-50.781250
5690		-46.875000
5691		-50.781250
5692		-46.875000
5693		-50.781250
5694		-48.828125
5695		-50.781250
5696		-48.828125
5697		-50.781250
5698		-48.828125
5699		-52.734375
5700		-46.875000
5701		-50.781250
5702		-48.828125
5703		-50.781250
5704		-46.875000
5705		-50.781250
5706		-46.875000
5707		-48.828125
5708		-46.875000
5709		-48.828125
5710		-44.921875
5711		-48.828125
5712		-44.921875
5713		-46.875000
5714		-42.968750
5715		-44.921875
5716		-41.015625
5717		-44.921875
5718		-41.015625
5719		-42.968750
5720		-39.062500
5721		-41.015625
5722		-37.109375
5723		-39.062500
5724		-35.156250
5725		-37.109375
5726		-33.203125
5727		-35.156250
5728		-31.250000
5729		-33.203125
5730		-29.296875
5731		-31.250000
5732		-25.390625
5733		-29.296875
5734		-23.437500
5735		-25.390625
5736		-21.484375
5737		-23.437500
5738		-17.578125
5739		-21.484375
5740		-15.625000
5741		-17.578125
5742		-13.671875
5743		-15.625000
5744		-11.718750
5745		-11.718750
5746		-7.812500
5747		-9.765625
5748		-3.906250
5749		-7.812500
5750		-1.953125
5751		-3.906250
5752		0.000000
5753		0.000000
5754		3.906250
5755		1.953125
5756		5.859375
5757		5.859375
5758		11.718750
5759		7.812500
5760		11.718750
5761		11.718750
5762		15.625000
5763		13.671875
5764		17.578125
5765		15.625000
5766		21.484375
5767		17.578125
5768		23.437500
5769		23.437500
5770		27.343750
5771		25.390625
5772		29.296875
5773		27.343750
5774		33.203125
5775		31.250000
5776		35.156250
5777		33.203125
5778		39.062500
5779		37.109375
5780		41.015625
5781		39.062500
5782		42.968750
5783		41.015625
5784		44.921875
5785		42.968750
5786		46.875000
5787		46.875000
5788		50.781250
5789		48.828125
5790		52.734375
5791		50.781250
5792		54.687500
5793		52.734375
5794		56.640625
5795		54.687500
5796		58.593750
5797		54.687500
5798		58.593750
5799		56.640625
5800		60.546875
5801		58.593750
5802		62.500000
5803		60.546875
5804		64.453125
5805		60.546875
5806		66.406250
5807		62.500000
5808		66.406250
5809		64.453125
5810		68.359375
5811		64.453125
5812		68.359375
5813		66.406250
5814		70.312500
5815		66.406250
5816		70.312500
5817		66.406250
5818		70.312500
5819		68.359375
5820		70.312500
5821		68.359375
5822		72.265625
5823		68.359375
5824		70.312500
5825		68.359375
5826		72.265625
5827		68.359375
5828		70.312500
5829		68.359375
5830		72.265625
5831		68.359375
5832		70.312500
5833		66.406250
5834		70.312500
5835		66.406250
5836		68.359375
5837		66.406250
5838		68.359375
5839		64.453125
5840		68.359375
5841		62.500000
5842		66.406250
5843		62.500000
5844		66.406250
5845		60.546875
5846		64.453125
5847		58.593750
5848		62.500000
5849		56.640625
5850		62.500000
5851		56.640625
5852		60.546875
5853		54.687500
5854		58.593750
5855		50.781250
5856		56.640625
5857		48.828125
5858		54.687500
5859		48.828125
5860		52.734375
5861		46.875000
5862		50.781250
5863		42.968750
5864		48.828125
5865		41.015625
5866		46.875000
5867		39.062500
5868		44.921875
5869		37.109375
5870		41.015625
5871		33.203125
5872		39.062500
5873		31.250000
5874		37.109375
5875		27.343750
5876		33.203125
5877		25.390625
5878		31.250000
5879		23.437500
5880		27.343750
5881		19.531250
5882		25.390625
5883		15.625000
5884		21.484375
5885		13.671875
5886		19.531250
5887		11.718750
5888		15.625000
5889		7.812500
5890		13.671875
5891		3.906250
5892		11.718750
5893		1.953125
5894		7.812500
5895		-1.953125
5896		5.859375
5897		-5.859375
5898		1.953125
5899		-7.812500
5900		0.000000
5901		-9.765625
5902		-3.906250
5903		-11.718750
5904		-7.812500
5905		-15.625000
5906		-11.718750
5907		-17.578125
5908		-11.718750
5909		-21.484375
5910		-15.625000
5911		-23.437500
5912		-17.578125
5913		-27.343750
5914		-19.531250
5915		-29.296875
5916		-23.437500
5917		-31.250000
5918		-25.390625
5919		-33.203125
5920		-29.296875
5921		-35.156250
5922		-31.250000
5923		-37.109375
5924		-33.203125
5925		-39.062500
5926		-33.203125
5927		-41.015625
5928		-35.156250
5929		-42.968750
5930		-37.109375
5931		-44.921875
5932		-39.062500
5933		-44.921875
5934		-41.015625
5935		-46.875000
5936		-41.015625
5937		-46.875000
5938		-44.921875
5939		-48.828125
5940		-44.921875
5941		-50.781250
5942		-44.921875
5943		-50.781250
5944		-46.875000
5945		-52.734375
5946		-46.875000
5947		-52.734375
5948		-46.875000
5949		-52.734375
5950		-46.875000
5951		-52.734375
5952		-46.875000
5953		-50.781250
5954		-48.828125
5955		-50.781250
5956		-48.828125
5957		-50.781250
5958		-48.828125
5959		-48.828125
5960		-46.875000
5961		-48.828125
5962		-46.875000
5963		-48.828125
5964		-44.921875
5965		-46.875000
5966		-44.921875
5967		-46.875000
5968		-41.015625
5969		-44.921875
5970		-41.015625
5971		-42.968750
5972		-39.062500
5973		-41.015625
5974		-39.062500
5975		-41.015625
5976		-37.109375
5977		-39.062500
5978		-35.156250
5979		-37.109375
5980		-33.203125
5981		-35.156250
5982		-31.250000
5983		-31.250000
5984		-27.343750
5985		-31.250000
5986		-25.390625
5987		-27.343750
5988		-23.437500
5989		-25.390625
5990		-21.484375
5991		-21.484375
5992		-17.578125
5993		-19.531250
5994		-15.625000
5995		-17.578125
5996		-11.718750
5997		-13.671875
5998		-9.765625
5999		-11.718750
6000		-7.812500
6001		-7.812500
6002		-3.906250
6003		-5.859375
6004		-1.953125
6005		-1.953125
6006		1.953125
6007		0.000000
6008		3.906250
6009		3.906250
6010		7.812500
6011		5.859375
6012		9.765625
6013		9.765625
6014		13.671875
6015		11.718750
6016		17.578125
6017		15.625000
6018		19.531250
6019		17.578125
6020		23.437500
6021		21.484375
6022		25.390625
6023		23.437500
6024		27.343750
6025		27.343750
6026		31.250000
6027		29.296875
6028		33.203125
6029		33.203125
6030		37.109375
6031		35.156250
6032		39.062500
6033		37.109375
6034		41.015625
6035		39.062500
6036		42.968750
6037		41.015625
6038		46.875000
6039		44.921875
6040		48.828125
6041		46.875000
6042		50.781250
6043		48.828125
6044		52.734375
6045		50.781250
6046		54.687500
6047		52.734375
6048		56.640625
6049		54.687500
6050		58.593750
6051		56.640625
6052		60.546875
6053		58.593750
6054		62.500000
6055		60.546875
6056		62.500000
6057		58.593750
6058		66.406250
6059		58.593750
6060		68.359375
6061		60.546875
6062		70.312500
6063		64.453125
6064		68.359375
6065		66.406250
6066		68.359375
6067		66.406250
6068		68.359375
6069		66.406250
6070		70.312500
6071		68.359375
6072		70.312500
6073		64.453125
6074		72.265625
6075		64.453125
6076		74.218750
6077		66.406250
6078		74.218750
6079		66.406250
6080		74.218750
6081		68.359375
6082		70.312500
6083		68.359375
6084		70.312500
6085		68.359375
6086		70.312500
6087		66.406250
6088		70.312500
6089		66.406250
6090		68.359375
6091		62.500000
6092		70.312500
6093		62.500000
6094		70.312500
6095		60.546875
6096		70.312500
6097		62.500000
6098		64.453125
6099		60.546875
6100		64.453125
6101		58.593750
6102		62.500000
6103		56.640625
6104		60.546875
6105		56.640625
6106		58.593750
6107		48.828125
6108		60.546875
6109		48.828125
6110		58.593750
6111		46.875000
6112		56.640625
6113		46.875000
6114		54.687500
6115		44.921875
6116		48.828125
6117		42.968750
6118		46.875000
6119		41.015625
6120		44.921875
6121		39.062500
6122		42.968750
6123		35.156250
6124		39.062500
6125		31.250000
6126		41.015625
6127		27.343750
6128		39.062500
6129		25.390625
6130		35.156250
6131		25.390625
6132		29.296875
6133		21.484375
6134		27.343750
6135		19.531250
6136		23.437500
6137		15.625000
6138		21.484375
6139		13.671875
6140		17.578125
6141		7.812500
6142		17.578125
6143		3.906250
6144		13.671875
6145		1.953125
6146		11.718750
6147		1.953125
6148		5.859375
6149		-1.953125
6150		1.953125
6151		-5.859375
6152		0.000000
6153		-7.812500
6154		-3.906250
6155		-9.765625
6156		-5.859375
6157		-15.625000
6158		-7.812500
6159		-19.531250
6160		-7.812500
6161		-21.484375
6162		-11.718750
6163		-21.484375
6164		-13.671875
6165		-23.437500
6166		-19.531250
6167		-27.343750
6168		-23.437500
6169		-29.296875
6170		-25.390625
6171		-31.250000
6172		-27.343750
6173		-33.203125
6174		-29.296875
6175		-39.062500
6176		-27.343750
6177		-41.015625
6178		-31.250000
6179		-42.968750
6180		-31.250000
6181		-41.015625
6182		-37.109375
6183		-42.968750
6184		-39.062500
6185		-44.921875
6186		-41.015625
6187		-44.921875
6188		-42.968750
6189		-46.875000
6190		-42.968750
6191		-52.734375
6192		-41.015625
6193		-52.734375
6194		-42.968750
6195		-52.734375
6196		-42.968750
6197		-50.781250
6198		-44.921875
6199		-50.781250
6200		-48.828125
6201		-50.781250
6202		-48.828125
6203		-50.781250
6204		-48.828125
6205		-50.781250
6206		-48.828125
6207		-50.781250
6208		-48.828125
6209		-54.687500
6210		-44.921875
6211		-52.734375
6212		-42.968750
6213		-52.734375
6214		-44.921875
6215		-48.828125
6216		-46.875000
6217		-48.828125
6218		-44.921875
6219		-46.875000
6220		-42.968750
6221		-44.921875
6222		-42.968750
6223		-44.921875
6224		-41.015625
6225		-44.921875
6226		-35.156250
6227		-42.968750
6228		-35.156250
6229		-42.968750
6230		-33.203125
6231		-37.109375
6232		-33.203125
6233		-35.156250
6234		-31.250000
6235		-33.203125
6236		-29.296875
6237		-31.250000
6238		-27.343750
6239		-29.296875
6240		-25.390625
6241		-27.343750
6242		-21.484375
6243		-25.390625
6244		-17.578125
6245		-23.437500
6246		-15.625000
6247		-19.531250
6248		-15.625000
6249		-15.625000
6250		-11.718750
6251		-13.671875
6252		-7.812500
6253		-11.718750
6254		-5.859375
6255		-7.812500
6256		-3.906250
6257		-3.906250
6258		0.000000
6259		-1.953125
6260		1.953125
6261		-1.953125
6262		7.812500
6263		1.953125
6264		9.765625
6265		7.812500
6266		11.718750
6267		9.765625
6268		15.625000
6269		13.671875
6270		17.578125
6271		15.625000
6272		21.484375
6273		19.531250
6274		23.437500
6275		21.484375
6276		27.343750
6277		25.390625
6278		29.296875
6279		27.343750
6280		33.203125
6281		31.250000
6282		35.156250
6283		33.203125
6284		37.109375
6285		35.156250
6286		39.062500
6287		37.109375
6288		42.968750
6289		41.015625
6290		44.921875
6291		42.968750
6292		46.875000
6293		44.921875
6294		48.828125
6295		46.875000
6296		50.781250
6297		48.828125
6298		52.734375
6299		50.781250
6300		54.687500
6301		52.734375
6302		56.640625
6303		54.687500
6304		58.593750
6305		56.640625
6306		60.546875
6307		58.593750
6308		62.500000
6309		60.546875
6310		64.453125
6311		62.500000
6312		64.453125
6313		62.500000
6314		66.406250
6315		64.453125
6316		66.406250
6317		64.453125
6318		68.359375
6319		64.453125
6320		68.359375
6321		66.406250
6322		68.359375
6323		66.406250
6324		70.312500
6325		68.359375
6326		70.312500
6327		68.359375
6328		70.312500
6329		68.359375
6330		70.312500
6331		68.359375
6332		70.312500
6333		68.359375
6334		70.312500
6335		68.359375
6336		70.312500
6337		66.406250
6338		70.312500
6339		66.406250
6340		70.312500
6341		66.406250
6342		68.359375
6343		64.453125
6344		68.359375
6345		64.453125
6346		68.359375
6347		64.453125
6348		66.406250
6349		62.500000
6350		66.406250
6351		60.546875
6352		64.453125
6353		60.546875
6354		62.500000
6355		58.593750
6356		62.500000
6357		56.640625
6358		60.546875
6359		54.687500
6360		60.546875
6361		52.734375
6362		56.640625
6363		50.781250
6364		54.687500
6365		48.828125
6366		52.734375
6367		46.875000
6368		50.781250
6369		44.921875
6370		48.828125
6371		42.968750
6372		46.875000
6373		39.062500
6374		42.968750
6375		35.156250
6376		41.015625
6377		35.156250
6378		39.062500
6379		31.250000
6380		37.109375
6381		29.296875
6382		33.203125
6383		25.390625
6384		31.250000
6385		23.437500
6386		29.296875
6387		19.531250
6388		25.390625
6389		17.578125
6390		21.484375
6391		15.625000
6392		19.531250
6393		11.718750
6394		17.578125
6395		7.812500
6396		13.671875
6397		5.859375
6398		9.765625
6399		1.953125
6400		7.812500
6401		0.000000
6402		5.859375
6403		-3.906250
6404		1.953125
6405		-5.859375
6406		-1.953125
6407		-9.765625
6408		-3.906250
6409		-13.671875
6410		-7.812500
6411		-15.625000
6412		-9.765625
6413		-17.578125
6414		-11.718750
6415		-19.531250
6416		-15.625000
6417		-23.437500
6418		-17.578125
6419		-25.390625
6420		-21.484375
6421		-27.343750
6422		-23.437500
6423		-29.296875
6424		-25.390625
6425		-33.203125
6426		-29.296875
6427		-35.156250
6428		-29.296875
6429		-37.109375
6430		-33.203125
6431		-39.062500
6432		-35.156250
6433		-41.015625
6434		-37.109375
6435		-42.968750
6436		-37.109375
6437		-42.968750
6438		-41.015625
6439		-44.921875
6440		-41.015625
6441		-46.875000
6442		-42.968750
6443		-48.828125
6444		-42.968750
6445		-48.828125
6446		-44.921875
6447		-48.828125
6448		-46.875000
6449		-50.781250
6450		-46.875000
6451		-52.734375
6452		-46.875000
6453		-50.781250
6454		-48.828125
6455		-50.781250
6456		-48.828125
6457		-52.734375
6458		-48.828125
6459		-50.781250
6460		-48.828125
6461		-52.734375
6462		-48.828125
6463		-50.781250
6464		-46.875000
6465		-50.781250
6466		-46.875000
6467		-50.781250
6468		-46.875000
6469		-50.781250
6470		-44.921875
6471		-48.828125
6472		-44.921875
6473		-46.875000
6474		-42.968750
6475		-44.921875
6476		-42.968750
6477		-44.921875
6478		-39.062500
6479		-42.968750
6480		-39.062500
6481		-41.015625
6482		-37.109375
6483		-39.062500
6484		-35.156250
6485		-39.062500
6486		-33.203125
6487		-35.156250
6488		-31.250000
6489		-33.203125
6490		-29.296875
6491		-31.250000
6492		-27.343750
6493		-29.296875
6494		-21.484375
6495		-25.390625
6496		-21.484375
6497		-23.437500
6498		-19.531250
6499		-21.484375
6500		-17.578125
6501		-19.531250
6502		-13.671875
6503		-15.625000
6504		-11.718750
6505		-11.718750
6506		-7.812500
6507		-9.765625
6508		-5.859375
6509		-7.812500
6510		-1.953125
6511		-3.906250
6512		0.000000
6513		-1.953125
6514		3.906250
6515		1.953125
6516		5.859375
6517		3.906250
6518		9.765625
6519		7.812500
6520		11.718750
6521		11.718750
6522		15.625000
6523		13.671875
6524		17.578125
6525		17.578125
6526		21.484375
6527		19.531250
6528		23.437500
6529		23.437500
6530		27.343750
6531		25.390625
6532		29.296875
6533		29.296875
6534		33.203125
6535		31.250000
6536		35.156250
6537		33.203125
6538		39.062500
6539		37.109375
6540		41.015625
6541		39.062500
6542		42.968750
6543		41.015625
6544		44.921875
6545		42.968750
6546		48.828125
6547		44.921875
6548		48.828125
6549		48.828125
6550		52.734375
6551		50.781250
6552		54.687500
6553		52.734375
6554		56.640625
6555		52.734375
6556		56.640625
6557		56.640625
6558		58.593750
6559		56.640625
6560		60.546875
6561		58.593750
6562		62.500000
6563		60.546875
6564		64.453125
6565		62.500000
6566		64.453125
6567		62.500000
6568		66.406250
6569		64.453125
6570		66.406250
6571		64.453125
6572		68.359375
6573		66.406250
6574		68.359375
6575		66.406250
6576		68.359375
6577		66.406250
6578		70.312500
6579		68.359375
6580		70.312500
6581		68.359375
6582		70.312500
6583		68.359375
6584		70.312500
6585		68.359375
6586		70.312500
6587		68.359375
6588		70.312500
6589		68.359375
6590		70.312500
6591		68.359375
6592		70.312500
6593		66.406250
6594		70.312500
6595		66.406250
6596		68.359375
6597		64.453125
6598		68.359375
6599		64.453125
6600		66.406250
6601		62.500000
6602		66.406250
6603		62.500000
6604		64.453125
6605		60.546875
6606		64.453125
6607		58.593750
6608		62.500000
6609		56.640625
6610		60.546875
6611		56.640625
6612		58.593750
6613		54.687500
6614		56.640625
6615		52.734375
6616		56.640625
6617		50.781250
6618		54.687500
6619		48.828125
6620		52.734375
6621		46.875000
6622		50.781250
6623		42.968750
6624		46.875000
6625		41.015625
6626		44.921875
6627		39.062500
6628		42.968750
6629		35.156250
6630		41.015625
6631		33.203125
6632		37.109375
6633		31.250000
6634		35.156250
6635		27.343750
6636		33.203125
6637		25.390625
6638		29.296875
6639		21.484375
6640		27.343750
6641		19.531250
6642		23.437500
6643		17.578125
6644		21.484375
6645		13.671875
6646		17.578125
6647		9.765625
6648		15.625000
6649		7.812500
6650		11.718750
6651		3.906250
6652		9.765625
6653		1.953125
6654		5.859375
6655		-1.953125
6656		3.906250
6657		-3.906250
6658		0.000000
6659		-7.812500
6660		-1.953125
6661		-11.718750
6662		-5.859375
6663		-11.718750
6664		-7.812500
6665		-15.625000
6666		-11.718750
6667		-17.578125
6668		-13.671875
6669		-21.484375
6670		-17.578125
6671		-23.437500
6672		-19.531250
6673		-25.390625
6674		-21.484375
6675		-29.296875
6676		-25.390625
6677		-31.250000
6678		-27.343750
6679		-35.156250
6680		-29.296875
6681		-37.109375
6682		-31.250000
6683		-37.109375
6684		-33.203125
6685		-39.062500
6686		-35.156250
6687		-41.015625
6688		-37.109375
6689		-42.968750
6690		-39.062500
6691		-44.921875
6692		-41.015625
6693		-44.921875
6694		-42.968750
6695		-48.828125
6696		-42.968750
6697		-48.828125
6698		-42.968750
6699		-48.828125
6700		-44.921875
6701		-48.828125
6702		-46.875000
6703		-50.781250
6704		-48.828125
6705		-50.781250
6706		-48.828125
6707		-50.781250
6708		-48.828125
6709		-50.781250
6710		-48.828125
6711		-50.781250
6712		-48.828125
6713		-52.734375
6714		-46.875000
6715		-52.734375
6716		-46.875000
6717		-50.781250
6718		-48.828125
6719		-50.781250
6720		-46.875000
6721		-48.828125
6722		-46.875000
6723		-48.828125
6724		-44.921875
6725		-46.875000
6726		-44.921875
6727		-46.875000
6728		-42.968750
6729		-46.875000
6730		-41.015625
6731		-44.921875
6732		-39.062500
6733		-42.968750
6734		-39.062500
6735		-41.015625
6736		-37.109375
6737		-39.062500
6738		-35.156250
6739		-37.109375
6740		-33.203125
6741		-35.156250
6742		-29.296875
6743		-33.203125
6744		-29.296875
6745		-29.296875
6746		-23.437500
6747		-29.296875
6748		-21.484375
6749		-27.343750
6750		-21.484375
6751		-23.437500
6752		-17.578125
6753		-19.531250
6754		-15.625000
6755		-17.578125
6756		-13.671875
6757		-13.671875
6758		-9.765625
6759		-11.718750
6760		-5.859375
6761		-7.812500
6762		-3.906250
6763		-5.859375
6764		0.000000
6765		-3.906250
6766		1.953125
6767		0.000000
6768		3.906250
6769		3.906250
6770		7.812500
6771		5.859375
6772		9.765625
6773		7.812500
6774		13.671875
6775		11.718750
6776		15.625000
6777		15.625000
6778		19.531250
6779		17.578125
6780		23.437500
6781		19.531250
6782		27.343750
6783		23.437500
6784		27.343750
6785		25.390625
6786		31.250000
6787		29.296875
6788		33.203125
6789		31.250000
6790		37.109375
6791		35.156250
6792		39.062500
6793		37.109375
6794		41.015625
6795		39.062500
6796		42.968750
6797		41.015625
6798		48.828125
6799		42.968750
6800		48.828125
6801		46.875000
6802		50.781250
6803		48.828125
6804		52.734375
6805		50.781250
6806		54.687500
6807		52.734375
6808		56.640625
6809		54.687500
6810		58.593750
6811		56.640625
6812		60.546875
6813		56.640625
6814		62.500000
6815		58.593750
6816		64.453125
6817		60.546875
6818		64.453125
6819		62.500000
6820		66.406250
6821		64.453125
6822		66.406250
6823		64.453125
6824		68.359375
6825		66.406250
6826		68.359375
6827		66.406250
6828		68.359375
6829		66.406250
6830		72.265625
6831		66.406250
6832		72.265625
6833		66.406250
6834		72.265625
6835		68.359375
6836		70.312500
6837		68.359375
6838		70.312500
6839		68.359375
6840		70.312500
6841		68.359375
6842		70.312500
6843		68.359375
6844		70.312500
6845		66.406250
6846		70.312500
6847		64.453125
6848		70.312500
6849		64.453125
6850		70.312500
6851		64.453125
6852		68.359375
6853		64.453125
6854		66.406250
6855		62.500000
6856		66.406250
6857		62.500000
6858		64.453125
6859		60.546875
6860		64.453125
6861		58.593750
6862		62.500000
6863		56.640625
6864		60.546875
6865		54.687500
6866		58.593750
6867		52.734375
6868		56.640625
6869		50.781250
6870		54.687500
6871		48.828125
6872		52.734375
6873		46.875000
6874		50.781250
6875		44.921875
6876		48.828125
6877		42.968750
6878		46.875000
6879		41.015625
6880		44.921875
6881		37.109375
6882		42.968750
6883		35.156250
6884		39.062500
6885		33.203125
6886		37.109375
6887		29.296875
6888		35.156250
6889		27.343750
6890		31.250000
6891		25.390625
6892		29.296875
6893		21.484375
6894		25.390625
6895		19.531250
6896		23.437500
6897		15.625000
6898		19.531250
6899		13.671875
6900		17.578125
6901		9.765625
6902		13.671875
6903		5.859375
6904		11.718750
6905		3.906250
6906		7.812500
6907		0.000000
6908		5.859375
6909		-1.953125
6910		1.953125
6911		-5.859375
6912		0.000000
6913		-7.812500
6914		-3.906250
6915		-11.718750
6916		-5.859375
6917		-13.671875
6918		-9.765625
6919		-15.625000
6920		-11.718750
6921		-19.531250
6922		-15.625000
6923		-21.484375
6924		-17.578125
6925		-25.390625
6926		-19.531250
6927		-27.343750
6928		-23.437500
6929		-29.296875
6930		-25.390625
6931		-31.250000
6932		-27.343750
6933		-33.203125
6934		-29.296875
6935		-35.156250
6936		-33.203125
6937		-37.109375
6938		-35.156250
6939		-39.062500
6940		-37.109375
6941		-41.015625
6942		-39.062500
6943		-42.968750
6944		-39.062500
6945		-44.921875
6946		-41.015625
6947		-46.875000
6948		-42.968750
6949		-46.875000
6950		-44.921875
6951		-48.828125
6952		-44.921875
6953		-48.828125
6954		-46.875000
6955		-50.781250
6956		-46.875000
6957		-50.781250
6958		-46.875000
6959		-50.781250
6960		-48.828125
6961		-50.781250
6962		-48.828125
6963		-50.781250
6964		-48.828125
6965		-50.781250
6966		-48.828125
6967		-50.781250
6968		-48.828125
6969		-50.781250
6970		-48.828125
6971		-50.781250
6972		-46.875000
6973		-48.828125
6974		-46.875000
6975		-48.828125
6976		-46.875000
6977		-48.828125
6978		-44.921875
6979		-46.875000
6980		-44.921875
6981		-46.875000
6982		-42.968750
6983		-44.921875
6984		-41.015625
6985		-42.968750
6986		-39.062500
6987		-41.015625
6988		-37.109375
6989		-39.062500
6990		-35.156250
6991		-37.109375
6992		-33.203125
6993		-35.156250
6994		-31.250000
6995		-33.203125
6996		-29.296875
6997		-31.250000
6998		-27.343750
6999		-29.296875
7000		-25.390625
7001		-25.390625
7002		-23.437500
7003		-25.390625
7004		-19.531250
7005		-21.484375
7006		-17.578125
7007		-19.531250
7008		-13.671875
7009		-15.625000
7010		-11.718750
7011		-13.671875
7012		-9.765625
7013		-11.718750
7014		-5.859375
7015		-7.812500
7016		-3.906250
7017		-3.906250
7018		0.000000
7019		-1.953125
7020		3.906250
7021		1.953125
7022		5.859375
7023		3.906250
7024		7.812500
7025		7.812500
7026		11.718750
7027		9.765625
7028		15.625000
7029		13.671875
7030		17.578125
7031		15.625000
7032		19.531250
7033		19.531250
7034		23.437500
7035		21.484375
7036		25.390625
7037		25.390625
7038		29.296875
7039		27.343750
7040		31.250000
7041		31.250000
7042		35.156250
7043		33.203125
7044		37.109375
7045		35.156250
7046		39.062500
7047		39.062500
7048		42.968750
7049		41.015625
7050		44.921875
7051		42.968750
7052		46.875000
7053		44.921875
7054		48.828125
7055		46.875000
7056		50.781250
7057		48.828125
7058		52.734375
7059		50.781250
7060		54.687500
7061		52.734375
7062		56.640625
7063		54.687500
7064		58.593750
7065		56.640625
7066		60.546875
7067		58.593750
7068		62.500000
7069		60.546875
7070		64.453125
7071		62.500000
7072		64.453125
7073		62.500000
7074		66.406250
7075		64.453125
7076		66.406250
7077		64.453125
7078		68.359375
7079		66.406250
7080		68.359375
7081		66.406250
7082		68.359375
7083		66.406250
7084		70.312500
7085		68.359375
7086		70.312500
7087		68.359375
7088		70.312500
7089		68.359375
7090		70.312500
7091		68.359375
7092		70.312500
7093		68.359375
7094		70.312500
7095		68.359375
7096		70.312500
7097		68.359375
7098		70.312500
7099		66.406250
7100		70.312500
7101		66.406250
7102		68.359375
7103		64.453125
7104		68.359375
7105		64.453125
7106		68.359375
7107		64.453125
7108		66.406250
7109		62.500000
7110		66.406250
7111		60.546875
7112		64.453125
7113		58.593750
7114		62.500000
7115		58.593750
7116		62.500000
7117		56.640625
7118		60.546875
7119		54.687500
7120		58.593750
7121		52.734375
7122		56.640625
7123		50.781250
7124		54.687500
7125		48.828125
7126		52.734375
7127		46.875000
7128		50.781250
7129		44.921875
7130		48.828125
7131		41.015625
7132		44.921875
7133		39.062500
7134		42.968750
7135		37.109375
7136		41.015625
7137		33.203125
7138		39.062500
7139		31.250000
7140		35.156250
7141		29.296875
7142		33.203125
7143		25.390625
7144		31.250000
7145		23.437500
7146		27.343750
7147		19.531250
7148		25.390625
7149		17.578125
7150		21.484375
7151		13.671875
7152		19.531250
7153		11.718750
7154		15.625000
7155		7.812500
7156		13.671875
7157		5.859375
7158		9.765625
7159		1.953125
7160		7.812500
7161		0.000000
7162		3.906250
7163		-3.906250
7164		1.953125
7165		-5.859375
7166		-1.953125
7167		-9.765625
7168		-3.906250
7169		-11.718750
7170		-7.812500
7171		-15.625000
7172		-9.765625
7173		-17.578125
7174		-13.671875
7175		-19.531250
7176		-15.625000
7177		-23.437500
7178		-19.531250
7179		-25.390625
7180		-21.484375
7181		-27.343750
7182		-23.437500
7183		-29.296875
7184		-27.343750
7185		-33.203125
7186		-29.296875
7187		-35.156250
7188		-31.250000
7189		-37.109375
7190		-33.203125
7191		-39.062500
7192		-35.156250
7193		-41.015625
7194		-37.109375
7195		-42.968750
7196		-39.062500
7197		-42.968750
7198		-41.015625
7199		-44.921875
7200		-42.968750
7201		-46.875000
7202		-42.968750
7203		-46.875000
7204		-44.921875
7205		-48.828125
7206		-44.921875
7207		-50.781250
7208		-46.875000
7209		-50.781250
7210		-46.875000
7211		-50.781250
7212		-48.828125
7213		-50.781250
7214		-48.828125
7215		-50.781250
7216		-48.828125
7217		-50.781250
7218		-48.828125
7219		-50.781250
7220		-48.828125
7221		-50.781250
7222		-48.828125
7223		-50.781250
7224		-48.828125
7225		-50.781250
7226		-46.875000
7227		-50.781250
7228		-46.875000
7229		-48.828125
7230		-46.875000
7231		-48.828125
7232		-44.921875
7233		-46.875000
7234		-42.968750
7235		-44.921875
7236		-42.968750
7237		-44.921875
7238		-41.015625
7239		-42.968750
7240		-39.062500
7241		-41.015625
7242		-37.109375
7243		-39.062500
7244		-35.156250
7245		-37.109375
7246		-33.203125
7247		-35.156250
7248		-31.250000
7249		-33.203125
7250		-29.296875
7251		-31.250000
7252		-27.343750
7253		-29.296875
7254		-23.437500
7255		-25.390625
7256		-21.484375
7257		-23.437500
7258		-19.531250
7259		-21.484375
7260		-15.625000
7261		-17.578125
7262		-13.671875
7263		-15.625000
7264		-9.765625
7265		-11.718750
7266		-7.812500
7267		-9.765625
7268		-5.859375
7269		-7.812500
7270		-1.953125
7271		-3.906250
7272		0.000000
7273		-1.953125
7274		3.906250
7275		1.953125
7276		5.859375
7277		5.859375
7278		9.765625
7279		7.812500
7280		13.671875
7281		11.718750
7282		15.625000
7283		13.671875
7284		19.531250
7285		17.578125
7286		21.484375
7287		19.531250
7288		23.437500
7289		23.437500
7290		27.343750
7291		25.390625
7292		29.296875
7293		27.343750
7294		33.203125
7295		31.250000
7296		35.156250
7297		33.203125
7298		37.109375
7299		37.109375
7300		41.015625
7301		39.062500
7302		42.968750
7303		41.015625
7304		44.921875
7305		42.968750
7306		46.875000
7307		44.921875
7308		48.828125
7309		48.828125
7310		52.734375
7311		50.781250
7312		54.687500
7313		52.734375
7314		56.640625
7315		54.687500
7316		58.593750
7317		56.640625
7318		58.593750
7319		56.640625
7320		60.546875
7321		58.593750
7322		62.500000
7323		60.546875
7324		64.453125
7325		62.500000
7326		64.453125
7327		62.500000
7328		66.406250
7329		64.453125
7330		66.406250
7331		64.453125
7332		68.359375
7333		66.406250
7334		68.359375
7335		66.406250
7336		68.359375
7337		66.406250
7338		70.312500
7339		68.359375
7340		70.312500
7341		68.359375
7342		70.312500
7343		68.359375
7344		70.312500
7345		68.359375
7346		70.312500
7347		68.359375
7348		70.312500
7349		68.359375
7350		70.312500
7351		66.406250
7352		70.312500
7353		66.406250
7354		68.359375
7355		66.406250
7356		68.359375
7357		64.453125
7358		68.359375
7359		64.453125
7360		66.406250
7361		62.500000
7362		66.406250
7363		62.500000
7364		64.453125
7365		60.546875
7366		64.453125
7367		58.593750
7368		62.500000
7369		56.640625
7370		60.546875
7371		54.687500
7372		58.593750
7373		54.687500
7374		58.593750
7375		52.734375
7376		54.687500
7377		50.781250
7378		54.687500
7379		48.828125
7380		50.781250
7381		44.921875
7382		48.828125
7383		42.968750
7384		46.875000
7385		41.015625
7386		44.921875
7387		39.062500
7388		42.968750
7389		35.156250
7390		39.062500
7391		33.203125
7392		37.109375
7393		31.250000
7394		35.156250
7395		27.343750
7396		31.250000
7397		25.390625
7398		29.296875
7399		21.484375
7400		27.343750
7401		19.531250
7402		23.437500
7403		15.625000
7404		21.484375
7405		13.671875
7406		17.578125
7407		9.765625
7408		15.625000
7409		7.812500
7410		11.718750
7411		3.906250
7412		7.812500
7413		1.953125
7414		5.859375
7415		-1.953125
7416		1.953125
7417		-5.859375
7418		0.000000
7419		-7.812500
7420		-1.953125
7421		-9.765625
7422		-5.859375
7423		-13.671875
7424		-9.765625
7425		-15.625000
7426		-11.718750
7427		-19.531250
7428		-13.671875
7429		-21.484375
7430		-17.578125
7431		-23.437500
7432		-19.531250
7433		-27.343750
7434		-21.484375
7435		-29.296875
7436		-25.390625
7437		-31.250000
7438		-27.343750
7439		-33.203125
7440		-29.296875
7441		-35.156250
7442		-31.250000
7443		-37.109375
7444		-33.203125
7445		-39.062500
7446		-35.156250
7447		-41.015625
7448		-37.109375
7449		-42.968750
7450		-39.062500
7451		-44.921875
7452		-41.015625
7453		-46.875000
7454		-42.968750
7455		-46.875000
7456		-44.921875
7457		-48.828125
7458		-44.921875
7459		-48.828125
7460		-46.875000
7461		-50.781250
7462		-46.875000
7463		-50.781250
7464		-48.828125
7465		-50.781250
7466		-48.828125
7467		-50.781250
7468		-48.828125
7469		-50.781250
7470		-48.828125
7471		-50.781250
7472		-48.828125
7473		-52.734375
7474		-48.828125
7475		-50.781250
7476		-48.828125
7477		-50.781250
7478		-48.828125
7479		-50.781250
7480		-46.875000
7481		-48.828125
7482		-46.875000
7483		-48.828125
7484		-44.921875
7485		-46.875000
7486		-44.921875
7487		-46.875000
7488		-42.968750
7489		-44.921875
7490		-41.015625
7491		-42.968750
7492		-41.015625
7493		-42.968750
7494		-39.062500
7495		-41.015625
7496		-37.109375
7497		-39.062500
7498		-35.156250
7499		-37.109375
7500		-33.203125
7501		-35.156250
7502		-31.250000
7503		-33.203125
7504		-27.343750
7505		-29.296875
7506		-25.390625
7507		-27.343750
7508		-23.437500
7509		-25.390625
7510		-21.484375
7511		-23.437500
7512		-17.578125
7513		-19.531250
7514		-15.625000
7515		-17.578125
7516		-13.671875
7517		-13.671875
7518		-9.765625
7519		-11.718750
7520		-7.812500
7521		-7.812500
7522		-3.906250
7523		-5.859375
7524		-1.953125
7525		-1.953125
7526		1.953125
7527		0.000000
7528		3.906250
7529		3.906250
7530		7.812500
7531		5.859375
7532		9.765625
7533		9.765625
7534		13.671875
7535		11.718750
7536		17.578125
7537		15.625000
7538		19.531250
7539		17.578125
7540		23.437500
7541		21.484375
7542		25.390625
7543		23.437500
7544		27.343750
7545		27.343750
7546		31.250000
7547		29.296875
7548		33.203125
7549		31.250000
7550		35.156250
7551		35.156250
7552		39.062500
7553		37.109375
7554		41.015625
7555		39.062500
7556		42.968750
7557		42.968750
7558		46.875000
7559		44.921875
7560		48.828125
7561		46.875000
7562		50.781250
7563		48.828125
7564		52.734375
7565		50.781250
7566		54.687500
7567		52.734375
7568		56.640625
7569		54.687500
7570		58.593750
7571		56.640625
7572		60.546875
7573		58.593750
7574		60.546875
7575		60.546875
7576		62.500000
7577		60.546875
7578		64.453125
7579		62.500000
7580		64.453125
7581		62.500000
7582		66.406250
7583		64.453125
7584		66.406250
7585		64.453125
7586		68.359375
7587		66.406250
7588		68.359375
7589		66.406250
7590		68.359375
7591		66.406250
7592		70.312500
7593		68.359375
7594		70.312500
7595		68.359375
7596		70.312500
7597		68.359375
7598		70.312500
7599		68.359375
7600		70.312500
7601		68.359375
7602		70.312500
7603		66.406250
7604		70.312500
7605		66.406250
7606		68.359375
7607		66.406250
7608		68.359375
7609		66.406250
7610		68.359375
7611		64.453125
7612		68.359375
7613		64.453125
7614		66.406250
7615		62.500000
7616		64.453125
7617		60.546875
7618		64.453125
7619		60.546875
7620		62.500000
7621		58.593750
7622		60.546875
7623		56.640625
7624		60.546875
7625		54.687500
7626		58.593750
7627		52.734375
7628		56.640625
7629		50.781250
7630		54.687500
7631		48.828125
7632		52.734375
7633		46.875000
7634		50.781250
7635		44.921875
7636		48.828125
7637		42.968750
7638		46.875000
7639		39.062500
7640		44.921875
7641		37.109375
7642		41.015625
7643		35.156250
7644		39.062500
7645		31.250000
7646		37.109375
7647		29.296875
7648		33.203125
7649		27.343750
7650		31.250000
7651		23.437500
7652		27.343750
7653		21.484375
7654		25.390625
7655		17.578125
7656		23.437500
7657		15.625000
7658		19.531250
7659		11.718750
7660		15.625000
7661		9.765625
7662		13.671875
7663		5.859375
7664		9.765625
7665		3.906250
7666		7.812500
7667		0.000000
7668		3.906250
7669		-1.953125
7670		1.953125
7671		-5.859375
7672		-1.953125
7673		-7.812500
7674		-3.906250
7675		-11.718750
7676		-7.812500
7677		-13.671875
7678		-9.765625
7679		-17.578125
7680		-13.671875
7681		-19.531250
7682		-15.625000
7683		-23.437500
7684		-17.578125
7685		-25.390625
7686		-21.484375
7687		-27.343750
7688		-23.437500
7689		-29.296875
7690		-25.390625
7691		-33.203125
7692		-29.296875
7693		-35.156250
7694		-31.250000
7695		-37.109375
7696		-33.203125
7697		-39.062500
7698		-35.156250
7699		-41.015625
7700		-37.109375
7701		-42.968750
7702		-39.062500
7703		-44.921875
7704		-41.015625
7705		-44.921875
7706		-42.968750
7707		-48.828125
7708		-42.968750
7709		-48.828125
7710		-42.968750
7711		-50.781250
7712		-44.921875
7713		-50.781250
7714		-44.921875
7715		-50.781250
7716		-46.875000
7717		-50.781250
7718		-48.828125
7719		-50.781250
7720		-48.828125
7721		-50.781250
7722		-48.828125
7723		-52.734375
7724		-48.828125
7725		-52.734375
7726		-46.875000
7727		-52.734375
7728		-48.828125
7729		-52.734375
7730		-46.875000
7731		-50.781250
7732		-48.828125
7733		-50.781250
7734		-44.921875
7735		-48.828125
7736		-46.875000
7737		-48.828125
7738		-44.921875
7739		-48.828125
7740		-44.921875
7741		-46.875000
7742		-42.968750
7743		-44.921875
7744		-41.015625
7745		-42.968750
7746		-39.062500
7747		-44.921875
7748		-39.062500
7749		-41.015625
7750		-33.203125
7751		-39.062500
7752		-35.156250
7753		-35.156250
7754		-31.250000
7755		-33.203125
7756		-29.296875
7757		-33.203125
7758		-27.343750
7759		-31.250000
7760		-25.390625
7761		-27.343750
7762		-23.437500
7763		-25.390625
7764		-19.531250
7765		-21.484375
7766		-17.578125
7767		-21.484375
7768		-13.671875
7769		-15.625000
7770		-11.718750
7771		-13.671875
7772		-7.812500
7773		-11.718750
7774		-3.906250
7775		-7.812500
7776		-1.953125
7777		-3.906250
7778		0.000000
7779		-1.953125
7780		3.906250
7781		0.000000
7782		5.859375
7783		1.953125
7784		9.765625
7785		7.812500
7786		11.718750
7787		9.765625
7788		13.671875
7789		11.718750
7790		19.531250
7791		13.671875
7792		21.484375
7793		19.531250
7794		23.437500
7795		21.484375
7796		27.343750
7797		21.484375
7798		31.250000
7799		25.390625
7800		33.203125
7801		29.296875
7802		35.156250
7803		33.203125
7804		37.109375
7805		35.156250
7806		41.015625
7807		37.109375
7808		44.921875
7809		39.062500
7810		44.921875
7811		42.968750
7812		46.875000
7813		42.968750
7814		52.734375
7815		42.968750
7816		52.734375
7817		46.875000
7818		54.687500
7819		50.781250
7820		54.687500
7821		52.734375
7822		58.593750
7823		54.687500
7824		62.500000
7825		52.734375
7826		62.500000
7827		56.640625
7828		62.500000
7829		60.546875
7830		64.453125
7831		58.593750
7832		68.359375
7833		60.546875
7834		68.359375
7835		62.500000
7836		66.406250
7837		64.453125
7838		68.359375
7839		64.453125
7840		70.312500
7841		62.500000
7842		72.265625
7843		64.453125
7844		70.312500
7845		66.406250
7846		70.312500
7847		64.453125
7848		74.218750
7849		64.453125
7850		74.218750
7851		64.453125
7852		74.218750
7853		68.359375
7854		70.312500
7855		66.406250
7856		70.312500
7857		62.500000
7858		72.265625
7859		66.406250
7860		70.312500
7861		66.406250
7862		68.359375
7863		64.453125
7864		68.359375
7865		60.546875
7866		70.312500
7867		60.546875
7868		68.359375
7869		62.500000
7870		64.453125
7871		60.546875
7872		64.453125
7873		56.640625
7874		64.453125
7875		54.687500
7876		64.453125
7877		56.640625
7878		60.546875
7879		54.687500
7880		58.593750
7881		48.828125
7882		58.593750
7883		44.921875
7884		54.687500
7885		48.828125
7886		52.734375
7887		46.875000
7888		50.781250
7889		42.968750
7890		46.875000
7891		39.062500
7892		46.875000
7893		37.109375
7894		42.968750
7895		37.109375
7896		41.015625
7897		31.250000
7898		39.062500
7899		29.296875
7900		39.062500
7901		25.390625
7902		35.156250
7903		25.390625
7904		29.296875
7905		23.437500
7906		27.343750
7907		17.578125
7908		25.390625
7909		15.625000
7910		25.390625
7911		13.671875
7912		19.531250
7913		11.718750
7914		15.625000
7915		5.859375
7916		15.625000
7917		1.953125
7918		11.718750
7919		1.953125
7920		5.859375
7921		-1.953125
7922		3.906250
7923		-3.906250
7924		0.000000
7925		-9.765625
7926		0.000000
7927		-9.765625
7928		-3.906250
7929		-13.671875
7930		-7.812500
7931		-17.578125
7932		-9.765625
7933		-19.531250
7934		-9.765625
7935		-21.484375
7936		-13.671875
7937		-23.437500
7938		-19.531250
7939		-27.343750
7940		-21.484375
7941		-31.250000
7942		-23.437500
7943		-33.203125
7944		-25.390625
7945		-33.203125
7946		-29.296875
7947		-37.109375
7948		-31.250000
7949		-41.015625
7950		-31.250000
7951		-41.015625
7952		-35.156250
7953		-41.015625
7954		-37.109375
7955		-42.968750
7956		-39.062500
7957		-44.921875
7958		-41.015625
7959		-48.828125
7960		-41.015625
7961		-48.828125
7962		-42.968750
7963		-48.828125
7964		-44.921875
7965		-52.734375
7966		-42.968750
7967		-52.734375
7968		-44.921875
7969		-52.734375
7970		-46.875000
7971		-50.781250
7972		-48.828125
7973		-52.734375
7974		-48.828125
7975		-54.687500
7976		-46.875000
7977		-54.687500
7978		-46.875000
7979		-52.734375
7980		-48.828125
7981		-52.734375
7982		-46.875000
7983		-50.781250
7984		-48.828125
7985		-52.734375
7986		-44.921875
7987		-50.781250
7988		-46.875000
7989		-48.828125
7990		-46.875000
7991		-48.828125
7992		-44.921875
7993		-48.828125
7994		-41.015625
7995		-46.875000
7996		-42.968750
7997		-44.921875
7998		-41.015625
7999		-44.921875
8000		-39.062500
8001		-41.015625
8002		-37.109375
8003		-39.062500
8004		-35.156250
8005		-37.109375
8006		-33.203125
8007		-35.156250
8008		-31.250000
8009		-33.203125
8010		-29.296875
8011		-33.203125
8012		-25.390625
8013		-29.296875
8014		-25.390625
8015		-27.343750
8016		-21.484375
8017		-23.437500
8018		-19.531250
8019		-21.484375
8020		-15.625000
8021		-17.578125
8022		-13.671875
8023		-15.625000
8024		-9.765625
8025		-11.718750
8026		-7.812500
8027		-9.765625
8028		-5.859375
8029		-7.812500
8030		-1.953125
8031		-3.906250
8032		0.000000
8033		-1.953125
8034		3.906250
8035		1.953125
8036		7.812500
8037		5.859375
8038		9.765625
8039		7.812500
8040		11.718750
8041		11.718750
8042		15.625000
8043		13.671875
8044		19.531250
8045		15.625000
8046		21.484375
8047		19.531250
8048		23.437500
8049		23.437500
8050		27.343750
8051		25.390625
8052		29.296875
8053		27.343750
8054		33.203125
8055		31.250000
8056		35.156250
8057		33.203125
8058		39.062500
8059		35.156250
8060		41.015625
8061		37.109375
8062		42.968750
8063		41.015625
8064		46.875000
8065		42.968750
8066		48.828125
8067		44.921875
8068		50.781250
8069		46.875000
8070		52.734375
8071		50.781250
8072		52.734375
8073		52.734375
8074		54.687500
8075		52.734375
8076		58.593750
8077		54.687500
8078		60.546875
8079		56.640625
8080		62.500000
8081		56.640625
8082		62.500000
8083		58.593750
8084		64.453125
8085		60.546875
8086		66.406250
8087		62.500000
8088		66.406250
8089		64.453125
8090		66.406250
8091		64.453125
8092		68.359375
8093		64.453125
8094		70.312500
8095		64.453125
8096		70.312500
8097		64.453125
8098		70.312500
8099		66.406250
8100		70.312500
8101		66.406250
8102		72.265625
8103		66.406250
8104		72.265625
8105		68.359375
8106		70.312500
8107		66.406250
8108		70.312500
8109		66.406250
8110		70.312500
8111		64.453125
8112		70.312500
8113		64.453125
8114		70.312500
8115		64.453125
8116		70.312500
8117		62.500000
8118		68.359375
8119		62.500000
8120		68.359375
8121		62.500000
8122		66.406250
8123		60.546875
8124		64.453125
8125		58.593750
8126		62.500000
8127		58.593750
8128		62.500000
8129		56.640625
8130		60.546875
8131		54.687500
8132		60.546875
8133		52.734375
8134		58.593750
8135		50.781250
8136		54.687500
8137		48.828125
8138		54.687500
8139		46.875000
8140		50.781250
8141		42.968750
8142		48.828125
8143		42.968750
8144		46.875000
8145		39.062500
8146		44.921875
8147		35.156250
8148		42.968750
8149		35.156250
8150		41.015625
8151		31.250000
8152		37.109375
8153		29.296875
8154		35.156250
8155		27.343750
8156		31.250000
8157		23.437500
8158		29.296875
8159		21.484375
8160		27.343750
8161		17.578125
8162		23.437500
8163		15.625000
8164		19.531250
8165		11.718750
8166		19.531250
8167		9.765625
8168		15.625000
8169		5.859375
8170		11.718750
8171		3.906250
8172		9.765625
8173		0.000000
8174		5.859375
8175		-1.953125
8176		1.953125
8177		-5.859375
8178		0.000000
8179		-7.812500
8180		-3.906250
8181		-13.671875
8182		-5.859375
8183		-13.671875
8184		-9.765625
8185		-17.578125
8186		-11.718750
8187		-19.531250
8188		-15.625000
8189		-23.437500
8190		-17.578125
8191		-25.390625
8192		-21.484375
8193		-29.296875
8194		-23.437500
8195		-29.296875
8196		-25.390625
8197		-35.156250
8198		-27.343750
8199		-35.156250
8200		-29.296875
8201		-37.109375
8202		-31.250000
8203		-39.062500
8204		-35.156250
8205		-41.015625
8206		-37.109375
8207		-42.968750
8208		-39.062500
8209		-44.921875
8210		-39.062500
8211		-44.921875
8212		-42.968750
8213		-46.875000
8214		-42.968750
8215		-48.828125
8216		-42.968750
8217		-48.828125
8218		-44.921875
8219		-50.781250
8220		-46.875000
8221		-50.781250
8222		-46.875000
8223		-50.781250
8224		-48.828125
8225		-52.734375
8226		-48.828125
8227		-52.734375
8228		-48.828125
8229		-52.734375
8230		-48.828125
8231		-52.734375
8232		-46.875000
8233		-52.734375
8234		-48.828125
8235		-52.734375
8236		-48.828125
8237		-52.734375
8238		-48.828125
8239		-50.781250
8240		-48.828125
8241		-50.781250
8242		-46.875000
8243		-50.781250
8244		-46.875000
8245		-48.828125
8246		-44.921875
8247		-46.875000
8248		-44.921875
8249		-46.875000
8250		-42.968750
8251		-44.921875
8252		-41.015625
8253		-42.968750
8254		-39.062500
8255		-42.968750
8256		-37.109375
8257		-39.062500
8258		-35.156250
8259		-37.109375
8260		-33.203125
8261		-35.156250
8262		-31.250000
8263		-33.203125
8264		-29.296875
8265		-31.250000
8266		-25.390625
8267		-27.343750
8268		-23.437500
8269		-25.390625
8270		-21.484375
8271		-23.437500
8272		-19.531250
8273		-19.531250
8274		-15.625000
8275		-17.578125
8276		-13.671875
8277		-15.625000
8278		-9.765625
8279		-11.718750
8280		-7.812500
8281		-9.765625
8282		-3.906250
8283		-5.859375
8284		-1.953125
8285		-3.906250
8286		1.953125
8287		0.000000
8288		5.859375
8289		1.953125
8290		7.812500
8291		5.859375
8292		9.765625
8293		7.812500
8294		13.671875
8295		11.718750
8296		15.625000
8297		13.671875
8298		19.531250
8299		15.625000
8300		21.484375
8301		19.531250
8302		25.390625
8303		23.437500
8304		27.343750
8305		25.390625
8306		31.250000
8307		29.296875
8308		33.203125
8309		31.250000
8310		37.109375
8311		33.203125
8312		39.062500
8313		37.109375
8314		41.015625
8315		39.062500
8316		42.968750
8317		41.015625
8318		46.875000
8319		42.968750
8320		48.828125
8321		46.875000
8322		50.781250
8323		48.828125
8324		52.734375
8325		50.781250
8326		54.687500
8327		52.734375
8328		56.640625
8329		52.734375
8330		58.593750
8331		56.640625
8332		60.546875
8333		56.640625
8334		60.546875
8335		58.593750
8336		62.500000
8337		60.546875
8338		64.453125
8339		60.546875
8340		64.453125
8341		62.500000
8342		66.406250
8343		62.500000
8344		66.406250
8345		64.453125
8346		68.359375
8347		66.406250
8348		68.359375
8349		66.406250
8350		68.359375
8351		66.406250
8352		68.359375
8353		66.406250
8354		70.312500
8355		66.406250
8356		70.312500
8357		68.359375
8358		70.312500
8359		66.406250
8360		70.312500
8361		66.406250
8362		70.312500
8363		66.406250
8364		70.312500
8365		66.406250
8366		68.359375
8367		64.453125
8368		68.359375
8369		64.453125
8370		68.359375
8371		62.500000
8372		66.406250
8373		62.500000
8374		66.406250
8375		62.500000
8376		64.453125
8377		58.593750
8378		64.453125
8379		58.593750
8380		62.500000
8381		56.640625
8382		60.546875
8383		54.687500
8384		58.593750
8385		54.687500
8386		58.593750
8387		52.734375
8388		56.640625
8389		50.781250
8390		54.687500
8391		48.828125
8392		50.781250
8393		44.921875
8394		50.781250
8395		42.968750
8396		46.875000
8397		41.015625
8398		44.921875
8399		39.062500
8400		42.968750
8401		37.109375
8402		41.015625
8403		33.203125
8404		39.062500
8405		31.250000
8406		35.156250
8407		27.343750
8408		33.203125
8409		25.390625
8410		29.296875
8411		23.437500
8412		27.343750
8413		19.531250
8414		25.390625
8415		17.578125
8416		21.484375
8417		13.671875
8418		19.531250
8419		11.718750
8420		15.625000
8421		7.812500
8422		13.671875
8423		5.859375
8424		9.765625
8425		1.953125
8426		5.859375
8427		-1.953125
8428		3.906250
8429		-3.906250
8430		0.000000
8431		-7.812500
8432		-1.953125
8433		-9.765625
8434		-5.859375
8435		-13.671875
8436		-7.812500
8437		-15.625000
8438		-11.718750
8439		-17.578125
8440		-13.671875
8441		-21.484375
8442		-17.578125
8443		-25.390625
8444		-19.531250
8445		-27.343750
8446		-21.484375
8447		-29.296875
8448		-25.390625
8449		-31.250000
8450		-27.343750
8451		-33.203125
8452		-29.296875
8453		-35.156250
8454		-31.250000
8455		-39.062500
8456		-33.203125
8457		-39.062500
8458		-35.156250
8459		-41.015625
8460		-39.062500
8461		-42.968750
8462		-39.062500
8463		-44.921875
8464		-41.015625
8465		-46.875000
8466		-42.968750
8467		-48.828125
8468		-44.921875
8469		-48.828125
8470		-44.921875
8471		-50.781250
8472		-46.875000
8473		-50.781250
8474		-46.875000
8475		-50.781250
8476		-48.828125
8477		-52.734375
8478		-48.828125
8479		-52.734375
8480		-48.828125
8481		-52.734375
8482		-48.828125
8483		-52.734375
8484		-50.781250
8485		-52.734375
8486		-48.828125
8487		-52.734375
8488		-48.828125
8489		-52.734375
8490		-48.828125
8491		-52.734375
8492		-48.828125
8493		-50.781250
8494		-48.828125
8495		-50.781250
8496		-46.875000
8497		-48.828125
8498		-46.875000
8499		-48.828125
8500		-44.921875
8501		-46.875000
8502		-42.968750
8503		-46.875000
8504		-42.968750
8505		-44.921875
8506		-41.015625
8507		-42.968750
8508		-39.062500
8509		-41.015625
8510		-37.109375
8511		-39.062500
8512		-35.156250
8513		-37.109375
8514		-33.203125
8515		-35.156250
8516		-29.296875
8517		-33.203125
8518		-27.343750
8519		-29.296875
8520		-25.390625
8521		-27.343750
8522		-23.437500
8523		-25.390625
8524		-21.484375
8525		-21.484375
8526		-17.578125
8527		-19.531250
8528		-13.671875
8529		-17.578125
8530		-11.718750
8531		-15.625000
8532		-7.812500
8533		-11.718750
8534		-7.812500
8535		-9.765625
8536		-3.906250
8537		-5.859375
8538		0.000000
8539		-1.953125
8540		1.953125
8541		0.000000
8542		3.906250
8543		3.906250
8544		7.812500
8545		5.859375
8546		9.765625
8547		9.765625
8548		13.671875
8549		11.718750
8550		17.578125
8551		15.625000
8552		19.531250
8553		17.578125
8554		23.437500
8555		21.484375
8556		25.390625
8557		23.437500
8558		27.343750
8559		27.343750
8560		31.250000
8561		29.296875
8562		35.156250
8563		31.250000
8564		37.109375
8565		35.156250
8566		39.062500
8567		37.109375
8568		42.968750
8569		39.062500
8570		44.921875
8571		42.968750
8572		46.875000
8573		42.968750
8574		48.828125
8575		46.875000
8576		50.781250
8577		48.828125
8578		52.734375
8579		48.828125
8580		54.687500
8581		52.734375
8582		56.640625
8583		52.734375
8584		58.593750
8585		56.640625
8586		60.546875
8587		56.640625
8588		60.546875
8589		58.593750
8590		62.500000
8591		58.593750
8592		64.453125
8593		60.546875
8594		64.453125
8595		62.500000
8596		66.406250
8597		64.453125
8598		66.406250
8599		64.453125
8600		68.359375
8601		64.453125
8602		68.359375
8603		66.406250
8604		68.359375
8605		66.406250
8606		70.312500
8607		66.406250
8608		70.312500
8609		66.406250
8610		70.312500
8611		66.406250
8612		70.312500
8613		66.406250
8614		70.312500
8615		66.406250
8616		70.312500
8617		66.406250
8618		68.359375
8619		66.406250
8620		68.359375
8621		64.453125
8622		68.359375
8623		62.500000
8624		66.406250
8625		62.500000
8626		66.406250
8627		62.500000
8628		64.453125
8629		60.546875
8630		64.453125
8631		58.593750
8632		62.500000
8633		58.593750
8634		60.546875
8635		56.640625
8636		60.546875
8637		54.687500
8638		58.593750
8639		52.734375
8640		56.640625
8641		50.781250
8642		54.687500
8643		48.828125
8644		52.734375
8645		46.875000
8646		50.781250
8647		44.921875
8648		48.828125
8649		42.968750
8650		46.875000
8651		41.015625
8652		44.921875
8653		37.109375
8654		42.968750
8655		35.156250
8656		39.062500
8657		31.250000
8658		37.109375
8659		29.296875
8660		35.156250
8661		27.343750
8662		31.250000
8663		23.437500
8664		29.296875
8665		21.484375
8666		25.390625
8667		17.578125
8668		23.437500
8669		15.625000
8670		19.531250
8671		11.718750
8672		17.578125
8673		9.765625
8674		13.671875
8675		5.859375
8676		11.718750
8677		1.953125
8678		7.812500
8679		0.000000
8680		5.859375
8681		-1.953125
8682		1.953125
8683		-5.859375
8684		0.000000
8685		-7.812500
8686		-3.906250
8687		-11.718750
8688		-5.859375
8689		-15.625000
8690		-9.765625
8691		-17.578125
8692		-11.718750
8693		-19.531250
8694		-15.625000
8695		-21.484375
8696		-17.578125
8697		-25.390625
8698		-19.531250
8699		-27.343750
8700		-23.437500
8701		-29.296875
8702		-25.390625
8703		-33.203125
8704		-27.343750
8705		-35.156250
8706		-31.250000
8707		-37.109375
8708		-33.203125
8709		-39.062500
8710		-35.156250
8711		-41.015625
8712		-37.109375
8713		-42.968750
8714		-39.062500
8715		-44.921875
8716		-41.015625
8717		-44.921875
8718		-42.968750
8719		-46.875000
8720		-42.968750
8721		-48.828125
8722		-44.921875
8723		-48.828125
8724		-46.875000
8725		-50.781250
8726		-46.875000
8727		-50.781250
8728		-48.828125
8729		-52.734375
8730		-48.828125
8731		-52.734375
8732		-48.828125
8733		-52.734375
8734		-48.828125
8735		-54.687500
8736		-48.828125
8737		-52.734375
8738		-50.781250
8739		-52.734375
8740		-50.781250
8741		-52.734375
8742		-48.828125
8743		-52.734375
8744		-48.828125
8745		-52.734375
8746		-48.828125
8747		-50.781250
8748		-46.875000
8749		-50.781250
8750		-46.875000
8751		-48.828125
8752		-44.921875
8753		-48.828125
8754		-44.921875
8755		-46.875000
8756		-42.968750
8757		-44.921875
8758		-41.015625
8759		-42.968750
8760		-41.015625
8761		-42.968750
8762		-39.062500
8763		-41.015625
8764		-35.156250
8765		-39.062500
8766		-35.156250
8767		-37.109375
8768		-31.250000
8769		-35.156250
8770		-29.296875
8771		-31.250000
8772		-27.343750
8773		-29.296875
8774		-25.390625
8775		-27.343750
8776		-23.437500
8777		-25.390625
8778		-19.531250
8779		-21.484375
8780		-17.578125
8781		-19.531250
8782		-13.671875
8783		-15.625000
8784		-11.718750
8785		-13.671875
8786		-9.765625
8787		-9.765625
8788		-5.859375
8789		-7.812500
8790		-3.906250
8791		-5.859375
8792		0.000000
8793		-3.906250
8794		1.953125
8795		1.953125
8796		5.859375
8797		3.906250
8798		9.765625
8799		7.812500
8800		11.718750
8801		9.765625
8802		15.625000
8803		13.671875
8804		17.578125
8805		15.625000
8806		19.531250
8807		17.578125
8808		23.437500
8809		21.484375
8810		25.390625
8811		25.390625
8812		29.296875
8813		27.343750
8814		33.203125
8815		29.296875
8816		35.156250
8817		33.203125
8818		37.109375
8819		35.156250
8820		39.062500
8821		37.109375
8822		42.968750
8823		41.015625
8824		44.921875
8825		42.968750
8826		46.875000
8827		44.921875
8828		48.828125
8829		46.875000
8830		50.781250
8831		48.828125
8832		52.734375
8833		50.781250
8834		54.687500
8835		52.734375
8836		56.640625
8837		54.687500
8838		58.593750
8839		56.640625
8840		60.546875
8841		58.593750
8842		60.546875
8843		58.593750
8844		62.500000
8845		60.546875
8846		64.453125
8847		60.546875
8848		66.406250
8849		62.500000
8850		66.406250
8851		64.453125
8852		68.359375
8853		64.453125
8854		68.359375
8855		64.453125
8856		68.359375
8857		64.453125
8858		68.359375
8859		66.406250
8860		70.312500
8861		66.406250
8862		68.359375
8863		66.406250
8864		68.359375
8865		66.406250
8866		70.312500
8867		66.406250
8868		70.312500
8869		66.406250
8870		70.312500
8871		66.406250
8872		68.359375
8873		64.453125
8874		68.359375
8875		64.453125
8876		66.406250
8877		64.453125
8878		68.359375
8879		62.500000
8880		66.406250
8881		60.546875
8882		64.453125
8883		60.546875
8884		64.453125
8885		58.593750
8886		62.500000
8887		56.640625
8888		60.546875
8889		56.640625
8890		58.593750
8891		54.687500
8892		58.593750
8893		50.781250
8894		56.640625
8895		50.781250
8896		54.687500
8897		48.828125
8898		52.734375
8899		46.875000
8900		50.781250
8901		44.921875
8902		48.828125
8903		41.015625
8904		44.921875
8905		39.062500
8906		42.968750
8907		37.109375
8908		41.015625
8909		33.203125
8910		39.062500
8911		31.250000
8912		35.156250
8913		29.296875
8914		33.203125
8915		25.390625
8916		31.250000
8917		23.437500
8918		27.343750
8919		19.531250
8920		25.390625
8921		17.578125
8922		21.484375
8923		13.671875
8924		19.531250
8925		11.718750
8926		15.625000
8927		7.812500
8928		13.671875
8929		5.859375
8930		9.765625
8931		1.953125
8932		7.812500
8933		0.000000
8934		3.906250
8935		-3.906250
8936		1.953125
8937		-5.859375
8938		-1.953125
8939		-9.765625
8940		-3.906250
8941		-11.718750
8942		-7.812500
8943		-15.625000
8944		-9.765625
8945		-17.578125
8946		-13.671875
8947		-21.484375
8948		-15.625000
8949		-23.437500
8950		-17.578125
8951		-25.390625
8952		-21.484375
8953		-29.296875
8954		-23.437500
8955		-31.250000
8956		-27.343750
8957		-33.203125
8958		-29.296875
8959		-35.156250
8960		-31.250000
8961		-37.109375
8962		-33.203125
8963		-39.062500
8964		-35.156250
8965		-41.015625
8966		-37.109375
8967		-42.968750
8968		-39.062500
8969		-44.921875
8970		-41.015625
8971		-46.875000
8972		-42.968750
8973		-46.875000
8974		-44.921875
8975		-48.828125
8976		-44.921875
8977		-50.781250
8978		-46.875000
8979		-50.781250
8980		-48.828125
8981		-52.734375
8982		-48.828125
8983		-52.734375
8984		-48.828125
8985		-52.734375
8986		-48.828125
8987		-52.734375
8988		-50.781250
8989		-52.734375
8990		-50.781250
8991		-52.734375
8992		-50.781250
8993		-52.734375
8994		-48.828125
8995		-52.734375
8996		-50.781250
8997		-52.734375
8998		-48.828125
8999		-52.734375
9000		-48.828125
9001		-50.781250
9002		-46.875000
9003		-50.781250
9004		-46.875000
9005		-48.828125
9006		-44.921875
9007		-48.828125
9008		-44.921875
9009		-46.875000
9010		-42.968750
9011		-44.921875
9012		-41.015625
9013		-42.968750
9014		-39.062500
9015		-41.015625
9016		-37.109375
9017		-39.062500
9018		-35.156250
9019		-37.109375
9020		-33.203125
9021		-35.156250
9022		-31.250000
9023		-33.203125
9024		-29.296875
9025		-31.250000
9026		-27.343750
9027		-29.296875
9028		-23.437500
9029		-25.390625
9030		-21.484375
9031		-23.437500
9032		-19.531250
9033		-21.484375
9034		-15.625000
9035		-17.578125
9036		-13.671875
9037		-15.625000
9038		-9.765625
9039		-13.671875
9040		-7.812500
9041		-9.765625
9042		-5.859375
9043		-7.812500
9044		-1.953125
9045		-3.906250
9046		1.953125
9047		0.000000
9048		3.906250
9049		1.953125
9050		7.812500
9051		5.859375
9052		9.765625
9053		7.812500
9054		13.671875
9055		9.765625
9056		15.625000
9057		13.671875
9058		19.531250
9059		17.578125
9060		21.484375
9061		19.531250
9062		23.437500
9063		23.437500
9064		27.343750
9065		25.390625
9066		31.250000
9067		27.343750
9068		33.203125
9069		31.250000
9070		35.156250
9071		33.203125
9072		39.062500
9073		35.156250
9074		41.015625
9075		37.109375
9076		42.968750
9077		41.015625
9078		44.921875
9079		42.968750
9080		46.875000
9081		46.875000
9082		50.781250
9083		48.828125
9084		50.781250
9085		48.828125
9086		54.687500
9087		52.734375
9088		56.640625
9089		52.734375
9090		56.640625
9091		54.687500
9092		60.546875
9093		56.640625
9094		60.546875
9095		56.640625
9096		62.500000
9097		60.546875
9098		62.500000
9099		60.546875
9100		64.453125
9101		62.500000
9102		66.406250
9103		62.500000
9104		66.406250
9105		64.453125
9106		66.406250
9107		64.453125
9108		68.359375
9109		64.453125
9110		68.359375
9111		66.406250
9112		70.312500
9113		66.406250
9114		68.359375
9115		66.406250
9116		68.359375
9117		66.406250
9118		70.312500
9119		66.406250
9120		70.312500
9121		66.406250
9122		68.359375
9123		66.406250
9124		68.359375
9125		64.453125
9126		68.359375
9127		64.453125
9128		68.359375
9129		64.453125
9130		68.359375
9131		62.500000
9132		66.406250
9133		60.546875
9134		66.406250
9135		60.546875
9136		64.453125
9137		60.546875
9138		62.500000
9139		58.593750
9140		62.500000
9141		56.640625
9142		60.546875
9143		54.687500
9144		58.593750
9145		52.734375
9146		56.640625
9147		52.734375
9148		54.687500
9149		48.828125
9150		52.734375
9151		46.875000
9152		52.734375
9153		44.921875
9154		48.828125
9155		42.968750
9156		46.875000
9157		41.015625
9158		44.921875
9159		37.109375
9160		42.968750
9161		35.156250
9162		41.015625
9163		33.203125
9164		37.109375
9165		31.250000
9166		35.156250
9167		27.343750
9168		33.203125
9169		25.390625
9170		29.296875
9171		21.484375
9172		27.343750
9173		19.531250
9174		23.437500
9175		15.625000
9176		21.484375
9177		13.671875
9178		17.578125
9179		9.765625
9180		15.625000
9181		7.812500
9182		11.718750
9183		3.906250
9184		9.765625
9185		0.000000
9186		5.859375
9187		-1.953125
9188		3.906250
9189		-3.906250
9190		0.000000
9191		-7.812500
9192		-1.953125
9193		-9.765625
9194		-5.859375
9195		-13.671875
9196		-7.812500
9197		-15.625000
9198		-11.718750
9199		-19.531250
9200		-13.671875
9201		-21.484375
9202		-15.625000
9203		-23.437500
9204		-19.531250
9205		-27.343750
9206		-21.484375
9207		-29.296875
9208		-25.390625
9209		-31.250000
9210		-27.343750
9211		-35.156250
9212		-29.296875
9213		-35.156250
9214		-31.250000
9215		-39.062500
9216		-35.156250
9217		-41.015625
9218		-37.109375
9219		-42.968750
9220		-39.062500
9221		-44.921875
9222		-39.062500
9223		-46.875000
9224		-41.015625
9225		-46.875000
9226		-42.968750
9227		-48.828125
9228		-44.921875
9229		-50.781250
9230		-46.875000
9231		-50.781250
9232		-46.875000
9233		-50.781250
9234		-48.828125
9235		-52.734375
9236		-48.828125
9237		-52.734375
9238		-48.828125
9239		-52.734375
9240		-48.828125
9241		-54.687500
9242		-48.828125
9243		-52.734375
9244		-50.781250
9245		-54.687500
9246		-50.781250
9247		-52.734375
9248		-50.781250
9249		-52.734375
9250		-50.781250
9251		-52.734375
9252		-48.828125
9253		-52.734375
9254		-48.828125
9255		-50.781250
9256		-46.875000
9257		-50.781250
9258		-46.875000
9259		-48.828125
9260		-44.921875
9261		-46.875000
9262		-42.968750
9263		-46.875000
9264		-42.968750
9265		-44.921875
9266		-41.015625
9267		-42.968750
9268		-39.062500
9269		-41.015625
9270		-37.109375
9271		-39.062500
9272		-35.156250
9273		-37.109375
9274		-33.203125
9275		-35.156250
9276		-29.296875
9277		-33.203125
9278		-29.296875
9279		-31.250000
9280		-25.390625
9281		-27.343750
9282		-23.437500
9283		-25.390625
9284		-21.484375
9285		-23.437500
9286		-17.578125
9287		-19.531250
9288		-15.625000
9289		-17.578125
9290		-11.718750
9291		-13.671875
9292		-9.765625
9293		-11.718750
9294		-7.812500
9295		-7.812500
9296		-3.906250
9297		-5.859375
9298		-1.953125
9299		-1.953125
9300		1.953125
9301		0.000000
9302		5.859375
9303		3.906250
9304		7.812500
9305		5.859375
9306		11.718750
9307		9.765625
9308		13.671875
9309		11.718750
9310		17.578125
9311		15.625000
9312		19.531250
9313		17.578125
9314		23.437500
9315		21.484375
9316		25.390625
9317		23.437500
9318		27.343750
9319		25.390625
9320		31.250000
9321		29.296875
9322		33.203125
9323		31.250000
9324		35.156250
9325		35.156250
9326		39.062500
9327		37.109375
9328		42.968750
9329		39.062500
9330		44.921875
9331		42.968750
9332		46.875000
9333		44.921875
9334		48.828125
9335		46.875000
9336		50.781250
9337		48.828125
9338		52.734375
9339		50.781250
9340		54.687500
9341		52.734375
9342		56.640625
9343		54.687500
9344		58.593750
9345		56.640625
9346		60.546875
9347		56.640625
9348		60.546875
9349		58.593750
9350		62.500000
9351		60.546875
9352		64.453125
9353		60.546875
9354		64.453125
9355		62.500000
9356		66.406250
9357		62.500000
9358		66.406250
9359		64.453125
9360		68.359375
9361		64.453125
9362		68.359375
9363		64.453125
9364		70.312500
9365		66.406250
9366		68.359375
9367		66.406250
9368		68.359375
9369		66.406250
9370		70.312500
9371		66.406250
9372		70.312500
9373		66.406250
9374		70.312500
9375		66.406250
9376		68.359375
9377		64.453125
9378		68.359375
9379		64.453125
9380		68.359375
9381		64.453125
9382		68.359375
9383		64.453125
9384		66.406250
9385		62.500000
9386		66.406250
9387		60.546875
9388		64.453125
9389		60.546875
9390		64.453125
9391		58.593750
9392		62.500000
9393		56.640625
9394		60.546875
9395		54.687500
9396		60.546875
9397		54.687500
9398		58.593750
9399		52.734375
9400		56.640625
9401		50.781250
9402		54.687500
9403		48.828125
9404		54.687500
9405		46.875000
9406		50.781250
9407		44.921875
9408		48.828125
9409		41.015625
9410		46.875000
9411		39.062500
9412		44.921875
9413		37.109375
9414		42.968750
9415		35.156250
9416		39.062500
9417		31.250000
9418		37.109375
9419		29.296875
9420		35.156250
9421		25.390625
9422		31.250000
9423		23.437500
9424		27.343750
9425		19.531250
9426		25.390625
9427		17.578125
9428		21.484375
9429		15.625000
9430		21.484375
9431		11.718750
9432		17.578125
9433		9.765625
9434		13.671875
9435		5.859375
9436		9.765625
9437		1.953125
9438		7.812500
9439		0.000000
9440		3.906250
9441		-3.906250
9442		1.953125
9443		-5.859375
9444		0.000000
9445		-9.765625
9446		-3.906250
9447		-13.671875
9448		-7.812500
9449		-13.671875
9450		-9.765625
9451		-17.578125
9452		-13.671875
9453		-21.484375
9454		-15.625000
9455		-23.437500
9456		-17.578125
9457		-25.390625
9458		-21.484375
9459		-27.343750
9460		-23.437500
9461		-31.250000
9462		-25.390625
9463		-33.203125
9464		-27.343750
9465		-35.156250
9466		-31.250000
9467		-37.109375
9468		-33.203125
9469		-39.062500
9470		-35.156250
9471		-41.015625
9472		-37.109375
9473		-42.968750
9474		-39.062500
9475		-44.921875
9476		-41.015625
9477		-46.875000
9478		-42.968750
9479		-46.875000
9480		-44.921875
9481		-50.781250
9482		-44.921875
9483		-50.781250
9484		-46.875000
9485		-50.781250
9486		-48.828125
9487		-52.734375
9488		-48.828125
9489		-52.734375
9490		-48.828125
9491		-52.734375
9492		-50.781250
9493		-52.734375
9494		-50.781250
9495		-52.734375
9496		-50.781250
9497		-54.687500
9498		-50.781250
9499		-54.687500
9500		-50.781250
9501		-52.734375
9502		-50.781250
9503		-52.734375
9504		-48.828125
9505		-52.734375
9506		-48.828125
9507		-50.781250
9508		-46.875000
9509		-50.781250
9510		-46.875000
9511		-48.828125
9512		-46.875000
9513		-48.828125
9514		-44.921875
9515		-46.875000
9516		-42.968750
9517		-44.921875
9518		-42.968750
9519		-42.968750
9520		-39.062500
9521		-42.968750
9522		-37.109375
9523		-41.015625
9524		-37.109375
9525		-39.062500
9526		-35.156250
9527		-37.109375
9528		-33.203125
9529		-35.156250
9530		-29.296875
9531		-31.250000
9532		-27.343750
9533		-29.296875
9534		-25.390625
9535		-27.343750
9536		-23.437500
9537		-25.390625
9538		-19.531250
9539		-21.484375
9540		-17.578125
9541		-19.531250
9542		-13.671875
9543		-15.625000
9544		-11.718750
9545		-13.671875
9546		-9.765625
9547		-11.718750
9548		-5.859375
9549		-7.812500
9550		-3.906250
9551		-5.859375
9552		0.000000
9553		-1.953125
9554		3.906250
9555		0.000000
9556		5.859375
9557		3.906250
9558		9.765625
9559		7.812500
9560		11.718750
9561		9.765625
9562		15.625000
9563		13.671875
9564		17.578125
9565		15.625000
9566		21.484375
9567		19.531250
9568		23.437500
9569		21.484375
9570		25.390625
9571		23.437500
9572		29.296875
9573		27.343750
9574		31.250000
9575		29.296875
9576		35.156250
9577		31.250000
9578		37.109375
9579		35.156250
9580		39.062500
9581		37.109375
9582		42.968750
9583		39.062500
9584		44.921875
9585		42.968750
9586		46.875000
9587		44.921875
9588		48.828125
9589		46.875000
9590		50.781250
9591		48.828125
9592		52.734375
9593		50.781250
9594		54.687500
9595		52.734375
9596		56.640625
9597		54.687500
9598		58.593750
9599		56.640625
9600		60.546875
9601		58.593750
9602		60.546875
9603		58.593750
9604		64.453125
9605		60.546875
9606		64.453125
9607		60.546875
9608		64.453125
9609		62.500000
9610		66.406250
9611		64.453125
9612		66.406250
9613		64.453125
9614		68.359375
9615		64.453125
9616		68.359375
9617		66.406250
9618		68.359375
9619		66.406250
9620		68.359375
9621		64.453125
9622		70.312500
9623		66.406250
9624		70.312500
9625		66.406250
9626		68.359375
9627		66.406250
9628		68.359375
9629		64.453125
9630		68.359375
9631		64.453125
9632		68.359375
9633		64.453125
9634		68.359375
9635		64.453125
9636		66.406250
9637		62.500000
9638		66.406250
9639		60.546875
9640		66.406250
9641		60.546875
9642		64.453125
9643		60.546875
9644		62.500000
9645		58.593750
9646		62.500000
9647		56.640625
9648		60.546875
9649		54.687500
9650		58.593750
9651		52.734375
9652		56.640625
9653		52.734375
9654		54.687500
9655		48.828125
9656		54.687500
9657		46.875000
9658		52.734375
9659		44.921875
9660		48.828125
9661		42.968750
9662		46.875000
9663		41.015625
9664		44.921875
9665		37.109375
9666		42.968750
9667		35.156250
9668		41.015625
9669		33.203125
9670		39.062500
9671		31.250000
9672		35.156250
9673		27.343750
9674		33.203125
9675		25.390625
9676		29.296875
9677		23.437500
9678		27.343750
9679		19.531250
9680		23.437500
9681		15.625000
9682		21.484375
9683		13.671875
9684		17.578125
9685		9.765625
9686		15.625000
9687		7.812500
9688		11.718750
9689		3.906250
9690		9.765625
9691		1.953125
9692		5.859375
9693		-1.953125
9694		3.906250
9695		-3.906250
9696		0.000000
9697		-7.812500
9698		-1.953125
9699		-11.718750
9700		-5.859375
9701		-11.718750
9702		-7.812500
9703		-15.625000
9704		-11.718750
9705		-19.531250
9706		-13.671875
9707		-21.484375
9708		-15.625000
9709		-25.390625
9710		-19.531250
9711		-27.343750
9712		-21.484375
9713		-29.296875
9714		-25.390625
9715		-31.250000
9716		-27.343750
9717		-33.203125
9718		-29.296875
9719		-37.109375
9720		-31.250000
9721		-39.062500
9722		-35.156250
9723		-41.015625
9724		-35.156250
9725		-42.968750
9726		-39.062500
9727		-42.968750
9728		-41.015625
9729		-44.921875
9730		-41.015625
9731		-46.875000
9732		-42.968750
9733		-48.828125
9734		-44.921875
9735		-48.828125
9736		-46.875000
9737		-50.781250
9738		-46.875000
9739		-50.781250
9740		-48.828125
9741		-52.734375
9742		-48.828125
9743		-52.734375
9744		-50.781250
9745		-52.734375
9746		-50.781250
9747		-52.734375
9748		-50.781250
9749		-52.734375
9750		-50.781250
9751		-54.687500
9752		-50.781250
9753		-52.734375
9754		-50.781250
9755		-52.734375
9756		-48.828125
9757		-52.734375
9758		-50.781250
9759		-52.734375
9760		-48.828125
9761		-50.781250
9762		-46.875000
9763		-50.781250
9764		-46.875000
9765		-48.828125
9766		-44.921875
9767		-48.828125
9768		-44.921875
9769		-46.875000
9770		-42.968750
9771		-44.921875
9772		-41.015625
9773		-42.968750
9774		-39.062500
9775		-42.968750
9776		-39.062500
9777		-41.015625
9778		-35.156250
9779		-39.062500
9780		-35.156250
9781		-35.156250
9782		-31.250000
9783		-33.203125
9784		-27.343750
9785		-31.250000
9786		-27.343750
9787		-29.296875
9788		-25.390625
9789		-27.343750
9790		-21.484375
9791		-23.437500
9792		-19.531250
9793		-21.484375
9794		-17.578125
9795		-19.531250
9796		-13.671875
9797		-15.625000
9798		-9.765625
9799		-13.671875
9800		-7.812500
9801		-9.765625
9802		-5.859375
9803		-7.812500
9804		-1.953125
9805		-3.906250
9806		1.953125
9807		-1.953125
9808		3.906250
9809		1.953125
9810		7.812500
9811		3.906250
9812		9.765625
9813		7.812500
9814		13.671875
9815		11.718750
9816		15.625000
9817		13.671875
9818		19.531250
9819		17.578125
9820		21.484375
9821		19.531250
9822		23.437500
9823		21.484375
9824		27.343750
9825		25.390625
9826		29.296875
9827		27.343750
9828		33.203125
9829		31.250000
9830		35.156250
9831		33.203125
9832		39.062500
9833		35.156250
9834		41.015625
9835		37.109375
9836		42.968750
9837		41.015625
9838		44.921875
9839		42.968750
9840		48.828125
9841		44.921875
9842		48.828125
9843		46.875000
9844		52.734375
9845		50.781250
9846		54.687500
9847		50.781250
9848		54.687500
9849		52.734375
9850		56.640625
9851		54.687500
9852		58.593750
9853		56.640625
9854		60.546875
9855		58.593750
9856		60.546875
9857		58.593750
9858		62.500000
9859		60.546875
9860		64.453125
9861		60.546875
9862		66.406250
9863		62.500000
9864		66.406250
9865		64.453125
9866		68.359375
9867		64.453125
9868		68.359375
9869		66.406250
9870		68.359375
9871		66.406250
9872		68.359375
9873		64.453125
9874		68.359375
9875		66.406250
9876		68.359375
9877		66.406250
9878		68.359375
9879		66.406250
9880		68.359375
9881		66.406250
9882		68.359375
9883		64.453125
9884		68.359375
9885		64.453125
9886		68.359375
9887		64.453125
9888		66.406250
9889		62.500000
9890		66.406250
9891		62.500000
9892		66.406250
9893		60.546875
9894		64.453125
9895		60.546875
9896		64.453125
9897		58.593750
9898		62.500000
9899		58.593750
9900		60.546875
9901		54.687500
9902		60.546875
9903		54.687500
9904		58.593750
9905		52.734375
9906		56.640625
9907		50.781250
9908		54.687500
9909		48.828125
9910		52.734375
9911		46.875000
9912		50.781250
9913		44.921875
9914		48.828125
9915		42.968750
9916		46.875000
9917		39.062500
9918		44.921875
9919		37.109375
9920		42.968750
9921		35.156250
9922		39.062500
9923		33.203125
9924		37.109375
9925		29.296875
9926		33.203125
9927		27.343750
9928		31.250000
9929		23.437500
9930		29.296875
9931		21.484375
9932		27.343750
9933		17.578125
9934		23.437500
9935		15.625000
9936		19.531250
9937		11.718750
9938		17.578125
9939		9.765625
9940		13.671875
9941		5.859375
9942		11.718750
9943		3.906250
9944		7.812500
9945		0.000000
9946		5.859375
9947		-3.906250
9948		1.953125
9949		-5.859375
9950		0.000000
9951		-7.812500
9952		-3.906250
9953		-11.718750
9954		-5.859375
9955		-13.671875
9956		-9.765625
9957		-17.578125
9958		-11.718750
9959		-21.484375
9960		-13.671875
9961		-21.484375
9962		-17.578125
9963		-25.390625
9964		-19.531250
9965		-27.343750
9966		-23.437500
9967		-29.296875
9968		-25.390625
9969		-33.203125
9970		-27.343750
9971		-35.156250
9972		-31.250000
9973		-39.062500
9974		-33.203125
9975		-39.062500
9976		-35.156250
9977		-41.015625
9978		-37.109375
9979		-42.968750
9980		-39.062500
9981		-44.921875
9982		-41.015625
9983		-46.875000
9984		-42.968750
9985		-48.828125
9986		-44.921875
9987		-48.828125
9988		-44.921875
9989		-50.781250
9990		-46.875000
9991		-50.781250
9992		-48.828125
9993		-52.734375
9994		-48.828125
9995		-52.734375
9996		-48.828125
9997		-52.734375
9998		-50.781250
9999		-52.734375
10000		-50.781250
