Channel              :		CH1
Frequency            :		1.973kHz
Period               :		0.507ms
PK-PK                :		158.2mV
Probe attenuation    :		1X
Voltage per ADC value:		0.122070mV
Time interval        :		2.00000us

index		CH1_Voltage(mV)
1		82.031250
2		82.031250
3		78.125000
4		82.031250
5		78.125000
6		82.031250
7		78.125000
8		80.078125
9		76.171875
10		80.078125
11		74.218750
12		78.125000
13		72.265625
14		76.171875
15		72.265625
16		76.171875
17		70.312500
18		74.218750
19		68.359375
20		72.265625
21		66.406250
22		70.312500
23		64.453125
24		68.359375
25		62.500000
26		66.406250
27		60.546875
28		64.453125
29		58.593750
30		60.546875
31		54.687500
32		58.593750
33		52.734375
34		56.640625
35		48.828125
36		52.734375
37		46.875000
38		50.781250
39		42.968750
40		48.828125
41		41.015625
42		44.921875
43		37.109375
44		42.968750
45		33.203125
46		39.062500
47		29.296875
48		35.156250
49		27.343750
50		31.250000
51		23.437500
52		29.296875
53		19.531250
54		23.437500
55		15.625000
56		21.484375
57		11.718750
58		17.578125
59		7.812500
60		13.671875
61		3.906250
62		9.765625
63		0.000000
64		5.859375
65		-1.953125
66		3.906250
67		-5.859375
68		-1.953125
69		-9.765625
70		-3.906250
71		-13.671875
72		-7.812500
73		-17.578125
74		-11.718750
75		-21.484375
76		-15.625000
77		-23.437500
78		-17.578125
79		-27.343750
80		-23.437500
81		-31.250000
82		-25.390625
83		-33.203125
84		-29.296875
85		-37.109375
86		-33.203125
87		-41.015625
88		-35.156250
89		-42.968750
90		-39.062500
91		-44.921875
92		-41.015625
93		-48.828125
94		-44.921875
95		-50.781250
96		-46.875000
97		-54.687500
98		-48.828125
99		-56.640625
100		-50.781250
101		-56.640625
102		-54.687500
103		-58.593750
104		-56.640625
105		-60.546875
106		-58.593750
107		-62.500000
108		-58.593750
109		-64.453125
110		-60.546875
111		-64.453125
112		-62.500000
113		-66.406250
114		-64.453125
115		-68.359375
116		-62.500000
117		-68.359375
118		-64.453125
119		-68.359375
120		-64.453125
121		-68.359375
122		-66.406250
123		-68.359375
124		-66.406250
125		-68.359375
126		-64.453125
127		-68.359375
128		-64.453125
129		-66.406250
130		-64.453125
131		-66.406250
132		-64.453125
133		-66.406250
134		-62.500000
135		-64.453125
136		-60.546875
137		-62.500000
138		-60.546875
139		-62.500000
140		-58.593750
141		-60.546875
142		-56.640625
143		-58.593750
144		-54.687500
145		-56.640625
146		-52.734375
147		-54.687500
148		-50.781250
149		-52.734375
150		-48.828125
151		-50.781250
152		-44.921875
153		-46.875000
154		-42.968750
155		-44.921875
156		-39.062500
157		-41.015625
158		-37.109375
159		-39.062500
160		-35.156250
161		-35.156250
162		-31.250000
163		-33.203125
164		-27.343750
165		-29.296875
166		-23.437500
167		-25.390625
168		-19.531250
169		-21.484375
170		-17.578125
171		-19.531250
172		-13.671875
173		-15.625000
174		-9.765625
175		-11.718750
176		-5.859375
177		-7.812500
178		-3.906250
179		-3.906250
180		0.000000
181		0.000000
182		5.859375
183		1.953125
184		7.812500
185		5.859375
186		11.718750
187		9.765625
188		15.625000
189		13.671875
190		19.531250
191		15.625000
192		23.437500
193		21.484375
194		27.343750
195		25.390625
196		29.296875
197		27.343750
198		33.203125
199		31.250000
200		37.109375
201		35.156250
202		39.062500
203		37.109375
204		42.968750
205		41.015625
206		44.921875
207		44.921875
208		48.828125
209		46.875000
210		50.781250
211		50.781250
212		54.687500
213		52.734375
214		56.640625
215		56.640625
216		60.546875
217		58.593750
218		62.500000
219		60.546875
220		64.453125
221		62.500000
222		66.406250
223		64.453125
224		68.359375
225		66.406250
226		70.312500
227		68.359375
228		74.218750
229		70.312500
230		74.218750
231		72.265625
232		76.171875
233		72.265625
234		76.171875
235		74.218750
236		78.125000
237		76.171875
238		80.078125
239		76.171875
240		80.078125
241		78.125000
242		80.078125
243		78.125000
244		82.031250
245		78.125000
246		82.031250
247		80.078125
248		82.031250
249		78.125000
250		83.984375
251		78.125000
252		82.031250
253		78.125000
254		82.031250
255		78.125000
256		82.031250
257		78.125000
258		80.078125
259		78.125000
260		80.078125
261		76.171875
262		80.078125
263		76.171875
264		78.125000
265		74.218750
266		78.125000
267		72.265625
268		76.171875
269		72.265625
270		74.218750
271		70.312500
272		72.265625
273		68.359375
274		72.265625
275		64.453125
276		70.312500
277		62.500000
278		66.406250
279		62.500000
280		64.453125
281		58.593750
282		62.500000
283		56.640625
284		60.546875
285		54.687500
286		58.593750
287		50.781250
288		56.640625
289		48.828125
290		52.734375
291		44.921875
292		50.781250
293		42.968750
294		46.875000
295		39.062500
296		42.968750
297		35.156250
298		41.015625
299		31.250000
300		37.109375
301		29.296875
302		35.156250
303		25.390625
304		31.250000
305		21.484375
306		27.343750
307		17.578125
308		23.437500
309		13.671875
310		19.531250
311		11.718750
312		15.625000
313		7.812500
314		11.718750
315		3.906250
316		7.812500
317		0.000000
318		5.859375
319		-3.906250
320		1.953125
321		-7.812500
322		-1.953125
323		-11.718750
324		-5.859375
325		-15.625000
326		-9.765625
327		-19.531250
328		-13.671875
329		-21.484375
330		-17.578125
331		-25.390625
332		-21.484375
333		-29.296875
334		-23.437500
335		-31.250000
336		-27.343750
337		-35.156250
338		-29.296875
339		-39.062500
340		-33.203125
341		-41.015625
342		-37.109375
343		-44.921875
344		-39.062500
345		-48.828125
346		-42.968750
347		-48.828125
348		-44.921875
349		-52.734375
350		-48.828125
351		-54.687500
352		-50.781250
353		-56.640625
354		-52.734375
355		-58.593750
356		-54.687500
357		-60.546875
358		-56.640625
359		-62.500000
360		-58.593750
361		-64.453125
362		-60.546875
363		-64.453125
364		-62.500000
365		-66.406250
366		-62.500000
367		-68.359375
368		-62.500000
369		-68.359375
370		-64.453125
371		-68.359375
372		-66.406250
373		-68.359375
374		-64.453125
375		-68.359375
376		-66.406250
377		-68.359375
378		-66.406250
379		-68.359375
380		-66.406250
381		-68.359375
382		-64.453125
383		-68.359375
384		-64.453125
385		-66.406250
386		-64.453125
387		-66.406250
388		-62.500000
389		-64.453125
390		-60.546875
391		-64.453125
392		-60.546875
393		-62.500000
394		-58.593750
395		-60.546875
396		-56.640625
397		-58.593750
398		-54.687500
399		-56.640625
400		-52.734375
401		-54.687500
402		-50.781250
403		-52.734375
404		-48.828125
405		-48.828125
406		-44.921875
407		-46.875000
408		-42.968750
409		-44.921875
410		-39.062500
411		-41.015625
412		-35.156250
413		-39.062500
414		-33.203125
415		-35.156250
416		-29.296875
417		-31.250000
418		-27.343750
419		-29.296875
420		-23.437500
421		-25.390625
422		-19.531250
423		-21.484375
424		-17.578125
425		-19.531250
426		-13.671875
427		-15.625000
428		-9.765625
429		-11.718750
430		-5.859375
431		-7.812500
432		-1.953125
433		-3.906250
434		1.953125
435		0.000000
436		5.859375
437		3.906250
438		9.765625
439		7.812500
440		11.718750
441		11.718750
442		15.625000
443		15.625000
444		19.531250
445		17.578125
446		25.390625
447		21.484375
448		27.343750
449		25.390625
450		31.250000
451		29.296875
452		35.156250
453		33.203125
454		37.109375
455		35.156250
456		41.015625
457		39.062500
458		42.968750
459		42.968750
460		46.875000
461		44.921875
462		50.781250
463		46.875000
464		52.734375
465		50.781250
466		54.687500
467		52.734375
468		58.593750
469		56.640625
470		60.546875
471		58.593750
472		62.500000
473		60.546875
474		64.453125
475		62.500000
476		66.406250
477		66.406250
478		70.312500
479		68.359375
480		72.265625
481		70.312500
482		72.265625
483		72.265625
484		74.218750
485		72.265625
486		76.171875
487		74.218750
488		78.125000
489		76.171875
490		80.078125
491		76.171875
492		80.078125
493		76.171875
494		80.078125
495		78.125000
496		80.078125
497		78.125000
498		82.031250
499		80.078125
500		82.031250
501		78.125000
502		82.031250
503		80.078125
504		82.031250
505		80.078125
506		82.031250
507		80.078125
508		82.031250
509		78.125000
510		82.031250
511		78.125000
512		82.031250
513		78.125000
514		80.078125
515		76.171875
516		80.078125
517		76.171875
518		78.125000
519		74.218750
520		78.125000
521		72.265625
522		76.171875
523		70.312500
524		74.218750
525		68.359375
526		72.265625
527		66.406250
528		70.312500
529		64.453125
530		70.312500
531		62.500000
532		66.406250
533		60.546875
534		64.453125
535		58.593750
536		62.500000
537		54.687500
538		60.546875
539		52.734375
540		56.640625
541		48.828125
542		54.687500
543		46.875000
544		52.734375
545		44.921875
546		50.781250
547		41.015625
548		46.875000
549		37.109375
550		42.968750
551		35.156250
552		39.062500
553		31.250000
554		35.156250
555		27.343750
556		33.203125
557		23.437500
558		29.296875
559		21.484375
560		25.390625
561		17.578125
562		23.437500
563		13.671875
564		19.531250
565		9.765625
566		13.671875
567		5.859375
568		11.718750
569		1.953125
570		7.812500
571		-1.953125
572		3.906250
573		-5.859375
574		0.000000
575		-9.765625
576		-3.906250
577		-11.718750
578		-7.812500
579		-15.625000
580		-11.718750
581		-19.531250
582		-13.671875
583		-23.437500
584		-17.578125
585		-27.343750
586		-21.484375
587		-29.296875
588		-25.390625
589		-33.203125
590		-27.343750
591		-37.109375
592		-31.250000
593		-39.062500
594		-35.156250
595		-42.968750
596		-37.109375
597		-44.921875
598		-41.015625
599		-48.828125
600		-42.968750
601		-50.781250
602		-46.875000
603		-52.734375
604		-46.875000
605		-56.640625
606		-50.781250
607		-56.640625
608		-52.734375
609		-58.593750
610		-56.640625
611		-60.546875
612		-56.640625
613		-62.500000
614		-58.593750
615		-64.453125
616		-60.546875
617		-64.453125
618		-62.500000
619		-66.406250
620		-62.500000
621		-66.406250
622		-64.453125
623		-68.359375
624		-64.453125
625		-68.359375
626		-66.406250
627		-68.359375
628		-64.453125
629		-68.359375
630		-66.406250
631		-68.359375
632		-64.453125
633		-68.359375
634		-66.406250
635		-68.359375
636		-64.453125
637		-68.359375
638		-64.453125
639		-66.406250
640		-62.500000
641		-66.406250
642		-62.500000
643		-64.453125
644		-60.546875
645		-62.500000
646		-58.593750
647		-62.500000
648		-56.640625
649		-60.546875
650		-56.640625
651		-56.640625
652		-54.687500
653		-56.640625
654		-50.781250
655		-52.734375
656		-48.828125
657		-50.781250
658		-46.875000
659		-48.828125
660		-44.921875
661		-46.875000
662		-41.015625
663		-42.968750
664		-39.062500
665		-41.015625
666		-35.156250
667		-37.109375
668		-33.203125
669		-33.203125
670		-27.343750
671		-31.250000
672		-25.390625
673		-27.343750
674		-21.484375
675		-23.437500
676		-19.531250
677		-21.484375
678		-15.625000
679		-17.578125
680		-11.718750
681		-13.671875
682		-7.812500
683		-9.765625
684		-5.859375
685		-5.859375
686		-1.953125
687		-1.953125
688		1.953125
689		1.953125
690		5.859375
691		3.906250
692		9.765625
693		7.812500
694		13.671875
695		11.718750
696		17.578125
697		15.625000
698		21.484375
699		17.578125
700		23.437500
701		23.437500
702		27.343750
703		27.343750
704		31.250000
705		29.296875
706		35.156250
707		33.203125
708		37.109375
709		37.109375
710		41.015625
711		39.062500
712		44.921875
713		42.968750
714		46.875000
715		46.875000
716		50.781250
717		48.828125
718		52.734375
719		52.734375
720		56.640625
721		54.687500
722		58.593750
723		56.640625
724		60.546875
725		60.546875
726		62.500000
727		62.500000
728		66.406250
729		64.453125
730		68.359375
731		66.406250
732		70.312500
733		68.359375
734		72.265625
735		70.312500
736		74.218750
737		70.312500
738		76.171875
739		72.265625
740		76.171875
741		74.218750
742		78.125000
743		76.171875
744		78.125000
745		76.171875
746		80.078125
747		78.125000
748		80.078125
749		78.125000
750		82.031250
751		78.125000
752		80.078125
753		78.125000
754		82.031250
755		78.125000
756		82.031250
757		78.125000
758		82.031250
759		78.125000
760		82.031250
761		78.125000
762		82.031250
763		78.125000
764		82.031250
765		76.171875
766		80.078125
767		76.171875
768		78.125000
769		76.171875
770		78.125000
771		74.218750
772		78.125000
773		72.265625
774		76.171875
775		72.265625
776		74.218750
777		70.312500
778		74.218750
779		68.359375
780		72.265625
781		66.406250
782		70.312500
783		64.453125
784		68.359375
785		62.500000
786		66.406250
787		58.593750
788		64.453125
789		56.640625
790		60.546875
791		54.687500
792		58.593750
793		52.734375
794		56.640625
795		48.828125
796		54.687500
797		44.921875
798		50.781250
799		42.968750
800		46.875000
801		41.015625
802		44.921875
803		35.156250
804		41.015625
805		33.203125
806		39.062500
807		29.296875
808		35.156250
809		25.390625
810		31.250000
811		23.437500
812		27.343750
813		19.531250
814		25.390625
815		13.671875
816		19.531250
817		11.718750
818		17.578125
819		7.812500
820		13.671875
821		3.906250
822		9.765625
823		0.000000
824		5.859375
825		-3.906250
826		1.953125
827		-7.812500
828		-1.953125
829		-9.765625
830		-5.859375
831		-13.671875
832		-9.765625
833		-17.578125
834		-11.718750
835		-21.484375
836		-15.625000
837		-25.390625
838		-19.531250
839		-29.296875
840		-21.484375
841		-31.250000
842		-25.390625
843		-35.156250
844		-29.296875
845		-39.062500
846		-33.203125
847		-41.015625
848		-37.109375
849		-44.921875
850		-39.062500
851		-46.875000
852		-42.968750
853		-48.828125
854		-44.921875
855		-50.781250
856		-46.875000
857		-54.687500
858		-50.781250
859		-56.640625
860		-52.734375
861		-58.593750
862		-54.687500
863		-60.546875
864		-56.640625
865		-62.500000
866		-58.593750
867		-62.500000
868		-60.546875
869		-64.453125
870		-62.500000
871		-66.406250
872		-62.500000
873		-66.406250
874		-64.453125
875		-68.359375
876		-64.453125
877		-68.359375
878		-66.406250
879		-68.359375
880		-66.406250
881		-68.359375
882		-66.406250
883		-70.312500
884		-66.406250
885		-68.359375
886		-66.406250
887		-68.359375
888		-64.453125
889		-70.312500
890		-64.453125
891		-68.359375
892		-64.453125
893		-66.406250
894		-64.453125
895		-66.406250
896		-62.500000
897		-64.453125
898		-60.546875
899		-62.500000
900		-58.593750
901		-60.546875
902		-58.593750
903		-60.546875
904		-56.640625
905		-58.593750
906		-54.687500
907		-56.640625
908		-52.734375
909		-52.734375
910		-48.828125
911		-50.781250
912		-46.875000
913		-48.828125
914		-42.968750
915		-46.875000
916		-41.015625
917		-42.968750
918		-39.062500
919		-39.062500
920		-35.156250
921		-37.109375
922		-31.250000
923		-33.203125
924		-29.296875
925		-31.250000
926		-25.390625
927		-27.343750
928		-21.484375
929		-23.437500
930		-19.531250
931		-19.531250
932		-15.625000
933		-15.625000
934		-11.718750
935		-13.671875
936		-7.812500
937		-9.765625
938		-3.906250
939		-5.859375
940		0.000000
941		-1.953125
942		3.906250
943		1.953125
944		5.859375
945		5.859375
946		11.718750
947		9.765625
948		13.671875
949		13.671875
950		17.578125
951		15.625000
952		21.484375
953		19.531250
954		25.390625
955		23.437500
956		29.296875
957		27.343750
958		31.250000
959		29.296875
960		35.156250
961		33.203125
962		39.062500
963		37.109375
964		41.015625
965		41.015625
966		44.921875
967		42.968750
968		48.828125
969		46.875000
970		50.781250
971		48.828125
972		52.734375
973		50.781250
974		56.640625
975		54.687500
976		58.593750
977		56.640625
978		60.546875
979		60.546875
980		64.453125
981		62.500000
982		66.406250
983		64.453125
984		68.359375
985		66.406250
986		70.312500
987		68.359375
988		72.265625
989		68.359375
990		72.265625
991		70.312500
992		74.218750
993		72.265625
994		76.171875
995		74.218750
996		78.125000
997		74.218750
998		78.125000
999		76.171875
1000		80.078125
1001		76.171875
1002		80.078125
1003		78.125000
1004		80.078125
1005		78.125000
1006		82.031250
1007		78.125000
1008		80.078125
1009		78.125000
1010		82.031250
1011		78.125000
1012		82.031250
1013		78.125000
1014		82.031250
1015		78.125000
1016		80.078125
1017		76.171875
1018		80.078125
1019		76.171875
1020		80.078125
1021		76.171875
1022		78.125000
1023		74.218750
1024		78.125000
1025		74.218750
1026		76.171875
1027		72.265625
1028		76.171875
1029		70.312500
1030		74.218750
1031		68.359375
1032		72.265625
1033		66.406250
1034		70.312500
1035		64.453125
1036		70.312500
1037		62.500000
1038		66.406250
1039		60.546875
1040		64.453125
1041		58.593750
1042		62.500000
1043		54.687500
1044		60.546875
1045		52.734375
1046		56.640625
1047		50.781250
1048		54.687500
1049		46.875000
1050		52.734375
1051		44.921875
1052		48.828125
1053		41.015625
1054		46.875000
1055		39.062500
1056		42.968750
1057		35.156250
1058		41.015625
1059		31.250000
1060		37.109375
1061		27.343750
1062		33.203125
1063		25.390625
1064		29.296875
1065		19.531250
1066		25.390625
1067		17.578125
1068		23.437500
1069		13.671875
1070		19.531250
1071		9.765625
1072		15.625000
1073		5.859375
1074		11.718750
1075		1.953125
1076		7.812500
1077		0.000000
1078		3.906250
1079		-3.906250
1080		1.953125
1081		-9.765625
1082		-3.906250
1083		-11.718750
1084		-5.859375
1085		-15.625000
1086		-9.765625
1087		-19.531250
1088		-13.671875
1089		-23.437500
1090		-17.578125
1091		-25.390625
1092		-21.484375
1093		-29.296875
1094		-25.390625
1095		-33.203125
1096		-27.343750
1097		-35.156250
1098		-31.250000
1099		-39.062500
1100		-33.203125
1101		-42.968750
1102		-37.109375
1103		-44.921875
1104		-41.015625
1105		-46.875000
1106		-42.968750
1107		-50.781250
1108		-46.875000
1109		-52.734375
1110		-48.828125
1111		-56.640625
1112		-50.781250
1113		-56.640625
1114		-54.687500
1115		-60.546875
1116		-54.687500
1117		-62.500000
1118		-56.640625
1119		-62.500000
1120		-58.593750
1121		-64.453125
1122		-60.546875
1123		-66.406250
1124		-62.500000
1125		-68.359375
1126		-62.500000
1127		-68.359375
1128		-64.453125
1129		-68.359375
1130		-66.406250
1131		-68.359375
1132		-66.406250
1133		-70.312500
1134		-66.406250
1135		-70.312500
1136		-66.406250
1137		-70.312500
1138		-66.406250
1139		-68.359375
1140		-66.406250
1141		-70.312500
1142		-64.453125
1143		-68.359375
1144		-66.406250
1145		-68.359375
1146		-64.453125
1147		-66.406250
1148		-64.453125
1149		-66.406250
1150		-62.500000
1151		-64.453125
1152		-60.546875
1153		-64.453125
1154		-60.546875
1155		-60.546875
1156		-58.593750
1157		-58.593750
1158		-56.640625
1159		-58.593750
1160		-52.734375
1161		-54.687500
1162		-50.781250
1163		-52.734375
1164		-48.828125
1165		-52.734375
1166		-46.875000
1167		-48.828125
1168		-42.968750
1169		-44.921875
1170		-41.015625
1171		-42.968750
1172		-37.109375
1173		-39.062500
1174		-35.156250
1175		-37.109375
1176		-31.250000
1177		-33.203125
1178		-29.296875
1179		-31.250000
1180		-23.437500
1181		-27.343750
1182		-19.531250
1183		-23.437500
1184		-17.578125
1185		-19.531250
1186		-13.671875
1187		-15.625000
1188		-11.718750
1189		-11.718750
1190		-7.812500
1191		-7.812500
1192		-3.906250
1193		-5.859375
1194		1.953125
1195		-3.906250
1196		5.859375
1197		0.000000
1198		9.765625
1199		3.906250
1200		11.718750
1201		9.765625
1202		15.625000
1203		13.671875
1204		17.578125
1205		17.578125
1206		21.484375
1207		21.484375
1208		27.343750
1209		23.437500
1210		31.250000
1211		27.343750
1212		35.156250
1213		29.296875
1214		39.062500
1215		33.203125
1216		41.015625
1217		35.156250
1218		44.921875
1219		39.062500
1220		44.921875
1221		44.921875
1222		48.828125
1223		46.875000
1224		50.781250
1225		48.828125
1226		56.640625
1227		48.828125
1228		58.593750
1229		52.734375
1230		60.546875
1231		56.640625
1232		64.453125
1233		58.593750
1234		66.406250
1235		60.546875
1236		68.359375
1237		62.500000
1238		68.359375
1239		66.406250
1240		70.312500
1241		66.406250
1242		74.218750
1243		68.359375
1244		76.171875
1245		70.312500
1246		76.171875
1247		70.312500
1248		78.125000
1249		72.265625
1250		78.125000
1251		72.265625
1252		80.078125
1253		74.218750
1254		80.078125
1255		76.171875
1256		80.078125
1257		76.171875
1258		82.031250
1259		76.171875
1260		82.031250
1261		76.171875
1262		83.984375
1263		76.171875
1264		83.984375
1265		76.171875
1266		83.984375
1267		76.171875
1268		82.031250
1269		76.171875
1270		82.031250
1271		78.125000
1272		80.078125
1273		76.171875
1274		78.125000
1275		74.218750
1276		80.078125
1277		72.265625
1278		78.125000
1279		70.312500
1280		78.125000
1281		68.359375
1282		76.171875
1283		68.359375
1284		76.171875
1285		66.406250
1286		74.218750
1287		66.406250
1288		72.265625
1289		64.453125
1290		68.359375
1291		60.546875
1292		66.406250
1293		56.640625
1294		64.453125
1295		54.687500
1296		62.500000
1297		52.734375
1298		62.500000
1299		48.828125
1300		58.593750
1301		46.875000
1302		56.640625
1303		44.921875
1304		52.734375
1305		42.968750
1306		48.828125
1307		41.015625
1308		44.921875
1309		35.156250
1310		42.968750
1311		31.250000
1312		39.062500
1313		27.343750
1314		37.109375
1315		25.390625
1316		33.203125
1317		21.484375
1318		29.296875
1319		17.578125
1320		27.343750
1321		15.625000
1322		23.437500
1323		13.671875
1324		17.578125
1325		5.859375
1326		13.671875
1327		1.953125
1328		11.718750
1329		-1.953125
1330		7.812500
1331		-5.859375
1332		3.906250
1333		-7.812500
1334		1.953125
1335		-11.718750
1336		-1.953125
1337		-13.671875
1338		-5.859375
1339		-17.578125
1340		-11.718750
1341		-21.484375
1342		-15.625000
1343		-25.390625
1344		-15.625000
1345		-31.250000
1346		-19.531250
1347		-33.203125
1348		-23.437500
1349		-37.109375
1350		-27.343750
1351		-41.015625
1352		-31.250000
1353		-42.968750
1354		-33.203125
1355		-42.968750
1356		-39.062500
1357		-46.875000
1358		-41.015625
1359		-50.781250
1360		-44.921875
1361		-52.734375
1362		-44.921875
1363		-56.640625
1364		-48.828125
1365		-58.593750
1366		-50.781250
1367		-60.546875
1368		-52.734375
1369		-62.500000
1370		-54.687500
1371		-62.500000
1372		-56.640625
1373		-64.453125
1374		-60.546875
1375		-68.359375
1376		-60.546875
1377		-68.359375
1378		-62.500000
1379		-70.312500
1380		-62.500000
1381		-70.312500
1382		-62.500000
1383		-70.312500
1384		-64.453125
1385		-72.265625
1386		-64.453125
1387		-72.265625
1388		-64.453125
1389		-70.312500
1390		-68.359375
1391		-70.312500
1392		-68.359375
1393		-72.265625
1394		-64.453125
1395		-72.265625
1396		-64.453125
1397		-72.265625
1398		-64.453125
1399		-70.312500
1400		-62.500000
1401		-68.359375
1402		-62.500000
1403		-68.359375
1404		-60.546875
1405		-64.453125
1406		-60.546875
1407		-62.500000
1408		-60.546875
1409		-62.500000
1410		-54.687500
1411		-62.500000
1412		-52.734375
1413		-58.593750
1414		-50.781250
1415		-56.640625
1416		-48.828125
1417		-54.687500
1418		-46.875000
1419		-52.734375
1420		-42.968750
1421		-48.828125
1422		-42.968750
1423		-44.921875
1424		-41.015625
1425		-41.015625
1426		-35.156250
1427		-41.015625
1428		-31.250000
1429		-37.109375
1430		-29.296875
1431		-35.156250
1432		-25.390625
1433		-31.250000
1434		-21.484375
1435		-27.343750
1436		-17.578125
1437		-23.437500
1438		-15.625000
1439		-17.578125
1440		-13.671875
1441		-15.625000
1442		-9.765625
1443		-13.671875
1444		-3.906250
1445		-9.765625
1446		0.000000
1447		-5.859375
1448		3.906250
1449		-1.953125
1450		7.812500
1451		0.000000
1452		9.765625
1453		3.906250
1454		13.671875
1455		7.812500
1456		15.625000
1457		13.671875
1458		19.531250
1459		17.578125
1460		25.390625
1461		19.531250
1462		29.296875
1463		23.437500
1464		33.203125
1465		25.390625
1466		35.156250
1467		29.296875
1468		39.062500
1469		33.203125
1470		42.968750
1471		37.109375
1472		44.921875
1473		42.968750
1474		46.875000
1475		44.921875
1476		48.828125
1477		44.921875
1478		54.687500
1479		48.828125
1480		56.640625
1481		50.781250
1482		58.593750
1483		52.734375
1484		62.500000
1485		56.640625
1486		64.453125
1487		58.593750
1488		66.406250
1489		62.500000
1490		66.406250
1491		64.453125
1492		68.359375
1493		66.406250
1494		72.265625
1495		66.406250
1496		74.218750
1497		68.359375
1498		76.171875
1499		70.312500
1500		76.171875
1501		70.312500
1502		78.125000
1503		72.265625
1504		80.078125
1505		74.218750
1506		80.078125
1507		76.171875
1508		80.078125
1509		78.125000
1510		80.078125
1511		76.171875
1512		82.031250
1513		76.171875
1514		82.031250
1515		76.171875
1516		82.031250
1517		76.171875
1518		82.031250
1519		76.171875
1520		82.031250
1521		76.171875
1522		82.031250
1523		78.125000
1524		80.078125
1525		76.171875
1526		78.125000
1527		74.218750
1528		80.078125
1529		72.265625
1530		80.078125
1531		72.265625
1532		78.125000
1533		70.312500
1534		78.125000
1535		68.359375
1536		76.171875
1537		66.406250
1538		74.218750
1539		66.406250
1540		72.265625
1541		66.406250
1542		68.359375
1543		60.546875
1544		68.359375
1545		58.593750
1546		66.406250
1547		56.640625
1548		64.453125
1549		54.687500
1550		62.500000
1551		52.734375
1552		60.546875
1553		48.828125
1554		56.640625
1555		46.875000
1556		54.687500
1557		44.921875
1558		48.828125
1559		42.968750
1560		46.875000
1561		37.109375
1562		44.921875
1563		33.203125
1564		42.968750
1565		31.250000
1566		39.062500
1567		27.343750
1568		35.156250
1569		23.437500
1570		33.203125
1571		19.531250
1572		29.296875
1573		17.578125
1574		25.390625
1575		15.625000
1576		19.531250
1577		9.765625
1578		15.625000
1579		5.859375
1580		15.625000
1581		1.953125
1582		11.718750
1583		-1.953125
1584		7.812500
1585		-5.859375
1586		3.906250
1587		-9.765625
1588		0.000000
1589		-11.718750
1590		-3.906250
1591		-15.625000
1592		-9.765625
1593		-17.578125
1594		-13.671875
1595		-23.437500
1596		-15.625000
1597		-27.343750
1598		-17.578125
1599		-31.250000
1600		-21.484375
1601		-35.156250
1602		-25.390625
1603		-37.109375
1604		-29.296875
1605		-41.015625
1606		-31.250000
1607		-41.015625
1608		-37.109375
1609		-44.921875
1610		-41.015625
1611		-48.828125
1612		-42.968750
1613		-52.734375
1614		-42.968750
1615		-54.687500
1616		-46.875000
1617		-56.640625
1618		-48.828125
1619		-60.546875
1620		-50.781250
1621		-60.546875
1622		-52.734375
1623		-62.500000
1624		-54.687500
1625		-62.500000
1626		-60.546875
1627		-66.406250
1628		-60.546875
1629		-68.359375
1630		-60.546875
1631		-68.359375
1632		-62.500000
1633		-70.312500
1634		-62.500000
1635		-70.312500
1636		-64.453125
1637		-72.265625
1638		-64.453125
1639		-72.265625
1640		-64.453125
1641		-70.312500
1642		-68.359375
1643		-70.312500
1644		-68.359375
1645		-72.265625
1646		-66.406250
1647		-72.265625
1648		-64.453125
1649		-72.265625
1650		-64.453125
1651		-72.265625
1652		-64.453125
1653		-70.312500
1654		-62.500000
1655		-70.312500
1656		-62.500000
1657		-68.359375
1658		-62.500000
1659		-64.453125
1660		-60.546875
1661		-64.453125
1662		-56.640625
1663		-62.500000
1664		-56.640625
1665		-60.546875
1666		-52.734375
1667		-58.593750
1668		-52.734375
1669		-56.640625
1670		-48.828125
1671		-54.687500
1672		-46.875000
1673		-52.734375
1674		-44.921875
1675		-46.875000
1676		-42.968750
1677		-44.921875
1678		-41.015625
1679		-42.968750
1680		-35.156250
1681		-41.015625
1682		-31.250000
1683		-37.109375
1684		-29.296875
1685		-35.156250
1686		-25.390625
1687		-31.250000
1688		-21.484375
1689		-27.343750
1690		-19.531250
1691		-21.484375
1692		-17.578125
1693		-17.578125
1694		-11.718750
1695		-15.625000
1696		-7.812500
1697		-13.671875
1698		-3.906250
1699		-9.765625
1700		0.000000
1701		-5.859375
1702		3.906250
1703		-1.953125
1704		5.859375
1705		1.953125
1706		9.765625
1707		5.859375
1708		11.718750
1709		11.718750
1710		15.625000
1711		13.671875
1712		21.484375
1713		15.625000
1714		25.390625
1715		19.531250
1716		29.296875
1717		23.437500
1718		31.250000
1719		25.390625
1720		35.156250
1721		29.296875
1722		39.062500
1723		33.203125
1724		42.968750
1725		39.062500
1726		42.968750
1727		41.015625
1728		46.875000
1729		42.968750
1730		50.781250
1731		46.875000
1732		54.687500
1733		48.828125
1734		56.640625
1735		50.781250
1736		60.546875
1737		54.687500
1738		62.500000
1739		56.640625
1740		64.453125
1741		58.593750
1742		64.453125
1743		62.500000
1744		66.406250
1745		64.453125
1746		70.312500
1747		64.453125
1748		72.265625
1749		66.406250
1750		74.218750
1751		68.359375
1752		76.171875
1753		70.312500
1754		76.171875
1755		70.312500
1756		78.125000
1757		72.265625
1758		78.125000
1759		76.171875
1760		78.125000
1761		76.171875
1762		78.125000
1763		76.171875
1764		80.078125
1765		76.171875
1766		82.031250
1767		76.171875
1768		82.031250
1769		76.171875
1770		82.031250
1771		76.171875
1772		82.031250
1773		76.171875
1774		82.031250
1775		78.125000
1776		80.078125
1777		76.171875
1778		80.078125
1779		74.218750
1780		80.078125
1781		72.265625
1782		80.078125
1783		72.265625
1784		80.078125
1785		70.312500
1786		78.125000
1787		70.312500
1788		76.171875
1789		68.359375
1790		76.171875
1791		68.359375
1792		74.218750
1793		66.406250
1794		70.312500
1795		62.500000
1796		68.359375
1797		60.546875
1798		68.359375
1799		58.593750
1800		66.406250
1801		56.640625
1802		64.453125
1803		52.734375
1804		60.546875
1805		50.781250
1806		58.593750
1807		48.828125
1808		56.640625
1809		46.875000
1810		50.781250
1811		44.921875
1812		48.828125
1813		39.062500
1814		46.875000
1815		35.156250
1816		44.921875
1817		33.203125
1818		41.015625
1819		29.296875
1820		39.062500
1821		25.390625
1822		35.156250
1823		21.484375
1824		31.250000
1825		21.484375
1826		27.343750
1827		17.578125
1828		21.484375
1829		11.718750
1830		19.531250
1831		7.812500
1832		17.578125
1833		3.906250
1834		13.671875
1835		0.000000
1836		9.765625
1837		-3.906250
1838		5.859375
1839		-7.812500
1840		1.953125
1841		-9.765625
1842		-1.953125
1843		-11.718750
1844		-7.812500
1845		-15.625000
1846		-11.718750
1847		-21.484375
1848		-13.671875
1849		-25.390625
1850		-17.578125
1851		-29.296875
1852		-19.531250
1853		-33.203125
1854		-23.437500
1855		-35.156250
1856		-27.343750
1857		-39.062500
1858		-29.296875
1859		-39.062500
1860		-35.156250
1861		-42.968750
1862		-39.062500
1863		-46.875000
1864		-41.015625
1865		-50.781250
1866		-42.968750
1867		-52.734375
1868		-44.921875
1869		-56.640625
1870		-46.875000
1871		-58.593750
1872		-50.781250
1873		-60.546875
1874		-52.734375
1875		-60.546875
1876		-54.687500
1877		-62.500000
1878		-58.593750
1879		-66.406250
1880		-60.546875
1881		-68.359375
1882		-60.546875
1883		-68.359375
1884		-60.546875
1885		-70.312500
1886		-62.500000
1887		-72.265625
1888		-64.453125
1889		-72.265625
1890		-64.453125
1891		-72.265625
1892		-66.406250
1893		-70.312500
1894		-68.359375
1895		-70.312500
1896		-68.359375
1897		-74.218750
1898		-66.406250
1899		-74.218750
1900		-66.406250
1901		-72.265625
1902		-66.406250
1903		-72.265625
1904		-66.406250
1905		-72.265625
1906		-64.453125
1907		-70.312500
1908		-62.500000
1909		-70.312500
1910		-62.500000
1911		-66.406250
1912		-62.500000
1913		-66.406250
1914		-60.546875
1915		-66.406250
1916		-58.593750
1917		-64.453125
1918		-56.640625
1919		-62.500000
1920		-54.687500
1921		-60.546875
1922		-50.781250
1923		-58.593750
1924		-48.828125
1925		-54.687500
1926		-46.875000
1927		-50.781250
1928		-44.921875
1929		-46.875000
1930		-42.968750
1931		-46.875000
1932		-37.109375
1933		-44.921875
1934		-35.156250
1935		-41.015625
1936		-31.250000
1937		-37.109375
1938		-29.296875
1939		-33.203125
1940		-25.390625
1941		-31.250000
1942		-21.484375
1943		-27.343750
1944		-19.531250
1945		-21.484375
1946		-17.578125
1947		-19.531250
1948		-11.718750
1949		-17.578125
1950		-7.812500
1951		-13.671875
1952		-3.906250
1953		-9.765625
1954		0.000000
1955		-5.859375
1956		3.906250
1957		-1.953125
1958		7.812500
1959		1.953125
1960		9.765625
1961		7.812500
1962		11.718750
1963		11.718750
1964		19.531250
1965		13.671875
1966		21.484375
1967		15.625000
1968		25.390625
1969		19.531250
1970		29.296875
1971		23.437500
1972		33.203125
1973		27.343750
1974		37.109375
1975		31.250000
1976		39.062500
1977		35.156250
1978		41.015625
1979		39.062500
1980		42.968750
1981		41.015625
1982		48.828125
1983		42.968750
1984		50.781250
1985		46.875000
1986		54.687500
1987		48.828125
1988		56.640625
1989		50.781250
1990		60.546875
1991		54.687500
1992		62.500000
1993		56.640625
1994		62.500000
1995		60.546875
1996		64.453125
1997		62.500000
1998		68.359375
1999		62.500000
2000		70.312500
2001		64.453125
2002		72.265625
2003		66.406250
2004		74.218750
2005		68.359375
2006		76.171875
2007		70.312500
2008		76.171875
2009		70.312500
2010		78.125000
2011		74.218750
2012		76.171875
2013		74.218750
2014		78.125000
2015		74.218750
2016		80.078125
2017		74.218750
2018		80.078125
2019		74.218750
2020		82.031250
2021		74.218750
2022		82.031250
2023		74.218750
2024		82.031250
2025		76.171875
2026		82.031250
2027		78.125000
2028		80.078125
2029		76.171875
2030		78.125000
2031		74.218750
2032		80.078125
2033		72.265625
2034		80.078125
2035		72.265625
2036		80.078125
2037		70.312500
2038		78.125000
2039		70.312500
2040		76.171875
2041		68.359375
2042		76.171875
2043		68.359375
2044		74.218750
2045		68.359375
2046		70.312500
2047		64.453125
2048		70.312500
2049		60.546875
2050		68.359375
2051		58.593750
2052		68.359375
2053		56.640625
2054		64.453125
2055		54.687500
2056		62.500000
2057		50.781250
2058		60.546875
2059		50.781250
2060		56.640625
2061		48.828125
2062		52.734375
2063		44.921875
2064		50.781250
2065		39.062500
2066		48.828125
2067		37.109375
2068		46.875000
2069		35.156250
2070		42.968750
2071		31.250000
2072		39.062500
2073		27.343750
2074		35.156250
2075		25.390625
2076		33.203125
2077		21.484375
2078		29.296875
2079		19.531250
2080		23.437500
2081		13.671875
2082		19.531250
2083		9.765625
2084		19.531250
2085		5.859375
2086		15.625000
2087		1.953125
2088		11.718750
2089		-1.953125
2090		7.812500
2091		-5.859375
2092		3.906250
2093		-7.812500
2094		0.000000
2095		-9.765625
2096		-5.859375
2097		-13.671875
2098		-9.765625
2099		-19.531250
2100		-11.718750
2101		-23.437500
2102		-15.625000
2103		-27.343750
2104		-17.578125
2105		-31.250000
2106		-21.484375
2107		-33.203125
2108		-25.390625
2109		-37.109375
2110		-29.296875
2111		-39.062500
2112		-31.250000
2113		-41.015625
2114		-37.109375
2115		-46.875000
2116		-39.062500
2117		-48.828125
2118		-41.015625
2119		-52.734375
2120		-44.921875
2121		-54.687500
2122		-46.875000
2123		-58.593750
2124		-48.828125
2125		-58.593750
2126		-52.734375
2127		-60.546875
2128		-54.687500
2129		-62.500000
2130		-58.593750
2131		-64.453125
2132		-60.546875
2133		-68.359375
2134		-58.593750
2135		-68.359375
2136		-60.546875
2137		-70.312500
2138		-62.500000
2139		-72.265625
2140		-64.453125
2141		-72.265625
2142		-66.406250
2143		-72.265625
2144		-66.406250
2145		-72.265625
2146		-68.359375
2147		-72.265625
2148		-68.359375
2149		-74.218750
2150		-66.406250
2151		-74.218750
2152		-66.406250
2153		-74.218750
2154		-66.406250
2155		-74.218750
2156		-66.406250
2157		-72.265625
2158		-66.406250
2159		-72.265625
2160		-64.453125
2161		-72.265625
2162		-64.453125
2163		-68.359375
2164		-64.453125
2165		-68.359375
2166		-60.546875
2167		-66.406250
2168		-60.546875
2169		-66.406250
2170		-56.640625
2171		-64.453125
2172		-54.687500
2173		-62.500000
2174		-52.734375
2175		-60.546875
2176		-50.781250
2177		-56.640625
2178		-50.781250
2179		-52.734375
2180		-48.828125
2181		-50.781250
2182		-44.921875
2183		-48.828125
2184		-41.015625
2185		-46.875000
2186		-39.062500
2187		-42.968750
2188		-35.156250
2189		-39.062500
2190		-31.250000
2191		-37.109375
2192		-27.343750
2193		-33.203125
2194		-23.437500
2195		-29.296875
2196		-23.437500
2197		-25.390625
2198		-19.531250
2199		-21.484375
2200		-13.671875
2201		-19.531250
2202		-9.765625
2203		-15.625000
2204		-7.812500
2205		-13.671875
2206		-3.906250
2207		-7.812500
2208		0.000000
2209		-5.859375
2210		3.906250
2211		-1.953125
2212		5.859375
2213		3.906250
2214		9.765625
2215		7.812500
2216		13.671875
2217		9.765625
2218		17.578125
2219		13.671875
2220		21.484375
2221		17.578125
2222		25.390625
2223		21.484375
2224		29.296875
2225		23.437500
2226		33.203125
2227		27.343750
2228		37.109375
2229		31.250000
2230		37.109375
2231		37.109375
2232		41.015625
2233		37.109375
2234		44.921875
2235		41.015625
2236		48.828125
2237		42.968750
2238		52.734375
2239		44.921875
2240		52.734375
2241		48.828125
2242		56.640625
2243		50.781250
2244		60.546875
2245		54.687500
2246		60.546875
2247		58.593750
2248		62.500000
2249		60.546875
2250		66.406250
2251		60.546875
2252		68.359375
2253		62.500000
2254		70.312500
2255		64.453125
2256		72.265625
2257		66.406250
2258		74.218750
2259		68.359375
2260		74.218750
2261		70.312500
2262		76.171875
2263		72.265625
2264		74.218750
2265		74.218750
2266		76.171875
2267		72.265625
2268		80.078125
2269		72.265625
2270		80.078125
2271		74.218750
2272		80.078125
2273		74.218750
2274		80.078125
2275		74.218750
2276		82.031250
2277		74.218750
2278		80.078125
2279		74.218750
2280		80.078125
2281		76.171875
2282		78.125000
2283		74.218750
2284		80.078125
2285		72.265625
2286		80.078125
2287		72.265625
2288		80.078125
2289		70.312500
2290		78.125000
2291		70.312500
2292		78.125000
2293		68.359375
2294		76.171875
2295		68.359375
2296		74.218750
2297		68.359375
2298		70.312500
2299		64.453125
2300		70.312500
2301		62.500000
2302		70.312500
2303		58.593750
2304		70.312500
2305		58.593750
2306		66.406250
2307		54.687500
2308		64.453125
2309		52.734375
2310		60.546875
2311		50.781250
2312		58.593750
2313		48.828125
2314		54.687500
2315		46.875000
2316		50.781250
2317		41.015625
2318		48.828125
2319		39.062500
2320		46.875000
2321		35.156250
2322		44.921875
2323		31.250000
2324		41.015625
2325		29.296875
2326		39.062500
2327		25.390625
2328		35.156250
2329		23.437500
2330		31.250000
2331		21.484375
2332		25.390625
2333		15.625000
2334		21.484375
2335		11.718750
2336		19.531250
2337		7.812500
2338		15.625000
2339		3.906250
2340		13.671875
2341		0.000000
2342		9.765625
2343		-3.906250
2344		5.859375
2345		-5.859375
2346		1.953125
2347		-7.812500
2348		-3.906250
2349		-11.718750
2350		-7.812500
2351		-19.531250
2352		-9.765625
2353		-21.484375
2354		-13.671875
2355		-25.390625
2356		-17.578125
2357		-29.296875
2358		-21.484375
2359		-31.250000
2360		-23.437500
2361		-35.156250
2362		-27.343750
2363		-37.109375
2364		-31.250000
2365		-41.015625
2366		-35.156250
2367		-44.921875
2368		-39.062500
2369		-48.828125
2370		-39.062500
2371		-50.781250
2372		-42.968750
2373		-54.687500
2374		-46.875000
2375		-56.640625
2376		-48.828125
2377		-58.593750
2378		-50.781250
2379		-60.546875
2380		-52.734375
2381		-60.546875
2382		-56.640625
2383		-62.500000
2384		-60.546875
2385		-66.406250
2386		-60.546875
2387		-68.359375
2388		-60.546875
2389		-70.312500
2390		-62.500000
2391		-72.265625
2392		-64.453125
2393		-72.265625
2394		-64.453125
2395		-74.218750
2396		-66.406250
2397		-72.265625
2398		-68.359375
2399		-72.265625
2400		-70.312500
2401		-74.218750
2402		-66.406250
2403		-74.218750
2404		-68.359375
2405		-74.218750
2406		-68.359375
2407		-74.218750
2408		-68.359375
2409		-74.218750
2410		-66.406250
2411		-74.218750
2412		-66.406250
2413		-72.265625
2414		-66.406250
2415		-68.359375
2416		-66.406250
2417		-68.359375
2418		-62.500000
2419		-68.359375
2420		-60.546875
2421		-68.359375
2422		-60.546875
2423		-64.453125
2424		-56.640625
2425		-64.453125
2426		-56.640625
2427		-62.500000
2428		-52.734375
2429		-58.593750
2430		-50.781250
2431		-54.687500
2432		-50.781250
2433		-52.734375
2434		-48.828125
2435		-50.781250
2436		-42.968750
2437		-48.828125
2438		-41.015625
2439		-46.875000
2440		-37.109375
2441		-42.968750
2442		-33.203125
2443		-39.062500
2444		-31.250000
2445		-37.109375
2446		-27.343750
2447		-33.203125
2448		-25.390625
2449		-27.343750
2450		-23.437500
2451		-23.437500
2452		-17.578125
2453		-23.437500
2454		-13.671875
2455		-19.531250
2456		-9.765625
2457		-15.625000
2458		-5.859375
2459		-11.718750
2460		-1.953125
2461		-7.812500
2462		1.953125
2463		-3.906250
2464		3.906250
2465		1.953125
2466		5.859375
2467		5.859375
2468		11.718750
2469		7.812500
2470		15.625000
2471		9.765625
2472		19.531250
2473		13.671875
2474		23.437500
2475		17.578125
2476		27.343750
2477		21.484375
2478		31.250000
2479		25.390625
2480		33.203125
2481		29.296875
2482		35.156250
2483		33.203125
2484		39.062500
2485		37.109375
2486		44.921875
2487		39.062500
2488		46.875000
2489		41.015625
2490		50.781250
2491		44.921875
2492		52.734375
2493		46.875000
2494		54.687500
2495		50.781250
2496		58.593750
2497		52.734375
2498		58.593750
2499		56.640625
2500		60.546875
2501		58.593750
2502		64.453125
2503		58.593750
2504		66.406250
2505		60.546875
2506		68.359375
2507		62.500000
2508		70.312500
2509		64.453125
2510		72.265625
2511		66.406250
2512		74.218750
2513		68.359375
2514		76.171875
2515		72.265625
2516		74.218750
2517		72.265625
2518		76.171875
2519		72.265625
2520		78.125000
2521		72.265625
2522		78.125000
2523		72.265625
2524		80.078125
2525		74.218750
2526		80.078125
2527		74.218750
2528		80.078125
2529		74.218750
2530		82.031250
2531		74.218750
2532		80.078125
2533		76.171875
2534		78.125000
2535		74.218750
2536		80.078125
2537		74.218750
2538		80.078125
2539		72.265625
2540		80.078125
2541		72.265625
2542		78.125000
2543		70.312500
2544		78.125000
2545		68.359375
2546		76.171875
2547		68.359375
2548		74.218750
2549		68.359375
2550		72.265625
2551		68.359375
2552		70.312500
2553		62.500000
2554		70.312500
2555		60.546875
2556		68.359375
2557		58.593750
2558		66.406250
2559		56.640625
2560		64.453125
2561		54.687500
2562		62.500000
2563		52.734375
2564		60.546875
2565		50.781250
2566		56.640625
2567		48.828125
2568		52.734375
2569		42.968750
2570		50.781250
2571		41.015625
2572		48.828125
2573		37.109375
2574		46.875000
2575		35.156250
2576		42.968750
2577		31.250000
2578		41.015625
2579		27.343750
2580		37.109375
2581		25.390625
2582		33.203125
2583		23.437500
2584		27.343750
2585		17.578125
2586		23.437500
2587		13.671875
2588		23.437500
2589		9.765625
2590		19.531250
2591		5.859375
2592		15.625000
2593		3.906250
2594		11.718750
2595		0.000000
2596		7.812500
2597		-3.906250
2598		3.906250
2599		-5.859375
2600		-1.953125
2601		-9.765625
2602		-5.859375
2603		-15.625000
2604		-7.812500
2605		-19.531250
2606		-11.718750
2607		-23.437500
2608		-13.671875
2609		-27.343750
2610		-17.578125
2611		-29.296875
2612		-21.484375
2613		-33.203125
2614		-23.437500
2615		-35.156250
2616		-29.296875
2617		-39.062500
2618		-33.203125
2619		-42.968750
2620		-37.109375
2621		-44.921875
2622		-37.109375
2623		-50.781250
2624		-41.015625
2625		-50.781250
2626		-42.968750
2627		-54.687500
2628		-46.875000
2629		-58.593750
2630		-48.828125
2631		-58.593750
2632		-50.781250
2633		-58.593750
2634		-56.640625
2635		-62.500000
2636		-58.593750
2637		-66.406250
2638		-58.593750
2639		-68.359375
2640		-60.546875
2641		-68.359375
2642		-60.546875
2643		-70.312500
2644		-62.500000
2645		-72.265625
2646		-64.453125
2647		-72.265625
2648		-64.453125
2649		-72.265625
2650		-66.406250
2651		-72.265625
2652		-68.359375
2653		-74.218750
2654		-68.359375
2655		-74.218750
2656		-66.406250
2657		-74.218750
2658		-68.359375
2659		-74.218750
2660		-68.359375
2661		-74.218750
2662		-68.359375
2663		-74.218750
2664		-66.406250
2665		-72.265625
2666		-66.406250
2667		-70.312500
2668		-66.406250
2669		-68.359375
2670		-64.453125
2671		-70.312500
2672		-62.500000
2673		-68.359375
2674		-60.546875
2675		-66.406250
2676		-58.593750
2677		-64.453125
2678		-56.640625
2679		-62.500000
2680		-54.687500
2681		-60.546875
2682		-52.734375
2683		-56.640625
2684		-52.734375
2685		-52.734375
2686		-48.828125
2687		-52.734375
2688		-44.921875
2689		-50.781250
2690		-41.015625
2691		-46.875000
2692		-39.062500
2693		-44.921875
2694		-35.156250
2695		-41.015625
2696		-33.203125
2697		-37.109375
2698		-29.296875
2699		-35.156250
2700		-27.343750
2701		-29.296875
2702		-25.390625
2703		-25.390625
2704		-19.531250
2705		-23.437500
2706		-15.625000
2707		-21.484375
2708		-11.718750
2709		-17.578125
2710		-7.812500
2711		-13.671875
2712		-3.906250
2713		-9.765625
2714		-1.953125
2715		-5.859375
2716		1.953125
2717		0.000000
2718		3.906250
2719		3.906250
2720		7.812500
2721		5.859375
2722		13.671875
2723		7.812500
2724		17.578125
2725		11.718750
2726		21.484375
2727		15.625000
2728		25.390625
2729		19.531250
2730		29.296875
2731		23.437500
2732		31.250000
2733		25.390625
2734		33.203125
2735		31.250000
2736		37.109375
2737		35.156250
2738		41.015625
2739		35.156250
2740		44.921875
2741		39.062500
2742		46.875000
2743		42.968750
2744		50.781250
2745		44.921875
2746		52.734375
2747		46.875000
2748		56.640625
2749		50.781250
2750		58.593750
2751		54.687500
2752		58.593750
2753		58.593750
2754		62.500000
2755		58.593750
2756		66.406250
2757		60.546875
2758		68.359375
2759		62.500000
2760		70.312500
2761		64.453125
2762		72.265625
2763		66.406250
2764		72.265625
2765		66.406250
2766		74.218750
2767		70.312500
2768		74.218750
2769		72.265625
2770		74.218750
2771		72.265625
2772		78.125000
2773		72.265625
2774		78.125000
2775		72.265625
2776		80.078125
2777		74.218750
2778		80.078125
2779		74.218750
2780		80.078125
2781		74.218750
2782		82.031250
2783		74.218750
2784		80.078125
2785		76.171875
2786		80.078125
2787		74.218750
2788		80.078125
2789		74.218750
2790		80.078125
2791		72.265625
2792		80.078125
2793		72.265625
2794		78.125000
2795		70.312500
2796		78.125000
2797		70.312500
2798		78.125000
2799		68.359375
2800		76.171875
2801		70.312500
2802		72.265625
2803		68.359375
2804		72.265625
2805		64.453125
2806		72.265625
2807		62.500000
2808		70.312500
2809		60.546875
2810		68.359375
2811		58.593750
2812		66.406250
2813		56.640625
2814		64.453125
2815		52.734375
2816		60.546875
2817		52.734375
2818		58.593750
2819		50.781250
2820		54.687500
2821		44.921875
2822		52.734375
2823		42.968750
2824		50.781250
2825		39.062500
2826		48.828125
2827		35.156250
2828		44.921875
2829		33.203125
2830		42.968750
2831		29.296875
2832		39.062500
2833		27.343750
2834		35.156250
2835		25.390625
2836		31.250000
2837		21.484375
2838		27.343750
2839		15.625000
2840		25.390625
2841		13.671875
2842		21.484375
2843		9.765625
2844		17.578125
2845		5.859375
2846		13.671875
2847		0.000000
2848		9.765625
2849		-3.906250
2850		5.859375
2851		-3.906250
2852		0.000000
2853		-7.812500
2854		-1.953125
2855		-13.671875
2856		-5.859375
2857		-17.578125
2858		-7.812500
2859		-21.484375
2860		-11.718750
2861		-23.437500
2862		-15.625000
2863		-27.343750
2864		-19.531250
2865		-31.250000
2866		-23.437500
2867		-33.203125
2868		-25.390625
2869		-35.156250
2870		-31.250000
2871		-41.015625
2872		-35.156250
2873		-44.921875
2874		-35.156250
2875		-46.875000
2876		-39.062500
2877		-50.781250
2878		-41.015625
2879		-54.687500
2880		-44.921875
2881		-56.640625
2882		-48.828125
2883		-58.593750
2884		-50.781250
2885		-58.593750
2886		-54.687500
2887		-62.500000
2888		-56.640625
2889		-64.453125
2890		-58.593750
2891		-66.406250
2892		-58.593750
2893		-68.359375
2894		-60.546875
2895		-70.312500
2896		-62.500000
2897		-70.312500
2898		-64.453125
2899		-72.265625
2900		-64.453125
2901		-72.265625
2902		-66.406250
2903		-72.265625
2904		-68.359375
2905		-74.218750
2906		-68.359375
2907		-74.218750
2908		-68.359375
2909		-74.218750
2910		-68.359375
2911		-74.218750
2912		-68.359375
2913		-74.218750
2914		-68.359375
2915		-74.218750
2916		-66.406250
2917		-74.218750
2918		-66.406250
2919		-70.312500
2920		-68.359375
2921		-70.312500
2922		-66.406250
2923		-70.312500
2924		-62.500000
2925		-70.312500
2926		-62.500000
2927		-68.359375
2928		-60.546875
2929		-66.406250
2930		-58.593750
2931		-64.453125
2932		-56.640625
2933		-62.500000
2934		-54.687500
2935		-58.593750
2936		-54.687500
2937		-56.640625
2938		-50.781250
2939		-52.734375
2940		-46.875000
2941		-52.734375
2942		-44.921875
2943		-50.781250
2944		-41.015625
2945		-46.875000
2946		-39.062500
2947		-44.921875
2948		-35.156250
2949		-41.015625
2950		-31.250000
2951		-37.109375
2952		-31.250000
2953		-31.250000
2954		-27.343750
2955		-29.296875
2956		-23.437500
2957		-27.343750
2958		-19.531250
2959		-23.437500
2960		-13.671875
2961		-19.531250
2962		-11.718750
2963		-15.625000
2964		-7.812500
2965		-11.718750
2966		-3.906250
2967		-9.765625
2968		-1.953125
2969		-3.906250
2970		1.953125
2971		0.000000
2972		5.859375
2973		1.953125
2974		11.718750
2975		5.859375
2976		15.625000
2977		9.765625
2978		17.578125
2979		13.671875
2980		21.484375
2981		15.625000
2982		25.390625
2983		19.531250
2984		29.296875
2985		23.437500
2986		29.296875
2987		29.296875
2988		33.203125
2989		33.203125
2990		39.062500
2991		33.203125
2992		42.968750
2993		37.109375
2994		44.921875
2995		39.062500
2996		48.828125
2997		42.968750
2998		50.781250
2999		44.921875
3000		54.687500
3001		48.828125
3002		56.640625
3003		52.734375
3004		56.640625
3005		54.687500
3006		60.546875
3007		56.640625
3008		64.453125
3009		58.593750
3010		66.406250
3011		60.546875
3012		68.359375
3013		62.500000
3014		70.312500
3015		64.453125
3016		72.265625
3017		66.406250
3018		74.218750
3019		68.359375
3020		72.265625
3021		70.312500
3022		74.218750
3023		70.312500
3024		76.171875
3025		70.312500
3026		78.125000
3027		72.265625
3028		78.125000
3029		72.265625
3030		80.078125
3031		72.265625
3032		80.078125
3033		74.218750
3034		80.078125
3035		74.218750
3036		80.078125
3037		76.171875
3038		78.125000
3039		76.171875
3040		80.078125
3041		74.218750
3042		80.078125
3043		72.265625
3044		80.078125
3045		72.265625
3046		80.078125
3047		72.265625
3048		78.125000
3049		70.312500
3050		78.125000
3051		68.359375
3052		76.171875
3053		70.312500
3054		74.218750
3055		68.359375
3056		72.265625
3057		66.406250
3058		72.265625
3059		64.453125
3060		72.265625
3061		62.500000
3062		70.312500
3063		58.593750
3064		68.359375
3065		56.640625
3066		66.406250
3067		54.687500
3068		62.500000
3069		54.687500
3070		60.546875
3071		52.734375
3072		56.640625
3073		48.828125
3074		54.687500
3075		44.921875
3076		52.734375
3077		41.015625
3078		50.781250
3079		39.062500
3080		48.828125
3081		35.156250
3082		44.921875
3083		31.250000
3084		41.015625
3085		29.296875
3086		37.109375
3087		27.343750
3088		33.203125
3089		23.437500
3090		29.296875
3091		17.578125
3092		27.343750
3093		15.625000
3094		25.390625
3095		11.718750
3096		21.484375
3097		7.812500
3098		17.578125
3099		3.906250
3100		13.671875
3101		0.000000
3102		9.765625
3103		-1.953125
3104		5.859375
3105		-5.859375
3106		0.000000
3107		-11.718750
3108		-3.906250
3109		-13.671875
3110		-5.859375
3111		-17.578125
3112		-7.812500
3113		-21.484375
3114		-13.671875
3115		-25.390625
3116		-17.578125
3117		-29.296875
3118		-19.531250
3119		-31.250000
3120		-23.437500
3121		-33.203125
3122		-29.296875
3123		-39.062500
3124		-31.250000
3125		-41.015625
3126		-33.203125
3127		-44.921875
3128		-37.109375
3129		-46.875000
3130		-39.062500
3131		-50.781250
3132		-42.968750
3133		-54.687500
3134		-44.921875
3135		-56.640625
3136		-48.828125
3137		-56.640625
3138		-52.734375
3139		-58.593750
3140		-54.687500
3141		-62.500000
3142		-56.640625
3143		-64.453125
3144		-56.640625
3145		-66.406250
3146		-58.593750
3147		-68.359375
3148		-60.546875
3149		-70.312500
3150		-62.500000
3151		-70.312500
3152		-62.500000
3153		-72.265625
3154		-64.453125
3155		-70.312500
3156		-68.359375
3157		-72.265625
3158		-68.359375
3159		-74.218750
3160		-66.406250
3161		-74.218750
3162		-68.359375
3163		-74.218750
3164		-68.359375
3165		-74.218750
3166		-68.359375
3167		-74.218750
3168		-68.359375
3169		-74.218750
3170		-66.406250
3171		-72.265625
3172		-68.359375
3173		-70.312500
3174		-68.359375
3175		-70.312500
3176		-64.453125
3177		-70.312500
3178		-62.500000
3179		-68.359375
3180		-62.500000
3181		-68.359375
3182		-60.546875
3183		-64.453125
3184		-56.640625
3185		-64.453125
3186		-56.640625
3187		-62.500000
3188		-54.687500
3189		-56.640625
3190		-52.734375
3191		-54.687500
3192		-48.828125
3193		-52.734375
3194		-46.875000
3195		-52.734375
3196		-42.968750
3197		-48.828125
3198		-41.015625
3199		-46.875000
3200		-37.109375
3201		-42.968750
3202		-35.156250
3203		-39.062500
3204		-33.203125
3205		-33.203125
3206		-29.296875
3207		-31.250000
3208		-23.437500
3209		-29.296875
3210		-19.531250
3211		-25.390625
3212		-17.578125
3213		-23.437500
3214		-13.671875
3215		-19.531250
3216		-9.765625
3217		-15.625000
3218		-5.859375
3219		-11.718750
3220		-1.953125
3221		-5.859375
3222		0.000000
3223		-1.953125
3224		1.953125
3225		0.000000
3226		9.765625
3227		3.906250
3228		13.671875
3229		7.812500
3230		17.578125
3231		11.718750
3232		19.531250
3233		13.671875
3234		23.437500
3235		17.578125
3236		27.343750
3237		21.484375
3238		29.296875
3239		27.343750
3240		31.250000
3241		29.296875
3242		37.109375
3243		31.250000
3244		41.015625
3245		35.156250
3246		42.968750
3247		37.109375
3248		46.875000
3249		41.015625
3250		48.828125
3251		42.968750
3252		52.734375
3253		46.875000
3254		54.687500
3255		50.781250
3256		56.640625
3257		54.687500
3258		58.593750
3259		54.687500
3260		62.500000
3261		56.640625
3262		64.453125
3263		58.593750
3264		66.406250
3265		60.546875
3266		68.359375
3267		62.500000
3268		70.312500
3269		64.453125
3270		72.265625
3271		66.406250
3272		72.265625
3273		70.312500
3274		74.218750
3275		70.312500
3276		78.125000
3277		70.312500
3278		78.125000
3279		72.265625
3280		78.125000
3281		72.265625
3282		80.078125
3283		74.218750
3284		80.078125
3285		74.218750
3286		80.078125
3287		74.218750
3288		80.078125
3289		76.171875
3290		80.078125
3291		74.218750
3292		80.078125
3293		74.218750
3294		80.078125
3295		74.218750
3296		80.078125
3297		74.218750
3298		80.078125
3299		72.265625
3300		80.078125
3301		72.265625
3302		80.078125
3303		70.312500
3304		78.125000
3305		72.265625
3306		74.218750
3307		70.312500
3308		74.218750
3309		66.406250
3310		74.218750
3311		64.453125
3312		72.265625
3313		62.500000
3314		72.265625
3315		60.546875
3316		68.359375
3317		60.546875
3318		68.359375
3319		56.640625
3320		64.453125
3321		56.640625
3322		62.500000
3323		54.687500
3324		58.593750
3325		48.828125
3326		56.640625
3327		46.875000
3328		54.687500
3329		44.921875
3330		52.734375
3331		41.015625
3332		48.828125
3333		39.062500
3334		46.875000
3335		35.156250
3336		42.968750
3337		31.250000
3338		41.015625
3339		29.296875
3340		35.156250
3341		27.343750
3342		31.250000
3343		21.484375
3344		29.296875
3345		17.578125
3346		25.390625
3347		13.671875
3348		23.437500
3349		9.765625
3350		19.531250
3351		5.859375
3352		15.625000
3353		1.953125
3354		11.718750
3355		1.953125
3356		7.812500
3357		-1.953125
3358		1.953125
3359		-7.812500
3360		0.000000
3361		-11.718750
3362		-1.953125
3363		-15.625000
3364		-5.859375
3365		-19.531250
3366		-9.765625
3367		-23.437500
3368		-13.671875
3369		-27.343750
3370		-17.578125
3371		-27.343750
3372		-21.484375
3373		-31.250000
3374		-27.343750
3375		-35.156250
3376		-29.296875
3377		-41.015625
3378		-31.250000
3379		-42.968750
3380		-35.156250
3381		-46.875000
3382		-37.109375
3383		-48.828125
3384		-41.015625
3385		-52.734375
3386		-44.921875
3387		-54.687500
3388		-46.875000
3389		-54.687500
3390		-50.781250
3391		-56.640625
3392		-52.734375
3393		-60.546875
3394		-54.687500
3395		-64.453125
3396		-56.640625
3397		-66.406250
3398		-58.593750
3399		-68.359375
3400		-60.546875
3401		-68.359375
3402		-60.546875
3403		-70.312500
3404		-62.500000
3405		-70.312500
3406		-64.453125
3407		-70.312500
3408		-66.406250
3409		-72.265625
3410		-66.406250
3411		-74.218750
3412		-66.406250
3413		-74.218750
3414		-66.406250
3415		-74.218750
3416		-68.359375
3417		-74.218750
3418		-66.406250
3419		-74.218750
3420		-66.406250
3421		-74.218750
3422		-66.406250
3423		-70.312500
3424		-68.359375
3425		-70.312500
3426		-68.359375
3427		-72.265625
3428		-64.453125
3429		-70.312500
3430		-62.500000
3431		-70.312500
3432		-62.500000
3433		-68.359375
3434		-60.546875
3435		-66.406250
3436		-58.593750
3437		-64.453125
3438		-56.640625
3439		-62.500000
3440		-56.640625
3441		-58.593750
3442		-54.687500
3443		-56.640625
3444		-50.781250
3445		-54.687500
3446		-48.828125
3447		-52.734375
3448		-44.921875
3449		-48.828125
3450		-42.968750
3451		-46.875000
3452		-39.062500
3453		-44.921875
3454		-37.109375
3455		-41.015625
3456		-35.156250
3457		-37.109375
3458		-31.250000
3459		-33.203125
3460		-29.296875
3461		-31.250000
3462		-21.484375
3463		-29.296875
3464		-19.531250
3465		-25.390625
3466		-15.625000
3467		-21.484375
3468		-11.718750
3469		-17.578125
3470		-7.812500
3471		-13.671875
3472		-5.859375
3473		-7.812500
3474		-3.906250
3475		-3.906250
3476		0.000000
3477		-1.953125
3478		5.859375
3479		1.953125
3480		9.765625
3481		3.906250
3482		13.671875
3483		7.812500
3484		17.578125
3485		11.718750
3486		21.484375
3487		15.625000
3488		25.390625
3489		19.531250
3490		27.343750
3491		25.390625
3492		29.296875
3493		29.296875
3494		35.156250
3495		29.296875
3496		37.109375
3497		33.203125
3498		41.015625
3499		35.156250
3500		44.921875
3501		39.062500
3502		46.875000
3503		42.968750
3504		50.781250
3505		44.921875
3506		54.687500
3507		50.781250
3508		54.687500
3509		52.734375
3510		56.640625
3511		52.734375
3512		60.546875
3513		56.640625
3514		64.453125
3515		56.640625
3516		66.406250
3517		60.546875
3518		68.359375
3519		62.500000
3520		70.312500
3521		64.453125
3522		70.312500
3523		66.406250
3524		72.265625
3525		70.312500
3526		72.265625
3527		70.312500
3528		76.171875
3529		70.312500
3530		78.125000
3531		70.312500
3532		78.125000
3533		72.265625
3534		78.125000
3535		72.265625
3536		80.078125
3537		74.218750
3538		80.078125
3539		74.218750
3540		80.078125
3541		76.171875
3542		78.125000
3543		76.171875
3544		78.125000
3545		74.218750
3546		82.031250
3547		74.218750
3548		82.031250
3549		74.218750
3550		80.078125
3551		74.218750
3552		80.078125
3553		72.265625
3554		80.078125
3555		72.265625
3556		78.125000
3557		72.265625
3558		76.171875
3559		72.265625
3560		74.218750
3561		68.359375
3562		74.218750
3563		66.406250
3564		74.218750
3565		64.453125
3566		72.265625
3567		62.500000
3568		70.312500
3569		60.546875
3570		68.359375
3571		58.593750
3572		66.406250
3573		58.593750
3574		64.453125
3575		56.640625
3576		60.546875
3577		52.734375
3578		58.593750
3579		48.828125
3580		56.640625
3581		46.875000
3582		54.687500
3583		42.968750
3584		52.734375
3585		41.015625
3586		48.828125
3587		37.109375
3588		44.921875
3589		35.156250
3590		42.968750
3591		33.203125
3592		39.062500
3593		29.296875
3594		33.203125
3595		23.437500
3596		31.250000
3597		21.484375
3598		29.296875
3599		17.578125
3600		25.390625
3601		13.671875
3602		21.484375
3603		9.765625
3604		17.578125
3605		5.859375
3606		15.625000
3607		3.906250
3608		9.765625
3609		0.000000
3610		5.859375
3611		-3.906250
3612		1.953125
3613		-7.812500
3614		0.000000
3615		-11.718750
3616		-3.906250
3617		-15.625000
3618		-7.812500
3619		-19.531250
3620		-11.718750
3621		-23.437500
3622		-13.671875
3623		-25.390625
3624		-19.531250
3625		-29.296875
3626		-23.437500
3627		-33.203125
3628		-27.343750
3629		-37.109375
3630		-29.296875
3631		-41.015625
3632		-31.250000
3633		-44.921875
3634		-35.156250
3635		-48.828125
3636		-39.062500
3637		-48.828125
3638		-41.015625
3639		-52.734375
3640		-42.968750
3641		-52.734375
3642		-48.828125
3643		-54.687500
3644		-50.781250
3645		-60.546875
3646		-52.734375
3647		-62.500000
3648		-52.734375
3649		-64.453125
3650		-56.640625
3651		-66.406250
3652		-58.593750
3653		-68.359375
3654		-60.546875
3655		-68.359375
3656		-62.500000
3657		-68.359375
3658		-62.500000
3659		-68.359375
3660		-66.406250
3661		-70.312500
3662		-66.406250
3663		-74.218750
3664		-66.406250
3665		-74.218750
3666		-66.406250
3667		-74.218750
3668		-66.406250
3669		-74.218750
3670		-66.406250
3671		-74.218750
3672		-68.359375
3673		-74.218750
3674		-66.406250
3675		-70.312500
3676		-68.359375
3677		-70.312500
3678		-68.359375
3679		-72.265625
3680		-64.453125
3681		-72.265625
3682		-64.453125
3683		-70.312500
3684		-62.500000
3685		-70.312500
3686		-60.546875
3687		-68.359375
3688		-60.546875
3689		-66.406250
3690		-58.593750
3691		-64.453125
3692		-58.593750
3693		-60.546875
3694		-56.640625
3695		-58.593750
3696		-52.734375
3697		-58.593750
3698		-48.828125
3699		-56.640625
3700		-46.875000
3701		-52.734375
3702		-44.921875
3703		-50.781250
3704		-41.015625
3705		-46.875000
3706		-39.062500
3707		-44.921875
3708		-37.109375
3709		-39.062500
3710		-33.203125
3711		-35.156250
3712		-31.250000
3713		-33.203125
3714		-25.390625
3715		-31.250000
3716		-21.484375
3717		-27.343750
3718		-19.531250
3719		-23.437500
3720		-15.625000
3721		-19.531250
3722		-11.718750
3723		-17.578125
3724		-7.812500
3725		-13.671875
3726		-5.859375
3727		-5.859375
3728		-1.953125
3729		-3.906250
3730		3.906250
3731		-1.953125
3732		7.812500
3733		1.953125
3734		11.718750
3735		5.859375
3736		15.625000
3737		9.765625
3738		19.531250
3739		13.671875
3740		21.484375
3741		17.578125
3742		23.437500
3743		23.437500
3744		27.343750
3745		25.390625
3746		31.250000
3747		27.343750
3748		35.156250
3749		31.250000
3750		39.062500
3751		35.156250
3752		42.968750
3753		37.109375
3754		44.921875
3755		39.062500
3756		48.828125
3757		42.968750
3758		50.781250
3759		46.875000
3760		52.734375
3761		50.781250
3762		54.687500
3763		52.734375
3764		60.546875
3765		52.734375
3766		62.500000
3767		54.687500
3768		62.500000
3769		60.546875
3770		64.453125
3771		60.546875
3772		68.359375
3773		64.453125
3774		70.312500
3775		64.453125
3776		70.312500
3777		68.359375
3778		72.265625
3779		68.359375
3780		74.218750
3781		68.359375
3782		76.171875
3783		70.312500
3784		78.125000
3785		74.218750
3786		76.171875
3787		72.265625
3788		78.125000
3789		72.265625
3790		80.078125
3791		74.218750
3792		80.078125
3793		76.171875
3794		78.125000
3795		76.171875
3796		78.125000
3797		74.218750
3798		82.031250
3799		74.218750
3800		80.078125
3801		76.171875
3802		80.078125
3803		74.218750
3804		80.078125
3805		74.218750
3806		78.125000
3807		72.265625
3808		78.125000
3809		72.265625
3810		78.125000
3811		72.265625
3812		76.171875
3813		68.359375
3814		76.171875
3815		68.359375
3816		74.218750
3817		68.359375
3818		72.265625
3819		66.406250
3820		70.312500
3821		64.453125
3822		68.359375
3823		60.546875
3824		66.406250
3825		58.593750
3826		66.406250
3827		58.593750
3828		62.500000
3829		54.687500
3830		58.593750
3831		50.781250
3832		58.593750
3833		50.781250
3834		54.687500
3835		46.875000
3836		50.781250
3837		44.921875
3838		48.828125
3839		41.015625
3840		46.875000
3841		37.109375
3842		44.921875
3843		35.156250
3844		39.062500
3845		31.250000
3846		37.109375
3847		25.390625
3848		33.203125
3849		23.437500
3850		31.250000
3851		21.484375
3852		27.343750
3853		17.578125
3854		23.437500
3855		13.671875
3856		19.531250
3857		9.765625
3858		15.625000
3859		5.859375
3860		11.718750
3861		1.953125
3862		7.812500
3863		0.000000
3864		3.906250
3865		-3.906250
3866		1.953125
3867		-9.765625
3868		-3.906250
3869		-11.718750
3870		-5.859375
3871		-15.625000
3872		-9.765625
3873		-19.531250
3874		-13.671875
3875		-23.437500
3876		-17.578125
3877		-27.343750
3878		-21.484375
3879		-29.296875
3880		-25.390625
3881		-33.203125
3882		-27.343750
3883		-37.109375
3884		-31.250000
3885		-39.062500
3886		-35.156250
3887		-42.968750
3888		-39.062500
3889		-44.921875
3890		-41.015625
3891		-48.828125
3892		-42.968750
3893		-50.781250
3894		-46.875000
3895		-52.734375
3896		-50.781250
3897		-56.640625
3898		-52.734375
3899		-58.593750
3900		-54.687500
3901		-60.546875
3902		-56.640625
3903		-62.500000
3904		-58.593750
3905		-64.453125
3906		-60.546875
3907		-66.406250
3908		-62.500000
3909		-68.359375
3910		-64.453125
3911		-68.359375
3912		-66.406250
3913		-70.312500
3914		-66.406250
3915		-70.312500
3916		-68.359375
3917		-72.265625
3918		-68.359375
3919		-72.265625
3920		-68.359375
3921		-72.265625
3922		-70.312500
3923		-72.265625
3924		-70.312500
3925		-74.218750
3926		-68.359375
3927		-72.265625
3928		-68.359375
3929		-70.312500
3930		-68.359375
3931		-72.265625
3932		-66.406250
3933		-70.312500
3934		-66.406250
3935		-68.359375
3936		-64.453125
3937		-68.359375
3938		-64.453125
3939		-66.406250
3940		-62.500000
3941		-64.453125
3942		-60.546875
3943		-64.453125
3944		-58.593750
3945		-60.546875
3946		-56.640625
3947		-58.593750
3948		-54.687500
3949		-56.640625
3950		-52.734375
3951		-54.687500
3952		-48.828125
3953		-52.734375
3954		-46.875000
3955		-48.828125
3956		-44.921875
3957		-46.875000
3958		-41.015625
3959		-42.968750
3960		-39.062500
3961		-41.015625
3962		-35.156250
3963		-37.109375
3964		-33.203125
3965		-35.156250
3966		-29.296875
3967		-31.250000
3968		-25.390625
3969		-27.343750
3970		-21.484375
3971		-23.437500
3972		-17.578125
3973		-19.531250
3974		-15.625000
3975		-17.578125
3976		-11.718750
3977		-13.671875
3978		-7.812500
3979		-9.765625
3980		-3.906250
3981		-5.859375
3982		0.000000
3983		-1.953125
3984		3.906250
3985		1.953125
3986		7.812500
3987		5.859375
3988		11.718750
3989		9.765625
3990		13.671875
3991		13.671875
3992		17.578125
3993		15.625000
3994		21.484375
3995		19.531250
3996		25.390625
3997		23.437500
3998		29.296875
3999		27.343750
4000		31.250000
4001		29.296875
4002		35.156250
4003		33.203125
4004		39.062500
4005		37.109375
4006		41.015625
4007		41.015625
4008		46.875000
4009		42.968750
4010		48.828125
4011		46.875000
4012		50.781250
4013		48.828125
4014		52.734375
4015		50.781250
4016		56.640625
4017		54.687500
4018		58.593750
4019		56.640625
4020		60.546875
4021		58.593750
4022		64.453125
4023		60.546875
4024		66.406250
4025		62.500000
4026		66.406250
4027		64.453125
4028		70.312500
4029		68.359375
4030		70.312500
4031		68.359375
4032		74.218750
4033		70.312500
4034		74.218750
4035		72.265625
4036		76.171875
4037		72.265625
4038		76.171875
4039		74.218750
4040		78.125000
4041		74.218750
4042		78.125000
4043		76.171875
4044		78.125000
4045		76.171875
4046		78.125000
4047		76.171875
4048		78.125000
4049		76.171875
4050		80.078125
4051		76.171875
4052		80.078125
4053		76.171875
4054		80.078125
4055		76.171875
4056		80.078125
4057		76.171875
4058		78.125000
4059		74.218750
4060		78.125000
4061		74.218750
4062		78.125000
4063		74.218750
4064		76.171875
4065		72.265625
4066		76.171875
4067		70.312500
4068		74.218750
4069		68.359375
4070		74.218750
4071		68.359375
4072		72.265625
4073		66.406250
4074		70.312500
4075		64.453125
4076		68.359375
4077		62.500000
4078		66.406250
4079		60.546875
4080		64.453125
4081		56.640625
4082		62.500000
4083		54.687500
4084		60.546875
4085		52.734375
4086		56.640625
4087		48.828125
4088		54.687500
4089		46.875000
4090		50.781250
4091		42.968750
4092		48.828125
4093		39.062500
4094		44.921875
4095		37.109375
4096		42.968750
4097		33.203125
4098		39.062500
4099		31.250000
4100		35.156250
4101		27.343750
4102		33.203125
4103		23.437500
4104		29.296875
4105		19.531250
4106		25.390625
4107		17.578125
4108		21.484375
4109		11.718750
4110		17.578125
4111		9.765625
4112		13.671875
4113		5.859375
4114		11.718750
4115		1.953125
4116		7.812500
4117		-1.953125
4118		3.906250
4119		-5.859375
4120		0.000000
4121		-9.765625
4122		-3.906250
4123		-13.671875
4124		-7.812500
4125		-15.625000
4126		-9.765625
4127		-21.484375
4128		-15.625000
4129		-23.437500
4130		-19.531250
4131		-27.343750
4132		-21.484375
4133		-31.250000
4134		-25.390625
4135		-33.203125
4136		-29.296875
4137		-37.109375
4138		-31.250000
4139		-41.015625
4140		-35.156250
4141		-42.968750
4142		-39.062500
4143		-46.875000
4144		-41.015625
4145		-48.828125
4146		-44.921875
4147		-50.781250
4148		-46.875000
4149		-54.687500
4150		-50.781250
4151		-56.640625
4152		-52.734375
4153		-60.546875
4154		-54.687500
4155		-60.546875
4156		-56.640625
4157		-62.500000
4158		-58.593750
4159		-66.406250
4160		-60.546875
4161		-66.406250
4162		-62.500000
4163		-66.406250
4164		-64.453125
4165		-68.359375
4166		-66.406250
4167		-70.312500
4168		-66.406250
4169		-70.312500
4170		-68.359375
4171		-70.312500
4172		-68.359375
4173		-72.265625
4174		-68.359375
4175		-72.265625
4176		-68.359375
4177		-72.265625
4178		-68.359375
4179		-72.265625
4180		-68.359375
4181		-70.312500
4182		-68.359375
4183		-72.265625
4184		-68.359375
4185		-70.312500
4186		-66.406250
4187		-70.312500
4188		-66.406250
4189		-68.359375
4190		-66.406250
4191		-66.406250
4192		-64.453125
4193		-66.406250
4194		-62.500000
4195		-64.453125
4196		-60.546875
4197		-62.500000
4198		-58.593750
4199		-60.546875
4200		-56.640625
4201		-58.593750
4202		-54.687500
4203		-56.640625
4204		-52.734375
4205		-54.687500
4206		-48.828125
4207		-50.781250
4208		-46.875000
4209		-48.828125
4210		-42.968750
4211		-44.921875
4212		-41.015625
4213		-42.968750
4214		-37.109375
4215		-39.062500
4216		-35.156250
4217		-37.109375
4218		-31.250000
4219		-33.203125
4220		-29.296875
4221		-29.296875
4222		-25.390625
4223		-25.390625
4224		-21.484375
4225		-23.437500
4226		-17.578125
4227		-19.531250
4228		-13.671875
4229		-15.625000
4230		-9.765625
4231		-11.718750
4232		-7.812500
4233		-7.812500
4234		-1.953125
4235		-3.906250
4236		0.000000
4237		0.000000
4238		3.906250
4239		1.953125
4240		7.812500
4241		5.859375
4242		11.718750
4243		9.765625
4244		15.625000
4245		13.671875
4246		19.531250
4247		17.578125
4248		21.484375
4249		21.484375
4250		25.390625
4251		23.437500
4252		29.296875
4253		27.343750
4254		33.203125
4255		31.250000
4256		37.109375
4257		35.156250
4258		39.062500
4259		37.109375
4260		42.968750
4261		41.015625
4262		44.921875
4263		42.968750
4264		48.828125
4265		46.875000
4266		50.781250
4267		50.781250
4268		54.687500
4269		52.734375
4270		56.640625
4271		54.687500
4272		58.593750
4273		56.640625
4274		62.500000
4275		60.546875
4276		64.453125
4277		62.500000
4278		66.406250
4279		64.453125
4280		68.359375
4281		66.406250
4282		70.312500
4283		68.359375
4284		72.265625
4285		70.312500
4286		72.265625
4287		70.312500
4288		74.218750
4289		72.265625
4290		76.171875
4291		74.218750
4292		76.171875
4293		74.218750
4294		76.171875
4295		76.171875
4296		78.125000
4297		76.171875
4298		78.125000
4299		76.171875
4300		78.125000
4301		76.171875
4302		80.078125
4303		76.171875
4304		80.078125
4305		76.171875
4306		80.078125
4307		76.171875
4308		80.078125
4309		76.171875
4310		80.078125
4311		76.171875
4312		78.125000
4313		76.171875
4314		78.125000
4315		74.218750
4316		76.171875
4317		72.265625
4318		76.171875
4319		72.265625
4320		76.171875
4321		70.312500
4322		74.218750
4323		68.359375
4324		72.265625
4325		66.406250
4326		70.312500
4327		64.453125
4328		68.359375
4329		62.500000
4330		68.359375
4331		60.546875
4332		64.453125
4333		58.593750
4334		62.500000
4335		56.640625
4336		62.500000
4337		52.734375
4338		58.593750
4339		50.781250
4340		54.687500
4341		48.828125
4342		52.734375
4343		44.921875
4344		50.781250
4345		42.968750
4346		46.875000
4347		39.062500
4348		44.921875
4349		37.109375
4350		41.015625
4351		33.203125
4352		37.109375
4353		29.296875
4354		35.156250
4355		25.390625
4356		31.250000
4357		21.484375
4358		27.343750
4359		19.531250
4360		23.437500
4361		15.625000
4362		21.484375
4363		11.718750
4364		17.578125
4365		7.812500
4366		13.671875
4367		3.906250
4368		9.765625
4369		0.000000
4370		5.859375
4371		-1.953125
4372		1.953125
4373		-5.859375
4374		-1.953125
4375		-9.765625
4376		-5.859375
4377		-13.671875
4378		-9.765625
4379		-17.578125
4380		-13.671875
4381		-21.484375
4382		-15.625000
4383		-25.390625
4384		-19.531250
4385		-29.296875
4386		-23.437500
4387		-31.250000
4388		-27.343750
4389		-35.156250
4390		-29.296875
4391		-39.062500
4392		-33.203125
4393		-41.015625
4394		-37.109375
4395		-44.921875
4396		-39.062500
4397		-46.875000
4398		-42.968750
4399		-50.781250
4400		-44.921875
4401		-52.734375
4402		-48.828125
4403		-54.687500
4404		-50.781250
4405		-58.593750
4406		-52.734375
4407		-60.546875
4408		-56.640625
4409		-62.500000
4410		-58.593750
4411		-62.500000
4412		-60.546875
4413		-66.406250
4414		-60.546875
4415		-66.406250
4416		-64.453125
4417		-68.359375
4418		-64.453125
4419		-70.312500
4420		-64.453125
4421		-70.312500
4422		-66.406250
4423		-70.312500
4424		-68.359375
4425		-72.265625
4426		-68.359375
4427		-72.265625
4428		-68.359375
4429		-72.265625
4430		-68.359375
4431		-72.265625
4432		-68.359375
4433		-72.265625
4434		-68.359375
4435		-72.265625
4436		-68.359375
4437		-70.312500
4438		-68.359375
4439		-70.312500
4440		-66.406250
4441		-70.312500
4442		-66.406250
4443		-68.359375
4444		-64.453125
4445		-66.406250
4446		-62.500000
4447		-64.453125
4448		-60.546875
4449		-62.500000
4450		-60.546875
4451		-62.500000
4452		-58.593750
4453		-60.546875
4454		-54.687500
4455		-58.593750
4456		-52.734375
4457		-54.687500
4458		-50.781250
4459		-52.734375
4460		-48.828125
4461		-50.781250
4462		-46.875000
4463		-46.875000
4464		-41.015625
4465		-44.921875
4466		-41.015625
4467		-41.015625
4468		-37.109375
4469		-39.062500
4470		-33.203125
4471		-35.156250
4472		-31.250000
4473		-31.250000
4474		-25.390625
4475		-29.296875
4476		-23.437500
4477		-25.390625
4478		-19.531250
4479		-21.484375
4480		-17.578125
4481		-17.578125
4482		-13.671875
4483		-13.671875
4484		-9.765625
4485		-9.765625
4486		-5.859375
4487		-7.812500
4488		-1.953125
4489		-3.906250
4490		3.906250
4491		0.000000
4492		5.859375
4493		3.906250
4494		9.765625
4495		7.812500
4496		13.671875
4497		11.718750
4498		17.578125
4499		15.625000
4500		19.531250
4501		19.531250
4502		23.437500
4503		21.484375
4504		27.343750
4505		25.390625
4506		31.250000
4507		29.296875
4508		35.156250
4509		33.203125
4510		39.062500
4511		37.109375
4512		41.015625
4513		39.062500
4514		42.968750
4515		42.968750
4516		46.875000
4517		44.921875
4518		48.828125
4519		48.828125
4520		52.734375
4521		50.781250
4522		54.687500
4523		52.734375
4524		58.593750
4525		56.640625
4526		60.546875
4527		58.593750
4528		62.500000
4529		60.546875
4530		64.453125
4531		62.500000
4532		66.406250
4533		64.453125
4534		68.359375
4535		66.406250
4536		72.265625
4537		68.359375
4538		72.265625
4539		70.312500
4540		74.218750
4541		70.312500
4542		74.218750
4543		72.265625
4544		76.171875
4545		74.218750
4546		76.171875
4547		74.218750
4548		78.125000
4549		76.171875
4550		78.125000
4551		76.171875
4552		78.125000
4553		76.171875
4554		80.078125
4555		76.171875
4556		80.078125
4557		76.171875
4558		80.078125
4559		76.171875
4560		80.078125
4561		76.171875
4562		80.078125
4563		76.171875
4564		80.078125
4565		74.218750
4566		80.078125
4567		74.218750
4568		78.125000
4569		74.218750
4570		76.171875
4571		72.265625
4572		76.171875
4573		72.265625
4574		74.218750
4575		70.312500
4576		74.218750
4577		68.359375
4578		72.265625
4579		66.406250
4580		70.312500
4581		64.453125
4582		68.359375
4583		62.500000
4584		66.406250
4585		60.546875
4586		64.453125
4587		58.593750
4588		62.500000
4589		56.640625
4590		60.546875
4591		52.734375
4592		58.593750
4593		48.828125
4594		54.687500
4595		48.828125
4596		52.734375
4597		44.921875
4598		48.828125
4599		41.015625
4600		46.875000
4601		39.062500
4602		42.968750
4603		35.156250
4604		39.062500
4605		31.250000
4606		37.109375
4607		29.296875
4608		35.156250
4609		25.390625
4610		31.250000
4611		21.484375
4612		27.343750
4613		17.578125
4614		23.437500
4615		15.625000
4616		19.531250
4617		9.765625
4618		15.625000
4619		7.812500
4620		11.718750
4621		3.906250
4622		9.765625
4623		0.000000
4624		5.859375
4625		-3.906250
4626		1.953125
4627		-7.812500
4628		-1.953125
4629		-11.718750
4630		-5.859375
4631		-17.578125
4632		-9.765625
4633		-19.531250
4634		-13.671875
4635		-21.484375
4636		-17.578125
4637		-25.390625
4638		-21.484375
4639		-29.296875
4640		-23.437500
4641		-33.203125
4642		-27.343750
4643		-35.156250
4644		-31.250000
4645		-39.062500
4646		-35.156250
4647		-41.015625
4648		-37.109375
4649		-44.921875
4650		-41.015625
4651		-48.828125
4652		-42.968750
4653		-50.781250
4654		-46.875000
4655		-54.687500
4656		-48.828125
4657		-54.687500
4658		-50.781250
4659		-58.593750
4660		-52.734375
4661		-60.546875
4662		-56.640625
4663		-62.500000
4664		-58.593750
4665		-64.453125
4666		-60.546875
4667		-64.453125
4668		-62.500000
4669		-66.406250
4670		-64.453125
4671		-68.359375
4672		-64.453125
4673		-70.312500
4674		-66.406250
4675		-70.312500
4676		-66.406250
4677		-72.265625
4678		-68.359375
4679		-72.265625
4680		-68.359375
4681		-72.265625
4682		-68.359375
4683		-72.265625
4684		-68.359375
4685		-72.265625
4686		-68.359375
4687		-72.265625
4688		-68.359375
4689		-72.265625
4690		-68.359375
4691		-70.312500
4692		-66.406250
4693		-70.312500
4694		-66.406250
4695		-70.312500
4696		-64.453125
4697		-68.359375
4698		-62.500000
4699		-66.406250
4700		-62.500000
4701		-64.453125
4702		-60.546875
4703		-62.500000
4704		-58.593750
4705		-62.500000
4706		-56.640625
4707		-60.546875
4708		-54.687500
4709		-56.640625
4710		-52.734375
4711		-54.687500
4712		-50.781250
4713		-52.734375
4714		-46.875000
4715		-48.828125
4716		-42.968750
4717		-46.875000
4718		-42.968750
4719		-42.968750
4720		-39.062500
4721		-41.015625
4722		-35.156250
4723		-37.109375
4724		-31.250000
4725		-33.203125
4726		-29.296875
4727		-31.250000
4728		-25.390625
4729		-27.343750
4730		-21.484375
4731		-25.390625
4732		-19.531250
4733		-19.531250
4734		-15.625000
4735		-17.578125
4736		-11.718750
4737		-13.671875
4738		-7.812500
4739		-9.765625
4740		-3.906250
4741		-5.859375
4742		0.000000
4743		-1.953125
4744		3.906250
4745		1.953125
4746		7.812500
4747		3.906250
4748		9.765625
4749		9.765625
4750		13.671875
4751		13.671875
4752		17.578125
4753		15.625000
4754		21.484375
4755		19.531250
4756		25.390625
4757		23.437500
4758		29.296875
4759		27.343750
4760		31.250000
4761		31.250000
4762		35.156250
4763		33.203125
4764		39.062500
4765		37.109375
4766		42.968750
4767		39.062500
4768		44.921875
4769		42.968750
4770		46.875000
4771		46.875000
4772		50.781250
4773		48.828125
4774		52.734375
4775		50.781250
4776		56.640625
4777		54.687500
4778		58.593750
4779		56.640625
4780		62.500000
4781		58.593750
4782		64.453125
4783		62.500000
4784		64.453125
4785		64.453125
4786		66.406250
4787		66.406250
4788		68.359375
4789		66.406250
4790		70.312500
4791		68.359375
4792		72.265625
4793		70.312500
4794		74.218750
4795		72.265625
4796		74.218750
4797		72.265625
4798		76.171875
4799		74.218750
4800		78.125000
4801		76.171875
4802		78.125000
4803		76.171875
4804		78.125000
4805		76.171875
4806		80.078125
4807		76.171875
4808		80.078125
4809		76.171875
4810		80.078125
4811		76.171875
4812		80.078125
4813		76.171875
4814		80.078125
4815		76.171875
4816		80.078125
4817		76.171875
4818		80.078125
4819		74.218750
4820		78.125000
4821		74.218750
4822		78.125000
4823		74.218750
4824		78.125000
4825		72.265625
4826		76.171875
4827		70.312500
4828		74.218750
4829		70.312500
4830		72.265625
4831		68.359375
4832		72.265625
4833		64.453125
4834		70.312500
4835		64.453125
4836		68.359375
4837		62.500000
4838		66.406250
4839		60.546875
4840		64.453125
4841		58.593750
4842		62.500000
4843		54.687500
4844		60.546875
4845		52.734375
4846		56.640625
4847		48.828125
4848		54.687500
4849		46.875000
4850		50.781250
4851		44.921875
4852		48.828125
4853		41.015625
4854		44.921875
4855		37.109375
4856		42.968750
4857		33.203125
4858		39.062500
4859		31.250000
4860		35.156250
4861		27.343750
4862		33.203125
4863		23.437500
4864		29.296875
4865		21.484375
4866		25.390625
4867		17.578125
4868		23.437500
4869		13.671875
4870		19.531250
4871		9.765625
4872		15.625000
4873		5.859375
4874		11.718750
4875		1.953125
4876		7.812500
4877		-1.953125
4878		3.906250
4879		-5.859375
4880		0.000000
4881		-9.765625
4882		-3.906250
4883		-11.718750
4884		-5.859375
4885		-15.625000
4886		-9.765625
4887		-19.531250
4888		-15.625000
4889		-23.437500
4890		-17.578125
4891		-27.343750
4892		-21.484375
4893		-31.250000
4894		-25.390625
4895		-33.203125
4896		-27.343750
4897		-37.109375
4898		-31.250000
4899		-39.062500
4900		-35.156250
4901		-42.968750
4902		-39.062500
4903		-44.921875
4904		-41.015625
4905		-48.828125
4906		-44.921875
4907		-52.734375
4908		-46.875000
4909		-54.687500
4910		-50.781250
4911		-56.640625
4912		-52.734375
4913		-58.593750
4914		-54.687500
4915		-60.546875
4916		-56.640625
4917		-64.453125
4918		-58.593750
4919		-64.453125
4920		-60.546875
4921		-66.406250
4922		-62.500000
4923		-68.359375
4924		-64.453125
4925		-68.359375
4926		-64.453125
4927		-70.312500
4928		-66.406250
4929		-70.312500
4930		-66.406250
4931		-70.312500
4932		-68.359375
4933		-72.265625
4934		-68.359375
4935		-72.265625
4936		-68.359375
4937		-72.265625
4938		-68.359375
4939		-72.265625
4940		-68.359375
4941		-70.312500
4942		-68.359375
4943		-72.265625
4944		-68.359375
4945		-70.312500
4946		-66.406250
4947		-68.359375
4948		-66.406250
4949		-68.359375
4950		-64.453125
4951		-68.359375
4952		-62.500000
4953		-66.406250
4954		-62.500000
4955		-64.453125
4956		-60.546875
4957		-62.500000
4958		-58.593750
4959		-60.546875
4960		-56.640625
4961		-58.593750
4962		-54.687500
4963		-56.640625
4964		-52.734375
4965		-54.687500
4966		-48.828125
4967		-50.781250
4968		-46.875000
4969		-50.781250
4970		-42.968750
4971		-44.921875
4972		-41.015625
4973		-42.968750
4974		-37.109375
4975		-39.062500
4976		-33.203125
4977		-35.156250
4978		-31.250000
4979		-33.203125
4980		-27.343750
4981		-29.296875
4982		-25.390625
4983		-27.343750
4984		-21.484375
4985		-23.437500
4986		-17.578125
4987		-19.531250
4988		-13.671875
4989		-15.625000
4990		-9.765625
4991		-11.718750
4992		-5.859375
4993		-7.812500
4994		-3.906250
4995		-5.859375
4996		0.000000
4997		0.000000
4998		3.906250
4999		1.953125
5000		7.812500
5001		5.859375
5002		11.718750
5003		9.765625
5004		15.625000
5005		13.671875
5006		19.531250
5007		17.578125
5008		23.437500
5009		21.484375
5010		25.390625
5011		25.390625
5012		29.296875
5013		29.296875
5014		33.203125
5015		31.250000
5016		37.109375
5017		35.156250
5018		39.062500
5019		39.062500
5020		42.968750
5021		41.015625
5022		46.875000
5023		44.921875
5024		48.828125
5025		46.875000
5026		50.781250
5027		50.781250
5028		54.687500
5029		52.734375
5030		56.640625
5031		54.687500
5032		60.546875
5033		58.593750
5034		62.500000
5035		60.546875
5036		64.453125
5037		62.500000
5038		66.406250
5039		64.453125
5040		68.359375
5041		66.406250
5042		70.312500
5043		68.359375
5044		72.265625
5045		70.312500
5046		72.265625
5047		70.312500
5048		74.218750
5049		72.265625
5050		76.171875
5051		72.265625
5052		76.171875
5053		74.218750
5054		78.125000
5055		76.171875
5056		78.125000
5057		76.171875
5058		80.078125
5059		76.171875
5060		80.078125
5061		76.171875
5062		80.078125
5063		76.171875
5064		80.078125
5065		76.171875
5066		80.078125
5067		76.171875
5068		80.078125
5069		76.171875
5070		80.078125
5071		76.171875
5072		78.125000
5073		74.218750
5074		78.125000
5075		74.218750
5076		78.125000
5077		74.218750
5078		76.171875
5079		72.265625
5080		76.171875
5081		70.312500
5082		74.218750
5083		70.312500
5084		74.218750
5085		66.406250
5086		72.265625
5087		66.406250
5088		68.359375
5089		64.453125
5090		68.359375
5091		62.500000
5092		66.406250
5093		60.546875
5094		64.453125
5095		56.640625
5096		60.546875
5097		54.687500
5098		58.593750
5099		50.781250
5100		56.640625
5101		48.828125
5102		52.734375
5103		46.875000
5104		50.781250
5105		42.968750
5106		48.828125
5107		41.015625
5108		44.921875
5109		37.109375
5110		42.968750
5111		33.203125
5112		39.062500
5113		29.296875
5114		35.156250
5115		27.343750
5116		33.203125
5117		23.437500
5118		29.296875
5119		19.531250
5120		25.390625
5121		15.625000
5122		21.484375
5123		13.671875
5124		17.578125
5125		9.765625
5126		13.671875
5127		5.859375
5128		9.765625
5129		1.953125
5130		5.859375
5131		-1.953125
5132		1.953125
5133		-5.859375
5134		0.000000
5135		-9.765625
5136		-3.906250
5137		-13.671875
5138		-7.812500
5139		-17.578125
5140		-11.718750
5141		-21.484375
5142		-15.625000
5143		-23.437500
5144		-19.531250
5145		-27.343750
5146		-21.484375
5147		-31.250000
5148		-25.390625
5149		-35.156250
5150		-29.296875
5151		-37.109375
5152		-33.203125
5153		-41.015625
5154		-35.156250
5155		-42.968750
5156		-39.062500
5157		-48.828125
5158		-42.968750
5159		-48.828125
5160		-44.921875
5161		-52.734375
5162		-46.875000
5163		-54.687500
5164		-50.781250
5165		-56.640625
5166		-52.734375
5167		-58.593750
5168		-54.687500
5169		-62.500000
5170		-56.640625
5171		-62.500000
5172		-60.546875
5173		-64.453125
5174		-60.546875
5175		-66.406250
5176		-62.500000
5177		-66.406250
5178		-64.453125
5179		-68.359375
5180		-66.406250
5181		-70.312500
5182		-66.406250
5183		-70.312500
5184		-66.406250
5185		-70.312500
5186		-68.359375
5187		-72.265625
5188		-68.359375
5189		-72.265625
5190		-68.359375
5191		-72.265625
5192		-68.359375
5193		-72.265625
5194		-68.359375
5195		-70.312500
5196		-68.359375
5197		-72.265625
5198		-68.359375
5199		-70.312500
5200		-66.406250
5201		-68.359375
5202		-66.406250
5203		-68.359375
5204		-64.453125
5205		-66.406250
5206		-64.453125
5207		-64.453125
5208		-62.500000
5209		-64.453125
5210		-60.546875
5211		-62.500000
5212		-58.593750
5213		-60.546875
5214		-54.687500
5215		-58.593750
5216		-52.734375
5217		-54.687500
5218		-50.781250
5219		-52.734375
5220		-48.828125
5221		-50.781250
5222		-46.875000
5223		-48.828125
5224		-42.968750
5225		-44.921875
5226		-39.062500
5227		-41.015625
5228		-37.109375
5229		-39.062500
5230		-33.203125
5231		-35.156250
5232		-29.296875
5233		-31.250000
5234		-27.343750
5235		-29.296875
5236		-23.437500
5237		-25.390625
5238		-19.531250
5239		-21.484375
5240		-17.578125
5241		-17.578125
5242		-13.671875
5243		-15.625000
5244		-9.765625
5245		-11.718750
5246		-5.859375
5247		-7.812500
5248		-1.953125
5249		-3.906250
5250		1.953125
5251		0.000000
5252		5.859375
5253		3.906250
5254		9.765625
5255		7.812500
5256		13.671875
5257		11.718750
5258		15.625000
5259		15.625000
5260		19.531250
5261		17.578125
5262		23.437500
5263		21.484375
5264		27.343750
5265		23.437500
5266		31.250000
5267		29.296875
5268		35.156250
5269		31.250000
5270		37.109375
5271		35.156250
5272		41.015625
5273		39.062500
5274		42.968750
5275		42.968750
5276		46.875000
5277		44.921875
5278		50.781250
5279		48.828125
5280		52.734375
5281		50.781250
5282		54.687500
5283		52.734375
5284		58.593750
5285		56.640625
5286		60.546875
5287		58.593750
5288		62.500000
5289		60.546875
5290		64.453125
5291		62.500000
5292		66.406250
5293		64.453125
5294		68.359375
5295		66.406250
5296		70.312500
5297		68.359375
5298		72.265625
5299		68.359375
5300		74.218750
5301		70.312500
5302		74.218750
5303		72.265625
5304		76.171875
5305		72.265625
5306		76.171875
5307		74.218750
5308		78.125000
5309		76.171875
5310		80.078125
5311		76.171875
5312		80.078125
5313		76.171875
5314		80.078125
5315		78.125000
5316		80.078125
5317		76.171875
5318		80.078125
5319		76.171875
5320		80.078125
5321		76.171875
5322		80.078125
5323		76.171875
5324		80.078125
5325		76.171875
5326		78.125000
5327		74.218750
5328		78.125000
5329		74.218750
5330		78.125000
5331		72.265625
5332		76.171875
5333		72.265625
5334		74.218750
5335		70.312500
5336		74.218750
5337		68.359375
5338		72.265625
5339		66.406250
5340		72.265625
5341		64.453125
5342		68.359375
5343		62.500000
5344		66.406250
5345		60.546875
5346		64.453125
5347		58.593750
5348		62.500000
5349		56.640625
5350		60.546875
5351		52.734375
5352		58.593750
5353		50.781250
5354		56.640625
5355		48.828125
5356		52.734375
5357		44.921875
5358		50.781250
5359		41.015625
5360		46.875000
5361		39.062500
5362		42.968750
5363		35.156250
5364		41.015625
5365		33.203125
5366		37.109375
5367		29.296875
5368		35.156250
5369		25.390625
5370		31.250000
5371		21.484375
5372		27.343750
5373		19.531250
5374		23.437500
5375		15.625000
5376		19.531250
5377		9.765625
5378		17.578125
5379		7.812500
5380		13.671875
5381		3.906250
5382		9.765625
5383		0.000000
5384		5.859375
5385		-3.906250
5386		1.953125
5387		-7.812500
5388		-1.953125
5389		-9.765625
5390		-5.859375
5391		-13.671875
5392		-9.765625
5393		-17.578125
5394		-13.671875
5395		-21.484375
5396		-17.578125
5397		-25.390625
5398		-19.531250
5399		-29.296875
5400		-23.437500
5401		-33.203125
5402		-27.343750
5403		-35.156250
5404		-31.250000
5405		-39.062500
5406		-33.203125
5407		-41.015625
5408		-37.109375
5409		-44.921875
5410		-41.015625
5411		-46.875000
5412		-42.968750
5413		-50.781250
5414		-44.921875
5415		-52.734375
5416		-48.828125
5417		-54.687500
5418		-50.781250
5419		-56.640625
5420		-52.734375
5421		-60.546875
5422		-54.687500
5423		-62.500000
5424		-56.640625
5425		-62.500000
5426		-60.546875
5427		-66.406250
5428		-60.546875
5429		-66.406250
5430		-62.500000
5431		-68.359375
5432		-64.453125
5433		-70.312500
5434		-66.406250
5435		-70.312500
5436		-66.406250
5437		-70.312500
5438		-68.359375
5439		-72.265625
5440		-68.359375
5441		-72.265625
5442		-68.359375
5443		-72.265625
5444		-68.359375
5445		-72.265625
5446		-68.359375
5447		-72.265625
5448		-68.359375
5449		-70.312500
5450		-68.359375
5451		-70.312500
5452		-68.359375
5453		-70.312500
5454		-66.406250
5455		-68.359375
5456		-64.453125
5457		-66.406250
5458		-64.453125
5459		-66.406250
5460		-62.500000
5461		-64.453125
5462		-60.546875
5463		-62.500000
5464		-58.593750
5465		-60.546875
5466		-56.640625
5467		-58.593750
5468		-54.687500
5469		-56.640625
5470		-52.734375
5471		-54.687500
5472		-50.781250
5473		-52.734375
5474		-46.875000
5475		-48.828125
5476		-44.921875
5477		-46.875000
5478		-41.015625
5479		-42.968750
5480		-39.062500
5481		-41.015625
5482		-35.156250
5483		-37.109375
5484		-33.203125
5485		-35.156250
5486		-29.296875
5487		-31.250000
5488		-25.390625
5489		-27.343750
5490		-21.484375
5491		-23.437500
5492		-19.531250
5493		-19.531250
5494		-15.625000
5495		-17.578125
5496		-11.718750
5497		-13.671875
5498		-7.812500
5499		-9.765625
5500		-3.906250
5501		-5.859375
5502		0.000000
5503		-1.953125
5504		1.953125
5505		1.953125
5506		7.812500
5507		5.859375
5508		9.765625
5509		9.765625
5510		13.671875
5511		13.671875
5512		17.578125
5513		15.625000
5514		23.437500
5515		19.531250
5516		25.390625
5517		23.437500
5518		29.296875
5519		27.343750
5520		31.250000
5521		29.296875
5522		35.156250
5523		33.203125
5524		39.062500
5525		37.109375
5526		41.015625
5527		41.015625
5528		44.921875
5529		42.968750
5530		48.828125
5531		46.875000
5532		50.781250
5533		48.828125
5534		52.734375
5535		50.781250
5536		56.640625
5537		54.687500
5538		58.593750
5539		56.640625
5540		62.500000
5541		60.546875
5542		62.500000
5543		62.500000
5544		66.406250
5545		62.500000
5546		68.359375
5547		66.406250
5548		70.312500
5549		68.359375
5550		72.265625
5551		70.312500
5552		72.265625
5553		70.312500
5554		74.218750
5555		72.265625
5556		76.171875
5557		72.265625
5558		78.125000
5559		74.218750
5560		78.125000
5561		74.218750
5562		80.078125
5563		76.171875
5564		80.078125
5565		76.171875
5566		80.078125
5567		76.171875
5568		80.078125
5569		78.125000
5570		80.078125
5571		78.125000
5572		80.078125
5573		76.171875
5574		80.078125
5575		78.125000
5576		80.078125
5577		76.171875
5578		78.125000
5579		76.171875
5580		80.078125
5581		74.218750
5582		78.125000
5583		74.218750
5584		76.171875
5585		72.265625
5586		76.171875
5587		72.265625
5588		74.218750
5589		70.312500
5590		74.218750
5591		68.359375
5592		72.265625
5593		66.406250
5594		70.312500
5595		64.453125
5596		68.359375
5597		62.500000
5598		66.406250
5599		60.546875
5600		64.453125
5601		58.593750
5602		62.500000
5603		56.640625
5604		60.546875
5605		52.734375
5606		58.593750
5607		50.781250
5608		54.687500
5609		46.875000
5610		52.734375
5611		42.968750
5612		48.828125
5613		41.015625
5614		46.875000
5615		37.109375
5616		42.968750
5617		35.156250
5618		41.015625
5619		31.250000
5620		37.109375
5621		27.343750
5622		33.203125
5623		25.390625
5624		29.296875
5625		21.484375
5626		27.343750
5627		17.578125
5628		23.437500
5629		13.671875
5630		19.531250
5631		9.765625
5632		15.625000
5633		5.859375
5634		11.718750
5635		3.906250
5636		7.812500
5637		0.000000
5638		5.859375
5639		-3.906250
5640		1.953125
5641		-7.812500
5642		-1.953125
5643		-11.718750
5644		-5.859375
5645		-15.625000
5646		-9.765625
5647		-19.531250
5648		-13.671875
5649		-23.437500
5650		-17.578125
5651		-25.390625
5652		-21.484375
5653		-31.250000
5654		-23.437500
5655		-33.203125
5656		-27.343750
5657		-37.109375
5658		-31.250000
5659		-39.062500
5660		-35.156250
5661		-42.968750
5662		-37.109375
5663		-44.921875
5664		-39.062500
5665		-48.828125
5666		-42.968750
5667		-50.781250
5668		-46.875000
5669		-54.687500
5670		-48.828125
5671		-56.640625
5672		-50.781250
5673		-58.593750
5674		-54.687500
5675		-60.546875
5676		-54.687500
5677		-62.500000
5678		-58.593750
5679		-64.453125
5680		-60.546875
5681		-66.406250
5682		-60.546875
5683		-66.406250
5684		-62.500000
5685		-68.359375
5686		-62.500000
5687		-70.312500
5688		-64.453125
5689		-70.312500
5690		-66.406250
5691		-70.312500
5692		-66.406250
5693		-70.312500
5694		-68.359375
5695		-72.265625
5696		-68.359375
5697		-70.312500
5698		-68.359375
5699		-72.265625
5700		-68.359375
5701		-70.312500
5702		-68.359375
5703		-70.312500
5704		-66.406250
5705		-70.312500
5706		-66.406250
5707		-68.359375
5708		-66.406250
5709		-68.359375
5710		-64.453125
5711		-66.406250
5712		-64.453125
5713		-66.406250
5714		-60.546875
5715		-64.453125
5716		-60.546875
5717		-62.500000
5718		-56.640625
5719		-60.546875
5720		-56.640625
5721		-58.593750
5722		-52.734375
5723		-54.687500
5724		-50.781250
5725		-54.687500
5726		-48.828125
5727		-50.781250
5728		-46.875000
5729		-48.828125
5730		-42.968750
5731		-46.875000
5732		-41.015625
5733		-41.015625
5734		-37.109375
5735		-39.062500
5736		-35.156250
5737		-37.109375
5738		-31.250000
5739		-33.203125
5740		-27.343750
5741		-29.296875
5742		-23.437500
5743		-25.390625
5744		-21.484375
5745		-23.437500
5746		-17.578125
5747		-19.531250
5748		-13.671875
5749		-15.625000
5750		-9.765625
5751		-11.718750
5752		-5.859375
5753		-7.812500
5754		-1.953125
5755		-3.906250
5756		0.000000
5757		0.000000
5758		3.906250
5759		1.953125
5760		7.812500
5761		7.812500
5762		11.718750
5763		11.718750
5764		15.625000
5765		13.671875
5766		19.531250
5767		17.578125
5768		23.437500
5769		21.484375
5770		27.343750
5771		25.390625
5772		29.296875
5773		27.343750
5774		33.203125
5775		31.250000
5776		37.109375
5777		35.156250
5778		39.062500
5779		39.062500
5780		44.921875
5781		39.062500
5782		46.875000
5783		44.921875
5784		48.828125
5785		46.875000
5786		52.734375
5787		50.781250
5788		54.687500
5789		52.734375
5790		56.640625
5791		56.640625
5792		60.546875
5793		58.593750
5794		62.500000
5795		60.546875
5796		64.453125
5797		62.500000
5798		66.406250
5799		64.453125
5800		68.359375
5801		66.406250
5802		70.312500
5803		68.359375
5804		72.265625
5805		70.312500
5806		74.218750
5807		72.265625
5808		74.218750
5809		72.265625
5810		76.171875
5811		74.218750
5812		76.171875
5813		76.171875
5814		78.125000
5815		76.171875
5816		78.125000
5817		76.171875
5818		80.078125
5819		76.171875
5820		80.078125
5821		76.171875
5822		80.078125
5823		78.125000
5824		80.078125
5825		78.125000
5826		80.078125
5827		78.125000
5828		80.078125
5829		78.125000
5830		80.078125
5831		76.171875
5832		80.078125
5833		76.171875
5834		78.125000
5835		74.218750
5836		78.125000
5837		74.218750
5838		76.171875
5839		72.265625
5840		76.171875
5841		72.265625
5842		74.218750
5843		70.312500
5844		74.218750
5845		68.359375
5846		72.265625
5847		66.406250
5848		70.312500
5849		64.453125
5850		68.359375
5851		62.500000
5852		66.406250
5853		60.546875
5854		64.453125
5855		56.640625
5856		62.500000
5857		54.687500
5858		60.546875
5859		52.734375
5860		56.640625
5861		50.781250
5862		54.687500
5863		46.875000
5864		50.781250
5865		44.921875
5866		50.781250
5867		41.015625
5868		46.875000
5869		37.109375
5870		42.968750
5871		35.156250
5872		41.015625
5873		31.250000
5874		37.109375
5875		27.343750
5876		33.203125
5877		25.390625
5878		29.296875
5879		21.484375
5880		25.390625
5881		17.578125
5882		21.484375
5883		13.671875
5884		19.531250
5885		9.765625
5886		15.625000
5887		5.859375
5888		11.718750
5889		1.953125
5890		7.812500
5891		-1.953125
5892		3.906250
5893		-5.859375
5894		0.000000
5895		-7.812500
5896		-3.906250
5897		-13.671875
5898		-7.812500
5899		-17.578125
5900		-9.765625
5901		-19.531250
5902		-13.671875
5903		-23.437500
5904		-17.578125
5905		-27.343750
5906		-19.531250
5907		-31.250000
5908		-23.437500
5909		-33.203125
5910		-27.343750
5911		-37.109375
5912		-31.250000
5913		-39.062500
5914		-35.156250
5915		-42.968750
5916		-37.109375
5917		-46.875000
5918		-39.062500
5919		-48.828125
5920		-42.968750
5921		-50.781250
5922		-44.921875
5923		-54.687500
5924		-48.828125
5925		-56.640625
5926		-50.781250
5927		-58.593750
5928		-52.734375
5929		-60.546875
5930		-56.640625
5931		-62.500000
5932		-58.593750
5933		-64.453125
5934		-58.593750
5935		-66.406250
5936		-60.546875
5937		-68.359375
5938		-62.500000
5939		-68.359375
5940		-62.500000
5941		-68.359375
5942		-64.453125
5943		-70.312500
5944		-66.406250
5945		-70.312500
5946		-68.359375
5947		-70.312500
5948		-68.359375
5949		-72.265625
5950		-66.406250
5951		-72.265625
5952		-66.406250
5953		-72.265625
5954		-66.406250
5955		-70.312500
5956		-66.406250
5957		-70.312500
5958		-66.406250
5959		-70.312500
5960		-64.453125
5961		-68.359375
5962		-64.453125
5963		-68.359375
5964		-64.453125
5965		-66.406250
5966		-62.500000
5967		-64.453125
5968		-60.546875
5969		-62.500000
5970		-58.593750
5971		-60.546875
5972		-56.640625
5973		-58.593750
5974		-54.687500
5975		-56.640625
5976		-52.734375
5977		-54.687500
5978		-50.781250
5979		-52.734375
5980		-46.875000
5981		-48.828125
5982		-44.921875
5983		-46.875000
5984		-42.968750
5985		-42.968750
5986		-39.062500
5987		-41.015625
5988		-37.109375
5989		-37.109375
5990		-33.203125
5991		-35.156250
5992		-29.296875
5993		-31.250000
5994		-25.390625
5995		-27.343750
5996		-23.437500
5997		-23.437500
5998		-19.531250
5999		-21.484375
6000		-15.625000
6001		-17.578125
6002		-11.718750
6003		-13.671875
6004		-7.812500
6005		-9.765625
6006		-5.859375
6007		-5.859375
6008		-1.953125
6009		-1.953125
6010		1.953125
6011		1.953125
6012		5.859375
6013		5.859375
6014		9.765625
6015		7.812500
6016		13.671875
6017		11.718750
6018		17.578125
6019		15.625000
6020		21.484375
6021		19.531250
6022		23.437500
6023		23.437500
6024		27.343750
6025		27.343750
6026		31.250000
6027		29.296875
6028		35.156250
6029		33.203125
6030		37.109375
6031		37.109375
6032		41.015625
6033		41.015625
6034		44.921875
6035		42.968750
6036		46.875000
6037		44.921875
6038		50.781250
6039		48.828125
6040		52.734375
6041		52.734375
6042		56.640625
6043		54.687500
6044		58.593750
6045		56.640625
6046		60.546875
6047		58.593750
6048		62.500000
6049		62.500000
6050		66.406250
6051		64.453125
6052		68.359375
6053		66.406250
6054		68.359375
6055		68.359375
6056		70.312500
6057		70.312500
6058		72.265625
6059		72.265625
6060		74.218750
6061		72.265625
6062		76.171875
6063		74.218750
6064		76.171875
6065		74.218750
6066		80.078125
6067		74.218750
6068		82.031250
6069		74.218750
6070		82.031250
6071		74.218750
6072		83.984375
6073		78.125000
6074		80.078125
6075		78.125000
6076		80.078125
6077		78.125000
6078		80.078125
6079		78.125000
6080		80.078125
6081		78.125000
6082		80.078125
6083		74.218750
6084		82.031250
6085		74.218750
6086		82.031250
6087		72.265625
6088		82.031250
6089		76.171875
6090		78.125000
6091		74.218750
6092		78.125000
6093		72.265625
6094		76.171875
6095		72.265625
6096		74.218750
6097		70.312500
6098		74.218750
6099		64.453125
6100		74.218750
6101		62.500000
6102		72.265625
6103		60.546875
6104		72.265625
6105		60.546875
6106		70.312500
6107		60.546875
6108		64.453125
6109		58.593750
6110		62.500000
6111		54.687500
6112		58.593750
6113		52.734375
6114		56.640625
6115		50.781250
6116		54.687500
6117		44.921875
6118		54.687500
6119		41.015625
6120		52.734375
6121		39.062500
6122		48.828125
6123		37.109375
6124		42.968750
6125		33.203125
6126		39.062500
6127		31.250000
6128		35.156250
6129		27.343750
6130		33.203125
6131		23.437500
6132		29.296875
6133		15.625000
6134		27.343750
6135		13.671875
6136		23.437500
6137		9.765625
6138		21.484375
6139		9.765625
6140		13.671875
6141		5.859375
6142		11.718750
6143		1.953125
6144		7.812500
6145		-1.953125
6146		3.906250
6147		-5.859375
6148		0.000000
6149		-11.718750
6150		-3.906250
6151		-15.625000
6152		-3.906250
6153		-19.531250
6154		-7.812500
6155		-21.484375
6156		-11.718750
6157		-23.437500
6158		-19.531250
6159		-27.343750
6160		-23.437500
6161		-31.250000
6162		-25.390625
6163		-33.203125
6164		-29.296875
6165		-37.109375
6166		-33.203125
6167		-42.968750
6168		-33.203125
6169		-46.875000
6170		-35.156250
6171		-48.828125
6172		-39.062500
6173		-48.828125
6174		-44.921875
6175		-50.781250
6176		-46.875000
6177		-54.687500
6178		-48.828125
6179		-56.640625
6180		-52.734375
6181		-58.593750
6182		-54.687500
6183		-64.453125
6184		-54.687500
6185		-64.453125
6186		-54.687500
6187		-66.406250
6188		-56.640625
6189		-66.406250
6190		-58.593750
6191		-66.406250
6192		-64.453125
6193		-68.359375
6194		-64.453125
6195		-68.359375
6196		-66.406250
6197		-68.359375
6198		-66.406250
6199		-70.312500
6200		-66.406250
6201		-74.218750
6202		-64.453125
6203		-72.265625
6204		-64.453125
6205		-72.265625
6206		-64.453125
6207		-70.312500
6208		-68.359375
6209		-70.312500
6210		-66.406250
6211		-68.359375
6212		-66.406250
6213		-68.359375
6214		-66.406250
6215		-66.406250
6216		-64.453125
6217		-68.359375
6218		-58.593750
6219		-66.406250
6220		-58.593750
6221		-66.406250
6222		-56.640625
6223		-62.500000
6224		-58.593750
6225		-60.546875
6226		-56.640625
6227		-58.593750
6228		-54.687500
6229		-54.687500
6230		-52.734375
6231		-52.734375
6232		-48.828125
6233		-50.781250
6234		-44.921875
6235		-52.734375
6236		-41.015625
6237		-48.828125
6238		-39.062500
6239		-44.921875
6240		-37.109375
6241		-39.062500
6242		-35.156250
6243		-37.109375
6244		-31.250000
6245		-33.203125
6246		-29.296875
6247		-29.296875
6248		-25.390625
6249		-27.343750
6250		-21.484375
6251		-23.437500
6252		-17.578125
6253		-21.484375
6254		-11.718750
6255		-17.578125
6256		-11.718750
6257		-11.718750
6258		-7.812500
6259		-7.812500
6260		-3.906250
6261		-5.859375
6262		0.000000
6263		-1.953125
6264		3.906250
6265		1.953125
6266		7.812500
6267		5.859375
6268		11.718750
6269		9.765625
6270		15.625000
6271		11.718750
6272		19.531250
6273		17.578125
6274		21.484375
6275		21.484375
6276		25.390625
6277		23.437500
6278		29.296875
6279		27.343750
6280		33.203125
6281		31.250000
6282		35.156250
6283		35.156250
6284		39.062500
6285		37.109375
6286		42.968750
6287		39.062500
6288		46.875000
6289		42.968750
6290		48.828125
6291		46.875000
6292		50.781250
6293		50.781250
6294		54.687500
6295		52.734375
6296		56.640625
6297		54.687500
6298		60.546875
6299		58.593750
6300		62.500000
6301		60.546875
6302		64.453125
6303		62.500000
6304		66.406250
6305		64.453125
6306		68.359375
6307		66.406250
6308		70.312500
6309		68.359375
6310		72.265625
6311		70.312500
6312		74.218750
6313		72.265625
6314		74.218750
6315		72.265625
6316		76.171875
6317		74.218750
6318		78.125000
6319		76.171875
6320		78.125000
6321		76.171875
6322		78.125000
6323		76.171875
6324		80.078125
6325		78.125000
6326		80.078125
6327		78.125000
6328		80.078125
6329		78.125000
6330		80.078125
6331		78.125000
6332		80.078125
6333		78.125000
6334		80.078125
6335		76.171875
6336		80.078125
6337		78.125000
6338		80.078125
6339		76.171875
6340		78.125000
6341		76.171875
6342		78.125000
6343		74.218750
6344		78.125000
6345		74.218750
6346		76.171875
6347		72.265625
6348		76.171875
6349		70.312500
6350		74.218750
6351		70.312500
6352		72.265625
6353		68.359375
6354		72.265625
6355		66.406250
6356		68.359375
6357		64.453125
6358		68.359375
6359		60.546875
6360		66.406250
6361		58.593750
6362		64.453125
6363		56.640625
6364		60.546875
6365		54.687500
6366		58.593750
6367		50.781250
6368		56.640625
6369		46.875000
6370		52.734375
6371		46.875000
6372		50.781250
6373		42.968750
6374		46.875000
6375		39.062500
6376		44.921875
6377		37.109375
6378		41.015625
6379		33.203125
6380		37.109375
6381		29.296875
6382		35.156250
6383		25.390625
6384		31.250000
6385		21.484375
6386		27.343750
6387		19.531250
6388		23.437500
6389		15.625000
6390		19.531250
6391		9.765625
6392		17.578125
6393		7.812500
6394		13.671875
6395		3.906250
6396		9.765625
6397		0.000000
6398		5.859375
6399		-3.906250
6400		1.953125
6401		-7.812500
6402		-1.953125
6403		-11.718750
6404		-5.859375
6405		-13.671875
6406		-7.812500
6407		-17.578125
6408		-13.671875
6409		-21.484375
6410		-15.625000
6411		-25.390625
6412		-19.531250
6413		-29.296875
6414		-23.437500
6415		-31.250000
6416		-25.390625
6417		-35.156250
6418		-29.296875
6419		-39.062500
6420		-33.203125
6421		-41.015625
6422		-37.109375
6423		-44.921875
6424		-39.062500
6425		-46.875000
6426		-42.968750
6427		-48.828125
6428		-44.921875
6429		-52.734375
6430		-48.828125
6431		-54.687500
6432		-50.781250
6433		-56.640625
6434		-52.734375
6435		-60.546875
6436		-54.687500
6437		-62.500000
6438		-56.640625
6439		-62.500000
6440		-58.593750
6441		-64.453125
6442		-60.546875
6443		-66.406250
6444		-62.500000
6445		-66.406250
6446		-64.453125
6447		-68.359375
6448		-64.453125
6449		-68.359375
6450		-66.406250
6451		-70.312500
6452		-66.406250
6453		-70.312500
6454		-66.406250
6455		-70.312500
6456		-66.406250
6457		-70.312500
6458		-68.359375
6459		-70.312500
6460		-66.406250
6461		-70.312500
6462		-66.406250
6463		-70.312500
6464		-66.406250
6465		-68.359375
6466		-66.406250
6467		-68.359375
6468		-64.453125
6469		-68.359375
6470		-62.500000
6471		-66.406250
6472		-62.500000
6473		-64.453125
6474		-60.546875
6475		-62.500000
6476		-58.593750
6477		-62.500000
6478		-56.640625
6479		-58.593750
6480		-56.640625
6481		-56.640625
6482		-52.734375
6483		-54.687500
6484		-50.781250
6485		-52.734375
6486		-46.875000
6487		-50.781250
6488		-44.921875
6489		-48.828125
6490		-42.968750
6491		-44.921875
6492		-41.015625
6493		-42.968750
6494		-37.109375
6495		-39.062500
6496		-33.203125
6497		-35.156250
6498		-31.250000
6499		-33.203125
6500		-27.343750
6501		-29.296875
6502		-23.437500
6503		-25.390625
6504		-19.531250
6505		-21.484375
6506		-15.625000
6507		-17.578125
6508		-13.671875
6509		-15.625000
6510		-9.765625
6511		-11.718750
6512		-5.859375
6513		-7.812500
6514		-1.953125
6515		-3.906250
6516		1.953125
6517		0.000000
6518		5.859375
6519		3.906250
6520		9.765625
6521		5.859375
6522		13.671875
6523		11.718750
6524		15.625000
6525		15.625000
6526		19.531250
6527		17.578125
6528		23.437500
6529		21.484375
6530		27.343750
6531		25.390625
6532		29.296875
6533		29.296875
6534		33.203125
6535		33.203125
6536		37.109375
6537		35.156250
6538		41.015625
6539		39.062500
6540		42.968750
6541		42.968750
6542		46.875000
6543		44.921875
6544		48.828125
6545		48.828125
6546		52.734375
6547		50.781250
6548		54.687500
6549		52.734375
6550		58.593750
6551		56.640625
6552		60.546875
6553		58.593750
6554		62.500000
6555		60.546875
6556		64.453125
6557		62.500000
6558		66.406250
6559		64.453125
6560		68.359375
6561		66.406250
6562		70.312500
6563		68.359375
6564		72.265625
6565		70.312500
6566		74.218750
6567		72.265625
6568		74.218750
6569		74.218750
6570		76.171875
6571		74.218750
6572		78.125000
6573		76.171875
6574		78.125000
6575		76.171875
6576		78.125000
6577		78.125000
6578		80.078125
6579		78.125000
6580		80.078125
6581		78.125000
6582		80.078125
6583		78.125000
6584		82.031250
6585		78.125000
6586		80.078125
6587		78.125000
6588		80.078125
6589		78.125000
6590		80.078125
6591		78.125000
6592		80.078125
6593		76.171875
6594		80.078125
6595		76.171875
6596		78.125000
6597		74.218750
6598		78.125000
6599		74.218750
6600		76.171875
6601		72.265625
6602		76.171875
6603		70.312500
6604		74.218750
6605		68.359375
6606		72.265625
6607		66.406250
6608		70.312500
6609		64.453125
6610		68.359375
6611		62.500000
6612		66.406250
6613		60.546875
6614		64.453125
6615		58.593750
6616		62.500000
6617		56.640625
6618		60.546875
6619		52.734375
6620		56.640625
6621		50.781250
6622		54.687500
6623		48.828125
6624		52.734375
6625		44.921875
6626		48.828125
6627		41.015625
6628		46.875000
6629		39.062500
6630		42.968750
6631		35.156250
6632		41.015625
6633		33.203125
6634		37.109375
6635		29.296875
6636		33.203125
6637		25.390625
6638		29.296875
6639		21.484375
6640		27.343750
6641		17.578125
6642		23.437500
6643		13.671875
6644		19.531250
6645		9.765625
6646		15.625000
6647		7.812500
6648		11.718750
6649		3.906250
6650		7.812500
6651		0.000000
6652		3.906250
6653		-3.906250
6654		0.000000
6655		-7.812500
6656		-1.953125
6657		-11.718750
6658		-5.859375
6659		-15.625000
6660		-9.765625
6661		-19.531250
6662		-13.671875
6663		-21.484375
6664		-17.578125
6665		-25.390625
6666		-21.484375
6667		-29.296875
6668		-25.390625
6669		-33.203125
6670		-27.343750
6671		-37.109375
6672		-31.250000
6673		-39.062500
6674		-35.156250
6675		-41.015625
6676		-37.109375
6677		-44.921875
6678		-41.015625
6679		-46.875000
6680		-42.968750
6681		-50.781250
6682		-46.875000
6683		-52.734375
6684		-48.828125
6685		-54.687500
6686		-50.781250
6687		-58.593750
6688		-54.687500
6689		-60.546875
6690		-54.687500
6691		-60.546875
6692		-58.593750
6693		-64.453125
6694		-60.546875
6695		-64.453125
6696		-60.546875
6697		-66.406250
6698		-62.500000
6699		-66.406250
6700		-64.453125
6701		-68.359375
6702		-64.453125
6703		-68.359375
6704		-66.406250
6705		-72.265625
6706		-64.453125
6707		-70.312500
6708		-66.406250
6709		-70.312500
6710		-68.359375
6711		-70.312500
6712		-68.359375
6713		-70.312500
6714		-68.359375
6715		-70.312500
6716		-66.406250
6717		-70.312500
6718		-66.406250
6719		-68.359375
6720		-66.406250
6721		-68.359375
6722		-62.500000
6723		-68.359375
6724		-62.500000
6725		-64.453125
6726		-62.500000
6727		-64.453125
6728		-60.546875
6729		-62.500000
6730		-58.593750
6731		-60.546875
6732		-56.640625
6733		-58.593750
6734		-54.687500
6735		-56.640625
6736		-52.734375
6737		-54.687500
6738		-48.828125
6739		-54.687500
6740		-44.921875
6741		-50.781250
6742		-44.921875
6743		-46.875000
6744		-42.968750
6745		-42.968750
6746		-39.062500
6747		-41.015625
6748		-35.156250
6749		-37.109375
6750		-33.203125
6751		-35.156250
6752		-29.296875
6753		-31.250000
6754		-25.390625
6755		-29.296875
6756		-21.484375
6757		-25.390625
6758		-19.531250
6759		-21.484375
6760		-15.625000
6761		-17.578125
6762		-11.718750
6763		-13.671875
6764		-7.812500
6765		-9.765625
6766		-3.906250
6767		-5.859375
6768		-1.953125
6769		-1.953125
6770		1.953125
6771		1.953125
6772		7.812500
6773		1.953125
6774		11.718750
6775		7.812500
6776		13.671875
6777		11.718750
6778		17.578125
6779		15.625000
6780		21.484375
6781		19.531250
6782		23.437500
6783		21.484375
6784		27.343750
6785		27.343750
6786		31.250000
6787		29.296875
6788		35.156250
6789		33.203125
6790		39.062500
6791		35.156250
6792		41.015625
6793		41.015625
6794		44.921875
6795		42.968750
6796		46.875000
6797		46.875000
6798		50.781250
6799		48.828125
6800		52.734375
6801		50.781250
6802		56.640625
6803		54.687500
6804		58.593750
6805		56.640625
6806		62.500000
6807		58.593750
6808		64.453125
6809		62.500000
6810		66.406250
6811		64.453125
6812		68.359375
6813		66.406250
6814		70.312500
6815		68.359375
6816		72.265625
6817		70.312500
6818		72.265625
6819		72.265625
6820		74.218750
6821		72.265625
6822		76.171875
6823		72.265625
6824		78.125000
6825		72.265625
6826		80.078125
6827		76.171875
6828		78.125000
6829		76.171875
6830		80.078125
6831		78.125000
6832		80.078125
6833		78.125000
6834		80.078125
6835		78.125000
6836		80.078125
6837		78.125000
6838		82.031250
6839		76.171875
6840		82.031250
6841		78.125000
6842		82.031250
6843		78.125000
6844		80.078125
6845		78.125000
6846		80.078125
6847		76.171875
6848		78.125000
6849		76.171875
6850		78.125000
6851		74.218750
6852		78.125000
6853		74.218750
6854		76.171875
6855		70.312500
6856		76.171875
6857		68.359375
6858		76.171875
6859		68.359375
6860		72.265625
6861		66.406250
6862		70.312500
6863		64.453125
6864		68.359375
6865		62.500000
6866		66.406250
6867		60.546875
6868		64.453125
6869		56.640625
6870		62.500000
6871		56.640625
6872		60.546875
6873		52.734375
6874		58.593750
6875		50.781250
6876		54.687500
6877		46.875000
6878		50.781250
6879		44.921875
6880		48.828125
6881		41.015625
6882		44.921875
6883		39.062500
6884		42.968750
6885		35.156250
6886		39.062500
6887		31.250000
6888		35.156250
6889		27.343750
6890		33.203125
6891		23.437500
6892		29.296875
6893		21.484375
6894		25.390625
6895		17.578125
6896		21.484375
6897		13.671875
6898		17.578125
6899		9.765625
6900		15.625000
6901		5.859375
6902		11.718750
6903		1.953125
6904		7.812500
6905		-1.953125
6906		3.906250
6907		-3.906250
6908		0.000000
6909		-7.812500
6910		-3.906250
6911		-11.718750
6912		-7.812500
6913		-15.625000
6914		-11.718750
6915		-19.531250
6916		-15.625000
6917		-23.437500
6918		-17.578125
6919		-27.343750
6920		-21.484375
6921		-29.296875
6922		-25.390625
6923		-33.203125
6924		-29.296875
6925		-37.109375
6926		-31.250000
6927		-39.062500
6928		-35.156250
6929		-42.968750
6930		-39.062500
6931		-44.921875
6932		-41.015625
6933		-48.828125
6934		-42.968750
6935		-50.781250
6936		-46.875000
6937		-52.734375
6938		-48.828125
6939		-54.687500
6940		-50.781250
6941		-58.593750
6942		-54.687500
6943		-60.546875
6944		-56.640625
6945		-62.500000
6946		-58.593750
6947		-62.500000
6948		-58.593750
6949		-64.453125
6950		-60.546875
6951		-66.406250
6952		-62.500000
6953		-66.406250
6954		-64.453125
6955		-68.359375
6956		-64.453125
6957		-68.359375
6958		-66.406250
6959		-68.359375
6960		-66.406250
6961		-70.312500
6962		-66.406250
6963		-70.312500
6964		-68.359375
6965		-70.312500
6966		-68.359375
6967		-68.359375
6968		-66.406250
6969		-70.312500
6970		-66.406250
6971		-68.359375
6972		-66.406250
6973		-68.359375
6974		-64.453125
6975		-66.406250
6976		-64.453125
6977		-66.406250
6978		-62.500000
6979		-64.453125
6980		-62.500000
6981		-62.500000
6982		-60.546875
6983		-62.500000
6984		-58.593750
6985		-60.546875
6986		-56.640625
6987		-56.640625
6988		-54.687500
6989		-54.687500
6990		-50.781250
6991		-52.734375
6992		-48.828125
6993		-50.781250
6994		-46.875000
6995		-48.828125
6996		-44.921875
6997		-44.921875
6998		-41.015625
6999		-42.968750
7000		-37.109375
7001		-39.062500
7002		-35.156250
7003		-37.109375
7004		-31.250000
7005		-33.203125
7006		-29.296875
7007		-29.296875
7008		-25.390625
7009		-25.390625
7010		-21.484375
7011		-23.437500
7012		-17.578125
7013		-19.531250
7014		-13.671875
7015		-15.625000
7016		-9.765625
7017		-11.718750
7018		-7.812500
7019		-7.812500
7020		-3.906250
7021		-3.906250
7022		0.000000
7023		-1.953125
7024		3.906250
7025		1.953125
7026		7.812500
7027		5.859375
7028		11.718750
7029		9.765625
7030		15.625000
7031		13.671875
7032		19.531250
7033		17.578125
7034		21.484375
7035		21.484375
7036		25.390625
7037		23.437500
7038		29.296875
7039		27.343750
7040		33.203125
7041		31.250000
7042		35.156250
7043		35.156250
7044		39.062500
7045		37.109375
7046		42.968750
7047		41.015625
7048		44.921875
7049		44.921875
7050		48.828125
7051		46.875000
7052		50.781250
7053		50.781250
7054		54.687500
7055		52.734375
7056		56.640625
7057		56.640625
7058		58.593750
7059		58.593750
7060		62.500000
7061		60.546875
7062		64.453125
7063		62.500000
7064		66.406250
7065		64.453125
7066		68.359375
7067		66.406250
7068		70.312500
7069		68.359375
7070		72.265625
7071		70.312500
7072		74.218750
7073		72.265625
7074		74.218750
7075		74.218750
7076		76.171875
7077		74.218750
7078		78.125000
7079		76.171875
7080		78.125000
7081		76.171875
7082		80.078125
7083		78.125000
7084		80.078125
7085		78.125000
7086		80.078125
7087		78.125000
7088		82.031250
7089		78.125000
7090		80.078125
7091		78.125000
7092		82.031250
7093		78.125000
7094		80.078125
7095		78.125000
7096		80.078125
7097		78.125000
7098		80.078125
7099		78.125000
7100		80.078125
7101		76.171875
7102		78.125000
7103		76.171875
7104		78.125000
7105		74.218750
7106		76.171875
7107		72.265625
7108		76.171875
7109		72.265625
7110		74.218750
7111		70.312500
7112		74.218750
7113		68.359375
7114		72.265625
7115		66.406250
7116		70.312500
7117		64.453125
7118		68.359375
7119		60.546875
7120		66.406250
7121		60.546875
7122		64.453125
7123		56.640625
7124		60.546875
7125		54.687500
7126		58.593750
7127		52.734375
7128		56.640625
7129		48.828125
7130		52.734375
7131		46.875000
7132		50.781250
7133		42.968750
7134		46.875000
7135		41.015625
7136		44.921875
7137		37.109375
7138		41.015625
7139		33.203125
7140		39.062500
7141		29.296875
7142		35.156250
7143		27.343750
7144		33.203125
7145		23.437500
7146		29.296875
7147		19.531250
7148		25.390625
7149		15.625000
7150		21.484375
7151		11.718750
7152		17.578125
7153		7.812500
7154		13.671875
7155		5.859375
7156		9.765625
7157		1.953125
7158		5.859375
7159		-1.953125
7160		1.953125
7161		-5.859375
7162		-1.953125
7163		-9.765625
7164		-3.906250
7165		-13.671875
7166		-7.812500
7167		-17.578125
7168		-11.718750
7169		-19.531250
7170		-15.625000
7171		-23.437500
7172		-19.531250
7173		-27.343750
7174		-23.437500
7175		-31.250000
7176		-25.390625
7177		-33.203125
7178		-29.296875
7179		-37.109375
7180		-33.203125
7181		-41.015625
7182		-35.156250
7183		-42.968750
7184		-39.062500
7185		-46.875000
7186		-41.015625
7187		-48.828125
7188		-44.921875
7189		-50.781250
7190		-46.875000
7191		-54.687500
7192		-50.781250
7193		-56.640625
7194		-52.734375
7195		-58.593750
7196		-54.687500
7197		-60.546875
7198		-56.640625
7199		-62.500000
7200		-58.593750
7201		-62.500000
7202		-60.546875
7203		-64.453125
7204		-62.500000
7205		-66.406250
7206		-62.500000
7207		-66.406250
7208		-64.453125
7209		-68.359375
7210		-66.406250
7211		-68.359375
7212		-66.406250
7213		-68.359375
7214		-66.406250
7215		-70.312500
7216		-66.406250
7217		-70.312500
7218		-66.406250
7219		-68.359375
7220		-66.406250
7221		-68.359375
7222		-66.406250
7223		-68.359375
7224		-66.406250
7225		-68.359375
7226		-64.453125
7227		-68.359375
7228		-64.453125
7229		-66.406250
7230		-64.453125
7231		-64.453125
7232		-62.500000
7233		-64.453125
7234		-60.546875
7235		-62.500000
7236		-58.593750
7237		-60.546875
7238		-56.640625
7239		-58.593750
7240		-54.687500
7241		-56.640625
7242		-52.734375
7243		-54.687500
7244		-50.781250
7245		-52.734375
7246		-48.828125
7247		-48.828125
7248		-44.921875
7249		-48.828125
7250		-42.968750
7251		-44.921875
7252		-39.062500
7253		-41.015625
7254		-37.109375
7255		-37.109375
7256		-33.203125
7257		-35.156250
7258		-29.296875
7259		-31.250000
7260		-27.343750
7261		-29.296875
7262		-23.437500
7263		-25.390625
7264		-19.531250
7265		-21.484375
7266		-17.578125
7267		-17.578125
7268		-13.671875
7269		-13.671875
7270		-9.765625
7271		-11.718750
7272		-5.859375
7273		-7.812500
7274		-1.953125
7275		-3.906250
7276		1.953125
7277		0.000000
7278		5.859375
7279		3.906250
7280		9.765625
7281		7.812500
7282		11.718750
7283		11.718750
7284		15.625000
7285		15.625000
7286		19.531250
7287		19.531250
7288		23.437500
7289		21.484375
7290		27.343750
7291		25.390625
7292		31.250000
7293		29.296875
7294		33.203125
7295		33.203125
7296		37.109375
7297		35.156250
7298		41.015625
7299		39.062500
7300		42.968750
7301		42.968750
7302		46.875000
7303		44.921875
7304		48.828125
7305		48.828125
7306		52.734375
7307		50.781250
7308		54.687500
7309		54.687500
7310		58.593750
7311		56.640625
7312		60.546875
7313		58.593750
7314		62.500000
7315		60.546875
7316		64.453125
7317		62.500000
7318		66.406250
7319		66.406250
7320		70.312500
7321		66.406250
7322		70.312500
7323		68.359375
7324		72.265625
7325		70.312500
7326		74.218750
7327		72.265625
7328		76.171875
7329		74.218750
7330		76.171875
7331		74.218750
7332		78.125000
7333		76.171875
7334		78.125000
7335		76.171875
7336		80.078125
7337		78.125000
7338		80.078125
7339		78.125000
7340		80.078125
7341		78.125000
7342		80.078125
7343		78.125000
7344		82.031250
7345		78.125000
7346		82.031250
7347		78.125000
7348		82.031250
7349		78.125000
7350		80.078125
7351		78.125000
7352		80.078125
7353		78.125000
7354		80.078125
7355		76.171875
7356		80.078125
7357		76.171875
7358		78.125000
7359		74.218750
7360		76.171875
7361		72.265625
7362		76.171875
7363		70.312500
7364		74.218750
7365		70.312500
7366		72.265625
7367		68.359375
7368		72.265625
7369		66.406250
7370		70.312500
7371		64.453125
7372		68.359375
7373		60.546875
7374		64.453125
7375		58.593750
7376		62.500000
7377		56.640625
7378		60.546875
7379		54.687500
7380		58.593750
7381		50.781250
7382		54.687500
7383		48.828125
7384		52.734375
7385		44.921875
7386		50.781250
7387		42.968750
7388		46.875000
7389		39.062500
7390		42.968750
7391		37.109375
7392		41.015625
7393		33.203125
7394		37.109375
7395		29.296875
7396		33.203125
7397		25.390625
7398		31.250000
7399		21.484375
7400		27.343750
7401		17.578125
7402		23.437500
7403		15.625000
7404		19.531250
7405		11.718750
7406		15.625000
7407		7.812500
7408		11.718750
7409		3.906250
7410		9.765625
7411		0.000000
7412		5.859375
7413		-3.906250
7414		1.953125
7415		-7.812500
7416		-1.953125
7417		-11.718750
7418		-5.859375
7419		-13.671875
7420		-9.765625
7421		-17.578125
7422		-13.671875
7423		-21.484375
7424		-17.578125
7425		-25.390625
7426		-19.531250
7427		-29.296875
7428		-23.437500
7429		-31.250000
7430		-27.343750
7431		-35.156250
7432		-31.250000
7433		-39.062500
7434		-33.203125
7435		-41.015625
7436		-37.109375
7437		-44.921875
7438		-39.062500
7439		-46.875000
7440		-42.968750
7441		-48.828125
7442		-44.921875
7443		-52.734375
7444		-48.828125
7445		-54.687500
7446		-50.781250
7447		-56.640625
7448		-52.734375
7449		-58.593750
7450		-54.687500
7451		-60.546875
7452		-56.640625
7453		-62.500000
7454		-58.593750
7455		-64.453125
7456		-60.546875
7457		-64.453125
7458		-62.500000
7459		-66.406250
7460		-64.453125
7461		-68.359375
7462		-64.453125
7463		-68.359375
7464		-66.406250
7465		-68.359375
7466		-66.406250
7467		-68.359375
7468		-66.406250
7469		-68.359375
7470		-66.406250
7471		-70.312500
7472		-66.406250
7473		-68.359375
7474		-66.406250
7475		-68.359375
7476		-66.406250
7477		-68.359375
7478		-66.406250
7479		-68.359375
7480		-66.406250
7481		-66.406250
7482		-64.453125
7483		-66.406250
7484		-62.500000
7485		-64.453125
7486		-62.500000
7487		-62.500000
7488		-60.546875
7489		-62.500000
7490		-58.593750
7491		-60.546875
7492		-56.640625
7493		-58.593750
7494		-54.687500
7495		-56.640625
7496		-52.734375
7497		-52.734375
7498		-48.828125
7499		-50.781250
7500		-46.875000
7501		-48.828125
7502		-44.921875
7503		-46.875000
7504		-41.015625
7505		-42.968750
7506		-39.062500
7507		-41.015625
7508		-35.156250
7509		-37.109375
7510		-33.203125
7511		-33.203125
7512		-29.296875
7513		-31.250000
7514		-25.390625
7515		-27.343750
7516		-23.437500
7517		-23.437500
7518		-19.531250
7519		-19.531250
7520		-15.625000
7521		-17.578125
7522		-11.718750
7523		-13.671875
7524		-7.812500
7525		-9.765625
7526		-3.906250
7527		-5.859375
7528		-1.953125
7529		-1.953125
7530		1.953125
7531		1.953125
7532		5.859375
7533		5.859375
7534		9.765625
7535		9.765625
7536		13.671875
7537		13.671875
7538		17.578125
7539		15.625000
7540		21.484375
7541		19.531250
7542		25.390625
7543		23.437500
7544		27.343750
7545		27.343750
7546		31.250000
7547		29.296875
7548		35.156250
7549		33.203125
7550		39.062500
7551		37.109375
7552		41.015625
7553		41.015625
7554		44.921875
7555		42.968750
7556		46.875000
7557		46.875000
7558		50.781250
7559		48.828125
7560		52.734375
7561		52.734375
7562		56.640625
7563		54.687500
7564		58.593750
7565		56.640625
7566		60.546875
7567		60.546875
7568		64.453125
7569		62.500000
7570		66.406250
7571		64.453125
7572		68.359375
7573		66.406250
7574		70.312500
7575		68.359375
7576		72.265625
7577		70.312500
7578		74.218750
7579		72.265625
7580		74.218750
7581		74.218750
7582		76.171875
7583		74.218750
7584		76.171875
7585		76.171875
7586		78.125000
7587		76.171875
7588		80.078125
7589		78.125000
7590		80.078125
7591		78.125000
7592		80.078125
7593		78.125000
7594		80.078125
7595		80.078125
7596		82.031250
7597		80.078125
7598		82.031250
7599		78.125000
7600		82.031250
7601		78.125000
7602		82.031250
7603		78.125000
7604		80.078125
7605		78.125000
7606		80.078125
7607		78.125000
7608		80.078125
7609		76.171875
7610		80.078125
7611		76.171875
7612		78.125000
7613		74.218750
7614		76.171875
7615		72.265625
7616		76.171875
7617		72.265625
7618		74.218750
7619		70.312500
7620		72.265625
7621		68.359375
7622		70.312500
7623		66.406250
7624		68.359375
7625		64.453125
7626		66.406250
7627		60.546875
7628		64.453125
7629		58.593750
7630		62.500000
7631		56.640625
7632		60.546875
7633		54.687500
7634		58.593750
7635		50.781250
7636		54.687500
7637		48.828125
7638		52.734375
7639		44.921875
7640		48.828125
7641		42.968750
7642		46.875000
7643		39.062500
7644		42.968750
7645		35.156250
7646		41.015625
7647		33.203125
7648		37.109375
7649		29.296875
7650		33.203125
7651		25.390625
7652		29.296875
7653		21.484375
7654		27.343750
7655		17.578125
7656		23.437500
7657		13.671875
7658		19.531250
7659		11.718750
7660		15.625000
7661		7.812500
7662		11.718750
7663		3.906250
7664		7.812500
7665		0.000000
7666		3.906250
7667		-3.906250
7668		1.953125
7669		-7.812500
7670		-1.953125
7671		-11.718750
7672		-5.859375
7673		-15.625000
7674		-9.765625
7675		-17.578125
7676		-13.671875
7677		-23.437500
7678		-17.578125
7679		-25.390625
7680		-21.484375
7681		-29.296875
7682		-23.437500
7683		-33.203125
7684		-27.343750
7685		-35.156250
7686		-31.250000
7687		-39.062500
7688		-35.156250
7689		-41.015625
7690		-37.109375
7691		-44.921875
7692		-41.015625
7693		-46.875000
7694		-42.968750
7695		-48.828125
7696		-44.921875
7697		-52.734375
7698		-48.828125
7699		-54.687500
7700		-50.781250
7701		-56.640625
7702		-52.734375
7703		-58.593750
7704		-54.687500
7705		-60.546875
7706		-58.593750
7707		-62.500000
7708		-58.593750
7709		-64.453125
7710		-60.546875
7711		-64.453125
7712		-62.500000
7713		-66.406250
7714		-62.500000
7715		-66.406250
7716		-64.453125
7717		-70.312500
7718		-64.453125
7719		-68.359375
7720		-66.406250
7721		-70.312500
7722		-66.406250
7723		-68.359375
7724		-66.406250
7725		-68.359375
7726		-66.406250
7727		-68.359375
7728		-66.406250
7729		-68.359375
7730		-66.406250
7731		-68.359375
7732		-66.406250
7733		-68.359375
7734		-62.500000
7735		-68.359375
7736		-62.500000
7737		-64.453125
7738		-60.546875
7739		-66.406250
7740		-60.546875
7741		-64.453125
7742		-56.640625
7743		-60.546875
7744		-56.640625
7745		-58.593750
7746		-56.640625
7747		-56.640625
7748		-52.734375
7749		-54.687500
7750		-50.781250
7751		-52.734375
7752		-48.828125
7753		-50.781250
7754		-46.875000
7755		-48.828125
7756		-42.968750
7757		-44.921875
7758		-41.015625
7759		-42.968750
7760		-37.109375
7761		-39.062500
7762		-35.156250
7763		-35.156250
7764		-31.250000
7765		-33.203125
7766		-27.343750
7767		-29.296875
7768		-23.437500
7769		-25.390625
7770		-21.484375
7771		-21.484375
7772		-15.625000
7773		-19.531250
7774		-13.671875
7775		-15.625000
7776		-9.765625
7777		-11.718750
7778		-5.859375
7779		-7.812500
7780		-3.906250
7781		-3.906250
7782		1.953125
7783		-1.953125
7784		3.906250
7785		0.000000
7786		7.812500
7787		5.859375
7788		11.718750
7789		9.765625
7790		15.625000
7791		13.671875
7792		19.531250
7793		15.625000
7794		23.437500
7795		21.484375
7796		25.390625
7797		25.390625
7798		31.250000
7799		27.343750
7800		35.156250
7801		31.250000
7802		37.109375
7803		35.156250
7804		39.062500
7805		39.062500
7806		46.875000
7807		39.062500
7808		46.875000
7809		41.015625
7810		50.781250
7811		46.875000
7812		52.734375
7813		50.781250
7814		54.687500
7815		52.734375
7816		58.593750
7817		54.687500
7818		62.500000
7819		56.640625
7820		62.500000
7821		60.546875
7822		64.453125
7823		62.500000
7824		68.359375
7825		64.453125
7826		72.265625
7827		66.406250
7828		70.312500
7829		68.359375
7830		72.265625
7831		70.312500
7832		74.218750
7833		68.359375
7834		78.125000
7835		72.265625
7836		78.125000
7837		76.171875
7838		78.125000
7839		74.218750
7840		82.031250
7841		74.218750
7842		82.031250
7843		74.218750
7844		83.984375
7845		78.125000
7846		82.031250
7847		78.125000
7848		83.984375
7849		76.171875
7850		83.984375
7851		76.171875
7852		83.984375
7853		78.125000
7854		82.031250
7855		78.125000
7856		82.031250
7857		74.218750
7858		83.984375
7859		74.218750
7860		83.984375
7861		78.125000
7862		80.078125
7863		76.171875
7864		78.125000
7865		74.218750
7866		80.078125
7867		70.312500
7868		80.078125
7869		72.265625
7870		78.125000
7871		70.312500
7872		74.218750
7873		66.406250
7874		76.171875
7875		66.406250
7876		74.218750
7877		64.453125
7878		72.265625
7879		64.453125
7880		66.406250
7881		60.546875
7882		64.453125
7883		54.687500
7884		64.453125
7885		56.640625
7886		60.546875
7887		52.734375
7888		56.640625
7889		48.828125
7890		54.687500
7891		44.921875
7892		54.687500
7893		42.968750
7894		50.781250
7895		41.015625
7896		44.921875
7897		39.062500
7898		42.968750
7899		33.203125
7900		41.015625
7901		29.296875
7902		39.062500
7903		27.343750
7904		33.203125
7905		23.437500
7906		29.296875
7907		17.578125
7908		27.343750
7909		15.625000
7910		23.437500
7911		13.671875
7912		19.531250
7913		9.765625
7914		15.625000
7915		5.859375
7916		11.718750
7917		0.000000
7918		9.765625
7919		-1.953125
7920		3.906250
7921		-3.906250
7922		0.000000
7923		-11.718750
7924		-1.953125
7925		-11.718750
7926		-3.906250
7927		-15.625000
7928		-9.765625
7929		-19.531250
7930		-13.671875
7931		-23.437500
7932		-17.578125
7933		-29.296875
7934		-21.484375
7935		-33.203125
7936		-23.437500
7937		-33.203125
7938		-27.343750
7939		-35.156250
7940		-31.250000
7941		-42.968750
7942		-31.250000
7943		-44.921875
7944		-35.156250
7945		-44.921875
7946		-41.015625
7947		-46.875000
7948		-42.968750
7949		-50.781250
7950		-44.921875
7951		-54.687500
7952		-46.875000
7953		-54.687500
7954		-48.828125
7955		-56.640625
7956		-52.734375
7957		-62.500000
7958		-54.687500
7959		-62.500000
7960		-52.734375
7961		-64.453125
7962		-56.640625
7963		-64.453125
7964		-60.546875
7965		-66.406250
7966		-62.500000
7967		-68.359375
7968		-62.500000
7969		-68.359375
7970		-62.500000
7971		-68.359375
7972		-64.453125
7973		-70.312500
7974		-64.453125
7975		-70.312500
7976		-62.500000
7977		-70.312500
7978		-62.500000
7979		-68.359375
7980		-66.406250
7981		-68.359375
7982		-66.406250
7983		-68.359375
7984		-64.453125
7985		-70.312500
7986		-62.500000
7987		-66.406250
7988		-64.453125
7989		-66.406250
7990		-60.546875
7991		-66.406250
7992		-60.546875
7993		-64.453125
7994		-56.640625
7995		-62.500000
7996		-58.593750
7997		-60.546875
7998		-56.640625
7999		-58.593750
8000		-54.687500
8001		-58.593750
8002		-50.781250
8003		-54.687500
8004		-48.828125
8005		-50.781250
8006		-46.875000
8007		-48.828125
8008		-44.921875
8009		-46.875000
8010		-42.968750
8011		-42.968750
8012		-39.062500
8013		-41.015625
8014		-37.109375
8015		-37.109375
8016		-33.203125
8017		-35.156250
8018		-29.296875
8019		-31.250000
8020		-25.390625
8021		-29.296875
8022		-23.437500
8023		-25.390625
8024		-19.531250
8025		-23.437500
8026		-15.625000
8027		-17.578125
8028		-13.671875
8029		-13.671875
8030		-9.765625
8031		-9.765625
8032		-5.859375
8033		-5.859375
8034		-1.953125
8035		-3.906250
8036		1.953125
8037		0.000000
8038		5.859375
8039		3.906250
8040		9.765625
8041		7.812500
8042		13.671875
8043		11.718750
8044		17.578125
8045		15.625000
8046		19.531250
8047		19.531250
8048		23.437500
8049		23.437500
8050		27.343750
8051		25.390625
8052		31.250000
8053		29.296875
8054		35.156250
8055		33.203125
8056		37.109375
8057		37.109375
8058		41.015625
8059		39.062500
8060		44.921875
8061		42.968750
8062		46.875000
8063		44.921875
8064		50.781250
8065		48.828125
8066		52.734375
8067		50.781250
8068		56.640625
8069		52.734375
8070		60.546875
8071		54.687500
8072		62.500000
8073		58.593750
8074		64.453125
8075		60.546875
8076		66.406250
8077		62.500000
8078		68.359375
8079		64.453125
8080		70.312500
8081		68.359375
8082		72.265625
8083		70.312500
8084		74.218750
8085		70.312500
8086		76.171875
8087		72.265625
8088		78.125000
8089		72.265625
8090		78.125000
8091		74.218750
8092		80.078125
8093		76.171875
8094		80.078125
8095		76.171875
8096		80.078125
8097		78.125000
8098		80.078125
8099		78.125000
8100		82.031250
8101		78.125000
8102		83.984375
8103		78.125000
8104		83.984375
8105		78.125000
8106		83.984375
8107		78.125000
8108		83.984375
8109		78.125000
8110		82.031250
8111		78.125000
8112		82.031250
8113		78.125000
8114		80.078125
8115		78.125000
8116		80.078125
8117		74.218750
8118		80.078125
8119		74.218750
8120		80.078125
8121		72.265625
8122		78.125000
8123		70.312500
8124		76.171875
8125		70.312500
8126		76.171875
8127		68.359375
8128		74.218750
8129		66.406250
8130		70.312500
8131		64.453125
8132		68.359375
8133		62.500000
8134		66.406250
8135		60.546875
8136		66.406250
8137		56.640625
8138		62.500000
8139		52.734375
8140		60.546875
8141		50.781250
8142		56.640625
8143		48.828125
8144		54.687500
8145		44.921875
8146		52.734375
8147		42.968750
8148		48.828125
8149		41.015625
8150		44.921875
8151		37.109375
8152		42.968750
8153		33.203125
8154		39.062500
8155		31.250000
8156		35.156250
8157		25.390625
8158		33.203125
8159		23.437500
8160		29.296875
8161		19.531250
8162		25.390625
8163		15.625000
8164		21.484375
8165		13.671875
8166		17.578125
8167		9.765625
8168		13.671875
8169		3.906250
8170		11.718750
8171		1.953125
8172		7.812500
8173		-3.906250
8174		3.906250
8175		-5.859375
8176		-1.953125
8177		-9.765625
8178		-3.906250
8179		-13.671875
8180		-7.812500
8181		-17.578125
8182		-11.718750
8183		-21.484375
8184		-15.625000
8185		-23.437500
8186		-19.531250
8187		-27.343750
8188		-21.484375
8189		-33.203125
8190		-25.390625
8191		-33.203125
8192		-27.343750
8193		-37.109375
8194		-31.250000
8195		-41.015625
8196		-35.156250
8197		-42.968750
8198		-39.062500
8199		-44.921875
8200		-41.015625
8201		-48.828125
8202		-42.968750
8203		-50.781250
8204		-46.875000
8205		-54.687500
8206		-48.828125
8207		-56.640625
8208		-50.781250
8209		-58.593750
8210		-54.687500
8211		-60.546875
8212		-56.640625
8213		-62.500000
8214		-56.640625
8215		-62.500000
8216		-60.546875
8217		-64.453125
8218		-60.546875
8219		-66.406250
8220		-62.500000
8221		-66.406250
8222		-62.500000
8223		-70.312500
8224		-62.500000
8225		-68.359375
8226		-64.453125
8227		-70.312500
8228		-66.406250
8229		-70.312500
8230		-66.406250
8231		-68.359375
8232		-66.406250
8233		-68.359375
8234		-66.406250
8235		-70.312500
8236		-66.406250
8237		-68.359375
8238		-66.406250
8239		-68.359375
8240		-64.453125
8241		-70.312500
8242		-62.500000
8243		-66.406250
8244		-62.500000
8245		-64.453125
8246		-60.546875
8247		-64.453125
8248		-60.546875
8249		-60.546875
8250		-58.593750
8251		-60.546875
8252		-56.640625
8253		-56.640625
8254		-52.734375
8255		-56.640625
8256		-50.781250
8257		-54.687500
8258		-48.828125
8259		-50.781250
8260		-46.875000
8261		-48.828125
8262		-42.968750
8263		-44.921875
8264		-41.015625
8265		-42.968750
8266		-39.062500
8267		-41.015625
8268		-35.156250
8269		-39.062500
8270		-33.203125
8271		-33.203125
8272		-29.296875
8273		-31.250000
8274		-23.437500
8275		-29.296875
8276		-21.484375
8277		-23.437500
8278		-17.578125
8279		-19.531250
8280		-13.671875
8281		-17.578125
8282		-11.718750
8283		-13.671875
8284		-7.812500
8285		-9.765625
8286		-3.906250
8287		-5.859375
8288		0.000000
8289		-1.953125
8290		1.953125
8291		1.953125
8292		5.859375
8293		3.906250
8294		9.765625
8295		9.765625
8296		13.671875
8297		11.718750
8298		17.578125
8299		15.625000
8300		21.484375
8301		19.531250
8302		25.390625
8303		23.437500
8304		29.296875
8305		27.343750
8306		31.250000
8307		29.296875
8308		37.109375
8309		33.203125
8310		39.062500
8311		37.109375
8312		42.968750
8313		41.015625
8314		46.875000
8315		42.968750
8316		46.875000
8317		46.875000
8318		50.781250
8319		48.828125
8320		54.687500
8321		52.734375
8322		56.640625
8323		54.687500
8324		58.593750
8325		56.640625
8326		62.500000
8327		58.593750
8328		64.453125
8329		62.500000
8330		66.406250
8331		64.453125
8332		68.359375
8333		66.406250
8334		70.312500
8335		68.359375
8336		72.265625
8337		70.312500
8338		74.218750
8339		72.265625
8340		76.171875
8341		72.265625
8342		76.171875
8343		74.218750
8344		78.125000
8345		74.218750
8346		78.125000
8347		76.171875
8348		80.078125
8349		78.125000
8350		80.078125
8351		78.125000
8352		80.078125
8353		78.125000
8354		82.031250
8355		78.125000
8356		82.031250
8357		78.125000
8358		82.031250
8359		78.125000
8360		82.031250
8361		78.125000
8362		82.031250
8363		78.125000
8364		82.031250
8365		78.125000
8366		80.078125
8367		78.125000
8368		80.078125
8369		76.171875
8370		80.078125
8371		74.218750
8372		78.125000
8373		74.218750
8374		78.125000
8375		72.265625
8376		76.171875
8377		70.312500
8378		76.171875
8379		70.312500
8380		72.265625
8381		68.359375
8382		72.265625
8383		66.406250
8384		70.312500
8385		62.500000
8386		68.359375
8387		60.546875
8388		66.406250
8389		58.593750
8390		62.500000
8391		56.640625
8392		60.546875
8393		54.687500
8394		58.593750
8395		50.781250
8396		56.640625
8397		48.828125
8398		52.734375
8399		44.921875
8400		50.781250
8401		42.968750
8402		46.875000
8403		39.062500
8404		42.968750
8405		35.156250
8406		41.015625
8407		33.203125
8408		37.109375
8409		29.296875
8410		33.203125
8411		25.390625
8412		31.250000
8413		21.484375
8414		27.343750
8415		19.531250
8416		25.390625
8417		15.625000
8418		19.531250
8419		9.765625
8420		15.625000
8421		7.812500
8422		11.718750
8423		3.906250
8424		9.765625
8425		0.000000
8426		5.859375
8427		-3.906250
8428		1.953125
8429		-7.812500
8430		-1.953125
8431		-11.718750
8432		-5.859375
8433		-15.625000
8434		-9.765625
8435		-17.578125
8436		-13.671875
8437		-21.484375
8438		-15.625000
8439		-25.390625
8440		-19.531250
8441		-29.296875
8442		-23.437500
8443		-31.250000
8444		-27.343750
8445		-35.156250
8446		-31.250000
8447		-39.062500
8448		-33.203125
8449		-41.015625
8450		-35.156250
8451		-44.921875
8452		-39.062500
8453		-46.875000
8454		-42.968750
8455		-50.781250
8456		-44.921875
8457		-52.734375
8458		-48.828125
8459		-54.687500
8460		-48.828125
8461		-56.640625
8462		-52.734375
8463		-58.593750
8464		-54.687500
8465		-60.546875
8466		-56.640625
8467		-62.500000
8468		-58.593750
8469		-64.453125
8470		-60.546875
8471		-66.406250
8472		-62.500000
8473		-66.406250
8474		-62.500000
8475		-66.406250
8476		-64.453125
8477		-68.359375
8478		-64.453125
8479		-68.359375
8480		-64.453125
8481		-70.312500
8482		-66.406250
8483		-68.359375
8484		-66.406250
8485		-68.359375
8486		-66.406250
8487		-70.312500
8488		-66.406250
8489		-68.359375
8490		-66.406250
8491		-68.359375
8492		-64.453125
8493		-66.406250
8494		-64.453125
8495		-66.406250
8496		-62.500000
8497		-64.453125
8498		-62.500000
8499		-66.406250
8500		-60.546875
8501		-62.500000
8502		-58.593750
8503		-60.546875
8504		-56.640625
8505		-58.593750
8506		-54.687500
8507		-56.640625
8508		-52.734375
8509		-54.687500
8510		-50.781250
8511		-52.734375
8512		-48.828125
8513		-50.781250
8514		-46.875000
8515		-48.828125
8516		-42.968750
8517		-44.921875
8518		-41.015625
8519		-42.968750
8520		-37.109375
8521		-41.015625
8522		-35.156250
8523		-37.109375
8524		-31.250000
8525		-33.203125
8526		-29.296875
8527		-29.296875
8528		-25.390625
8529		-25.390625
8530		-21.484375
8531		-23.437500
8532		-17.578125
8533		-19.531250
8534		-13.671875
8535		-15.625000
8536		-11.718750
8537		-11.718750
8538		-7.812500
8539		-7.812500
8540		-3.906250
8541		-5.859375
8542		0.000000
8543		-1.953125
8544		3.906250
8545		1.953125
8546		7.812500
8547		5.859375
8548		11.718750
8549		9.765625
8550		15.625000
8551		13.671875
8552		19.531250
8553		17.578125
8554		23.437500
8555		21.484375
8556		25.390625
8557		25.390625
8558		29.296875
8559		27.343750
8560		33.203125
8561		31.250000
8562		37.109375
8563		35.156250
8564		39.062500
8565		37.109375
8566		42.968750
8567		41.015625
8568		44.921875
8569		44.921875
8570		48.828125
8571		46.875000
8572		52.734375
8573		50.781250
8574		54.687500
8575		52.734375
8576		58.593750
8577		54.687500
8578		60.546875
8579		58.593750
8580		62.500000
8581		60.546875
8582		64.453125
8583		62.500000
8584		66.406250
8585		64.453125
8586		68.359375
8587		66.406250
8588		70.312500
8589		68.359375
8590		72.265625
8591		70.312500
8592		74.218750
8593		72.265625
8594		76.171875
8595		74.218750
8596		76.171875
8597		74.218750
8598		78.125000
8599		76.171875
8600		80.078125
8601		76.171875
8602		80.078125
8603		78.125000
8604		80.078125
8605		78.125000
8606		82.031250
8607		78.125000
8608		82.031250
8609		78.125000
8610		82.031250
8611		80.078125
8612		82.031250
8613		78.125000
8614		82.031250
8615		78.125000
8616		82.031250
8617		78.125000
8618		82.031250
8619		78.125000
8620		80.078125
8621		76.171875
8622		80.078125
8623		76.171875
8624		80.078125
8625		74.218750
8626		78.125000
8627		72.265625
8628		78.125000
8629		72.265625
8630		76.171875
8631		70.312500
8632		74.218750
8633		68.359375
8634		72.265625
8635		68.359375
8636		70.312500
8637		64.453125
8638		68.359375
8639		62.500000
8640		68.359375
8641		60.546875
8642		64.453125
8643		58.593750
8644		62.500000
8645		56.640625
8646		60.546875
8647		52.734375
8648		56.640625
8649		50.781250
8650		54.687500
8651		46.875000
8652		52.734375
8653		44.921875
8654		48.828125
8655		41.015625
8656		46.875000
8657		37.109375
8658		42.968750
8659		35.156250
8660		39.062500
8661		31.250000
8662		37.109375
8663		27.343750
8664		33.203125
8665		23.437500
8666		29.296875
8667		21.484375
8668		27.343750
8669		17.578125
8670		21.484375
8671		13.671875
8672		19.531250
8673		9.765625
8674		15.625000
8675		5.859375
8676		11.718750
8677		1.953125
8678		7.812500
8679		-1.953125
8680		3.906250
8681		-3.906250
8682		0.000000
8683		-7.812500
8684		-3.906250
8685		-11.718750
8686		-7.812500
8687		-15.625000
8688		-11.718750
8689		-19.531250
8690		-13.671875
8691		-23.437500
8692		-17.578125
8693		-25.390625
8694		-21.484375
8695		-29.296875
8696		-25.390625
8697		-33.203125
8698		-27.343750
8699		-37.109375
8700		-31.250000
8701		-39.062500
8702		-33.203125
8703		-42.968750
8704		-37.109375
8705		-44.921875
8706		-41.015625
8707		-46.875000
8708		-42.968750
8709		-50.781250
8710		-46.875000
8711		-54.687500
8712		-48.828125
8713		-54.687500
8714		-50.781250
8715		-56.640625
8716		-52.734375
8717		-60.546875
8718		-54.687500
8719		-60.546875
8720		-58.593750
8721		-64.453125
8722		-58.593750
8723		-64.453125
8724		-60.546875
8725		-66.406250
8726		-62.500000
8727		-66.406250
8728		-62.500000
8729		-66.406250
8730		-64.453125
8731		-68.359375
8732		-64.453125
8733		-70.312500
8734		-64.453125
8735		-68.359375
8736		-66.406250
8737		-68.359375
8738		-66.406250
8739		-70.312500
8740		-66.406250
8741		-68.359375
8742		-66.406250
8743		-68.359375
8744		-64.453125
8745		-68.359375
8746		-64.453125
8747		-66.406250
8748		-64.453125
8749		-66.406250
8750		-62.500000
8751		-64.453125
8752		-62.500000
8753		-64.453125
8754		-60.546875
8755		-62.500000
8756		-58.593750
8757		-60.546875
8758		-56.640625
8759		-58.593750
8760		-54.687500
8761		-56.640625
8762		-52.734375
8763		-54.687500
8764		-50.781250
8765		-52.734375
8766		-48.828125
8767		-48.828125
8768		-44.921875
8769		-46.875000
8770		-42.968750
8771		-44.921875
8772		-41.015625
8773		-41.015625
8774		-37.109375
8775		-39.062500
8776		-33.203125
8777		-35.156250
8778		-31.250000
8779		-31.250000
8780		-27.343750
8781		-29.296875
8782		-23.437500
8783		-25.390625
8784		-19.531250
8785		-23.437500
8786		-17.578125
8787		-17.578125
8788		-13.671875
8789		-13.671875
8790		-9.765625
8791		-9.765625
8792		-5.859375
8793		-7.812500
8794		-1.953125
8795		-3.906250
8796		1.953125
8797		0.000000
8798		5.859375
8799		3.906250
8800		9.765625
8801		7.812500
8802		11.718750
8803		11.718750
8804		15.625000
8805		13.671875
8806		21.484375
8807		17.578125
8808		23.437500
8809		21.484375
8810		27.343750
8811		25.390625
8812		31.250000
8813		29.296875
8814		33.203125
8815		33.203125
8816		37.109375
8817		35.156250
8818		41.015625
8819		39.062500
8820		42.968750
8821		42.968750
8822		46.875000
8823		44.921875
8824		48.828125
8825		48.828125
8826		52.734375
8827		50.781250
8828		56.640625
8829		54.687500
8830		58.593750
8831		56.640625
8832		60.546875
8833		58.593750
8834		62.500000
8835		60.546875
8836		64.453125
8837		64.453125
8838		68.359375
8839		66.406250
8840		70.312500
8841		66.406250
8842		72.265625
8843		70.312500
8844		74.218750
8845		70.312500
8846		74.218750
8847		72.265625
8848		76.171875
8849		74.218750
8850		78.125000
8851		74.218750
8852		80.078125
8853		76.171875
8854		78.125000
8855		78.125000
8856		80.078125
8857		78.125000
8858		82.031250
8859		78.125000
8860		82.031250
8861		78.125000
8862		82.031250
8863		78.125000
8864		82.031250
8865		80.078125
8866		82.031250
8867		78.125000
8868		82.031250
8869		78.125000
8870		82.031250
8871		78.125000
8872		80.078125
8873		76.171875
8874		80.078125
8875		76.171875
8876		80.078125
8877		76.171875
8878		80.078125
8879		74.218750
8880		78.125000
8881		74.218750
8882		76.171875
8883		72.265625
8884		76.171875
8885		70.312500
8886		74.218750
8887		68.359375
8888		72.265625
8889		66.406250
8890		70.312500
8891		64.453125
8892		70.312500
8893		62.500000
8894		66.406250
8895		60.546875
8896		64.453125
8897		58.593750
8898		62.500000
8899		54.687500
8900		60.546875
8901		50.781250
8902		56.640625
8903		48.828125
8904		54.687500
8905		46.875000
8906		50.781250
8907		44.921875
8908		48.828125
8909		41.015625
8910		44.921875
8911		37.109375
8912		41.015625
8913		35.156250
8914		39.062500
8915		29.296875
8916		35.156250
8917		27.343750
8918		31.250000
8919		23.437500
8920		29.296875
8921		19.531250
8922		25.390625
8923		15.625000
8924		21.484375
8925		11.718750
8926		17.578125
8927		9.765625
8928		13.671875
8929		5.859375
8930		11.718750
8931		0.000000
8932		7.812500
8933		-1.953125
8934		1.953125
8935		-5.859375
8936		0.000000
8937		-9.765625
8938		-3.906250
8939		-13.671875
8940		-7.812500
8941		-17.578125
8942		-11.718750
8943		-19.531250
8944		-15.625000
8945		-23.437500
8946		-17.578125
8947		-27.343750
8948		-21.484375
8949		-31.250000
8950		-25.390625
8951		-33.203125
8952		-29.296875
8953		-37.109375
8954		-33.203125
8955		-39.062500
8956		-35.156250
8957		-42.968750
8958		-39.062500
8959		-44.921875
8960		-41.015625
8961		-48.828125
8962		-42.968750
8963		-50.781250
8964		-46.875000
8965		-54.687500
8966		-48.828125
8967		-56.640625
8968		-52.734375
8969		-58.593750
8970		-54.687500
8971		-58.593750
8972		-56.640625
8973		-62.500000
8974		-58.593750
8975		-62.500000
8976		-58.593750
8977		-64.453125
8978		-60.546875
8979		-64.453125
8980		-62.500000
8981		-66.406250
8982		-62.500000
8983		-68.359375
8984		-64.453125
8985		-68.359375
8986		-64.453125
8987		-68.359375
8988		-66.406250
8989		-68.359375
8990		-66.406250
8991		-70.312500
8992		-66.406250
8993		-68.359375
8994		-66.406250
8995		-68.359375
8996		-66.406250
8997		-68.359375
8998		-64.453125
8999		-68.359375
9000		-64.453125
9001		-66.406250
9002		-62.500000
9003		-66.406250
9004		-62.500000
9005		-64.453125
9006		-60.546875
9007		-62.500000
9008		-58.593750
9009		-62.500000
9010		-56.640625
9011		-60.546875
9012		-56.640625
9013		-58.593750
9014		-54.687500
9015		-56.640625
9016		-52.734375
9017		-54.687500
9018		-48.828125
9019		-52.734375
9020		-46.875000
9021		-48.828125
9022		-44.921875
9023		-46.875000
9024		-41.015625
9025		-42.968750
9026		-39.062500
9027		-39.062500
9028		-35.156250
9029		-37.109375
9030		-31.250000
9031		-33.203125
9032		-29.296875
9033		-31.250000
9034		-25.390625
9035		-27.343750
9036		-21.484375
9037		-25.390625
9038		-19.531250
9039		-19.531250
9040		-15.625000
9041		-17.578125
9042		-11.718750
9043		-13.671875
9044		-7.812500
9045		-9.765625
9046		-3.906250
9047		-5.859375
9048		-1.953125
9049		-1.953125
9050		3.906250
9051		1.953125
9052		7.812500
9053		5.859375
9054		9.765625
9055		9.765625
9056		13.671875
9057		11.718750
9058		17.578125
9059		15.625000
9060		21.484375
9061		19.531250
9062		25.390625
9063		23.437500
9064		27.343750
9065		27.343750
9066		31.250000
9067		31.250000
9068		35.156250
9069		33.203125
9070		39.062500
9071		35.156250
9072		41.015625
9073		41.015625
9074		44.921875
9075		42.968750
9076		48.828125
9077		46.875000
9078		50.781250
9079		48.828125
9080		52.734375
9081		50.781250
9082		56.640625
9083		54.687500
9084		58.593750
9085		56.640625
9086		60.546875
9087		58.593750
9088		64.453125
9089		62.500000
9090		66.406250
9091		64.453125
9092		68.359375
9093		66.406250
9094		70.312500
9095		68.359375
9096		72.265625
9097		70.312500
9098		72.265625
9099		72.265625
9100		74.218750
9101		72.265625
9102		76.171875
9103		74.218750
9104		78.125000
9105		76.171875
9106		78.125000
9107		76.171875
9108		80.078125
9109		76.171875
9110		80.078125
9111		78.125000
9112		82.031250
9113		78.125000
9114		82.031250
9115		78.125000
9116		82.031250
9117		78.125000
9118		82.031250
9119		80.078125
9120		82.031250
9121		78.125000
9122		82.031250
9123		80.078125
9124		82.031250
9125		78.125000
9126		82.031250
9127		78.125000
9128		80.078125
9129		76.171875
9130		80.078125
9131		76.171875
9132		78.125000
9133		74.218750
9134		78.125000
9135		72.265625
9136		76.171875
9137		72.265625
9138		76.171875
9139		70.312500
9140		74.218750
9141		68.359375
9142		72.265625
9143		66.406250
9144		70.312500
9145		64.453125
9146		68.359375
9147		62.500000
9148		66.406250
9149		58.593750
9150		64.453125
9151		56.640625
9152		62.500000
9153		54.687500
9154		58.593750
9155		50.781250
9156		56.640625
9157		48.828125
9158		52.734375
9159		46.875000
9160		50.781250
9161		42.968750
9162		48.828125
9163		41.015625
9164		44.921875
9165		37.109375
9166		41.015625
9167		33.203125
9168		39.062500
9169		29.296875
9170		35.156250
9171		25.390625
9172		31.250000
9173		23.437500
9174		27.343750
9175		17.578125
9176		25.390625
9177		15.625000
9178		21.484375
9179		11.718750
9180		17.578125
9181		7.812500
9182		13.671875
9183		3.906250
9184		9.765625
9185		0.000000
9186		5.859375
9187		-3.906250
9188		1.953125
9189		-5.859375
9190		-1.953125
9191		-9.765625
9192		-5.859375
9193		-15.625000
9194		-7.812500
9195		-17.578125
9196		-11.718750
9197		-21.484375
9198		-15.625000
9199		-25.390625
9200		-19.531250
9201		-29.296875
9202		-23.437500
9203		-31.250000
9204		-27.343750
9205		-35.156250
9206		-29.296875
9207		-37.109375
9208		-33.203125
9209		-41.015625
9210		-35.156250
9211		-42.968750
9212		-39.062500
9213		-46.875000
9214		-42.968750
9215		-48.828125
9216		-44.921875
9217		-50.781250
9218		-46.875000
9219		-54.687500
9220		-48.828125
9221		-56.640625
9222		-52.734375
9223		-58.593750
9224		-54.687500
9225		-60.546875
9226		-56.640625
9227		-62.500000
9228		-56.640625
9229		-64.453125
9230		-60.546875
9231		-64.453125
9232		-60.546875
9233		-66.406250
9234		-62.500000
9235		-66.406250
9236		-62.500000
9237		-68.359375
9238		-64.453125
9239		-68.359375
9240		-64.453125
9241		-68.359375
9242		-66.406250
9243		-70.312500
9244		-64.453125
9245		-68.359375
9246		-66.406250
9247		-68.359375
9248		-66.406250
9249		-68.359375
9250		-64.453125
9251		-68.359375
9252		-64.453125
9253		-68.359375
9254		-64.453125
9255		-68.359375
9256		-62.500000
9257		-64.453125
9258		-62.500000
9259		-64.453125
9260		-60.546875
9261		-62.500000
9262		-58.593750
9263		-60.546875
9264		-56.640625
9265		-58.593750
9266		-54.687500
9267		-56.640625
9268		-52.734375
9269		-54.687500
9270		-50.781250
9271		-52.734375
9272		-46.875000
9273		-50.781250
9274		-46.875000
9275		-46.875000
9276		-42.968750
9277		-44.921875
9278		-39.062500
9279		-42.968750
9280		-37.109375
9281		-39.062500
9282		-33.203125
9283		-37.109375
9284		-31.250000
9285		-33.203125
9286		-27.343750
9287		-29.296875
9288		-25.390625
9289		-27.343750
9290		-21.484375
9291		-23.437500
9292		-17.578125
9293		-19.531250
9294		-13.671875
9295		-15.625000
9296		-9.765625
9297		-13.671875
9298		-5.859375
9299		-7.812500
9300		-3.906250
9301		-3.906250
9302		0.000000
9303		-1.953125
9304		3.906250
9305		1.953125
9306		7.812500
9307		5.859375
9308		11.718750
9309		9.765625
9310		15.625000
9311		11.718750
9312		19.531250
9313		17.578125
9314		23.437500
9315		21.484375
9316		25.390625
9317		25.390625
9318		29.296875
9319		27.343750
9320		33.203125
9321		31.250000
9322		37.109375
9323		33.203125
9324		39.062500
9325		39.062500
9326		42.968750
9327		41.015625
9328		44.921875
9329		44.921875
9330		48.828125
9331		46.875000
9332		52.734375
9333		50.781250
9334		56.640625
9335		52.734375
9336		56.640625
9337		54.687500
9338		60.546875
9339		58.593750
9340		62.500000
9341		60.546875
9342		64.453125
9343		62.500000
9344		68.359375
9345		64.453125
9346		70.312500
9347		66.406250
9348		70.312500
9349		68.359375
9350		72.265625
9351		70.312500
9352		74.218750
9353		72.265625
9354		76.171875
9355		74.218750
9356		78.125000
9357		76.171875
9358		78.125000
9359		76.171875
9360		78.125000
9361		76.171875
9362		80.078125
9363		78.125000
9364		82.031250
9365		78.125000
9366		82.031250
9367		80.078125
9368		82.031250
9369		80.078125
9370		82.031250
9371		78.125000
9372		82.031250
9373		80.078125
9374		82.031250
9375		80.078125
9376		82.031250
9377		78.125000
9378		82.031250
9379		78.125000
9380		82.031250
9381		78.125000
9382		80.078125
9383		76.171875
9384		80.078125
9385		74.218750
9386		78.125000
9387		74.218750
9388		78.125000
9389		72.265625
9390		76.171875
9391		72.265625
9392		74.218750
9393		70.312500
9394		74.218750
9395		68.359375
9396		72.265625
9397		66.406250
9398		70.312500
9399		64.453125
9400		68.359375
9401		60.546875
9402		66.406250
9403		58.593750
9404		62.500000
9405		56.640625
9406		60.546875
9407		54.687500
9408		58.593750
9409		50.781250
9410		54.687500
9411		48.828125
9412		52.734375
9413		44.921875
9414		50.781250
9415		42.968750
9416		46.875000
9417		39.062500
9418		44.921875
9419		35.156250
9420		41.015625
9421		33.203125
9422		37.109375
9423		29.296875
9424		33.203125
9425		25.390625
9426		31.250000
9427		21.484375
9428		27.343750
9429		17.578125
9430		25.390625
9431		13.671875
9432		19.531250
9433		11.718750
9434		15.625000
9435		7.812500
9436		11.718750
9437		1.953125
9438		7.812500
9439		0.000000
9440		3.906250
9441		-3.906250
9442		1.953125
9443		-7.812500
9444		-1.953125
9445		-11.718750
9446		-5.859375
9447		-15.625000
9448		-9.765625
9449		-19.531250
9450		-13.671875
9451		-21.484375
9452		-17.578125
9453		-25.390625
9454		-21.484375
9455		-29.296875
9456		-23.437500
9457		-33.203125
9458		-27.343750
9459		-35.156250
9460		-31.250000
9461		-39.062500
9462		-33.203125
9463		-41.015625
9464		-37.109375
9465		-44.921875
9466		-41.015625
9467		-46.875000
9468		-42.968750
9469		-48.828125
9470		-44.921875
9471		-52.734375
9472		-48.828125
9473		-54.687500
9474		-50.781250
9475		-56.640625
9476		-52.734375
9477		-58.593750
9478		-54.687500
9479		-60.546875
9480		-56.640625
9481		-62.500000
9482		-58.593750
9483		-64.453125
9484		-60.546875
9485		-64.453125
9486		-62.500000
9487		-66.406250
9488		-62.500000
9489		-66.406250
9490		-62.500000
9491		-68.359375
9492		-64.453125
9493		-68.359375
9494		-64.453125
9495		-68.359375
9496		-64.453125
9497		-68.359375
9498		-66.406250
9499		-68.359375
9500		-64.453125
9501		-68.359375
9502		-64.453125
9503		-68.359375
9504		-64.453125
9505		-68.359375
9506		-64.453125
9507		-66.406250
9508		-64.453125
9509		-64.453125
9510		-62.500000
9511		-64.453125
9512		-60.546875
9513		-64.453125
9514		-60.546875
9515		-62.500000
9516		-58.593750
9517		-60.546875
9518		-56.640625
9519		-58.593750
9520		-54.687500
9521		-56.640625
9522		-52.734375
9523		-54.687500
9524		-48.828125
9525		-50.781250
9526		-46.875000
9527		-48.828125
9528		-44.921875
9529		-46.875000
9530		-42.968750
9531		-44.921875
9532		-39.062500
9533		-41.015625
9534		-37.109375
9535		-37.109375
9536		-33.203125
9537		-35.156250
9538		-29.296875
9539		-31.250000
9540		-27.343750
9541		-29.296875
9542		-23.437500
9543		-25.390625
9544		-19.531250
9545		-21.484375
9546		-15.625000
9547		-17.578125
9548		-13.671875
9549		-13.671875
9550		-9.765625
9551		-11.718750
9552		-5.859375
9553		-7.812500
9554		-1.953125
9555		-3.906250
9556		1.953125
9557		0.000000
9558		5.859375
9559		3.906250
9560		9.765625
9561		7.812500
9562		11.718750
9563		9.765625
9564		17.578125
9565		15.625000
9566		19.531250
9567		17.578125
9568		23.437500
9569		21.484375
9570		27.343750
9571		25.390625
9572		31.250000
9573		29.296875
9574		35.156250
9575		33.203125
9576		37.109375
9577		35.156250
9578		41.015625
9579		39.062500
9580		44.921875
9581		42.968750
9582		46.875000
9583		44.921875
9584		50.781250
9585		48.828125
9586		52.734375
9587		50.781250
9588		54.687500
9589		52.734375
9590		58.593750
9591		56.640625
9592		60.546875
9593		58.593750
9594		62.500000
9595		62.500000
9596		64.453125
9597		62.500000
9598		68.359375
9599		66.406250
9600		70.312500
9601		68.359375
9602		70.312500
9603		70.312500
9604		74.218750
9605		72.265625
9606		74.218750
9607		72.265625
9608		78.125000
9609		72.265625
9610		78.125000
9611		76.171875
9612		78.125000
9613		76.171875
9614		80.078125
9615		78.125000
9616		80.078125
9617		78.125000
9618		82.031250
9619		78.125000
9620		82.031250
9621		80.078125
9622		82.031250
9623		78.125000
9624		82.031250
9625		78.125000
9626		83.984375
9627		80.078125
9628		82.031250
9629		78.125000
9630		82.031250
9631		78.125000
9632		82.031250
9633		78.125000
9634		80.078125
9635		76.171875
9636		80.078125
9637		76.171875
9638		80.078125
9639		76.171875
9640		78.125000
9641		74.218750
9642		78.125000
9643		72.265625
9644		76.171875
9645		70.312500
9646		74.218750
9647		68.359375
9648		74.218750
9649		66.406250
9650		70.312500
9651		64.453125
9652		68.359375
9653		62.500000
9654		66.406250
9655		60.546875
9656		64.453125
9657		56.640625
9658		62.500000
9659		56.640625
9660		60.546875
9661		52.734375
9662		56.640625
9663		48.828125
9664		54.687500
9665		46.875000
9666		50.781250
9667		42.968750
9668		48.828125
9669		41.015625
9670		44.921875
9671		37.109375
9672		42.968750
9673		33.203125
9674		39.062500
9675		31.250000
9676		37.109375
9677		27.343750
9678		33.203125
9679		23.437500
9680		29.296875
9681		21.484375
9682		25.390625
9683		17.578125
9684		21.484375
9685		13.671875
9686		17.578125
9687		9.765625
9688		13.671875
9689		5.859375
9690		11.718750
9691		1.953125
9692		7.812500
9693		-1.953125
9694		5.859375
9695		-5.859375
9696		0.000000
9697		-9.765625
9698		-3.906250
9699		-13.671875
9700		-7.812500
9701		-15.625000
9702		-11.718750
9703		-19.531250
9704		-13.671875
9705		-23.437500
9706		-17.578125
9707		-27.343750
9708		-21.484375
9709		-29.296875
9710		-25.390625
9711		-33.203125
9712		-29.296875
9713		-39.062500
9714		-31.250000
9715		-39.062500
9716		-35.156250
9717		-42.968750
9718		-39.062500
9719		-44.921875
9720		-41.015625
9721		-46.875000
9722		-44.921875
9723		-50.781250
9724		-46.875000
9725		-52.734375
9726		-48.828125
9727		-54.687500
9728		-52.734375
9729		-56.640625
9730		-54.687500
9731		-60.546875
9732		-54.687500
9733		-60.546875
9734		-58.593750
9735		-62.500000
9736		-58.593750
9737		-64.453125
9738		-60.546875
9739		-66.406250
9740		-62.500000
9741		-66.406250
9742		-62.500000
9743		-68.359375
9744		-64.453125
9745		-68.359375
9746		-66.406250
9747		-68.359375
9748		-66.406250
9749		-68.359375
9750		-66.406250
9751		-68.359375
9752		-66.406250
9753		-68.359375
9754		-66.406250
9755		-68.359375
9756		-66.406250
9757		-68.359375
9758		-66.406250
9759		-68.359375
9760		-64.453125
9761		-66.406250
9762		-64.453125
9763		-66.406250
9764		-62.500000
9765		-64.453125
9766		-60.546875
9767		-62.500000
9768		-60.546875
9769		-62.500000
9770		-58.593750
9771		-60.546875
9772		-56.640625
9773		-58.593750
9774		-54.687500
9775		-56.640625
9776		-52.734375
9777		-54.687500
9778		-50.781250
9779		-50.781250
9780		-46.875000
9781		-48.828125
9782		-44.921875
9783		-46.875000
9784		-41.015625
9785		-42.968750
9786		-39.062500
9787		-41.015625
9788		-37.109375
9789		-37.109375
9790		-33.203125
9791		-35.156250
9792		-29.296875
9793		-31.250000
9794		-25.390625
9795		-27.343750
9796		-23.437500
9797		-25.390625
9798		-17.578125
9799		-21.484375
9800		-15.625000
9801		-17.578125
9802		-11.718750
9803		-13.671875
9804		-7.812500
9805		-9.765625
9806		-5.859375
9807		-7.812500
9808		-1.953125
9809		-3.906250
9810		3.906250
9811		0.000000
9812		5.859375
9813		5.859375
9814		9.765625
9815		7.812500
9816		13.671875
9817		11.718750
9818		17.578125
9819		15.625000
9820		21.484375
9821		19.531250
9822		23.437500
9823		23.437500
9824		27.343750
9825		27.343750
9826		31.250000
9827		29.296875
9828		35.156250
9829		33.203125
9830		37.109375
9831		37.109375
9832		41.015625
9833		39.062500
9834		44.921875
9835		42.968750
9836		46.875000
9837		46.875000
9838		50.781250
9839		48.828125
9840		52.734375
9841		52.734375
9842		56.640625
9843		54.687500
9844		58.593750
9845		56.640625
9846		60.546875
9847		60.546875
9848		62.500000
9849		60.546875
9850		66.406250
9851		64.453125
9852		68.359375
9853		66.406250
9854		70.312500
9855		68.359375
9856		72.265625
9857		68.359375
9858		74.218750
9859		72.265625
9860		74.218750
9861		72.265625
9862		76.171875
9863		74.218750
9864		78.125000
9865		74.218750
9866		78.125000
9867		76.171875
9868		80.078125
9869		76.171875
9870		80.078125
9871		78.125000
9872		80.078125
9873		78.125000
9874		82.031250
9875		78.125000
9876		82.031250
9877		78.125000
9878		82.031250
9879		80.078125
9880		82.031250
9881		78.125000
9882		82.031250
9883		78.125000
9884		82.031250
9885		78.125000
9886		80.078125
9887		78.125000
9888		80.078125
9889		76.171875
9890		80.078125
9891		76.171875
9892		80.078125
9893		74.218750
9894		78.125000
9895		74.218750
9896		76.171875
9897		72.265625
9898		74.218750
9899		70.312500
9900		74.218750
9901		68.359375
9902		72.265625
9903		66.406250
9904		70.312500
9905		64.453125
9906		68.359375
9907		62.500000
9908		66.406250
9909		60.546875
9910		64.453125
9911		56.640625
9912		62.500000
9913		54.687500
9914		58.593750
9915		50.781250
9916		56.640625
9917		48.828125
9918		54.687500
9919		46.875000
9920		50.781250
9921		42.968750
9922		46.875000
9923		39.062500
9924		44.921875
9925		37.109375
9926		41.015625
9927		33.203125
9928		39.062500
9929		29.296875
9930		35.156250
9931		27.343750
9932		31.250000
9933		23.437500
9934		29.296875
9935		17.578125
9936		25.390625
9937		15.625000
9938		21.484375
9939		11.718750
9940		17.578125
9941		7.812500
9942		13.671875
9943		3.906250
9944		9.765625
9945		0.000000
9946		5.859375
9947		-3.906250
9948		1.953125
9949		-5.859375
9950		-1.953125
9951		-11.718750
9952		-5.859375
9953		-13.671875
9954		-7.812500
9955		-17.578125
9956		-11.718750
9957		-21.484375
9958		-15.625000
9959		-25.390625
9960		-19.531250
9961		-27.343750
9962		-23.437500
9963		-31.250000
9964		-27.343750
9965		-35.156250
9966		-29.296875
9967		-39.062500
9968		-33.203125
9969		-41.015625
9970		-35.156250
9971		-42.968750
9972		-39.062500
9973		-46.875000
9974		-41.015625
9975		-48.828125
9976		-44.921875
9977		-52.734375
9978		-46.875000
9979		-52.734375
9980		-50.781250
9981		-56.640625
9982		-52.734375
9983		-58.593750
9984		-54.687500
9985		-60.546875
9986		-56.640625
9987		-62.500000
9988		-58.593750
9989		-62.500000
9990		-60.546875
9991		-66.406250
9992		-60.546875
9993		-66.406250
9994		-62.500000
9995		-66.406250
9996		-62.500000
9997		-66.406250
9998		-64.453125
9999		-70.312500
10000		-66.406250
