Channel              :		CH1
Frequency            :		1.973kHz
Period               :		0.507ms
PK-PK                :		148.4mV
Probe attenuation    :		1X
Voltage per ADC value:		0.122070mV
Time interval        :		2.00000us

index		CH1_Voltage(mV)
1		78.125000
2		78.125000
3		72.265625
4		76.171875
5		72.265625
6		76.171875
7		70.312500
8		76.171875
9		68.359375
10		76.171875
11		68.359375
12		74.218750
13		66.406250
14		74.218750
15		64.453125
16		72.265625
17		62.500000
18		70.312500
19		62.500000
20		68.359375
21		60.546875
22		64.453125
23		56.640625
24		62.500000
25		54.687500
26		62.500000
27		52.734375
28		60.546875
29		50.781250
30		58.593750
31		48.828125
32		54.687500
33		44.921875
34		52.734375
35		42.968750
36		50.781250
37		41.015625
38		44.921875
39		39.062500
40		42.968750
41		33.203125
42		41.015625
43		31.250000
44		39.062500
45		27.343750
46		35.156250
47		23.437500
48		33.203125
49		21.484375
50		29.296875
51		17.578125
52		25.390625
53		15.625000
54		21.484375
55		11.718750
56		17.578125
57		7.812500
58		13.671875
59		3.906250
60		11.718750
61		0.000000
62		9.765625
63		-1.953125
64		5.859375
65		-5.859375
66		1.953125
67		-9.765625
68		-1.953125
69		-11.718750
70		-3.906250
71		-13.671875
72		-9.765625
73		-17.578125
74		-13.671875
75		-21.484375
76		-15.625000
77		-25.390625
78		-17.578125
79		-29.296875
80		-21.484375
81		-31.250000
82		-23.437500
83		-33.203125
84		-27.343750
85		-37.109375
86		-29.296875
87		-39.062500
88		-33.203125
89		-41.015625
90		-37.109375
91		-44.921875
92		-39.062500
93		-46.875000
94		-39.062500
95		-50.781250
96		-42.968750
97		-52.734375
98		-44.921875
99		-52.734375
100		-44.921875
101		-54.687500
102		-46.875000
103		-56.640625
104		-48.828125
105		-56.640625
106		-52.734375
107		-60.546875
108		-52.734375
109		-60.546875
110		-52.734375
111		-60.546875
112		-54.687500
113		-62.500000
114		-54.687500
115		-62.500000
116		-54.687500
117		-62.500000
118		-56.640625
119		-62.500000
120		-56.640625
121		-60.546875
122		-58.593750
123		-60.546875
124		-58.593750
125		-62.500000
126		-54.687500
127		-62.500000
128		-54.687500
129		-60.546875
130		-54.687500
131		-60.546875
132		-52.734375
133		-58.593750
134		-52.734375
135		-58.593750
136		-50.781250
137		-56.640625
138		-50.781250
139		-52.734375
140		-48.828125
141		-52.734375
142		-46.875000
143		-50.781250
144		-44.921875
145		-48.828125
146		-41.015625
147		-46.875000
148		-39.062500
149		-46.875000
150		-37.109375
151		-42.968750
152		-35.156250
153		-41.015625
154		-33.203125
155		-35.156250
156		-31.250000
157		-33.203125
158		-29.296875
159		-33.203125
160		-23.437500
161		-29.296875
162		-19.531250
163		-25.390625
164		-17.578125
165		-23.437500
166		-13.671875
167		-19.531250
168		-11.718750
169		-15.625000
170		-7.812500
171		-11.718750
172		-7.812500
173		-7.812500
174		-3.906250
175		-5.859375
176		1.953125
177		-3.906250
178		5.859375
179		0.000000
180		9.765625
181		3.906250
182		11.718750
183		5.859375
184		15.625000
185		9.765625
186		19.531250
187		13.671875
188		19.531250
189		19.531250
190		23.437500
191		21.484375
192		29.296875
193		23.437500
194		31.250000
195		25.390625
196		35.156250
197		29.296875
198		39.062500
199		33.203125
200		41.015625
201		37.109375
202		44.921875
203		39.062500
204		46.875000
205		42.968750
206		48.828125
207		46.875000
208		50.781250
209		48.828125
210		54.687500
211		48.828125
212		56.640625
213		52.734375
214		60.546875
215		52.734375
216		62.500000
217		56.640625
218		64.453125
219		58.593750
220		66.406250
221		60.546875
222		66.406250
223		64.453125
224		68.359375
225		64.453125
226		72.265625
227		66.406250
228		72.265625
229		66.406250
230		74.218750
231		68.359375
232		76.171875
233		68.359375
234		76.171875
235		70.312500
236		78.125000
237		70.312500
238		78.125000
239		74.218750
240		76.171875
241		74.218750
242		78.125000
243		72.265625
244		80.078125
245		72.265625
246		80.078125
247		72.265625
248		80.078125
249		74.218750
250		80.078125
251		72.265625
252		80.078125
253		72.265625
254		80.078125
255		74.218750
256		78.125000
257		74.218750
258		76.171875
259		70.312500
260		78.125000
261		68.359375
262		76.171875
263		68.359375
264		76.171875
265		66.406250
266		74.218750
267		66.406250
268		74.218750
269		64.453125
270		72.265625
271		62.500000
272		70.312500
273		62.500000
274		66.406250
275		58.593750
276		64.453125
277		56.640625
278		64.453125
279		54.687500
280		62.500000
281		52.734375
282		60.546875
283		48.828125
284		56.640625
285		46.875000
286		54.687500
287		44.921875
288		52.734375
289		42.968750
290		46.875000
291		41.015625
292		44.921875
293		35.156250
294		42.968750
295		33.203125
296		41.015625
297		29.296875
298		37.109375
299		25.390625
300		35.156250
301		23.437500
302		31.250000
303		19.531250
304		27.343750
305		17.578125
306		25.390625
307		15.625000
308		19.531250
309		9.765625
310		15.625000
311		5.859375
312		15.625000
313		1.953125
314		11.718750
315		-1.953125
316		7.812500
317		-3.906250
318		5.859375
319		-7.812500
320		1.953125
321		-9.765625
322		-1.953125
323		-11.718750
324		-7.812500
325		-15.625000
326		-11.718750
327		-21.484375
328		-11.718750
329		-25.390625
330		-15.625000
331		-27.343750
332		-17.578125
333		-29.296875
334		-21.484375
335		-33.203125
336		-25.390625
337		-35.156250
338		-27.343750
339		-37.109375
340		-31.250000
341		-39.062500
342		-35.156250
343		-44.921875
344		-37.109375
345		-46.875000
346		-39.062500
347		-48.828125
348		-41.015625
349		-50.781250
350		-42.968750
351		-52.734375
352		-44.921875
353		-54.687500
354		-46.875000
355		-54.687500
356		-48.828125
357		-54.687500
358		-52.734375
359		-58.593750
360		-52.734375
361		-60.546875
362		-52.734375
363		-60.546875
364		-52.734375
365		-62.500000
366		-54.687500
367		-62.500000
368		-54.687500
369		-62.500000
370		-56.640625
371		-62.500000
372		-56.640625
373		-60.546875
374		-58.593750
375		-60.546875
376		-58.593750
377		-62.500000
378		-56.640625
379		-62.500000
380		-56.640625
381		-62.500000
382		-54.687500
383		-60.546875
384		-54.687500
385		-60.546875
386		-52.734375
387		-58.593750
388		-52.734375
389		-58.593750
390		-52.734375
391		-54.687500
392		-50.781250
393		-54.687500
394		-46.875000
395		-52.734375
396		-44.921875
397		-50.781250
398		-42.968750
399		-48.828125
400		-41.015625
401		-46.875000
402		-39.062500
403		-44.921875
404		-37.109375
405		-42.968750
406		-35.156250
407		-37.109375
408		-33.203125
409		-35.156250
410		-31.250000
411		-35.156250
412		-27.343750
413		-31.250000
414		-23.437500
415		-29.296875
416		-19.531250
417		-25.390625
418		-17.578125
419		-23.437500
420		-13.671875
421		-19.531250
422		-9.765625
423		-15.625000
424		-9.765625
425		-11.718750
426		-5.859375
427		-7.812500
428		0.000000
429		-5.859375
430		1.953125
431		-1.953125
432		5.859375
433		0.000000
434		9.765625
435		3.906250
436		11.718750
437		5.859375
438		15.625000
439		9.765625
440		17.578125
441		15.625000
442		21.484375
443		19.531250
444		25.390625
445		19.531250
446		29.296875
447		23.437500
448		31.250000
449		27.343750
450		35.156250
451		29.296875
452		39.062500
453		33.203125
454		42.968750
455		37.109375
456		44.921875
457		39.062500
458		44.921875
459		44.921875
460		48.828125
461		44.921875
462		52.734375
463		46.875000
464		54.687500
465		48.828125
466		58.593750
467		52.734375
468		60.546875
469		54.687500
470		62.500000
471		56.640625
472		64.453125
473		58.593750
474		66.406250
475		62.500000
476		66.406250
477		64.453125
478		70.312500
479		64.453125
480		72.265625
481		66.406250
482		72.265625
483		66.406250
484		74.218750
485		68.359375
486		76.171875
487		70.312500
488		76.171875
489		70.312500
490		78.125000
491		74.218750
492		76.171875
493		74.218750
494		76.171875
495		72.265625
496		80.078125
497		72.265625
498		80.078125
499		72.265625
500		80.078125
501		72.265625
502		80.078125
503		72.265625
504		80.078125
505		72.265625
506		80.078125
507		72.265625
508		78.125000
509		74.218750
510		76.171875
511		70.312500
512		78.125000
513		70.312500
514		78.125000
515		68.359375
516		76.171875
517		68.359375
518		74.218750
519		66.406250
520		74.218750
521		64.453125
522		72.265625
523		64.453125
524		70.312500
525		64.453125
526		66.406250
527		62.500000
528		64.453125
529		58.593750
530		66.406250
531		54.687500
532		64.453125
533		52.734375
534		60.546875
535		50.781250
536		58.593750
537		48.828125
538		56.640625
539		46.875000
540		54.687500
541		44.921875
542		50.781250
543		42.968750
544		46.875000
545		37.109375
546		44.921875
547		35.156250
548		42.968750
549		31.250000
550		39.062500
551		27.343750
552		37.109375
553		25.390625
554		33.203125
555		21.484375
556		31.250000
557		19.531250
558		27.343750
559		17.578125
560		21.484375
561		11.718750
562		17.578125
563		7.812500
564		17.578125
565		5.859375
566		13.671875
567		1.953125
568		9.765625
569		-1.953125
570		5.859375
571		-5.859375
572		3.906250
573		-7.812500
574		0.000000
575		-9.765625
576		-5.859375
577		-13.671875
578		-7.812500
579		-19.531250
580		-9.765625
581		-21.484375
582		-13.671875
583		-25.390625
584		-15.625000
585		-29.296875
586		-19.531250
587		-31.250000
588		-23.437500
589		-35.156250
590		-25.390625
591		-35.156250
592		-27.343750
593		-37.109375
594		-33.203125
595		-42.968750
596		-35.156250
597		-44.921875
598		-37.109375
599		-46.875000
600		-39.062500
601		-48.828125
602		-41.015625
603		-52.734375
604		-42.968750
605		-52.734375
606		-44.921875
607		-54.687500
608		-46.875000
609		-54.687500
610		-50.781250
611		-58.593750
612		-52.734375
613		-60.546875
614		-52.734375
615		-60.546875
616		-52.734375
617		-62.500000
618		-54.687500
619		-62.500000
620		-54.687500
621		-62.500000
622		-56.640625
623		-62.500000
624		-56.640625
625		-62.500000
626		-58.593750
627		-60.546875
628		-58.593750
629		-62.500000
630		-56.640625
631		-62.500000
632		-56.640625
633		-62.500000
634		-56.640625
635		-62.500000
636		-54.687500
637		-60.546875
638		-54.687500
639		-60.546875
640		-52.734375
641		-58.593750
642		-52.734375
643		-56.640625
644		-52.734375
645		-56.640625
646		-48.828125
647		-54.687500
648		-46.875000
649		-52.734375
650		-44.921875
651		-52.734375
652		-42.968750
653		-48.828125
654		-41.015625
655		-46.875000
656		-39.062500
657		-44.921875
658		-37.109375
659		-41.015625
660		-37.109375
661		-37.109375
662		-33.203125
663		-37.109375
664		-29.296875
665		-33.203125
666		-25.390625
667		-31.250000
668		-21.484375
669		-27.343750
670		-19.531250
671		-25.390625
672		-15.625000
673		-21.484375
674		-13.671875
675		-19.531250
676		-11.718750
677		-13.671875
678		-9.765625
679		-9.765625
680		-3.906250
681		-9.765625
682		0.000000
683		-5.859375
684		3.906250
685		-1.953125
686		5.859375
687		0.000000
688		9.765625
689		3.906250
690		13.671875
691		7.812500
692		15.625000
693		13.671875
694		17.578125
695		17.578125
696		21.484375
697		17.578125
698		27.343750
699		21.484375
700		29.296875
701		25.390625
702		33.203125
703		27.343750
704		37.109375
705		29.296875
706		39.062500
707		33.203125
708		42.968750
709		37.109375
710		42.968750
711		41.015625
712		44.921875
713		42.968750
714		50.781250
715		44.921875
716		52.734375
717		46.875000
718		56.640625
719		50.781250
720		58.593750
721		52.734375
722		60.546875
723		54.687500
724		62.500000
725		56.640625
726		64.453125
727		60.546875
728		64.453125
729		62.500000
730		68.359375
731		62.500000
732		70.312500
733		64.453125
734		72.265625
735		66.406250
736		74.218750
737		66.406250
738		74.218750
739		68.359375
740		76.171875
741		68.359375
742		76.171875
743		72.265625
744		76.171875
745		74.218750
746		76.171875
747		72.265625
748		78.125000
749		72.265625
750		80.078125
751		72.265625
752		80.078125
753		72.265625
754		80.078125
755		72.265625
756		80.078125
757		72.265625
758		80.078125
759		74.218750
760		78.125000
761		74.218750
762		76.171875
763		70.312500
764		78.125000
765		70.312500
766		78.125000
767		68.359375
768		76.171875
769		68.359375
770		76.171875
771		68.359375
772		74.218750
773		66.406250
774		72.265625
775		64.453125
776		72.265625
777		64.453125
778		68.359375
779		62.500000
780		66.406250
781		58.593750
782		66.406250
783		56.640625
784		64.453125
785		54.687500
786		62.500000
787		52.734375
788		60.546875
789		48.828125
790		58.593750
791		46.875000
792		56.640625
793		46.875000
794		52.734375
795		42.968750
796		48.828125
797		39.062500
798		46.875000
799		37.109375
800		44.921875
801		33.203125
802		41.015625
803		29.296875
804		39.062500
805		27.343750
806		35.156250
807		23.437500
808		33.203125
809		21.484375
810		29.296875
811		19.531250
812		23.437500
813		13.671875
814		19.531250
815		9.765625
816		19.531250
817		5.859375
818		15.625000
819		3.906250
820		13.671875
821		0.000000
822		7.812500
823		-3.906250
824		5.859375
825		-5.859375
826		1.953125
827		-7.812500
828		-3.906250
829		-11.718750
830		-5.859375
831		-15.625000
832		-9.765625
833		-19.531250
834		-11.718750
835		-23.437500
836		-13.671875
837		-27.343750
838		-17.578125
839		-29.296875
840		-21.484375
841		-33.203125
842		-23.437500
843		-33.203125
844		-27.343750
845		-37.109375
846		-31.250000
847		-41.015625
848		-35.156250
849		-42.968750
850		-35.156250
851		-44.921875
852		-37.109375
853		-46.875000
854		-39.062500
855		-48.828125
856		-42.968750
857		-52.734375
858		-44.921875
859		-54.687500
860		-46.875000
861		-52.734375
862		-50.781250
863		-54.687500
864		-52.734375
865		-58.593750
866		-50.781250
867		-60.546875
868		-52.734375
869		-60.546875
870		-54.687500
871		-62.500000
872		-54.687500
873		-62.500000
874		-56.640625
875		-64.453125
876		-56.640625
877		-62.500000
878		-58.593750
879		-62.500000
880		-58.593750
881		-64.453125
882		-56.640625
883		-64.453125
884		-56.640625
885		-64.453125
886		-56.640625
887		-64.453125
888		-56.640625
889		-62.500000
890		-54.687500
891		-62.500000
892		-54.687500
893		-60.546875
894		-54.687500
895		-56.640625
896		-54.687500
897		-56.640625
898		-52.734375
899		-56.640625
900		-48.828125
901		-54.687500
902		-46.875000
903		-52.734375
904		-44.921875
905		-50.781250
906		-42.968750
907		-48.828125
908		-41.015625
909		-46.875000
910		-39.062500
911		-42.968750
912		-39.062500
913		-41.015625
914		-35.156250
915		-39.062500
916		-31.250000
917		-37.109375
918		-29.296875
919		-35.156250
920		-25.390625
921		-31.250000
922		-21.484375
923		-27.343750
924		-19.531250
925		-25.390625
926		-15.625000
927		-21.484375
928		-15.625000
929		-15.625000
930		-11.718750
931		-13.671875
932		-5.859375
933		-11.718750
934		-3.906250
935		-7.812500
936		0.000000
937		-3.906250
938		3.906250
939		-1.953125
940		5.859375
941		1.953125
942		9.765625
943		5.859375
944		13.671875
945		9.765625
946		15.625000
947		13.671875
948		19.531250
949		15.625000
950		23.437500
951		17.578125
952		27.343750
953		21.484375
954		31.250000
955		25.390625
956		33.203125
957		27.343750
958		37.109375
959		31.250000
960		39.062500
961		33.203125
962		41.015625
963		39.062500
964		42.968750
965		41.015625
966		48.828125
967		42.968750
968		50.781250
969		44.921875
970		54.687500
971		48.828125
972		56.640625
973		50.781250
974		58.593750
975		52.734375
976		60.546875
977		54.687500
978		60.546875
979		58.593750
980		62.500000
981		60.546875
982		64.453125
983		60.546875
984		68.359375
985		62.500000
986		70.312500
987		64.453125
988		72.265625
989		66.406250
990		74.218750
991		66.406250
992		74.218750
993		68.359375
994		74.218750
995		72.265625
996		74.218750
997		72.265625
998		74.218750
999		70.312500
1000		78.125000
1001		72.265625
1002		78.125000
1003		72.265625
1004		78.125000
1005		72.265625
1006		80.078125
1007		72.265625
1008		80.078125
1009		72.265625
1010		80.078125
1011		72.265625
1012		78.125000
1013		74.218750
1014		76.171875
1015		72.265625
1016		76.171875
1017		70.312500
1018		78.125000
1019		70.312500
1020		76.171875
1021		68.359375
1022		76.171875
1023		66.406250
1024		74.218750
1025		66.406250
1026		72.265625
1027		64.453125
1028		72.265625
1029		66.406250
1030		68.359375
1031		64.453125
1032		66.406250
1033		58.593750
1034		66.406250
1035		58.593750
1036		64.453125
1037		56.640625
1038		64.453125
1039		52.734375
1040		60.546875
1041		50.781250
1042		58.593750
1043		48.828125
1044		56.640625
1045		48.828125
1046		54.687500
1047		44.921875
1048		48.828125
1049		41.015625
1050		46.875000
1051		37.109375
1052		46.875000
1053		33.203125
1054		42.968750
1055		31.250000
1056		39.062500
1057		29.296875
1058		37.109375
1059		23.437500
1060		35.156250
1061		23.437500
1062		31.250000
1063		21.484375
1064		25.390625
1065		17.578125
1066		21.484375
1067		11.718750
1068		21.484375
1069		9.765625
1070		17.578125
1071		5.859375
1072		13.671875
1073		1.953125
1074		9.765625
1075		0.000000
1076		7.812500
1077		-3.906250
1078		3.906250
1079		-5.859375
1080		-1.953125
1081		-9.765625
1082		-3.906250
1083		-15.625000
1084		-7.812500
1085		-17.578125
1086		-9.765625
1087		-21.484375
1088		-13.671875
1089		-25.390625
1090		-15.625000
1091		-27.343750
1092		-19.531250
1093		-31.250000
1094		-21.484375
1095		-31.250000
1096		-25.390625
1097		-35.156250
1098		-31.250000
1099		-39.062500
1100		-33.203125
1101		-42.968750
1102		-33.203125
1103		-44.921875
1104		-37.109375
1105		-46.875000
1106		-39.062500
1107		-48.828125
1108		-41.015625
1109		-50.781250
1110		-44.921875
1111		-52.734375
1112		-44.921875
1113		-52.734375
1114		-48.828125
1115		-54.687500
1116		-50.781250
1117		-58.593750
1118		-50.781250
1119		-60.546875
1120		-52.734375
1121		-60.546875
1122		-52.734375
1123		-62.500000
1124		-54.687500
1125		-62.500000
1126		-56.640625
1127		-64.453125
1128		-56.640625
1129		-64.453125
1130		-56.640625
1131		-62.500000
1132		-60.546875
1133		-64.453125
1134		-58.593750
1135		-64.453125
1136		-58.593750
1137		-64.453125
1138		-56.640625
1139		-64.453125
1140		-56.640625
1141		-62.500000
1142		-56.640625
1143		-62.500000
1144		-56.640625
1145		-62.500000
1146		-54.687500
1147		-58.593750
1148		-56.640625
1149		-56.640625
1150		-54.687500
1151		-58.593750
1152		-50.781250
1153		-56.640625
1154		-48.828125
1155		-54.687500
1156		-48.828125
1157		-52.734375
1158		-46.875000
1159		-50.781250
1160		-42.968750
1161		-48.828125
1162		-41.015625
1163		-46.875000
1164		-41.015625
1165		-42.968750
1166		-39.062500
1167		-41.015625
1168		-33.203125
1169		-39.062500
1170		-31.250000
1171		-37.109375
1172		-27.343750
1173		-35.156250
1174		-25.390625
1175		-31.250000
1176		-21.484375
1177		-27.343750
1178		-19.531250
1179		-23.437500
1180		-17.578125
1181		-19.531250
1182		-15.625000
1183		-15.625000
1184		-9.765625
1185		-15.625000
1186		-5.859375
1187		-11.718750
1188		-1.953125
1189		-7.812500
1190		0.000000
1191		-5.859375
1192		3.906250
1193		-1.953125
1194		7.812500
1195		1.953125
1196		9.765625
1197		7.812500
1198		11.718750
1199		11.718750
1200		15.625000
1201		13.671875
1202		21.484375
1203		15.625000
1204		23.437500
1205		17.578125
1206		27.343750
1207		21.484375
1208		31.250000
1209		25.390625
1210		33.203125
1211		27.343750
1212		37.109375
1213		31.250000
1214		37.109375
1215		37.109375
1216		41.015625
1217		39.062500
1218		44.921875
1219		41.015625
1220		48.828125
1221		42.968750
1222		50.781250
1223		44.921875
1224		54.687500
1225		48.828125
1226		56.640625
1227		50.781250
1228		58.593750
1229		52.734375
1230		60.546875
1231		56.640625
1232		60.546875
1233		58.593750
1234		62.500000
1235		58.593750
1236		66.406250
1237		60.546875
1238		68.359375
1239		62.500000
1240		70.312500
1241		64.453125
1242		72.265625
1243		66.406250
1244		72.265625
1245		66.406250
1246		74.218750
1247		68.359375
1248		74.218750
1249		72.265625
1250		74.218750
1251		70.312500
1252		76.171875
1253		70.312500
1254		78.125000
1255		70.312500
1256		78.125000
1257		72.265625
1258		78.125000
1259		72.265625
1260		78.125000
1261		72.265625
1262		78.125000
1263		72.265625
1264		78.125000
1265		74.218750
1266		76.171875
1267		70.312500
1268		78.125000
1269		70.312500
1270		78.125000
1271		70.312500
1272		78.125000
1273		68.359375
1274		76.171875
1275		68.359375
1276		76.171875
1277		66.406250
1278		74.218750
1279		66.406250
1280		72.265625
1281		66.406250
1282		70.312500
1283		64.453125
1284		68.359375
1285		60.546875
1286		68.359375
1287		58.593750
1288		66.406250
1289		56.640625
1290		64.453125
1291		54.687500
1292		62.500000
1293		52.734375
1294		60.546875
1295		50.781250
1296		58.593750
1297		48.828125
1298		56.640625
1299		46.875000
1300		50.781250
1301		42.968750
1302		48.828125
1303		39.062500
1304		48.828125
1305		37.109375
1306		44.921875
1307		33.203125
1308		42.968750
1309		31.250000
1310		39.062500
1311		27.343750
1312		37.109375
1313		25.390625
1314		33.203125
1315		23.437500
1316		27.343750
1317		19.531250
1318		25.390625
1319		13.671875
1320		23.437500
1321		9.765625
1322		21.484375
1323		7.812500
1324		17.578125
1325		3.906250
1326		13.671875
1327		0.000000
1328		9.765625
1329		-3.906250
1330		5.859375
1331		-3.906250
1332		3.906250
1333		-7.812500
1334		-1.953125
1335		-11.718750
1336		-5.859375
1337		-15.625000
1338		-5.859375
1339		-19.531250
1340		-9.765625
1341		-21.484375
1342		-13.671875
1343		-25.390625
1344		-17.578125
1345		-27.343750
1346		-19.531250
1347		-31.250000
1348		-23.437500
1349		-33.203125
1350		-27.343750
1351		-37.109375
1352		-31.250000
1353		-41.015625
1354		-31.250000
1355		-42.968750
1356		-35.156250
1357		-44.921875
1358		-37.109375
1359		-48.828125
1360		-39.062500
1361		-50.781250
1362		-42.968750
1363		-52.734375
1364		-44.921875
1365		-52.734375
1366		-48.828125
1367		-54.687500
1368		-50.781250
1369		-58.593750
1370		-50.781250
1371		-58.593750
1372		-50.781250
1373		-60.546875
1374		-52.734375
1375		-62.500000
1376		-54.687500
1377		-62.500000
1378		-54.687500
1379		-62.500000
1380		-56.640625
1381		-64.453125
1382		-56.640625
1383		-62.500000
1384		-60.546875
1385		-64.453125
1386		-58.593750
1387		-64.453125
1388		-58.593750
1389		-64.453125
1390		-58.593750
1391		-64.453125
1392		-58.593750
1393		-64.453125
1394		-56.640625
1395		-64.453125
1396		-56.640625
1397		-62.500000
1398		-56.640625
1399		-60.546875
1400		-56.640625
1401		-58.593750
1402		-56.640625
1403		-60.546875
1404		-52.734375
1405		-58.593750
1406		-50.781250
1407		-56.640625
1408		-48.828125
1409		-54.687500
1410		-48.828125
1411		-52.734375
1412		-44.921875
1413		-52.734375
1414		-42.968750
1415		-48.828125
1416		-42.968750
1417		-44.921875
1418		-41.015625
1419		-42.968750
1420		-37.109375
1421		-42.968750
1422		-33.203125
1423		-39.062500
1424		-31.250000
1425		-37.109375
1426		-27.343750
1427		-35.156250
1428		-25.390625
1429		-31.250000
1430		-23.437500
1431		-27.343750
1432		-19.531250
1433		-21.484375
1434		-17.578125
1435		-19.531250
1436		-13.671875
1437		-17.578125
1438		-9.765625
1439		-13.671875
1440		-5.859375
1441		-11.718750
1442		-1.953125
1443		-7.812500
1444		0.000000
1445		-3.906250
1446		3.906250
1447		-1.953125
1448		7.812500
1449		3.906250
1450		9.765625
1451		7.812500
1452		11.718750
1453		9.765625
1454		17.578125
1455		11.718750
1456		21.484375
1457		15.625000
1458		25.390625
1459		19.531250
1460		27.343750
1461		21.484375
1462		31.250000
1463		25.390625
1464		33.203125
1465		29.296875
1466		35.156250
1467		33.203125
1468		39.062500
1469		37.109375
1470		42.968750
1471		37.109375
1472		46.875000
1473		41.015625
1474		48.828125
1475		42.968750
1476		50.781250
1477		46.875000
1478		54.687500
1479		48.828125
1480		56.640625
1481		50.781250
1482		58.593750
1483		54.687500
1484		58.593750
1485		56.640625
1486		60.546875
1487		56.640625
1488		64.453125
1489		58.593750
1490		66.406250
1491		60.546875
1492		68.359375
1493		62.500000
1494		70.312500
1495		64.453125
1496		72.265625
1497		66.406250
1498		72.265625
1499		68.359375
1500		72.265625
1501		70.312500
1502		72.265625
1503		70.312500
1504		76.171875
1505		70.312500
1506		76.171875
1507		70.312500
1508		76.171875
1509		70.312500
1510		78.125000
1511		72.265625
1512		78.125000
1513		72.265625
1514		78.125000
1515		72.265625
1516		78.125000
1517		74.218750
1518		76.171875
1519		72.265625
1520		76.171875
1521		70.312500
1522		78.125000
1523		70.312500
1524		76.171875
1525		70.312500
1526		76.171875
1527		68.359375
1528		76.171875
1529		66.406250
1530		74.218750
1531		66.406250
1532		74.218750
1533		68.359375
1534		70.312500
1535		66.406250
1536		68.359375
1537		62.500000
1538		68.359375
1539		60.546875
1540		68.359375
1541		58.593750
1542		66.406250
1543		56.640625
1544		64.453125
1545		54.687500
1546		62.500000
1547		52.734375
1548		60.546875
1549		50.781250
1550		58.593750
1551		48.828125
1552		52.734375
1553		44.921875
1554		50.781250
1555		41.015625
1556		50.781250
1557		39.062500
1558		46.875000
1559		35.156250
1560		44.921875
1561		33.203125
1562		41.015625
1563		29.296875
1564		39.062500
1565		27.343750
1566		35.156250
1567		25.390625
1568		31.250000
1569		21.484375
1570		27.343750
1571		17.578125
1572		25.390625
1573		13.671875
1574		23.437500
1575		9.765625
1576		19.531250
1577		5.859375
1578		15.625000
1579		3.906250
1580		11.718750
1581		0.000000
1582		7.812500
1583		-1.953125
1584		5.859375
1585		-3.906250
1586		0.000000
1587		-11.718750
1588		-3.906250
1589		-13.671875
1590		-5.859375
1591		-17.578125
1592		-7.812500
1593		-19.531250
1594		-11.718750
1595		-23.437500
1596		-13.671875
1597		-27.343750
1598		-17.578125
1599		-27.343750
1600		-21.484375
1601		-31.250000
1602		-27.343750
1603		-35.156250
1604		-29.296875
1605		-39.062500
1606		-29.296875
1607		-41.015625
1608		-33.203125
1609		-42.968750
1610		-35.156250
1611		-46.875000
1612		-39.062500
1613		-48.828125
1614		-41.015625
1615		-50.781250
1616		-42.968750
1617		-50.781250
1618		-46.875000
1619		-52.734375
1620		-48.828125
1621		-56.640625
1622		-48.828125
1623		-58.593750
1624		-50.781250
1625		-60.546875
1626		-52.734375
1627		-60.546875
1628		-54.687500
1629		-62.500000
1630		-54.687500
1631		-62.500000
1632		-54.687500
1633		-62.500000
1634		-56.640625
1635		-62.500000
1636		-60.546875
1637		-64.453125
1638		-58.593750
1639		-66.406250
1640		-58.593750
1641		-64.453125
1642		-58.593750
1643		-64.453125
1644		-58.593750
1645		-64.453125
1646		-58.593750
1647		-64.453125
1648		-56.640625
1649		-64.453125
1650		-56.640625
1651		-60.546875
1652		-58.593750
1653		-60.546875
1654		-56.640625
1655		-60.546875
1656		-54.687500
1657		-58.593750
1658		-52.734375
1659		-58.593750
1660		-50.781250
1661		-56.640625
1662		-48.828125
1663		-54.687500
1664		-46.875000
1665		-52.734375
1666		-44.921875
1667		-50.781250
1668		-44.921875
1669		-46.875000
1670		-42.968750
1671		-44.921875
1672		-39.062500
1673		-42.968750
1674		-35.156250
1675		-41.015625
1676		-33.203125
1677		-39.062500
1678		-29.296875
1679		-35.156250
1680		-27.343750
1681		-33.203125
1682		-23.437500
1683		-29.296875
1684		-23.437500
1685		-25.390625
1686		-19.531250
1687		-21.484375
1688		-17.578125
1689		-19.531250
1690		-11.718750
1691		-17.578125
1692		-7.812500
1693		-13.671875
1694		-3.906250
1695		-9.765625
1696		-1.953125
1697		-7.812500
1698		1.953125
1699		-3.906250
1700		5.859375
1701		1.953125
1702		7.812500
1703		5.859375
1704		9.765625
1705		7.812500
1706		15.625000
1707		9.765625
1708		19.531250
1709		13.671875
1710		21.484375
1711		17.578125
1712		25.390625
1713		19.531250
1714		29.296875
1715		23.437500
1716		31.250000
1717		25.390625
1718		33.203125
1719		31.250000
1720		35.156250
1721		35.156250
1722		41.015625
1723		35.156250
1724		44.921875
1725		39.062500
1726		46.875000
1727		41.015625
1728		48.828125
1729		42.968750
1730		52.734375
1731		46.875000
1732		54.687500
1733		48.828125
1734		56.640625
1735		52.734375
1736		56.640625
1737		56.640625
1738		58.593750
1739		56.640625
1740		64.453125
1741		58.593750
1742		64.453125
1743		60.546875
1744		68.359375
1745		62.500000
1746		70.312500
1747		62.500000
1748		70.312500
1749		64.453125
1750		72.265625
1751		66.406250
1752		72.265625
1753		70.312500
1754		72.265625
1755		70.312500
1756		74.218750
1757		70.312500
1758		76.171875
1759		70.312500
1760		76.171875
1761		72.265625
1762		76.171875
1763		72.265625
1764		78.125000
1765		72.265625
1766		78.125000
1767		72.265625
1768		78.125000
1769		74.218750
1770		76.171875
1771		74.218750
1772		76.171875
1773		70.312500
1774		78.125000
1775		70.312500
1776		78.125000
1777		70.312500
1778		76.171875
1779		68.359375
1780		76.171875
1781		68.359375
1782		76.171875
1783		66.406250
1784		74.218750
1785		68.359375
1786		72.265625
1787		66.406250
1788		70.312500
1789		62.500000
1790		70.312500
1791		62.500000
1792		68.359375
1793		60.546875
1794		66.406250
1795		58.593750
1796		66.406250
1797		54.687500
1798		62.500000
1799		52.734375
1800		60.546875
1801		52.734375
1802		58.593750
1803		50.781250
1804		54.687500
1805		46.875000
1806		52.734375
1807		42.968750
1808		52.734375
1809		41.015625
1810		48.828125
1811		39.062500
1812		46.875000
1813		35.156250
1814		42.968750
1815		31.250000
1816		41.015625
1817		29.296875
1818		37.109375
1819		27.343750
1820		33.203125
1821		25.390625
1822		29.296875
1823		19.531250
1824		27.343750
1825		15.625000
1826		25.390625
1827		11.718750
1828		21.484375
1829		9.765625
1830		17.578125
1831		5.859375
1832		15.625000
1833		1.953125
1834		11.718750
1835		1.953125
1836		7.812500
1837		-1.953125
1838		1.953125
1839		-7.812500
1840		-1.953125
1841		-11.718750
1842		-1.953125
1843		-15.625000
1844		-5.859375
1845		-19.531250
1846		-9.765625
1847		-21.484375
1848		-11.718750
1849		-25.390625
1850		-15.625000
1851		-27.343750
1852		-19.531250
1853		-29.296875
1854		-23.437500
1855		-31.250000
1856		-27.343750
1857		-37.109375
1858		-27.343750
1859		-39.062500
1860		-31.250000
1861		-41.015625
1862		-33.203125
1863		-44.921875
1864		-35.156250
1865		-46.875000
1866		-39.062500
1867		-50.781250
1868		-41.015625
1869		-48.828125
1870		-44.921875
1871		-50.781250
1872		-46.875000
1873		-56.640625
1874		-48.828125
1875		-56.640625
1876		-48.828125
1877		-58.593750
1878		-50.781250
1879		-60.546875
1880		-52.734375
1881		-60.546875
1882		-54.687500
1883		-62.500000
1884		-54.687500
1885		-62.500000
1886		-56.640625
1887		-62.500000
1888		-58.593750
1889		-62.500000
1890		-60.546875
1891		-64.453125
1892		-58.593750
1893		-64.453125
1894		-58.593750
1895		-64.453125
1896		-58.593750
1897		-64.453125
1898		-58.593750
1899		-64.453125
1900		-58.593750
1901		-64.453125
1902		-56.640625
1903		-62.500000
1904		-58.593750
1905		-60.546875
1906		-58.593750
1907		-60.546875
1908		-54.687500
1909		-60.546875
1910		-52.734375
1911		-60.546875
1912		-52.734375
1913		-58.593750
1914		-50.781250
1915		-56.640625
1916		-48.828125
1917		-54.687500
1918		-46.875000
1919		-52.734375
1920		-46.875000
1921		-48.828125
1922		-44.921875
1923		-46.875000
1924		-41.015625
1925		-44.921875
1926		-37.109375
1927		-42.968750
1928		-35.156250
1929		-41.015625
1930		-33.203125
1931		-39.062500
1932		-29.296875
1933		-35.156250
1934		-27.343750
1935		-31.250000
1936		-25.390625
1937		-27.343750
1938		-23.437500
1939		-23.437500
1940		-19.531250
1941		-23.437500
1942		-13.671875
1943		-19.531250
1944		-11.718750
1945		-17.578125
1946		-7.812500
1947		-13.671875
1948		-5.859375
1949		-9.765625
1950		-1.953125
1951		-5.859375
1952		1.953125
1953		-1.953125
1954		3.906250
1955		1.953125
1956		7.812500
1957		5.859375
1958		11.718750
1959		7.812500
1960		15.625000
1961		11.718750
1962		19.531250
1963		15.625000
1964		21.484375
1965		17.578125
1966		25.390625
1967		21.484375
1968		29.296875
1969		23.437500
1970		31.250000
1971		29.296875
1972		33.203125
1973		31.250000
1974		39.062500
1975		33.203125
1976		41.015625
1977		35.156250
1978		44.921875
1979		41.015625
1980		44.921875
1981		42.968750
1982		48.828125
1983		44.921875
1984		50.781250
1985		46.875000
1986		54.687500
1987		50.781250
1988		54.687500
1989		54.687500
1990		58.593750
1991		54.687500
1992		62.500000
1993		56.640625
1994		64.453125
1995		58.593750
1996		64.453125
1997		62.500000
1998		66.406250
1999		62.500000
2000		68.359375
2001		64.453125
2002		70.312500
2003		64.453125
2004		70.312500
2005		68.359375
2006		72.265625
2007		68.359375
2008		74.218750
2009		68.359375
2010		76.171875
2011		70.312500
2012		76.171875
2013		72.265625
2014		74.218750
2015		72.265625
2016		76.171875
2017		72.265625
2018		76.171875
2019		72.265625
2020		76.171875
2021		74.218750
2022		76.171875
2023		74.218750
2024		76.171875
2025		72.265625
2026		78.125000
2027		70.312500
2028		78.125000
2029		72.265625
2030		76.171875
2031		70.312500
2032		74.218750
2033		70.312500
2034		74.218750
2035		70.312500
2036		72.265625
2037		68.359375
2038		74.218750
2039		68.359375
2040		70.312500
2041		66.406250
2042		68.359375
2043		64.453125
2044		68.359375
2045		62.500000
2046		66.406250
2047		60.546875
2048		64.453125
2049		58.593750
2050		62.500000
2051		56.640625
2052		60.546875
2053		54.687500
2054		58.593750
2055		52.734375
2056		56.640625
2057		48.828125
2058		54.687500
2059		46.875000
2060		50.781250
2061		44.921875
2062		48.828125
2063		41.015625
2064		46.875000
2065		39.062500
2066		42.968750
2067		35.156250
2068		41.015625
2069		31.250000
2070		37.109375
2071		29.296875
2072		35.156250
2073		27.343750
2074		31.250000
2075		23.437500
2076		27.343750
2077		19.531250
2078		25.390625
2079		17.578125
2080		21.484375
2081		13.671875
2082		17.578125
2083		9.765625
2084		15.625000
2085		7.812500
2086		11.718750
2087		3.906250
2088		7.812500
2089		0.000000
2090		3.906250
2091		-5.859375
2092		0.000000
2093		-7.812500
2094		-1.953125
2095		-11.718750
2096		-5.859375
2097		-13.671875
2098		-9.765625
2099		-17.578125
2100		-11.718750
2101		-19.531250
2102		-15.625000
2103		-23.437500
2104		-17.578125
2105		-27.343750
2106		-21.484375
2107		-29.296875
2108		-25.390625
2109		-33.203125
2110		-27.343750
2111		-37.109375
2112		-31.250000
2113		-39.062500
2114		-35.156250
2115		-41.015625
2116		-37.109375
2117		-42.968750
2118		-39.062500
2119		-46.875000
2120		-41.015625
2121		-48.828125
2122		-42.968750
2123		-50.781250
2124		-46.875000
2125		-52.734375
2126		-48.828125
2127		-54.687500
2128		-50.781250
2129		-56.640625
2130		-52.734375
2131		-58.593750
2132		-54.687500
2133		-58.593750
2134		-56.640625
2135		-60.546875
2136		-56.640625
2137		-62.500000
2138		-58.593750
2139		-62.500000
2140		-58.593750
2141		-62.500000
2142		-60.546875
2143		-64.453125
2144		-60.546875
2145		-64.453125
2146		-60.546875
2147		-64.453125
2148		-60.546875
2149		-64.453125
2150		-60.546875
2151		-64.453125
2152		-60.546875
2153		-64.453125
2154		-58.593750
2155		-62.500000
2156		-60.546875
2157		-62.500000
2158		-58.593750
2159		-60.546875
2160		-58.593750
2161		-60.546875
2162		-56.640625
2163		-58.593750
2164		-54.687500
2165		-56.640625
2166		-54.687500
2167		-56.640625
2168		-50.781250
2169		-54.687500
2170		-50.781250
2171		-52.734375
2172		-48.828125
2173		-50.781250
2174		-46.875000
2175		-48.828125
2176		-42.968750
2177		-46.875000
2178		-41.015625
2179		-42.968750
2180		-39.062500
2181		-41.015625
2182		-37.109375
2183		-39.062500
2184		-33.203125
2185		-35.156250
2186		-31.250000
2187		-33.203125
2188		-27.343750
2189		-29.296875
2190		-25.390625
2191		-27.343750
2192		-21.484375
2193		-25.390625
2194		-19.531250
2195		-19.531250
2196		-13.671875
2197		-17.578125
2198		-11.718750
2199		-13.671875
2200		-7.812500
2201		-9.765625
2202		-5.859375
2203		-5.859375
2204		-1.953125
2205		-3.906250
2206		1.953125
2207		0.000000
2208		3.906250
2209		3.906250
2210		7.812500
2211		5.859375
2212		11.718750
2213		9.765625
2214		15.625000
2215		13.671875
2216		19.531250
2217		17.578125
2218		21.484375
2219		19.531250
2220		25.390625
2221		23.437500
2222		27.343750
2223		27.343750
2224		31.250000
2225		29.296875
2226		35.156250
2227		31.250000
2228		37.109375
2229		35.156250
2230		41.015625
2231		39.062500
2232		42.968750
2233		41.015625
2234		46.875000
2235		44.921875
2236		48.828125
2237		46.875000
2238		52.734375
2239		48.828125
2240		52.734375
2241		52.734375
2242		56.640625
2243		54.687500
2244		58.593750
2245		56.640625
2246		60.546875
2247		58.593750
2248		62.500000
2249		60.546875
2250		64.453125
2251		62.500000
2252		66.406250
2253		64.453125
2254		68.359375
2255		66.406250
2256		68.359375
2257		66.406250
2258		70.312500
2259		68.359375
2260		72.265625
2261		68.359375
2262		72.265625
2263		70.312500
2264		74.218750
2265		70.312500
2266		74.218750
2267		72.265625
2268		76.171875
2269		72.265625
2270		76.171875
2271		72.265625
2272		78.125000
2273		74.218750
2274		76.171875
2275		72.265625
2276		76.171875
2277		72.265625
2278		76.171875
2279		72.265625
2280		76.171875
2281		72.265625
2282		76.171875
2283		72.265625
2284		74.218750
2285		70.312500
2286		74.218750
2287		70.312500
2288		74.218750
2289		68.359375
2290		74.218750
2291		68.359375
2292		70.312500
2293		66.406250
2294		70.312500
2295		64.453125
2296		68.359375
2297		62.500000
2298		68.359375
2299		62.500000
2300		66.406250
2301		60.546875
2302		64.453125
2303		58.593750
2304		62.500000
2305		56.640625
2306		60.546875
2307		52.734375
2308		58.593750
2309		50.781250
2310		56.640625
2311		48.828125
2312		54.687500
2313		46.875000
2314		50.781250
2315		44.921875
2316		48.828125
2317		41.015625
2318		44.921875
2319		37.109375
2320		42.968750
2321		35.156250
2322		39.062500
2323		31.250000
2324		37.109375
2325		29.296875
2326		33.203125
2327		25.390625
2328		31.250000
2329		21.484375
2330		27.343750
2331		19.531250
2332		23.437500
2333		15.625000
2334		21.484375
2335		11.718750
2336		17.578125
2337		9.765625
2338		13.671875
2339		5.859375
2340		11.718750
2341		1.953125
2342		7.812500
2343		-1.953125
2344		3.906250
2345		-5.859375
2346		0.000000
2347		-7.812500
2348		-3.906250
2349		-11.718750
2350		-5.859375
2351		-15.625000
2352		-9.765625
2353		-17.578125
2354		-13.671875
2355		-21.484375
2356		-17.578125
2357		-25.390625
2358		-19.531250
2359		-27.343750
2360		-23.437500
2361		-31.250000
2362		-25.390625
2363		-33.203125
2364		-29.296875
2365		-37.109375
2366		-31.250000
2367		-39.062500
2368		-35.156250
2369		-41.015625
2370		-37.109375
2371		-44.921875
2372		-39.062500
2373		-46.875000
2374		-41.015625
2375		-48.828125
2376		-44.921875
2377		-50.781250
2378		-46.875000
2379		-52.734375
2380		-48.828125
2381		-54.687500
2382		-50.781250
2383		-56.640625
2384		-52.734375
2385		-58.593750
2386		-54.687500
2387		-60.546875
2388		-54.687500
2389		-60.546875
2390		-56.640625
2391		-60.546875
2392		-58.593750
2393		-62.500000
2394		-60.546875
2395		-64.453125
2396		-58.593750
2397		-64.453125
2398		-60.546875
2399		-64.453125
2400		-60.546875
2401		-64.453125
2402		-60.546875
2403		-64.453125
2404		-60.546875
2405		-64.453125
2406		-60.546875
2407		-64.453125
2408		-60.546875
2409		-62.500000
2410		-60.546875
2411		-62.500000
2412		-58.593750
2413		-60.546875
2414		-56.640625
2415		-60.546875
2416		-56.640625
2417		-58.593750
2418		-54.687500
2419		-56.640625
2420		-52.734375
2421		-56.640625
2422		-52.734375
2423		-54.687500
2424		-50.781250
2425		-52.734375
2426		-48.828125
2427		-50.781250
2428		-46.875000
2429		-46.875000
2430		-42.968750
2431		-44.921875
2432		-41.015625
2433		-42.968750
2434		-39.062500
2435		-41.015625
2436		-37.109375
2437		-37.109375
2438		-33.203125
2439		-35.156250
2440		-29.296875
2441		-33.203125
2442		-27.343750
2443		-29.296875
2444		-25.390625
2445		-25.390625
2446		-21.484375
2447		-23.437500
2448		-17.578125
2449		-19.531250
2450		-13.671875
2451		-15.625000
2452		-11.718750
2453		-13.671875
2454		-7.812500
2455		-9.765625
2456		-3.906250
2457		-5.859375
2458		-1.953125
2459		-3.906250
2460		1.953125
2461		0.000000
2462		5.859375
2463		3.906250
2464		7.812500
2465		5.859375
2466		11.718750
2467		11.718750
2468		15.625000
2469		13.671875
2470		19.531250
2471		15.625000
2472		23.437500
2473		19.531250
2474		25.390625
2475		23.437500
2476		29.296875
2477		27.343750
2478		31.250000
2479		29.296875
2480		35.156250
2481		33.203125
2482		39.062500
2483		37.109375
2484		41.015625
2485		39.062500
2486		42.968750
2487		42.968750
2488		46.875000
2489		44.921875
2490		48.828125
2491		44.921875
2492		52.734375
2493		48.828125
2494		54.687500
2495		52.734375
2496		56.640625
2497		54.687500
2498		58.593750
2499		56.640625
2500		60.546875
2501		58.593750
2502		62.500000
2503		60.546875
2504		64.453125
2505		62.500000
2506		66.406250
2507		64.453125
2508		68.359375
2509		66.406250
2510		68.359375
2511		66.406250
2512		70.312500
2513		68.359375
2514		72.265625
2515		68.359375
2516		72.265625
2517		70.312500
2518		74.218750
2519		70.312500
2520		74.218750
2521		70.312500
2522		74.218750
2523		72.265625
2524		76.171875
2525		72.265625
2526		76.171875
2527		72.265625
2528		76.171875
2529		72.265625
2530		76.171875
2531		72.265625
2532		76.171875
2533		72.265625
2534		76.171875
2535		72.265625
2536		74.218750
2537		72.265625
2538		74.218750
2539		70.312500
2540		74.218750
2541		70.312500
2542		74.218750
2543		68.359375
2544		72.265625
2545		66.406250
2546		70.312500
2547		66.406250
2548		70.312500
2549		64.453125
2550		68.359375
2551		62.500000
2552		66.406250
2553		60.546875
2554		64.453125
2555		58.593750
2556		62.500000
2557		56.640625
2558		62.500000
2559		54.687500
2560		58.593750
2561		52.734375
2562		56.640625
2563		50.781250
2564		54.687500
2565		46.875000
2566		52.734375
2567		44.921875
2568		50.781250
2569		42.968750
2570		46.875000
2571		39.062500
2572		44.921875
2573		37.109375
2574		41.015625
2575		33.203125
2576		39.062500
2577		31.250000
2578		35.156250
2579		27.343750
2580		31.250000
2581		23.437500
2582		29.296875
2583		21.484375
2584		25.390625
2585		17.578125
2586		23.437500
2587		13.671875
2588		19.531250
2589		9.765625
2590		15.625000
2591		7.812500
2592		11.718750
2593		3.906250
2594		9.765625
2595		0.000000
2596		5.859375
2597		-1.953125
2598		1.953125
2599		-5.859375
2600		-1.953125
2601		-9.765625
2602		-3.906250
2603		-13.671875
2604		-7.812500
2605		-15.625000
2606		-11.718750
2607		-19.531250
2608		-15.625000
2609		-23.437500
2610		-17.578125
2611		-25.390625
2612		-21.484375
2613		-29.296875
2614		-23.437500
2615		-31.250000
2616		-27.343750
2617		-35.156250
2618		-29.296875
2619		-37.109375
2620		-33.203125
2621		-41.015625
2622		-35.156250
2623		-42.968750
2624		-39.062500
2625		-44.921875
2626		-41.015625
2627		-46.875000
2628		-44.921875
2629		-50.781250
2630		-46.875000
2631		-52.734375
2632		-48.828125
2633		-54.687500
2634		-50.781250
2635		-56.640625
2636		-52.734375
2637		-56.640625
2638		-54.687500
2639		-58.593750
2640		-54.687500
2641		-60.546875
2642		-56.640625
2643		-60.546875
2644		-58.593750
2645		-62.500000
2646		-58.593750
2647		-62.500000
2648		-58.593750
2649		-64.453125
2650		-60.546875
2651		-64.453125
2652		-60.546875
2653		-64.453125
2654		-60.546875
2655		-64.453125
2656		-62.500000
2657		-64.453125
2658		-60.546875
2659		-64.453125
2660		-60.546875
2661		-62.500000
2662		-60.546875
2663		-64.453125
2664		-60.546875
2665		-62.500000
2666		-58.593750
2667		-60.546875
2668		-58.593750
2669		-60.546875
2670		-56.640625
2671		-58.593750
2672		-54.687500
2673		-56.640625
2674		-54.687500
2675		-56.640625
2676		-52.734375
2677		-54.687500
2678		-50.781250
2679		-52.734375
2680		-46.875000
2681		-50.781250
2682		-44.921875
2683		-46.875000
2684		-42.968750
2685		-44.921875
2686		-41.015625
2687		-42.968750
2688		-39.062500
2689		-41.015625
2690		-35.156250
2691		-37.109375
2692		-33.203125
2693		-35.156250
2694		-31.250000
2695		-31.250000
2696		-27.343750
2697		-29.296875
2698		-23.437500
2699		-25.390625
2700		-21.484375
2701		-23.437500
2702		-17.578125
2703		-19.531250
2704		-15.625000
2705		-15.625000
2706		-11.718750
2707		-13.671875
2708		-7.812500
2709		-11.718750
2710		-3.906250
2711		-5.859375
2712		0.000000
2713		-1.953125
2714		1.953125
2715		0.000000
2716		5.859375
2717		3.906250
2718		9.765625
2719		7.812500
2720		11.718750
2721		11.718750
2722		15.625000
2723		13.671875
2724		19.531250
2725		17.578125
2726		23.437500
2727		21.484375
2728		25.390625
2729		23.437500
2730		29.296875
2731		27.343750
2732		31.250000
2733		31.250000
2734		35.156250
2735		33.203125
2736		39.062500
2737		37.109375
2738		41.015625
2739		39.062500
2740		42.968750
2741		42.968750
2742		46.875000
2743		44.921875
2744		48.828125
2745		46.875000
2746		50.781250
2747		50.781250
2748		54.687500
2749		52.734375
2750		56.640625
2751		54.687500
2752		58.593750
2753		56.640625
2754		60.546875
2755		58.593750
2756		62.500000
2757		60.546875
2758		64.453125
2759		62.500000
2760		66.406250
2761		64.453125
2762		66.406250
2763		66.406250
2764		70.312500
2765		66.406250
2766		70.312500
2767		68.359375
2768		72.265625
2769		68.359375
2770		74.218750
2771		70.312500
2772		72.265625
2773		70.312500
2774		74.218750
2775		70.312500
2776		74.218750
2777		72.265625
2778		74.218750
2779		72.265625
2780		74.218750
2781		72.265625
2782		74.218750
2783		72.265625
2784		76.171875
2785		72.265625
2786		76.171875
2787		72.265625
2788		74.218750
2789		72.265625
2790		74.218750
2791		70.312500
2792		74.218750
2793		70.312500
2794		74.218750
2795		68.359375
2796		72.265625
2797		66.406250
2798		70.312500
2799		66.406250
2800		70.312500
2801		64.453125
2802		68.359375
2803		64.453125
2804		68.359375
2805		60.546875
2806		66.406250
2807		60.546875
2808		64.453125
2809		58.593750
2810		62.500000
2811		56.640625
2812		60.546875
2813		52.734375
2814		58.593750
2815		50.781250
2816		56.640625
2817		48.828125
2818		52.734375
2819		46.875000
2820		50.781250
2821		42.968750
2822		48.828125
2823		41.015625
2824		44.921875
2825		37.109375
2826		42.968750
2827		35.156250
2828		39.062500
2829		33.203125
2830		37.109375
2831		29.296875
2832		33.203125
2833		25.390625
2834		31.250000
2835		23.437500
2836		27.343750
2837		19.531250
2838		25.390625
2839		15.625000
2840		21.484375
2841		11.718750
2842		17.578125
2843		9.765625
2844		13.671875
2845		5.859375
2846		9.765625
2847		1.953125
2848		7.812500
2849		0.000000
2850		5.859375
2851		-3.906250
2852		1.953125
2853		-7.812500
2854		-1.953125
2855		-11.718750
2856		-5.859375
2857		-15.625000
2858		-9.765625
2859		-17.578125
2860		-13.671875
2861		-21.484375
2862		-17.578125
2863		-23.437500
2864		-19.531250
2865		-27.343750
2866		-23.437500
2867		-31.250000
2868		-25.390625
2869		-35.156250
2870		-29.296875
2871		-37.109375
2872		-31.250000
2873		-39.062500
2874		-35.156250
2875		-42.968750
2876		-37.109375
2877		-44.921875
2878		-41.015625
2879		-46.875000
2880		-42.968750
2881		-50.781250
2882		-44.921875
2883		-50.781250
2884		-46.875000
2885		-52.734375
2886		-48.828125
2887		-54.687500
2888		-50.781250
2889		-56.640625
2890		-52.734375
2891		-58.593750
2892		-54.687500
2893		-60.546875
2894		-56.640625
2895		-60.546875
2896		-58.593750
2897		-62.500000
2898		-58.593750
2899		-62.500000
2900		-58.593750
2901		-64.453125
2902		-60.546875
2903		-64.453125
2904		-60.546875
2905		-64.453125
2906		-60.546875
2907		-66.406250
2908		-62.500000
2909		-66.406250
2910		-62.500000
2911		-64.453125
2912		-60.546875
2913		-64.453125
2914		-62.500000
2915		-64.453125
2916		-60.546875
2917		-64.453125
2918		-60.546875
2919		-62.500000
2920		-58.593750
2921		-60.546875
2922		-56.640625
2923		-60.546875
2924		-56.640625
2925		-58.593750
2926		-54.687500
2927		-58.593750
2928		-52.734375
2929		-54.687500
2930		-52.734375
2931		-54.687500
2932		-50.781250
2933		-52.734375
2934		-48.828125
2935		-50.781250
2936		-46.875000
2937		-46.875000
2938		-42.968750
2939		-44.921875
2940		-41.015625
2941		-42.968750
2942		-37.109375
2943		-39.062500
2944		-35.156250
2945		-37.109375
2946		-33.203125
2947		-35.156250
2948		-29.296875
2949		-31.250000
2950		-27.343750
2951		-29.296875
2952		-23.437500
2953		-25.390625
2954		-19.531250
2955		-23.437500
2956		-17.578125
2957		-19.531250
2958		-13.671875
2959		-15.625000
2960		-9.765625
2961		-11.718750
2962		-7.812500
2963		-9.765625
2964		-3.906250
2965		-5.859375
2966		0.000000
2967		-1.953125
2968		3.906250
2969		1.953125
2970		5.859375
2971		3.906250
2972		9.765625
2973		7.812500
2974		13.671875
2975		11.718750
2976		15.625000
2977		15.625000
2978		19.531250
2979		17.578125
2980		23.437500
2981		21.484375
2982		27.343750
2983		25.390625
2984		31.250000
2985		27.343750
2986		33.203125
2987		31.250000
2988		35.156250
2989		35.156250
2990		39.062500
2991		37.109375
2992		42.968750
2993		39.062500
2994		44.921875
2995		42.968750
2996		46.875000
2997		44.921875
2998		48.828125
2999		48.828125
3000		52.734375
3001		50.781250
3002		54.687500
3003		52.734375
3004		56.640625
3005		54.687500
3006		58.593750
3007		56.640625
3008		60.546875
3009		58.593750
3010		62.500000
3011		60.546875
3012		64.453125
3013		62.500000
3014		66.406250
3015		64.453125
3016		68.359375
3017		64.453125
3018		70.312500
3019		66.406250
3020		70.312500
3021		68.359375
3022		72.265625
3023		70.312500
3024		72.265625
3025		70.312500
3026		74.218750
3027		70.312500
3028		74.218750
3029		70.312500
3030		74.218750
3031		72.265625
3032		74.218750
3033		72.265625
3034		76.171875
3035		72.265625
3036		74.218750
3037		72.265625
3038		76.171875
3039		72.265625
3040		74.218750
3041		72.265625
3042		74.218750
3043		72.265625
3044		74.218750
3045		70.312500
3046		74.218750
3047		70.312500
3048		72.265625
3049		68.359375
3050		72.265625
3051		66.406250
3052		70.312500
3053		66.406250
3054		70.312500
3055		64.453125
3056		68.359375
3057		62.500000
3058		66.406250
3059		60.546875
3060		64.453125
3061		58.593750
3062		64.453125
3063		56.640625
3064		60.546875
3065		54.687500
3066		58.593750
3067		52.734375
3068		58.593750
3069		50.781250
3070		54.687500
3071		48.828125
3072		52.734375
3073		44.921875
3074		50.781250
3075		42.968750
3076		48.828125
3077		41.015625
3078		44.921875
3079		37.109375
3080		42.968750
3081		35.156250
3082		39.062500
3083		31.250000
3084		35.156250
3085		29.296875
3086		33.203125
3087		25.390625
3088		31.250000
3089		21.484375
3090		27.343750
3091		19.531250
3092		23.437500
3093		15.625000
3094		19.531250
3095		11.718750
3096		17.578125
3097		7.812500
3098		13.671875
3099		5.859375
3100		9.765625
3101		1.953125
3102		7.812500
3103		-1.953125
3104		3.906250
3105		-5.859375
3106		0.000000
3107		-7.812500
3108		-3.906250
3109		-11.718750
3110		-7.812500
3111		-15.625000
3112		-9.765625
3113		-17.578125
3114		-13.671875
3115		-21.484375
3116		-17.578125
3117		-25.390625
3118		-19.531250
3119		-27.343750
3120		-23.437500
3121		-31.250000
3122		-27.343750
3123		-35.156250
3124		-29.296875
3125		-37.109375
3126		-33.203125
3127		-39.062500
3128		-35.156250
3129		-42.968750
3130		-39.062500
3131		-44.921875
3132		-41.015625
3133		-48.828125
3134		-42.968750
3135		-50.781250
3136		-44.921875
3137		-50.781250
3138		-46.875000
3139		-52.734375
3140		-48.828125
3141		-56.640625
3142		-52.734375
3143		-56.640625
3144		-52.734375
3145		-58.593750
3146		-54.687500
3147		-60.546875
3148		-56.640625
3149		-60.546875
3150		-58.593750
3151		-62.500000
3152		-58.593750
3153		-64.453125
3154		-60.546875
3155		-64.453125
3156		-60.546875
3157		-64.453125
3158		-62.500000
3159		-64.453125
3160		-62.500000
3161		-64.453125
3162		-62.500000
3163		-66.406250
3164		-60.546875
3165		-64.453125
3166		-62.500000
3167		-64.453125
3168		-60.546875
3169		-64.453125
3170		-60.546875
3171		-62.500000
3172		-60.546875
3173		-62.500000
3174		-58.593750
3175		-60.546875
3176		-58.593750
3177		-60.546875
3178		-56.640625
3179		-58.593750
3180		-54.687500
3181		-56.640625
3182		-52.734375
3183		-54.687500
3184		-50.781250
3185		-54.687500
3186		-48.828125
3187		-50.781250
3188		-46.875000
3189		-48.828125
3190		-44.921875
3191		-46.875000
3192		-42.968750
3193		-44.921875
3194		-41.015625
3195		-42.968750
3196		-37.109375
3197		-41.015625
3198		-35.156250
3199		-37.109375
3200		-31.250000
3201		-33.203125
3202		-29.296875
3203		-31.250000
3204		-25.390625
3205		-27.343750
3206		-21.484375
3207		-25.390625
3208		-19.531250
3209		-21.484375
3210		-15.625000
3211		-17.578125
3212		-13.671875
3213		-13.671875
3214		-9.765625
3215		-11.718750
3216		-5.859375
3217		-7.812500
3218		-1.953125
3219		-3.906250
3220		0.000000
3221		-1.953125
3222		3.906250
3223		1.953125
3224		7.812500
3225		5.859375
3226		11.718750
3227		7.812500
3228		13.671875
3229		11.718750
3230		17.578125
3231		15.625000
3232		19.531250
3233		19.531250
3234		23.437500
3235		21.484375
3236		27.343750
3237		25.390625
3238		31.250000
3239		29.296875
3240		33.203125
3241		31.250000
3242		37.109375
3243		35.156250
3244		41.015625
3245		37.109375
3246		42.968750
3247		41.015625
3248		44.921875
3249		42.968750
3250		46.875000
3251		44.921875
3252		50.781250
3253		48.828125
3254		52.734375
3255		50.781250
3256		56.640625
3257		52.734375
3258		56.640625
3259		54.687500
3260		60.546875
3261		58.593750
3262		62.500000
3263		60.546875
3264		64.453125
3265		62.500000
3266		64.453125
3267		64.453125
3268		66.406250
3269		64.453125
3270		68.359375
3271		66.406250
3272		70.312500
3273		66.406250
3274		70.312500
3275		68.359375
3276		72.265625
3277		70.312500
3278		72.265625
3279		70.312500
3280		74.218750
3281		70.312500
3282		74.218750
3283		72.265625
3284		74.218750
3285		70.312500
3286		76.171875
3287		72.265625
3288		76.171875
3289		72.265625
3290		76.171875
3291		72.265625
3292		76.171875
3293		72.265625
3294		74.218750
3295		70.312500
3296		74.218750
3297		70.312500
3298		74.218750
3299		70.312500
3300		72.265625
3301		68.359375
3302		72.265625
3303		68.359375
3304		72.265625
3305		66.406250
3306		70.312500
3307		64.453125
3308		70.312500
3309		64.453125
3310		68.359375
3311		62.500000
3312		66.406250
3313		60.546875
3314		64.453125
3315		58.593750
3316		62.500000
3317		56.640625
3318		60.546875
3319		54.687500
3320		58.593750
3321		52.734375
3322		56.640625
3323		50.781250
3324		54.687500
3325		48.828125
3326		52.734375
3327		44.921875
3328		50.781250
3329		42.968750
3330		46.875000
3331		39.062500
3332		44.921875
3333		37.109375
3334		41.015625
3335		33.203125
3336		39.062500
3337		31.250000
3338		35.156250
3339		27.343750
3340		33.203125
3341		23.437500
3342		29.296875
3343		19.531250
3344		27.343750
3345		17.578125
3346		23.437500
3347		15.625000
3348		19.531250
3349		11.718750
3350		15.625000
3351		7.812500
3352		11.718750
3353		3.906250
3354		9.765625
3355		0.000000
3356		5.859375
3357		-1.953125
3358		1.953125
3359		-5.859375
3360		-1.953125
3361		-9.765625
3362		-3.906250
3363		-13.671875
3364		-7.812500
3365		-15.625000
3366		-11.718750
3367		-19.531250
3368		-13.671875
3369		-23.437500
3370		-17.578125
3371		-25.390625
3372		-21.484375
3373		-29.296875
3374		-25.390625
3375		-33.203125
3376		-27.343750
3377		-35.156250
3378		-31.250000
3379		-37.109375
3380		-33.203125
3381		-41.015625
3382		-35.156250
3383		-42.968750
3384		-39.062500
3385		-46.875000
3386		-41.015625
3387		-46.875000
3388		-42.968750
3389		-50.781250
3390		-44.921875
3391		-52.734375
3392		-48.828125
3393		-54.687500
3394		-50.781250
3395		-56.640625
3396		-52.734375
3397		-60.546875
3398		-54.687500
3399		-58.593750
3400		-56.640625
3401		-60.546875
3402		-56.640625
3403		-60.546875
3404		-58.593750
3405		-62.500000
3406		-58.593750
3407		-64.453125
3408		-60.546875
3409		-64.453125
3410		-60.546875
3411		-64.453125
3412		-60.546875
3413		-64.453125
3414		-62.500000
3415		-66.406250
3416		-60.546875
3417		-64.453125
3418		-62.500000
3419		-64.453125
3420		-60.546875
3421		-64.453125
3422		-60.546875
3423		-64.453125
3424		-60.546875
3425		-62.500000
3426		-60.546875
3427		-62.500000
3428		-58.593750
3429		-60.546875
3430		-56.640625
3431		-60.546875
3432		-54.687500
3433		-58.593750
3434		-54.687500
3435		-56.640625
3436		-52.734375
3437		-54.687500
3438		-50.781250
3439		-54.687500
3440		-48.828125
3441		-50.781250
3442		-46.875000
3443		-48.828125
3444		-44.921875
3445		-46.875000
3446		-42.968750
3447		-42.968750
3448		-39.062500
3449		-41.015625
3450		-37.109375
3451		-39.062500
3452		-33.203125
3453		-37.109375
3454		-31.250000
3455		-33.203125
3456		-29.296875
3457		-29.296875
3458		-25.390625
3459		-27.343750
3460		-21.484375
3461		-23.437500
3462		-19.531250
3463		-21.484375
3464		-15.625000
3465		-17.578125
3466		-11.718750
3467		-13.671875
3468		-9.765625
3469		-9.765625
3470		-3.906250
3471		-7.812500
3472		-1.953125
3473		-3.906250
3474		1.953125
3475		0.000000
3476		3.906250
3477		3.906250
3478		7.812500
3479		5.859375
3480		11.718750
3481		9.765625
3482		15.625000
3483		13.671875
3484		17.578125
3485		17.578125
3486		23.437500
3487		19.531250
3488		25.390625
3489		23.437500
3490		27.343750
3491		27.343750
3492		31.250000
3493		29.296875
3494		35.156250
3495		33.203125
3496		37.109375
3497		35.156250
3498		41.015625
3499		39.062500
3500		42.968750
3501		41.015625
3502		44.921875
3503		44.921875
3504		48.828125
3505		46.875000
3506		50.781250
3507		48.828125
3508		52.734375
3509		52.734375
3510		56.640625
3511		54.687500
3512		58.593750
3513		56.640625
3514		60.546875
3515		58.593750
3516		62.500000
3517		60.546875
3518		64.453125
3519		62.500000
3520		64.453125
3521		62.500000
3522		68.359375
3523		64.453125
3524		68.359375
3525		66.406250
3526		70.312500
3527		68.359375
3528		72.265625
3529		68.359375
3530		72.265625
3531		70.312500
3532		74.218750
3533		70.312500
3534		74.218750
3535		72.265625
3536		74.218750
3537		70.312500
3538		74.218750
3539		72.265625
3540		76.171875
3541		72.265625
3542		76.171875
3543		72.265625
3544		76.171875
3545		72.265625
3546		76.171875
3547		72.265625
3548		74.218750
3549		70.312500
3550		74.218750
3551		70.312500
3552		74.218750
3553		70.312500
3554		72.265625
3555		68.359375
3556		72.265625
3557		68.359375
3558		72.265625
3559		66.406250
3560		70.312500
3561		66.406250
3562		68.359375
3563		62.500000
3564		68.359375
3565		62.500000
3566		66.406250
3567		60.546875
3568		64.453125
3569		58.593750
3570		62.500000
3571		56.640625
3572		60.546875
3573		54.687500
3574		58.593750
3575		52.734375
3576		56.640625
3577		48.828125
3578		54.687500
3579		46.875000
3580		52.734375
3581		44.921875
3582		48.828125
3583		41.015625
3584		46.875000
3585		39.062500
3586		42.968750
3587		35.156250
3588		41.015625
3589		33.203125
3590		39.062500
3591		29.296875
3592		35.156250
3593		27.343750
3594		33.203125
3595		23.437500
3596		29.296875
3597		19.531250
3598		25.390625
3599		15.625000
3600		21.484375
3601		13.671875
3602		19.531250
3603		9.765625
3604		15.625000
3605		5.859375
3606		11.718750
3607		3.906250
3608		7.812500
3609		0.000000
3610		5.859375
3611		-3.906250
3612		1.953125
3613		-5.859375
3614		-1.953125
3615		-9.765625
3616		-5.859375
3617		-13.671875
3618		-7.812500
3619		-17.578125
3620		-11.718750
3621		-21.484375
3622		-15.625000
3623		-23.437500
3624		-19.531250
3625		-27.343750
3626		-21.484375
3627		-31.250000
3628		-25.390625
3629		-33.203125
3630		-27.343750
3631		-37.109375
3632		-31.250000
3633		-39.062500
3634		-33.203125
3635		-41.015625
3636		-37.109375
3637		-42.968750
3638		-39.062500
3639		-46.875000
3640		-41.015625
3641		-48.828125
3642		-42.968750
3643		-50.781250
3644		-46.875000
3645		-52.734375
3646		-48.828125
3647		-54.687500
3648		-50.781250
3649		-56.640625
3650		-52.734375
3651		-58.593750
3652		-52.734375
3653		-58.593750
3654		-56.640625
3655		-60.546875
3656		-56.640625
3657		-62.500000
3658		-58.593750
3659		-62.500000
3660		-58.593750
3661		-62.500000
3662		-60.546875
3663		-64.453125
3664		-60.546875
3665		-64.453125
3666		-60.546875
3667		-66.406250
3668		-60.546875
3669		-64.453125
3670		-62.500000
3671		-64.453125
3672		-62.500000
3673		-64.453125
3674		-60.546875
3675		-64.453125
3676		-60.546875
3677		-62.500000
3678		-60.546875
3679		-62.500000
3680		-58.593750
3681		-60.546875
3682		-56.640625
3683		-60.546875
3684		-56.640625
3685		-58.593750
3686		-56.640625
3687		-58.593750
3688		-54.687500
3689		-56.640625
3690		-52.734375
3691		-54.687500
3692		-50.781250
3693		-52.734375
3694		-48.828125
3695		-50.781250
3696		-46.875000
3697		-48.828125
3698		-42.968750
3699		-46.875000
3700		-41.015625
3701		-42.968750
3702		-39.062500
3703		-41.015625
3704		-35.156250
3705		-37.109375
3706		-31.250000
3707		-35.156250
3708		-29.296875
3709		-33.203125
3710		-27.343750
3711		-29.296875
3712		-23.437500
3713		-25.390625
3714		-19.531250
3715		-21.484375
3716		-17.578125
3717		-21.484375
3718		-13.671875
3719		-15.625000
3720		-11.718750
3721		-11.718750
3722		-7.812500
3723		-9.765625
3724		-3.906250
3725		-5.859375
3726		0.000000
3727		-1.953125
3728		1.953125
3729		1.953125
3730		5.859375
3731		3.906250
3732		9.765625
3733		7.812500
3734		13.671875
3735		9.765625
3736		15.625000
3737		13.671875
3738		19.531250
3739		17.578125
3740		23.437500
3741		21.484375
3742		25.390625
3743		23.437500
3744		29.296875
3745		27.343750
3746		33.203125
3747		31.250000
3748		35.156250
3749		33.203125
3750		39.062500
3751		37.109375
3752		41.015625
3753		39.062500
3754		44.921875
3755		42.968750
3756		46.875000
3757		44.921875
3758		48.828125
3759		48.828125
3760		52.734375
3761		50.781250
3762		54.687500
3763		52.734375
3764		56.640625
3765		54.687500
3766		58.593750
3767		56.640625
3768		62.500000
3769		58.593750
3770		62.500000
3771		60.546875
3772		64.453125
3773		62.500000
3774		66.406250
3775		64.453125
3776		68.359375
3777		66.406250
3778		68.359375
3779		66.406250
3780		70.312500
3781		68.359375
3782		72.265625
3783		70.312500
3784		72.265625
3785		70.312500
3786		74.218750
3787		72.265625
3788		74.218750
3789		72.265625
3790		76.171875
3791		70.312500
3792		74.218750
3793		72.265625
3794		76.171875
3795		72.265625
3796		74.218750
3797		72.265625
3798		76.171875
3799		72.265625
3800		76.171875
3801		70.312500
3802		74.218750
3803		72.265625
3804		74.218750
3805		70.312500
3806		74.218750
3807		70.312500
3808		74.218750
3809		68.359375
3810		72.265625
3811		68.359375
3812		72.265625
3813		66.406250
3814		70.312500
3815		66.406250
3816		68.359375
3817		62.500000
3818		68.359375
3819		62.500000
3820		66.406250
3821		60.546875
3822		64.453125
3823		58.593750
3824		62.500000
3825		54.687500
3826		60.546875
3827		54.687500
3828		58.593750
3829		50.781250
3830		56.640625
3831		48.828125
3832		54.687500
3833		46.875000
3834		50.781250
3835		44.921875
3836		48.828125
3837		41.015625
3838		46.875000
3839		37.109375
3840		42.968750
3841		35.156250
3842		39.062500
3843		31.250000
3844		37.109375
3845		29.296875
3846		35.156250
3847		25.390625
3848		31.250000
3849		23.437500
3850		27.343750
3851		19.531250
3852		25.390625
3853		15.625000
3854		21.484375
3855		13.671875
3856		17.578125
3857		9.765625
3858		13.671875
3859		5.859375
3860		11.718750
3861		1.953125
3862		7.812500
3863		0.000000
3864		3.906250
3865		-3.906250
3866		0.000000
3867		-7.812500
3868		-1.953125
3869		-9.765625
3870		-5.859375
3871		-13.671875
3872		-9.765625
3873		-17.578125
3874		-13.671875
3875		-21.484375
3876		-15.625000
3877		-25.390625
3878		-19.531250
3879		-27.343750
3880		-23.437500
3881		-31.250000
3882		-25.390625
3883		-33.203125
3884		-29.296875
3885		-37.109375
3886		-31.250000
3887		-39.062500
3888		-35.156250
3889		-41.015625
3890		-37.109375
3891		-44.921875
3892		-39.062500
3893		-46.875000
3894		-42.968750
3895		-48.828125
3896		-44.921875
3897		-52.734375
3898		-46.875000
3899		-52.734375
3900		-48.828125
3901		-54.687500
3902		-50.781250
3903		-56.640625
3904		-52.734375
3905		-58.593750
3906		-54.687500
3907		-60.546875
3908		-56.640625
3909		-60.546875
3910		-56.640625
3911		-62.500000
3912		-58.593750
3913		-62.500000
3914		-58.593750
3915		-62.500000
3916		-60.546875
3917		-64.453125
3918		-60.546875
3919		-64.453125
3920		-60.546875
3921		-64.453125
3922		-62.500000
3923		-66.406250
3924		-60.546875
3925		-64.453125
3926		-60.546875
3927		-64.453125
3928		-60.546875
3929		-62.500000
3930		-60.546875
3931		-62.500000
3932		-60.546875
3933		-62.500000
3934		-58.593750
3935		-60.546875
3936		-56.640625
3937		-60.546875
3938		-56.640625
3939		-58.593750
3940		-54.687500
3941		-56.640625
3942		-52.734375
3943		-54.687500
3944		-50.781250
3945		-54.687500
3946		-48.828125
3947		-50.781250
3948		-46.875000
3949		-48.828125
3950		-44.921875
3951		-46.875000
3952		-42.968750
3953		-44.921875
3954		-41.015625
3955		-42.968750
3956		-37.109375
3957		-39.062500
3958		-35.156250
3959		-37.109375
3960		-31.250000
3961		-35.156250
3962		-29.296875
3963		-31.250000
3964		-27.343750
3965		-27.343750
3966		-21.484375
3967		-25.390625
3968		-19.531250
3969		-21.484375
3970		-17.578125
3971		-17.578125
3972		-13.671875
3973		-15.625000
3974		-9.765625
3975		-13.671875
3976		-5.859375
3977		-7.812500
3978		-1.953125
3979		-3.906250
3980		0.000000
3981		-1.953125
3982		3.906250
3983		1.953125
3984		7.812500
3985		5.859375
3986		11.718750
3987		9.765625
3988		13.671875
3989		11.718750
3990		17.578125
3991		15.625000
3992		21.484375
3993		19.531250
3994		25.390625
3995		21.484375
3996		27.343750
3997		25.390625
3998		31.250000
3999		29.296875
4000		33.203125
4001		31.250000
4002		37.109375
4003		35.156250
4004		39.062500
4005		37.109375
4006		42.968750
4007		41.015625
4008		44.921875
4009		42.968750
4010		46.875000
4011		44.921875
4012		50.781250
4013		48.828125
4014		52.734375
4015		50.781250
4016		54.687500
4017		52.734375
4018		58.593750
4019		56.640625
4020		60.546875
4021		58.593750
4022		60.546875
4023		60.546875
4024		62.500000
4025		62.500000
4026		64.453125
4027		62.500000
4028		66.406250
4029		64.453125
4030		68.359375
4031		66.406250
4032		70.312500
4033		66.406250
4034		72.265625
4035		68.359375
4036		72.265625
4037		70.312500
4038		72.265625
4039		70.312500
4040		74.218750
4041		70.312500
4042		74.218750
4043		72.265625
4044		74.218750
4045		72.265625
4046		76.171875
4047		72.265625
4048		76.171875
4049		72.265625
4050		76.171875
4051		72.265625
4052		76.171875
4053		72.265625
4054		76.171875
4055		72.265625
4056		74.218750
4057		72.265625
4058		74.218750
4059		70.312500
4060		74.218750
4061		70.312500
4062		72.265625
4063		68.359375
4064		72.265625
4065		68.359375
4066		70.312500
4067		66.406250
4068		70.312500
4069		64.453125
4070		68.359375
4071		64.453125
4072		66.406250
4073		62.500000
4074		64.453125
4075		60.546875
4076		64.453125
4077		58.593750
4078		62.500000
4079		56.640625
4080		60.546875
4081		52.734375
4082		56.640625
4083		50.781250
4084		56.640625
4085		48.828125
4086		52.734375
4087		46.875000
4088		50.781250
4089		42.968750
4090		46.875000
4091		41.015625
4092		44.921875
4093		37.109375
4094		42.968750
4095		35.156250
4096		41.015625
4097		31.250000
4098		37.109375
4099		29.296875
4100		33.203125
4101		25.390625
4102		31.250000
4103		21.484375
4104		27.343750
4105		19.531250
4106		23.437500
4107		15.625000
4108		19.531250
4109		11.718750
4110		17.578125
4111		7.812500
4112		13.671875
4113		5.859375
4114		9.765625
4115		1.953125
4116		7.812500
4117		-1.953125
4118		3.906250
4119		-5.859375
4120		0.000000
4121		-7.812500
4122		-3.906250
4123		-11.718750
4124		-5.859375
4125		-15.625000
4126		-9.765625
4127		-17.578125
4128		-13.671875
4129		-21.484375
4130		-15.625000
4131		-25.390625
4132		-19.531250
4133		-27.343750
4134		-23.437500
4135		-31.250000
4136		-25.390625
4137		-35.156250
4138		-29.296875
4139		-37.109375
4140		-31.250000
4141		-39.062500
4142		-35.156250
4143		-42.968750
4144		-37.109375
4145		-44.921875
4146		-41.015625
4147		-46.875000
4148		-42.968750
4149		-48.828125
4150		-44.921875
4151		-50.781250
4152		-46.875000
4153		-54.687500
4154		-48.828125
4155		-54.687500
4156		-50.781250
4157		-56.640625
4158		-52.734375
4159		-58.593750
4160		-54.687500
4161		-60.546875
4162		-54.687500
4163		-60.546875
4164		-56.640625
4165		-62.500000
4166		-58.593750
4167		-62.500000
4168		-58.593750
4169		-64.453125
4170		-60.546875
4171		-64.453125
4172		-60.546875
4173		-64.453125
4174		-62.500000
4175		-64.453125
4176		-60.546875
4177		-64.453125
4178		-60.546875
4179		-64.453125
4180		-60.546875
4181		-64.453125
4182		-60.546875
4183		-64.453125
4184		-58.593750
4185		-62.500000
4186		-58.593750
4187		-62.500000
4188		-58.593750
4189		-60.546875
4190		-56.640625
4191		-58.593750
4192		-56.640625
4193		-58.593750
4194		-52.734375
4195		-56.640625
4196		-52.734375
4197		-54.687500
4198		-50.781250
4199		-52.734375
4200		-46.875000
4201		-50.781250
4202		-46.875000
4203		-48.828125
4204		-44.921875
4205		-46.875000
4206		-42.968750
4207		-42.968750
4208		-39.062500
4209		-41.015625
4210		-37.109375
4211		-39.062500
4212		-33.203125
4213		-37.109375
4214		-31.250000
4215		-35.156250
4216		-27.343750
4217		-31.250000
4218		-23.437500
4219		-27.343750
4220		-21.484375
4221		-23.437500
4222		-17.578125
4223		-21.484375
4224		-15.625000
4225		-17.578125
4226		-11.718750
4227		-13.671875
4228		-7.812500
4229		-11.718750
4230		-3.906250
4231		-7.812500
4232		-1.953125
4233		-3.906250
4234		1.953125
4235		-1.953125
4236		5.859375
4237		1.953125
4238		9.765625
4239		5.859375
4240		11.718750
4241		9.765625
4242		13.671875
4243		13.671875
4244		19.531250
4245		15.625000
4246		21.484375
4247		19.531250
4248		25.390625
4249		21.484375
4250		29.296875
4251		25.390625
4252		31.250000
4253		29.296875
4254		35.156250
4255		31.250000
4256		37.109375
4257		35.156250
4258		41.015625
4259		39.062500
4260		42.968750
4261		39.062500
4262		46.875000
4263		42.968750
4264		48.828125
4265		46.875000
4266		52.734375
4267		46.875000
4268		54.687500
4269		50.781250
4270		56.640625
4271		52.734375
4272		58.593750
4273		54.687500
4274		60.546875
4275		58.593750
4276		62.500000
4277		60.546875
4278		64.453125
4279		62.500000
4280		64.453125
4281		64.453125
4282		66.406250
4283		64.453125
4284		68.359375
4285		66.406250
4286		70.312500
4287		68.359375
4288		70.312500
4289		68.359375
4290		72.265625
4291		70.312500
4292		72.265625
4293		72.265625
4294		74.218750
4295		72.265625
4296		74.218750
4297		72.265625
4298		74.218750
4299		72.265625
4300		74.218750
4301		72.265625
4302		74.218750
4303		72.265625
4304		76.171875
4305		72.265625
4306		74.218750
4307		72.265625
4308		74.218750
4309		72.265625
4310		74.218750
4311		72.265625
4312		74.218750
4313		70.312500
4314		74.218750
4315		70.312500
4316		72.265625
4317		68.359375
4318		72.265625
4319		68.359375
4320		70.312500
4321		66.406250
4322		68.359375
4323		64.453125
4324		68.359375
4325		62.500000
4326		66.406250
4327		60.546875
4328		64.453125
4329		58.593750
4330		62.500000
4331		56.640625
4332		60.546875
4333		54.687500
4334		58.593750
4335		52.734375
4336		56.640625
4337		50.781250
4338		54.687500
4339		46.875000
4340		52.734375
4341		44.921875
4342		48.828125
4343		42.968750
4344		46.875000
4345		41.015625
4346		44.921875
4347		37.109375
4348		41.015625
4349		33.203125
4350		39.062500
4351		31.250000
4352		35.156250
4353		27.343750
4354		31.250000
4355		25.390625
4356		29.296875
4357		21.484375
4358		25.390625
4359		17.578125
4360		23.437500
4361		13.671875
4362		19.531250
4363		11.718750
4364		15.625000
4365		7.812500
4366		13.671875
4367		3.906250
4368		9.765625
4369		0.000000
4370		5.859375
4371		-1.953125
4372		1.953125
4373		-5.859375
4374		-1.953125
4375		-9.765625
4376		-3.906250
4377		-15.625000
4378		-7.812500
4379		-19.531250
4380		-7.812500
4381		-21.484375
4382		-11.718750
4383		-23.437500
4384		-15.625000
4385		-25.390625
4386		-21.484375
4387		-29.296875
4388		-25.390625
4389		-31.250000
4390		-27.343750
4391		-35.156250
4392		-31.250000
4393		-37.109375
4394		-33.203125
4395		-42.968750
4396		-33.203125
4397		-44.921875
4398		-35.156250
4399		-46.875000
4400		-39.062500
4401		-46.875000
4402		-42.968750
4403		-50.781250
4404		-46.875000
4405		-52.734375
4406		-48.828125
4407		-54.687500
4408		-50.781250
4409		-56.640625
4410		-52.734375
4411		-60.546875
4412		-52.734375
4413		-62.500000
4414		-52.734375
4415		-62.500000
4416		-54.687500
4417		-62.500000
4418		-54.687500
4419		-62.500000
4420		-58.593750
4421		-62.500000
4422		-60.546875
4423		-62.500000
4424		-60.546875
4425		-64.453125
4426		-62.500000
4427		-64.453125
4428		-62.500000
4429		-68.359375
4430		-58.593750
4431		-68.359375
4432		-58.593750
4433		-68.359375
4434		-58.593750
4435		-64.453125
4436		-60.546875
4437		-62.500000
4438		-60.546875
4439		-62.500000
4440		-60.546875
4441		-60.546875
4442		-58.593750
4443		-60.546875
4444		-56.640625
4445		-62.500000
4446		-50.781250
4447		-60.546875
4448		-50.781250
4449		-58.593750
4450		-48.828125
4451		-54.687500
4452		-50.781250
4453		-52.734375
4454		-48.828125
4455		-50.781250
4456		-46.875000
4457		-48.828125
4458		-44.921875
4459		-44.921875
4460		-41.015625
4461		-44.921875
4462		-35.156250
4463		-42.968750
4464		-33.203125
4465		-41.015625
4466		-31.250000
4467		-39.062500
4468		-29.296875
4469		-33.203125
4470		-27.343750
4471		-29.296875
4472		-25.390625
4473		-25.390625
4474		-21.484375
4475		-23.437500
4476		-17.578125
4477		-19.531250
4478		-15.625000
4479		-19.531250
4480		-9.765625
4481		-15.625000
4482		-5.859375
4483		-11.718750
4484		-1.953125
4485		-5.859375
4486		-1.953125
4487		-3.906250
4488		1.953125
4489		0.000000
4490		5.859375
4491		3.906250
4492		7.812500
4493		7.812500
4494		11.718750
4495		9.765625
4496		19.531250
4497		9.765625
4498		23.437500
4499		13.671875
4500		25.390625
4501		17.578125
4502		25.390625
4503		23.437500
4504		29.296875
4505		27.343750
4506		31.250000
4507		29.296875
4508		35.156250
4509		33.203125
4510		37.109375
4511		37.109375
4512		41.015625
4513		35.156250
4514		46.875000
4515		39.062500
4516		48.828125
4517		41.015625
4518		52.734375
4519		46.875000
4520		50.781250
4521		50.781250
4522		54.687500
4523		52.734375
4524		56.640625
4525		54.687500
4526		58.593750
4527		56.640625
4528		60.546875
4529		56.640625
4530		66.406250
4531		58.593750
4532		68.359375
4533		58.593750
4534		68.359375
4535		64.453125
4536		68.359375
4537		66.406250
4538		68.359375
4539		66.406250
4540		70.312500
4541		68.359375
4542		70.312500
4543		70.312500
4544		72.265625
4545		68.359375
4546		76.171875
4547		68.359375
4548		76.171875
4549		68.359375
4550		78.125000
4551		68.359375
4552		78.125000
4553		72.265625
4554		74.218750
4555		72.265625
4556		74.218750
4557		72.265625
4558		76.171875
4559		72.265625
4560		74.218750
4561		72.265625
4562		74.218750
4563		72.265625
4564		74.218750
4565		68.359375
4566		76.171875
4567		68.359375
4568		76.171875
4569		70.312500
4570		72.265625
4571		68.359375
4572		70.312500
4573		66.406250
4574		70.312500
4575		66.406250
4576		68.359375
4577		64.453125
4578		66.406250
4579		62.500000
4580		66.406250
4581		58.593750
4582		66.406250
4583		56.640625
4584		64.453125
4585		56.640625
4586		60.546875
4587		54.687500
4588		58.593750
4589		52.734375
4590		56.640625
4591		48.828125
4592		54.687500
4593		46.875000
4594		50.781250
4595		44.921875
4596		48.828125
4597		41.015625
4598		46.875000
4599		39.062500
4600		44.921875
4601		35.156250
4602		41.015625
4603		33.203125
4604		37.109375
4605		29.296875
4606		35.156250
4607		27.343750
4608		31.250000
4609		23.437500
4610		27.343750
4611		19.531250
4612		25.390625
4613		17.578125
4614		21.484375
4615		13.671875
4616		17.578125
4617		9.765625
4618		15.625000
4619		5.859375
4620		11.718750
4621		3.906250
4622		7.812500
4623		0.000000
4624		3.906250
4625		-3.906250
4626		1.953125
4627		-7.812500
4628		-1.953125
4629		-9.765625
4630		-5.859375
4631		-13.671875
4632		-9.765625
4633		-17.578125
4634		-11.718750
4635		-19.531250
4636		-15.625000
4637		-23.437500
4638		-19.531250
4639		-27.343750
4640		-21.484375
4641		-29.296875
4642		-25.390625
4643		-33.203125
4644		-29.296875
4645		-35.156250
4646		-31.250000
4647		-39.062500
4648		-35.156250
4649		-41.015625
4650		-37.109375
4651		-42.968750
4652		-39.062500
4653		-46.875000
4654		-42.968750
4655		-48.828125
4656		-42.968750
4657		-50.781250
4658		-46.875000
4659		-52.734375
4660		-48.828125
4661		-54.687500
4662		-50.781250
4663		-56.640625
4664		-52.734375
4665		-58.593750
4666		-54.687500
4667		-58.593750
4668		-56.640625
4669		-60.546875
4670		-56.640625
4671		-62.500000
4672		-58.593750
4673		-62.500000
4674		-58.593750
4675		-62.500000
4676		-60.546875
4677		-64.453125
4678		-60.546875
4679		-64.453125
4680		-62.500000
4681		-66.406250
4682		-60.546875
4683		-64.453125
4684		-60.546875
4685		-64.453125
4686		-62.500000
4687		-64.453125
4688		-60.546875
4689		-64.453125
4690		-60.546875
4691		-62.500000
4692		-60.546875
4693		-62.500000
4694		-58.593750
4695		-60.546875
4696		-58.593750
4697		-60.546875
4698		-56.640625
4699		-58.593750
4700		-54.687500
4701		-56.640625
4702		-52.734375
4703		-54.687500
4704		-50.781250
4705		-54.687500
4706		-50.781250
4707		-50.781250
4708		-46.875000
4709		-48.828125
4710		-44.921875
4711		-46.875000
4712		-42.968750
4713		-44.921875
4714		-39.062500
4715		-42.968750
4716		-37.109375
4717		-41.015625
4718		-35.156250
4719		-37.109375
4720		-33.203125
4721		-35.156250
4722		-29.296875
4723		-31.250000
4724		-27.343750
4725		-27.343750
4726		-23.437500
4727		-25.390625
4728		-21.484375
4729		-21.484375
4730		-17.578125
4731		-19.531250
4732		-13.671875
4733		-15.625000
4734		-9.765625
4735		-11.718750
4736		-7.812500
4737		-9.765625
4738		-3.906250
4739		-5.859375
4740		0.000000
4741		-1.953125
4742		1.953125
4743		1.953125
4744		5.859375
4745		3.906250
4746		9.765625
4747		7.812500
4748		13.671875
4749		11.718750
4750		17.578125
4751		15.625000
4752		19.531250
4753		19.531250
4754		23.437500
4755		21.484375
4756		27.343750
4757		23.437500
4758		29.296875
4759		27.343750
4760		33.203125
4761		31.250000
4762		35.156250
4763		33.203125
4764		39.062500
4765		35.156250
4766		41.015625
4767		39.062500
4768		44.921875
4769		42.968750
4770		46.875000
4771		44.921875
4772		50.781250
4773		46.875000
4774		52.734375
4775		50.781250
4776		54.687500
4777		52.734375
4778		56.640625
4779		54.687500
4780		58.593750
4781		56.640625
4782		60.546875
4783		58.593750
4784		62.500000
4785		60.546875
4786		64.453125
4787		62.500000
4788		66.406250
4789		64.453125
4790		68.359375
4791		66.406250
4792		68.359375
4793		68.359375
4794		70.312500
4795		68.359375
4796		72.265625
4797		70.312500
4798		74.218750
4799		70.312500
4800		74.218750
4801		70.312500
4802		74.218750
4803		72.265625
4804		74.218750
4805		70.312500
4806		76.171875
4807		72.265625
4808		76.171875
4809		72.265625
4810		76.171875
4811		72.265625
4812		74.218750
4813		72.265625
4814		74.218750
4815		70.312500
4816		76.171875
4817		70.312500
4818		74.218750
4819		72.265625
4820		74.218750
4821		70.312500
4822		74.218750
4823		68.359375
4824		72.265625
4825		68.359375
4826		70.312500
4827		66.406250
4828		70.312500
4829		66.406250
4830		68.359375
4831		62.500000
4832		66.406250
4833		60.546875
4834		66.406250
4835		60.546875
4836		64.453125
4837		58.593750
4838		62.500000
4839		54.687500
4840		60.546875
4841		54.687500
4842		58.593750
4843		50.781250
4844		54.687500
4845		48.828125
4846		52.734375
4847		46.875000
4848		50.781250
4849		42.968750
4850		48.828125
4851		41.015625
4852		44.921875
4853		39.062500
4854		42.968750
4855		35.156250
4856		39.062500
4857		33.203125
4858		37.109375
4859		29.296875
4860		33.203125
4861		25.390625
4862		31.250000
4863		23.437500
4864		27.343750
4865		19.531250
4866		23.437500
4867		15.625000
4868		21.484375
4869		11.718750
4870		17.578125
4871		9.765625
4872		13.671875
4873		5.859375
4874		9.765625
4875		1.953125
4876		7.812500
4877		-1.953125
4878		3.906250
4879		-3.906250
4880		0.000000
4881		-7.812500
4882		-3.906250
4883		-11.718750
4884		-5.859375
4885		-13.671875
4886		-9.765625
4887		-17.578125
4888		-13.671875
4889		-21.484375
4890		-15.625000
4891		-23.437500
4892		-19.531250
4893		-27.343750
4894		-23.437500
4895		-31.250000
4896		-25.390625
4897		-33.203125
4898		-29.296875
4899		-37.109375
4900		-31.250000
4901		-39.062500
4902		-35.156250
4903		-41.015625
4904		-37.109375
4905		-44.921875
4906		-41.015625
4907		-46.875000
4908		-42.968750
4909		-48.828125
4910		-44.921875
4911		-50.781250
4912		-46.875000
4913		-52.734375
4914		-48.828125
4915		-54.687500
4916		-50.781250
4917		-56.640625
4918		-52.734375
4919		-58.593750
4920		-54.687500
4921		-58.593750
4922		-56.640625
4923		-60.546875
4924		-56.640625
4925		-60.546875
4926		-58.593750
4927		-62.500000
4928		-60.546875
4929		-62.500000
4930		-60.546875
4931		-62.500000
4932		-60.546875
4933		-64.453125
4934		-62.500000
4935		-64.453125
4936		-62.500000
4937		-64.453125
4938		-62.500000
4939		-64.453125
4940		-60.546875
4941		-64.453125
4942		-60.546875
4943		-62.500000
4944		-60.546875
4945		-62.500000
4946		-58.593750
4947		-60.546875
4948		-58.593750
4949		-60.546875
4950		-56.640625
4951		-58.593750
4952		-56.640625
4953		-56.640625
4954		-54.687500
4955		-56.640625
4956		-52.734375
4957		-54.687500
4958		-50.781250
4959		-52.734375
4960		-48.828125
4961		-50.781250
4962		-46.875000
4963		-48.828125
4964		-44.921875
4965		-46.875000
4966		-41.015625
4967		-44.921875
4968		-39.062500
4969		-41.015625
4970		-37.109375
4971		-39.062500
4972		-35.156250
4973		-35.156250
4974		-31.250000
4975		-33.203125
4976		-29.296875
4977		-29.296875
4978		-25.390625
4979		-27.343750
4980		-21.484375
4981		-23.437500
4982		-19.531250
4983		-21.484375
4984		-15.625000
4985		-17.578125
4986		-13.671875
4987		-13.671875
4988		-9.765625
4989		-11.718750
4990		-5.859375
4991		-7.812500
4992		-1.953125
4993		-3.906250
4994		1.953125
4995		0.000000
4996		3.906250
4997		1.953125
4998		7.812500
4999		5.859375
5000		11.718750
5001		7.812500
5002		15.625000
5003		13.671875
5004		17.578125
5005		15.625000
5006		21.484375
5007		19.531250
5008		23.437500
5009		23.437500
5010		27.343750
5011		25.390625
5012		31.250000
5013		29.296875
5014		33.203125
5015		31.250000
5016		37.109375
5017		33.203125
5018		41.015625
5019		37.109375
5020		42.968750
5021		41.015625
5022		44.921875
5023		44.921875
5024		48.828125
5025		46.875000
5026		50.781250
5027		48.828125
5028		52.734375
5029		50.781250
5030		54.687500
5031		54.687500
5032		58.593750
5033		54.687500
5034		60.546875
5035		56.640625
5036		62.500000
5037		60.546875
5038		64.453125
5039		62.500000
5040		64.453125
5041		64.453125
5042		66.406250
5043		64.453125
5044		68.359375
5045		66.406250
5046		70.312500
5047		68.359375
5048		72.265625
5049		68.359375
5050		72.265625
5051		68.359375
5052		74.218750
5053		70.312500
5054		74.218750
5055		72.265625
5056		74.218750
5057		72.265625
5058		76.171875
5059		72.265625
5060		76.171875
5061		74.218750
5062		76.171875
5063		74.218750
5064		76.171875
5065		74.218750
5066		76.171875
5067		70.312500
5068		76.171875
5069		70.312500
5070		76.171875
5071		72.265625
5072		74.218750
5073		70.312500
5074		74.218750
5075		70.312500
5076		72.265625
5077		68.359375
5078		72.265625
5079		68.359375
5080		72.265625
5081		66.406250
5082		70.312500
5083		64.453125
5084		68.359375
5085		62.500000
5086		68.359375
5087		62.500000
5088		66.406250
5089		60.546875
5090		64.453125
5091		58.593750
5092		62.500000
5093		56.640625
5094		60.546875
5095		54.687500
5096		56.640625
5097		50.781250
5098		54.687500
5099		48.828125
5100		52.734375
5101		44.921875
5102		50.781250
5103		42.968750
5104		48.828125
5105		41.015625
5106		44.921875
5107		37.109375
5108		42.968750
5109		35.156250
5110		39.062500
5111		31.250000
5112		37.109375
5113		29.296875
5114		33.203125
5115		25.390625
5116		29.296875
5117		21.484375
5118		27.343750
5119		17.578125
5120		25.390625
5121		15.625000
5122		19.531250
5123		11.718750
5124		17.578125
5125		9.765625
5126		13.671875
5127		5.859375
5128		9.765625
5129		1.953125
5130		7.812500
5131		-1.953125
5132		3.906250
5133		-3.906250
5134		0.000000
5135		-9.765625
5136		-1.953125
5137		-11.718750
5138		-5.859375
5139		-15.625000
5140		-9.765625
5141		-17.578125
5142		-13.671875
5143		-21.484375
5144		-17.578125
5145		-23.437500
5146		-19.531250
5147		-27.343750
5148		-23.437500
5149		-31.250000
5150		-25.390625
5151		-35.156250
5152		-27.343750
5153		-37.109375
5154		-31.250000
5155		-39.062500
5156		-35.156250
5157		-41.015625
5158		-37.109375
5159		-44.921875
5160		-41.015625
5161		-46.875000
5162		-42.968750
5163		-48.828125
5164		-44.921875
5165		-50.781250
5166		-46.875000
5167		-54.687500
5168		-48.828125
5169		-56.640625
5170		-48.828125
5171		-56.640625
5172		-50.781250
5173		-58.593750
5174		-54.687500
5175		-58.593750
5176		-56.640625
5177		-60.546875
5178		-56.640625
5179		-60.546875
5180		-58.593750
5181		-62.500000
5182		-58.593750
5183		-62.500000
5184		-60.546875
5185		-64.453125
5186		-60.546875
5187		-64.453125
5188		-60.546875
5189		-62.500000
5190		-60.546875
5191		-62.500000
5192		-60.546875
5193		-62.500000
5194		-60.546875
5195		-62.500000
5196		-60.546875
5197		-62.500000
5198		-60.546875
5199		-60.546875
5200		-58.593750
5201		-60.546875
5202		-56.640625
5203		-58.593750
5204		-56.640625
5205		-58.593750
5206		-54.687500
5207		-56.640625
5208		-52.734375
5209		-54.687500
5210		-52.734375
5211		-52.734375
5212		-50.781250
5213		-52.734375
5214		-48.828125
5215		-50.781250
5216		-46.875000
5217		-46.875000
5218		-42.968750
5219		-46.875000
5220		-41.015625
5221		-42.968750
5222		-39.062500
5223		-41.015625
5224		-35.156250
5225		-37.109375
5226		-33.203125
5227		-35.156250
5228		-29.296875
5229		-31.250000
5230		-27.343750
5231		-29.296875
5232		-25.390625
5233		-25.390625
5234		-21.484375
5235		-23.437500
5236		-17.578125
5237		-19.531250
5238		-15.625000
5239		-15.625000
5240		-11.718750
5241		-13.671875
5242		-7.812500
5243		-9.765625
5244		-3.906250
5245		-5.859375
5246		-1.953125
5247		-1.953125
5248		1.953125
5249		0.000000
5250		5.859375
5251		3.906250
5252		9.765625
5253		7.812500
5254		11.718750
5255		11.718750
5256		15.625000
5257		13.671875
5258		19.531250
5259		17.578125
5260		21.484375
5261		21.484375
5262		25.390625
5263		23.437500
5264		29.296875
5265		27.343750
5266		31.250000
5267		31.250000
5268		35.156250
5269		33.203125
5270		37.109375
5271		37.109375
5272		41.015625
5273		39.062500
5274		42.968750
5275		42.968750
5276		46.875000
5277		44.921875
5278		48.828125
5279		46.875000
5280		50.781250
5281		50.781250
5282		54.687500
5283		52.734375
5284		56.640625
5285		54.687500
5286		58.593750
5287		56.640625
5288		60.546875
5289		58.593750
5290		62.500000
5291		60.546875
5292		64.453125
5293		62.500000
5294		66.406250
5295		64.453125
5296		68.359375
5297		66.406250
5298		68.359375
5299		66.406250
5300		70.312500
5301		68.359375
5302		72.265625
5303		70.312500
5304		72.265625
5305		70.312500
5306		74.218750
5307		72.265625
5308		74.218750
5309		72.265625
5310		74.218750
5311		72.265625
5312		76.171875
5313		74.218750
5314		76.171875
5315		74.218750
5316		76.171875
5317		74.218750
5318		76.171875
5319		74.218750
5320		76.171875
5321		72.265625
5322		74.218750
5323		72.265625
5324		74.218750
5325		72.265625
5326		74.218750
5327		70.312500
5328		74.218750
5329		70.312500
5330		72.265625
5331		68.359375
5332		72.265625
5333		68.359375
5334		70.312500
5335		66.406250
5336		70.312500
5337		64.453125
5338		68.359375
5339		64.453125
5340		66.406250
5341		62.500000
5342		64.453125
5343		60.546875
5344		62.500000
5345		58.593750
5346		62.500000
5347		56.640625
5348		58.593750
5349		52.734375
5350		56.640625
5351		50.781250
5352		54.687500
5353		48.828125
5354		52.734375
5355		44.921875
5356		50.781250
5357		42.968750
5358		46.875000
5359		41.015625
5360		44.921875
5361		37.109375
5362		41.015625
5363		35.156250
5364		39.062500
5365		31.250000
5366		35.156250
5367		27.343750
5368		33.203125
5369		25.390625
5370		29.296875
5371		21.484375
5372		27.343750
5373		17.578125
5374		23.437500
5375		15.625000
5376		19.531250
5377		11.718750
5378		15.625000
5379		7.812500
5380		13.671875
5381		5.859375
5382		9.765625
5383		1.953125
5384		5.859375
5385		-1.953125
5386		1.953125
5387		-5.859375
5388		-1.953125
5389		-9.765625
5390		-3.906250
5391		-11.718750
5392		-7.812500
5393		-15.625000
5394		-11.718750
5395		-19.531250
5396		-13.671875
5397		-21.484375
5398		-17.578125
5399		-25.390625
5400		-21.484375
5401		-27.343750
5402		-23.437500
5403		-31.250000
5404		-27.343750
5405		-33.203125
5406		-29.296875
5407		-37.109375
5408		-33.203125
5409		-39.062500
5410		-35.156250
5411		-42.968750
5412		-39.062500
5413		-44.921875
5414		-41.015625
5415		-46.875000
5416		-42.968750
5417		-48.828125
5418		-44.921875
5419		-50.781250
5420		-48.828125
5421		-52.734375
5422		-48.828125
5423		-54.687500
5424		-52.734375
5425		-56.640625
5426		-52.734375
5427		-58.593750
5428		-54.687500
5429		-58.593750
5430		-56.640625
5431		-60.546875
5432		-58.593750
5433		-60.546875
5434		-58.593750
5435		-62.500000
5436		-60.546875
5437		-62.500000
5438		-60.546875
5439		-62.500000
5440		-60.546875
5441		-62.500000
5442		-60.546875
5443		-62.500000
5444		-60.546875
5445		-64.453125
5446		-60.546875
5447		-62.500000
5448		-60.546875
5449		-62.500000
5450		-60.546875
5451		-62.500000
5452		-60.546875
5453		-62.500000
5454		-58.593750
5455		-60.546875
5456		-58.593750
5457		-60.546875
5458		-56.640625
5459		-58.593750
5460		-54.687500
5461		-56.640625
5462		-52.734375
5463		-54.687500
5464		-50.781250
5465		-52.734375
5466		-48.828125
5467		-50.781250
5468		-46.875000
5469		-48.828125
5470		-44.921875
5471		-46.875000
5472		-42.968750
5473		-44.921875
5474		-41.015625
5475		-42.968750
5476		-39.062500
5477		-39.062500
5478		-35.156250
5479		-37.109375
5480		-33.203125
5481		-33.203125
5482		-29.296875
5483		-31.250000
5484		-27.343750
5485		-29.296875
5486		-23.437500
5487		-25.390625
5488		-21.484375
5489		-21.484375
5490		-17.578125
5491		-19.531250
5492		-13.671875
5493		-15.625000
5494		-9.765625
5495		-11.718750
5496		-7.812500
5497		-7.812500
5498		-3.906250
5499		-5.859375
5500		0.000000
5501		-1.953125
5502		1.953125
5503		1.953125
5504		5.859375
5505		5.859375
5506		9.765625
5507		7.812500
5508		13.671875
5509		11.718750
5510		15.625000
5511		15.625000
5512		19.531250
5513		17.578125
5514		23.437500
5515		21.484375
5516		25.390625
5517		23.437500
5518		29.296875
5519		27.343750
5520		33.203125
5521		31.250000
5522		35.156250
5523		35.156250
5524		39.062500
5525		37.109375
5526		41.015625
5527		41.015625
5528		44.921875
5529		42.968750
5530		46.875000
5531		44.921875
5532		50.781250
5533		48.828125
5534		52.734375
5535		50.781250
5536		54.687500
5537		52.734375
5538		56.640625
5539		54.687500
5540		58.593750
5541		58.593750
5542		60.546875
5543		60.546875
5544		62.500000
5545		60.546875
5546		64.453125
5547		64.453125
5548		66.406250
5549		64.453125
5550		68.359375
5551		66.406250
5552		70.312500
5553		68.359375
5554		70.312500
5555		70.312500
5556		72.265625
5557		70.312500
5558		72.265625
5559		70.312500
5560		74.218750
5561		72.265625
5562		74.218750
5563		72.265625
5564		74.218750
5565		74.218750
5566		76.171875
5567		74.218750
5568		76.171875
5569		74.218750
5570		76.171875
5571		74.218750
5572		76.171875
5573		74.218750
5574		76.171875
5575		72.265625
5576		76.171875
5577		72.265625
5578		76.171875
5579		72.265625
5580		74.218750
5581		70.312500
5582		74.218750
5583		70.312500
5584		74.218750
5585		68.359375
5586		72.265625
5587		68.359375
5588		70.312500
5589		66.406250
5590		70.312500
5591		64.453125
5592		68.359375
5593		62.500000
5594		66.406250
5595		60.546875
5596		64.453125
5597		60.546875
5598		62.500000
5599		56.640625
5600		60.546875
5601		54.687500
5602		58.593750
5603		52.734375
5604		56.640625
5605		50.781250
5606		54.687500
5607		46.875000
5608		50.781250
5609		44.921875
5610		48.828125
5611		42.968750
5612		46.875000
5613		39.062500
5614		44.921875
5615		37.109375
5616		41.015625
5617		33.203125
5618		37.109375
5619		31.250000
5620		35.156250
5621		27.343750
5622		31.250000
5623		23.437500
5624		29.296875
5625		21.484375
5626		25.390625
5627		17.578125
5628		21.484375
5629		13.671875
5630		19.531250
5631		9.765625
5632		15.625000
5633		7.812500
5634		11.718750
5635		3.906250
5636		9.765625
5637		0.000000
5638		5.859375
5639		-3.906250
5640		1.953125
5641		-5.859375
5642		-1.953125
5643		-9.765625
5644		-5.859375
5645		-13.671875
5646		-7.812500
5647		-15.625000
5648		-11.718750
5649		-19.531250
5650		-15.625000
5651		-23.437500
5652		-17.578125
5653		-25.390625
5654		-21.484375
5655		-29.296875
5656		-23.437500
5657		-31.250000
5658		-27.343750
5659		-35.156250
5660		-31.250000
5661		-37.109375
5662		-33.203125
5663		-41.015625
5664		-37.109375
5665		-42.968750
5666		-39.062500
5667		-44.921875
5668		-41.015625
5669		-46.875000
5670		-42.968750
5671		-48.828125
5672		-46.875000
5673		-50.781250
5674		-48.828125
5675		-52.734375
5676		-50.781250
5677		-54.687500
5678		-52.734375
5679		-56.640625
5680		-54.687500
5681		-58.593750
5682		-54.687500
5683		-58.593750
5684		-56.640625
5685		-60.546875
5686		-58.593750
5687		-60.546875
5688		-58.593750
5689		-62.500000
5690		-60.546875
5691		-62.500000
5692		-60.546875
5693		-62.500000
5694		-60.546875
5695		-62.500000
5696		-60.546875
5697		-62.500000
5698		-60.546875
5699		-62.500000
5700		-60.546875
5701		-62.500000
5702		-60.546875
5703		-62.500000
5704		-58.593750
5705		-62.500000
5706		-58.593750
5707		-60.546875
5708		-58.593750
5709		-60.546875
5710		-56.640625
5711		-58.593750
5712		-54.687500
5713		-56.640625
5714		-54.687500
5715		-56.640625
5716		-52.734375
5717		-54.687500
5718		-50.781250
5719		-52.734375
5720		-48.828125
5721		-50.781250
5722		-46.875000
5723		-48.828125
5724		-44.921875
5725		-44.921875
5726		-41.015625
5727		-42.968750
5728		-39.062500
5729		-41.015625
5730		-37.109375
5731		-39.062500
5732		-33.203125
5733		-35.156250
5734		-31.250000
5735		-33.203125
5736		-29.296875
5737		-29.296875
5738		-25.390625
5739		-27.343750
5740		-21.484375
5741		-23.437500
5742		-19.531250
5743		-21.484375
5744		-15.625000
5745		-17.578125
5746		-13.671875
5747		-13.671875
5748		-9.765625
5749		-9.765625
5750		-5.859375
5751		-7.812500
5752		-1.953125
5753		-3.906250
5754		0.000000
5755		0.000000
5756		3.906250
5757		1.953125
5758		7.812500
5759		5.859375
5760		11.718750
5761		9.765625
5762		15.625000
5763		13.671875
5764		17.578125
5765		15.625000
5766		21.484375
5767		19.531250
5768		25.390625
5769		23.437500
5770		27.343750
5771		25.390625
5772		31.250000
5773		29.296875
5774		33.203125
5775		33.203125
5776		37.109375
5777		35.156250
5778		39.062500
5779		39.062500
5780		42.968750
5781		41.015625
5782		44.921875
5783		42.968750
5784		48.828125
5785		46.875000
5786		50.781250
5787		48.828125
5788		52.734375
5789		52.734375
5790		56.640625
5791		54.687500
5792		58.593750
5793		56.640625
5794		60.546875
5795		58.593750
5796		62.500000
5797		60.546875
5798		64.453125
5799		62.500000
5800		66.406250
5801		64.453125
5802		68.359375
5803		66.406250
5804		68.359375
5805		66.406250
5806		70.312500
5807		68.359375
5808		72.265625
5809		70.312500
5810		72.265625
5811		70.312500
5812		74.218750
5813		72.265625
5814		74.218750
5815		72.265625
5816		74.218750
5817		72.265625
5818		76.171875
5819		72.265625
5820		76.171875
5821		74.218750
5822		76.171875
5823		74.218750
5824		76.171875
5825		74.218750
5826		76.171875
5827		74.218750
5828		76.171875
5829		72.265625
5830		76.171875
5831		72.265625
5832		74.218750
5833		72.265625
5834		74.218750
5835		72.265625
5836		74.218750
5837		70.312500
5838		72.265625
5839		68.359375
5840		72.265625
5841		68.359375
5842		70.312500
5843		66.406250
5844		68.359375
5845		64.453125
5846		68.359375
5847		62.500000
5848		66.406250
5849		60.546875
5850		64.453125
5851		58.593750
5852		62.500000
5853		56.640625
5854		60.546875
5855		54.687500
5856		58.593750
5857		52.734375
5858		56.640625
5859		50.781250
5860		54.687500
5861		46.875000
5862		50.781250
5863		44.921875
5864		48.828125
5865		41.015625
5866		46.875000
5867		39.062500
5868		42.968750
5869		37.109375
5870		41.015625
5871		33.203125
5872		37.109375
5873		29.296875
5874		35.156250
5875		27.343750
5876		31.250000
5877		23.437500
5878		27.343750
5879		19.531250
5880		25.390625
5881		17.578125
5882		21.484375
5883		13.671875
5884		17.578125
5885		9.765625
5886		15.625000
5887		7.812500
5888		11.718750
5889		3.906250
5890		7.812500
5891		0.000000
5892		3.906250
5893		-3.906250
5894		1.953125
5895		-5.859375
5896		-1.953125
5897		-11.718750
5898		-5.859375
5899		-13.671875
5900		-9.765625
5901		-17.578125
5902		-11.718750
5903		-19.531250
5904		-15.625000
5905		-23.437500
5906		-19.531250
5907		-27.343750
5908		-21.484375
5909		-29.296875
5910		-25.390625
5911		-33.203125
5912		-27.343750
5913		-35.156250
5914		-31.250000
5915		-37.109375
5916		-33.203125
5917		-41.015625
5918		-37.109375
5919		-42.968750
5920		-39.062500
5921		-44.921875
5922		-41.015625
5923		-46.875000
5924		-44.921875
5925		-50.781250
5926		-46.875000
5927		-52.734375
5928		-48.828125
5929		-54.687500
5930		-50.781250
5931		-54.687500
5932		-52.734375
5933		-56.640625
5934		-52.734375
5935		-58.593750
5936		-54.687500
5937		-60.546875
5938		-56.640625
5939		-60.546875
5940		-58.593750
5941		-60.546875
5942		-58.593750
5943		-62.500000
5944		-58.593750
5945		-62.500000
5946		-60.546875
5947		-62.500000
5948		-60.546875
5949		-62.500000
5950		-60.546875
5951		-62.500000
5952		-60.546875
5953		-62.500000
5954		-60.546875
5955		-62.500000
5956		-60.546875
5957		-62.500000
5958		-58.593750
5959		-60.546875
5960		-58.593750
5961		-60.546875
5962		-58.593750
5963		-58.593750
5964		-56.640625
5965		-58.593750
5966		-54.687500
5967		-56.640625
5968		-52.734375
5969		-54.687500
5970		-52.734375
5971		-52.734375
5972		-50.781250
5973		-50.781250
5974		-48.828125
5975		-48.828125
5976		-44.921875
5977		-46.875000
5978		-42.968750
5979		-44.921875
5980		-41.015625
5981		-42.968750
5982		-39.062500
5983		-41.015625
5984		-37.109375
5985		-37.109375
5986		-33.203125
5987		-35.156250
5988		-31.250000
5989		-31.250000
5990		-27.343750
5991		-29.296875
5992		-25.390625
5993		-25.390625
5994		-21.484375
5995		-23.437500
5996		-17.578125
5997		-19.531250
5998		-15.625000
5999		-15.625000
6000		-11.718750
6001		-13.671875
6002		-7.812500
6003		-9.765625
6004		-5.859375
6005		-5.859375
6006		-1.953125
6007		-1.953125
6008		1.953125
6009		0.000000
6010		5.859375
6011		3.906250
6012		9.765625
6013		7.812500
6014		11.718750
6015		9.765625
6016		15.625000
6017		13.671875
6018		19.531250
6019		17.578125
6020		21.484375
6021		21.484375
6022		25.390625
6023		23.437500
6024		29.296875
6025		27.343750
6026		31.250000
6027		29.296875
6028		35.156250
6029		33.203125
6030		39.062500
6031		37.109375
6032		41.015625
6033		39.062500
6034		44.921875
6035		42.968750
6036		46.875000
6037		44.921875
6038		48.828125
6039		48.828125
6040		50.781250
6041		50.781250
6042		54.687500
6043		52.734375
6044		56.640625
6045		54.687500
6046		60.546875
6047		56.640625
6048		60.546875
6049		58.593750
6050		64.453125
6051		58.593750
6052		66.406250
6053		62.500000
6054		70.312500
6055		64.453125
6056		68.359375
6057		66.406250
6058		70.312500
6059		68.359375
6060		72.265625
6061		68.359375
6062		72.265625
6063		68.359375
6064		74.218750
6065		70.312500
6066		74.218750
6067		70.312500
6068		76.171875
6069		72.265625
6070		76.171875
6071		72.265625
6072		78.125000
6073		74.218750
6074		76.171875
6075		74.218750
6076		76.171875
6077		72.265625
6078		78.125000
6079		72.265625
6080		78.125000
6081		72.265625
6082		76.171875
6083		72.265625
6084		78.125000
6085		70.312500
6086		76.171875
6087		70.312500
6088		78.125000
6089		72.265625
6090		74.218750
6091		70.312500
6092		72.265625
6093		68.359375
6094		72.265625
6095		64.453125
6096		74.218750
6097		66.406250
6098		72.265625
6099		64.453125
6100		68.359375
6101		62.500000
6102		68.359375
6103		60.546875
6104		64.453125
6105		58.593750
6106		66.406250
6107		56.640625
6108		60.546875
6109		52.734375
6110		58.593750
6111		48.828125
6112		56.640625
6113		48.828125
6114		54.687500
6115		46.875000
6116		50.781250
6117		41.015625
6118		48.828125
6119		41.015625
6120		48.828125
6121		35.156250
6122		44.921875
6123		35.156250
6124		41.015625
6125		33.203125
6126		37.109375
6127		29.296875
6128		35.156250
6129		23.437500
6130		33.203125
6131		23.437500
6132		27.343750
6133		19.531250
6134		25.390625
6135		13.671875
6136		23.437500
6137		9.765625
6138		17.578125
6139		9.765625
6140		13.671875
6141		5.859375
6142		11.718750
6143		1.953125
6144		7.812500
6145		-3.906250
6146		5.859375
6147		-3.906250
6148		1.953125
6149		-7.812500
6150		-1.953125
6151		-13.671875
6152		-5.859375
6153		-13.671875
6154		-5.859375
6155		-19.531250
6156		-9.765625
6157		-21.484375
6158		-15.625000
6159		-25.390625
6160		-19.531250
6161		-29.296875
6162		-21.484375
6163		-31.250000
6164		-23.437500
6165		-33.203125
6166		-27.343750
6167		-37.109375
6168		-31.250000
6169		-41.015625
6170		-31.250000
6171		-42.968750
6172		-35.156250
6173		-42.968750
6174		-39.062500
6175		-44.921875
6176		-41.015625
6177		-48.828125
6178		-42.968750
6179		-52.734375
6180		-42.968750
6181		-52.734375
6182		-46.875000
6183		-52.734375
6184		-50.781250
6185		-58.593750
6186		-48.828125
6187		-56.640625
6188		-50.781250
6189		-60.546875
6190		-52.734375
6191		-58.593750
6192		-56.640625
6193		-60.546875
6194		-56.640625
6195		-64.453125
6196		-56.640625
6197		-62.500000
6198		-58.593750
6199		-62.500000
6200		-58.593750
6201		-64.453125
6202		-56.640625
6203		-66.406250
6204		-56.640625
6205		-66.406250
6206		-58.593750
6207		-62.500000
6208		-60.546875
6209		-62.500000
6210		-58.593750
6211		-62.500000
6212		-56.640625
6213		-64.453125
6214		-54.687500
6215		-60.546875
6216		-56.640625
6217		-58.593750
6218		-54.687500
6219		-60.546875
6220		-50.781250
6221		-56.640625
6222		-48.828125
6223		-54.687500
6224		-50.781250
6225		-52.734375
6226		-48.828125
6227		-50.781250
6228		-46.875000
6229		-50.781250
6230		-41.015625
6231		-46.875000
6232		-41.015625
6233		-44.921875
6234		-41.015625
6235		-42.968750
6236		-35.156250
6237		-42.968750
6238		-33.203125
6239		-39.062500
6240		-31.250000
6241		-33.203125
6242		-29.296875
6243		-31.250000
6244		-25.390625
6245		-29.296875
6246		-19.531250
6247		-27.343750
6248		-19.531250
6249		-23.437500
6250		-17.578125
6251		-17.578125
6252		-13.671875
6253		-17.578125
6254		-7.812500
6255		-11.718750
6256		-5.859375
6257		-7.812500
6258		-3.906250
6259		-5.859375
6260		0.000000
6261		-1.953125
6262		3.906250
6263		0.000000
6264		7.812500
6265		3.906250
6266		9.765625
6267		7.812500
6268		13.671875
6269		9.765625
6270		19.531250
6271		11.718750
6272		19.531250
6273		15.625000
6274		23.437500
6275		21.484375
6276		27.343750
6277		25.390625
6278		29.296875
6279		27.343750
6280		35.156250
6281		31.250000
6282		37.109375
6283		35.156250
6284		39.062500
6285		37.109375
6286		44.921875
6287		37.109375
6288		46.875000
6289		41.015625
6290		48.828125
6291		46.875000
6292		50.781250
6293		48.828125
6294		52.734375
6295		50.781250
6296		56.640625
6297		50.781250
6298		60.546875
6299		54.687500
6300		60.546875
6301		58.593750
6302		62.500000
6303		60.546875
6304		64.453125
6305		62.500000
6306		68.359375
6307		64.453125
6308		68.359375
6309		66.406250
6310		68.359375
6311		66.406250
6312		70.312500
6313		66.406250
6314		74.218750
6315		68.359375
6316		74.218750
6317		70.312500
6318		74.218750
6319		70.312500
6320		76.171875
6321		72.265625
6322		76.171875
6323		74.218750
6324		76.171875
6325		74.218750
6326		76.171875
6327		74.218750
6328		76.171875
6329		74.218750
6330		76.171875
6331		72.265625
6332		78.125000
6333		74.218750
6334		78.125000
6335		72.265625
6336		78.125000
6337		72.265625
6338		78.125000
6339		72.265625
6340		76.171875
6341		72.265625
6342		74.218750
6343		72.265625
6344		74.218750
6345		70.312500
6346		74.218750
6347		68.359375
6348		72.265625
6349		68.359375
6350		70.312500
6351		66.406250
6352		68.359375
6353		64.453125
6354		68.359375
6355		62.500000
6356		66.406250
6357		60.546875
6358		64.453125
6359		58.593750
6360		62.500000
6361		56.640625
6362		60.546875
6363		54.687500
6364		58.593750
6365		52.734375
6366		56.640625
6367		48.828125
6368		52.734375
6369		46.875000
6370		50.781250
6371		42.968750
6372		48.828125
6373		41.015625
6374		44.921875
6375		39.062500
6376		42.968750
6377		35.156250
6378		39.062500
6379		31.250000
6380		37.109375
6381		29.296875
6382		35.156250
6383		25.390625
6384		31.250000
6385		21.484375
6386		29.296875
6387		17.578125
6388		25.390625
6389		15.625000
6390		21.484375
6391		11.718750
6392		17.578125
6393		9.765625
6394		13.671875
6395		3.906250
6396		9.765625
6397		1.953125
6398		7.812500
6399		-1.953125
6400		3.906250
6401		-5.859375
6402		1.953125
6403		-7.812500
6404		-1.953125
6405		-13.671875
6406		-5.859375
6407		-15.625000
6408		-9.765625
6409		-17.578125
6410		-13.671875
6411		-23.437500
6412		-15.625000
6413		-25.390625
6414		-17.578125
6415		-27.343750
6416		-21.484375
6417		-31.250000
6418		-23.437500
6419		-35.156250
6420		-27.343750
6421		-37.109375
6422		-31.250000
6423		-39.062500
6424		-33.203125
6425		-41.015625
6426		-37.109375
6427		-44.921875
6428		-39.062500
6429		-46.875000
6430		-41.015625
6431		-48.828125
6432		-42.968750
6433		-50.781250
6434		-44.921875
6435		-52.734375
6436		-46.875000
6437		-54.687500
6438		-50.781250
6439		-56.640625
6440		-50.781250
6441		-56.640625
6442		-52.734375
6443		-58.593750
6444		-54.687500
6445		-60.546875
6446		-56.640625
6447		-60.546875
6448		-56.640625
6449		-62.500000
6450		-58.593750
6451		-64.453125
6452		-56.640625
6453		-62.500000
6454		-58.593750
6455		-62.500000
6456		-58.593750
6457		-62.500000
6458		-58.593750
6459		-62.500000
6460		-60.546875
6461		-62.500000
6462		-60.546875
6463		-62.500000
6464		-58.593750
6465		-60.546875
6466		-56.640625
6467		-62.500000
6468		-56.640625
6469		-60.546875
6470		-54.687500
6471		-58.593750
6472		-52.734375
6473		-58.593750
6474		-52.734375
6475		-54.687500
6476		-52.734375
6477		-52.734375
6478		-50.781250
6479		-52.734375
6480		-46.875000
6481		-50.781250
6482		-46.875000
6483		-48.828125
6484		-42.968750
6485		-46.875000
6486		-41.015625
6487		-42.968750
6488		-39.062500
6489		-42.968750
6490		-35.156250
6491		-39.062500
6492		-33.203125
6493		-35.156250
6494		-31.250000
6495		-33.203125
6496		-27.343750
6497		-29.296875
6498		-25.390625
6499		-27.343750
6500		-21.484375
6501		-23.437500
6502		-15.625000
6503		-23.437500
6504		-15.625000
6505		-17.578125
6506		-11.718750
6507		-13.671875
6508		-7.812500
6509		-11.718750
6510		-5.859375
6511		-7.812500
6512		-1.953125
6513		-3.906250
6514		1.953125
6515		-1.953125
6516		3.906250
6517		1.953125
6518		9.765625
6519		3.906250
6520		11.718750
6521		9.765625
6522		15.625000
6523		13.671875
6524		17.578125
6525		15.625000
6526		21.484375
6527		19.531250
6528		23.437500
6529		21.484375
6530		27.343750
6531		25.390625
6532		31.250000
6533		29.296875
6534		33.203125
6535		31.250000
6536		39.062500
6537		35.156250
6538		41.015625
6539		39.062500
6540		42.968750
6541		41.015625
6542		46.875000
6543		44.921875
6544		48.828125
6545		46.875000
6546		50.781250
6547		48.828125
6548		54.687500
6549		50.781250
6550		56.640625
6551		52.734375
6552		58.593750
6553		56.640625
6554		60.546875
6555		58.593750
6556		62.500000
6557		60.546875
6558		64.453125
6559		62.500000
6560		66.406250
6561		64.453125
6562		68.359375
6563		66.406250
6564		70.312500
6565		66.406250
6566		70.312500
6567		68.359375
6568		72.265625
6569		70.312500
6570		74.218750
6571		70.312500
6572		74.218750
6573		72.265625
6574		74.218750
6575		72.265625
6576		76.171875
6577		74.218750
6578		76.171875
6579		74.218750
6580		76.171875
6581		74.218750
6582		76.171875
6583		74.218750
6584		78.125000
6585		72.265625
6586		78.125000
6587		74.218750
6588		78.125000
6589		74.218750
6590		76.171875
6591		72.265625
6592		76.171875
6593		72.265625
6594		74.218750
6595		72.265625
6596		74.218750
6597		70.312500
6598		74.218750
6599		70.312500
6600		74.218750
6601		68.359375
6602		72.265625
6603		66.406250
6604		70.312500
6605		64.453125
6606		68.359375
6607		64.453125
6608		68.359375
6609		62.500000
6610		66.406250
6611		60.546875
6612		64.453125
6613		56.640625
6614		62.500000
6615		54.687500
6616		60.546875
6617		52.734375
6618		58.593750
6619		48.828125
6620		54.687500
6621		46.875000
6622		52.734375
6623		46.875000
6624		50.781250
6625		42.968750
6626		46.875000
6627		41.015625
6628		44.921875
6629		37.109375
6630		42.968750
6631		33.203125
6632		39.062500
6633		31.250000
6634		35.156250
6635		27.343750
6636		33.203125
6637		23.437500
6638		29.296875
6639		21.484375
6640		27.343750
6641		17.578125
6642		23.437500
6643		15.625000
6644		19.531250
6645		11.718750
6646		15.625000
6647		7.812500
6648		13.671875
6649		3.906250
6650		9.765625
6651		1.953125
6652		5.859375
6653		-1.953125
6654		3.906250
6655		-5.859375
6656		0.000000
6657		-9.765625
6658		-3.906250
6659		-11.718750
6660		-7.812500
6661		-15.625000
6662		-9.765625
6663		-19.531250
6664		-13.671875
6665		-21.484375
6666		-17.578125
6667		-25.390625
6668		-19.531250
6669		-27.343750
6670		-23.437500
6671		-31.250000
6672		-27.343750
6673		-35.156250
6674		-29.296875
6675		-37.109375
6676		-31.250000
6677		-39.062500
6678		-35.156250
6679		-41.015625
6680		-37.109375
6681		-44.921875
6682		-41.015625
6683		-46.875000
6684		-42.968750
6685		-48.828125
6686		-44.921875
6687		-50.781250
6688		-46.875000
6689		-52.734375
6690		-48.828125
6691		-54.687500
6692		-50.781250
6693		-56.640625
6694		-52.734375
6695		-56.640625
6696		-54.687500
6697		-60.546875
6698		-54.687500
6699		-58.593750
6700		-56.640625
6701		-60.546875
6702		-56.640625
6703		-60.546875
6704		-58.593750
6705		-62.500000
6706		-58.593750
6707		-62.500000
6708		-58.593750
6709		-64.453125
6710		-58.593750
6711		-62.500000
6712		-60.546875
6713		-62.500000
6714		-58.593750
6715		-62.500000
6716		-58.593750
6717		-60.546875
6718		-58.593750
6719		-60.546875
6720		-56.640625
6721		-60.546875
6722		-56.640625
6723		-58.593750
6724		-54.687500
6725		-58.593750
6726		-54.687500
6727		-56.640625
6728		-52.734375
6729		-54.687500
6730		-50.781250
6731		-52.734375
6732		-48.828125
6733		-50.781250
6734		-46.875000
6735		-48.828125
6736		-44.921875
6737		-46.875000
6738		-42.968750
6739		-44.921875
6740		-41.015625
6741		-42.968750
6742		-37.109375
6743		-39.062500
6744		-35.156250
6745		-37.109375
6746		-33.203125
6747		-35.156250
6748		-29.296875
6749		-33.203125
6750		-27.343750
6751		-29.296875
6752		-23.437500
6753		-25.390625
6754		-21.484375
6755		-23.437500
6756		-17.578125
6757		-19.531250
6758		-13.671875
6759		-15.625000
6760		-11.718750
6761		-13.671875
6762		-7.812500
6763		-9.765625
6764		-3.906250
6765		-5.859375
6766		-1.953125
6767		-3.906250
6768		1.953125
6769		0.000000
6770		5.859375
6771		3.906250
6772		9.765625
6773		7.812500
6774		11.718750
6775		9.765625
6776		15.625000
6777		13.671875
6778		19.531250
6779		17.578125
6780		21.484375
6781		21.484375
6782		25.390625
6783		23.437500
6784		29.296875
6785		27.343750
6786		33.203125
6787		29.296875
6788		35.156250
6789		33.203125
6790		37.109375
6791		37.109375
6792		41.015625
6793		39.062500
6794		44.921875
6795		42.968750
6796		46.875000
6797		44.921875
6798		50.781250
6799		46.875000
6800		52.734375
6801		50.781250
6802		54.687500
6803		52.734375
6804		58.593750
6805		54.687500
6806		58.593750
6807		56.640625
6808		60.546875
6809		58.593750
6810		62.500000
6811		60.546875
6812		64.453125
6813		62.500000
6814		66.406250
6815		64.453125
6816		70.312500
6817		66.406250
6818		70.312500
6819		68.359375
6820		72.265625
6821		68.359375
6822		72.265625
6823		70.312500
6824		74.218750
6825		72.265625
6826		74.218750
6827		72.265625
6828		76.171875
6829		74.218750
6830		76.171875
6831		74.218750
6832		76.171875
6833		74.218750
6834		78.125000
6835		74.218750
6836		78.125000
6837		74.218750
6838		78.125000
6839		74.218750
6840		78.125000
6841		74.218750
6842		78.125000
6843		74.218750
6844		78.125000
6845		72.265625
6846		76.171875
6847		72.265625
6848		76.171875
6849		72.265625
6850		76.171875
6851		70.312500
6852		74.218750
6853		68.359375
6854		74.218750
6855		68.359375
6856		72.265625
6857		66.406250
6858		70.312500
6859		64.453125
6860		68.359375
6861		64.453125
6862		68.359375
6863		62.500000
6864		66.406250
6865		58.593750
6866		64.453125
6867		56.640625
6868		62.500000
6869		56.640625
6870		58.593750
6871		52.734375
6872		56.640625
6873		50.781250
6874		54.687500
6875		48.828125
6876		52.734375
6877		44.921875
6878		50.781250
6879		42.968750
6880		46.875000
6881		39.062500
6882		44.921875
6883		37.109375
6884		41.015625
6885		33.203125
6886		39.062500
6887		31.250000
6888		35.156250
6889		27.343750
6890		33.203125
6891		25.390625
6892		29.296875
6893		21.484375
6894		25.390625
6895		17.578125
6896		23.437500
6897		13.671875
6898		19.531250
6899		9.765625
6900		15.625000
6901		7.812500
6902		11.718750
6903		3.906250
6904		9.765625
6905		0.000000
6906		5.859375
6907		-3.906250
6908		1.953125
6909		-5.859375
6910		-1.953125
6911		-9.765625
6912		-3.906250
6913		-11.718750
6914		-7.812500
6915		-15.625000
6916		-11.718750
6917		-19.531250
6918		-13.671875
6919		-23.437500
6920		-17.578125
6921		-25.390625
6922		-21.484375
6923		-29.296875
6924		-23.437500
6925		-31.250000
6926		-27.343750
6927		-35.156250
6928		-29.296875
6929		-37.109375
6930		-31.250000
6931		-41.015625
6932		-35.156250
6933		-42.968750
6934		-39.062500
6935		-44.921875
6936		-41.015625
6937		-46.875000
6938		-42.968750
6939		-48.828125
6940		-44.921875
6941		-50.781250
6942		-46.875000
6943		-52.734375
6944		-48.828125
6945		-54.687500
6946		-50.781250
6947		-56.640625
6948		-52.734375
6949		-58.593750
6950		-52.734375
6951		-58.593750
6952		-54.687500
6953		-60.546875
6954		-56.640625
6955		-60.546875
6956		-56.640625
6957		-60.546875
6958		-58.593750
6959		-62.500000
6960		-58.593750
6961		-62.500000
6962		-58.593750
6963		-60.546875
6964		-58.593750
6965		-62.500000
6966		-58.593750
6967		-62.500000
6968		-58.593750
6969		-60.546875
6970		-58.593750
6971		-60.546875
6972		-58.593750
6973		-60.546875
6974		-56.640625
6975		-58.593750
6976		-56.640625
6977		-58.593750
6978		-54.687500
6979		-56.640625
6980		-54.687500
6981		-54.687500
6982		-50.781250
6983		-52.734375
6984		-48.828125
6985		-52.734375
6986		-48.828125
6987		-50.781250
6988		-46.875000
6989		-48.828125
6990		-44.921875
6991		-46.875000
6992		-41.015625
6993		-42.968750
6994		-39.062500
6995		-41.015625
6996		-37.109375
6997		-39.062500
6998		-35.156250
6999		-37.109375
7000		-31.250000
7001		-33.203125
7002		-29.296875
7003		-31.250000
7004		-25.390625
7005		-27.343750
7006		-23.437500
7007		-23.437500
7008		-19.531250
7009		-21.484375
7010		-17.578125
7011		-17.578125
7012		-13.671875
7013		-15.625000
7014		-9.765625
7015		-11.718750
7016		-5.859375
7017		-7.812500
7018		-3.906250
7019		-3.906250
7020		0.000000
7021		-1.953125
7022		3.906250
7023		1.953125
7024		7.812500
7025		5.859375
7026		9.765625
7027		7.812500
7028		13.671875
7029		11.718750
7030		17.578125
7031		15.625000
7032		19.531250
7033		19.531250
7034		25.390625
7035		21.484375
7036		27.343750
7037		25.390625
7038		31.250000
7039		29.296875
7040		33.203125
7041		31.250000
7042		35.156250
7043		35.156250
7044		39.062500
7045		37.109375
7046		42.968750
7047		41.015625
7048		44.921875
7049		42.968750
7050		46.875000
7051		46.875000
7052		50.781250
7053		48.828125
7054		52.734375
7055		50.781250
7056		56.640625
7057		54.687500
7058		58.593750
7059		56.640625
7060		60.546875
7061		58.593750
7062		62.500000
7063		60.546875
7064		64.453125
7065		62.500000
7066		66.406250
7067		64.453125
7068		68.359375
7069		66.406250
7070		70.312500
7071		68.359375
7072		70.312500
7073		68.359375
7074		72.265625
7075		68.359375
7076		74.218750
7077		70.312500
7078		74.218750
7079		72.265625
7080		76.171875
7081		74.218750
7082		76.171875
7083		74.218750
7084		76.171875
7085		74.218750
7086		78.125000
7087		74.218750
7088		78.125000
7089		74.218750
7090		78.125000
7091		74.218750
7092		78.125000
7093		74.218750
7094		78.125000
7095		74.218750
7096		78.125000
7097		74.218750
7098		78.125000
7099		74.218750
7100		76.171875
7101		72.265625
7102		76.171875
7103		72.265625
7104		74.218750
7105		70.312500
7106		74.218750
7107		70.312500
7108		72.265625
7109		68.359375
7110		72.265625
7111		66.406250
7112		70.312500
7113		64.453125
7114		68.359375
7115		64.453125
7116		66.406250
7117		62.500000
7118		64.453125
7119		58.593750
7120		64.453125
7121		58.593750
7122		62.500000
7123		54.687500
7124		58.593750
7125		52.734375
7126		56.640625
7127		48.828125
7128		54.687500
7129		46.875000
7130		52.734375
7131		44.921875
7132		48.828125
7133		42.968750
7134		46.875000
7135		39.062500
7136		42.968750
7137		37.109375
7138		42.968750
7139		33.203125
7140		39.062500
7141		29.296875
7142		35.156250
7143		27.343750
7144		31.250000
7145		23.437500
7146		29.296875
7147		21.484375
7148		25.390625
7149		17.578125
7150		21.484375
7151		13.671875
7152		19.531250
7153		9.765625
7154		15.625000
7155		7.812500
7156		11.718750
7157		3.906250
7158		9.765625
7159		0.000000
7160		5.859375
7161		-3.906250
7162		1.953125
7163		-5.859375
7164		-1.953125
7165		-9.765625
7166		-5.859375
7167		-13.671875
7168		-7.812500
7169		-17.578125
7170		-11.718750
7171		-19.531250
7172		-15.625000
7173		-23.437500
7174		-17.578125
7175		-25.390625
7176		-21.484375
7177		-29.296875
7178		-25.390625
7179		-33.203125
7180		-27.343750
7181		-35.156250
7182		-29.296875
7183		-37.109375
7184		-33.203125
7185		-41.015625
7186		-37.109375
7187		-42.968750
7188		-39.062500
7189		-44.921875
7190		-41.015625
7191		-48.828125
7192		-42.968750
7193		-48.828125
7194		-44.921875
7195		-52.734375
7196		-46.875000
7197		-52.734375
7198		-48.828125
7199		-54.687500
7200		-50.781250
7201		-56.640625
7202		-52.734375
7203		-56.640625
7204		-54.687500
7205		-58.593750
7206		-54.687500
7207		-58.593750
7208		-56.640625
7209		-60.546875
7210		-56.640625
7211		-62.500000
7212		-56.640625
7213		-60.546875
7214		-58.593750
7215		-60.546875
7216		-58.593750
7217		-60.546875
7218		-58.593750
7219		-62.500000
7220		-58.593750
7221		-60.546875
7222		-58.593750
7223		-60.546875
7224		-58.593750
7225		-60.546875
7226		-58.593750
7227		-58.593750
7228		-56.640625
7229		-58.593750
7230		-54.687500
7231		-56.640625
7232		-54.687500
7233		-56.640625
7234		-52.734375
7235		-54.687500
7236		-50.781250
7237		-54.687500
7238		-48.828125
7239		-52.734375
7240		-46.875000
7241		-50.781250
7242		-46.875000
7243		-46.875000
7244		-42.968750
7245		-44.921875
7246		-41.015625
7247		-42.968750
7248		-39.062500
7249		-41.015625
7250		-37.109375
7251		-39.062500
7252		-33.203125
7253		-35.156250
7254		-29.296875
7255		-33.203125
7256		-27.343750
7257		-29.296875
7258		-25.390625
7259		-27.343750
7260		-21.484375
7261		-23.437500
7262		-19.531250
7263		-19.531250
7264		-15.625000
7265		-17.578125
7266		-11.718750
7267		-13.671875
7268		-9.765625
7269		-9.765625
7270		-5.859375
7271		-7.812500
7272		-1.953125
7273		-3.906250
7274		1.953125
7275		0.000000
7276		3.906250
7277		1.953125
7278		7.812500
7279		5.859375
7280		11.718750
7281		9.765625
7282		13.671875
7283		13.671875
7284		17.578125
7285		15.625000
7286		21.484375
7287		17.578125
7288		23.437500
7289		23.437500
7290		27.343750
7291		25.390625
7292		31.250000
7293		29.296875
7294		35.156250
7295		33.203125
7296		37.109375
7297		35.156250
7298		41.015625
7299		37.109375
7300		42.968750
7301		41.015625
7302		46.875000
7303		44.921875
7304		48.828125
7305		46.875000
7306		52.734375
7307		48.828125
7308		54.687500
7309		50.781250
7310		56.640625
7311		54.687500
7312		58.593750
7313		56.640625
7314		60.546875
7315		58.593750
7316		62.500000
7317		60.546875
7318		64.453125
7319		62.500000
7320		66.406250
7321		64.453125
7322		68.359375
7323		66.406250
7324		70.312500
7325		68.359375
7326		72.265625
7327		68.359375
7328		72.265625
7329		70.312500
7330		74.218750
7331		70.312500
7332		74.218750
7333		72.265625
7334		76.171875
7335		74.218750
7336		76.171875
7337		74.218750
7338		78.125000
7339		74.218750
7340		78.125000
7341		74.218750
7342		78.125000
7343		74.218750
7344		78.125000
7345		74.218750
7346		78.125000
7347		74.218750
7348		78.125000
7349		74.218750
7350		78.125000
7351		74.218750
7352		76.171875
7353		72.265625
7354		76.171875
7355		72.265625
7356		76.171875
7357		72.265625
7358		74.218750
7359		70.312500
7360		74.218750
7361		68.359375
7362		72.265625
7363		66.406250
7364		72.265625
7365		66.406250
7366		70.312500
7367		64.453125
7368		68.359375
7369		62.500000
7370		66.406250
7371		60.546875
7372		64.453125
7373		58.593750
7374		62.500000
7375		56.640625
7376		60.546875
7377		54.687500
7378		58.593750
7379		50.781250
7380		56.640625
7381		48.828125
7382		54.687500
7383		46.875000
7384		52.734375
7385		44.921875
7386		48.828125
7387		41.015625
7388		46.875000
7389		39.062500
7390		42.968750
7391		35.156250
7392		39.062500
7393		31.250000
7394		37.109375
7395		29.296875
7396		33.203125
7397		25.390625
7398		31.250000
7399		21.484375
7400		27.343750
7401		19.531250
7402		23.437500
7403		15.625000
7404		21.484375
7405		11.718750
7406		17.578125
7407		9.765625
7408		13.671875
7409		5.859375
7410		11.718750
7411		1.953125
7412		7.812500
7413		-1.953125
7414		3.906250
7415		-5.859375
7416		0.000000
7417		-7.812500
7418		-1.953125
7419		-11.718750
7420		-5.859375
7421		-13.671875
7422		-9.765625
7423		-17.578125
7424		-13.671875
7425		-21.484375
7426		-15.625000
7427		-23.437500
7428		-19.531250
7429		-27.343750
7430		-21.484375
7431		-29.296875
7432		-25.390625
7433		-33.203125
7434		-27.343750
7435		-35.156250
7436		-31.250000
7437		-39.062500
7438		-35.156250
7439		-41.015625
7440		-37.109375
7441		-42.968750
7442		-39.062500
7443		-44.921875
7444		-41.015625
7445		-48.828125
7446		-42.968750
7447		-50.781250
7448		-46.875000
7449		-52.734375
7450		-46.875000
7451		-52.734375
7452		-50.781250
7453		-54.687500
7454		-50.781250
7455		-56.640625
7456		-52.734375
7457		-58.593750
7458		-54.687500
7459		-58.593750
7460		-56.640625
7461		-58.593750
7462		-56.640625
7463		-60.546875
7464		-58.593750
7465		-60.546875
7466		-58.593750
7467		-62.500000
7468		-58.593750
7469		-60.546875
7470		-58.593750
7471		-62.500000
7472		-58.593750
7473		-62.500000
7474		-58.593750
7475		-60.546875
7476		-58.593750
7477		-60.546875
7478		-58.593750
7479		-60.546875
7480		-56.640625
7481		-60.546875
7482		-56.640625
7483		-58.593750
7484		-54.687500
7485		-56.640625
7486		-54.687500
7487		-56.640625
7488		-52.734375
7489		-54.687500
7490		-50.781250
7491		-52.734375
7492		-48.828125
7493		-50.781250
7494		-46.875000
7495		-48.828125
7496		-44.921875
7497		-46.875000
7498		-42.968750
7499		-44.921875
7500		-41.015625
7501		-42.968750
7502		-39.062500
7503		-39.062500
7504		-35.156250
7505		-37.109375
7506		-33.203125
7507		-35.156250
7508		-29.296875
7509		-31.250000
7510		-27.343750
7511		-29.296875
7512		-25.390625
7513		-27.343750
7514		-21.484375
7515		-23.437500
7516		-17.578125
7517		-19.531250
7518		-15.625000
7519		-15.625000
7520		-11.718750
7521		-13.671875
7522		-7.812500
7523		-9.765625
7524		-5.859375
7525		-5.859375
7526		0.000000
7527		-1.953125
7528		1.953125
7529		0.000000
7530		5.859375
7531		3.906250
7532		7.812500
7533		5.859375
7534		11.718750
7535		9.765625
7536		15.625000
7537		13.671875
7538		19.531250
7539		17.578125
7540		21.484375
7541		19.531250
7542		25.390625
7543		23.437500
7544		29.296875
7545		27.343750
7546		33.203125
7547		31.250000
7548		35.156250
7549		33.203125
7550		39.062500
7551		35.156250
7552		41.015625
7553		39.062500
7554		42.968750
7555		42.968750
7556		46.875000
7557		44.921875
7558		50.781250
7559		46.875000
7560		52.734375
7561		48.828125
7562		54.687500
7563		52.734375
7564		56.640625
7565		54.687500
7566		58.593750
7567		56.640625
7568		60.546875
7569		60.546875
7570		62.500000
7571		62.500000
7572		66.406250
7573		62.500000
7574		68.359375
7575		64.453125
7576		68.359375
7577		66.406250
7578		70.312500
7579		68.359375
7580		72.265625
7581		68.359375
7582		74.218750
7583		70.312500
7584		74.218750
7585		72.265625
7586		74.218750
7587		72.265625
7588		76.171875
7589		72.265625
7590		78.125000
7591		74.218750
7592		78.125000
7593		74.218750
7594		78.125000
7595		74.218750
7596		78.125000
7597		74.218750
7598		78.125000
7599		74.218750
7600		78.125000
7601		74.218750
7602		78.125000
7603		74.218750
7604		76.171875
7605		74.218750
7606		78.125000
7607		72.265625
7608		76.171875
7609		72.265625
7610		76.171875
7611		72.265625
7612		74.218750
7613		70.312500
7614		74.218750
7615		68.359375
7616		72.265625
7617		66.406250
7618		72.265625
7619		66.406250
7620		68.359375
7621		64.453125
7622		68.359375
7623		62.500000
7624		66.406250
7625		60.546875
7626		64.453125
7627		58.593750
7628		62.500000
7629		56.640625
7630		60.546875
7631		54.687500
7632		58.593750
7633		52.734375
7634		56.640625
7635		48.828125
7636		54.687500
7637		46.875000
7638		50.781250
7639		42.968750
7640		46.875000
7641		41.015625
7642		44.921875
7643		37.109375
7644		42.968750
7645		35.156250
7646		39.062500
7647		31.250000
7648		37.109375
7649		27.343750
7650		33.203125
7651		25.390625
7652		29.296875
7653		21.484375
7654		27.343750
7655		17.578125
7656		23.437500
7657		15.625000
7658		19.531250
7659		11.718750
7660		17.578125
7661		9.765625
7662		13.671875
7663		5.859375
7664		9.765625
7665		1.953125
7666		7.812500
7667		-1.953125
7668		3.906250
7669		-5.859375
7670		0.000000
7671		-7.812500
7672		-3.906250
7673		-11.718750
7674		-7.812500
7675		-15.625000
7676		-9.765625
7677		-17.578125
7678		-13.671875
7679		-21.484375
7680		-15.625000
7681		-25.390625
7682		-19.531250
7683		-27.343750
7684		-23.437500
7685		-31.250000
7686		-25.390625
7687		-33.203125
7688		-29.296875
7689		-37.109375
7690		-31.250000
7691		-39.062500
7692		-35.156250
7693		-42.968750
7694		-37.109375
7695		-42.968750
7696		-39.062500
7697		-46.875000
7698		-41.015625
7699		-48.828125
7700		-44.921875
7701		-50.781250
7702		-46.875000
7703		-50.781250
7704		-48.828125
7705		-54.687500
7706		-50.781250
7707		-54.687500
7708		-50.781250
7709		-56.640625
7710		-52.734375
7711		-58.593750
7712		-54.687500
7713		-58.593750
7714		-56.640625
7715		-60.546875
7716		-56.640625
7717		-60.546875
7718		-56.640625
7719		-60.546875
7720		-58.593750
7721		-60.546875
7722		-58.593750
7723		-62.500000
7724		-58.593750
7725		-60.546875
7726		-58.593750
7727		-60.546875
7728		-58.593750
7729		-60.546875
7730		-58.593750
7731		-60.546875
7732		-56.640625
7733		-60.546875
7734		-56.640625
7735		-58.593750
7736		-54.687500
7737		-56.640625
7738		-54.687500
7739		-56.640625
7740		-52.734375
7741		-54.687500
7742		-50.781250
7743		-54.687500
7744		-50.781250
7745		-52.734375
7746		-48.828125
7747		-50.781250
7748		-46.875000
7749		-48.828125
7750		-42.968750
7751		-44.921875
7752		-41.015625
7753		-42.968750
7754		-39.062500
7755		-41.015625
7756		-37.109375
7757		-39.062500
7758		-35.156250
7759		-37.109375
7760		-31.250000
7761		-33.203125
7762		-29.296875
7763		-31.250000
7764		-25.390625
7765		-27.343750
7766		-21.484375
7767		-25.390625
7768		-19.531250
7769		-21.484375
7770		-17.578125
7771		-17.578125
7772		-13.671875
7773		-15.625000
7774		-9.765625
7775		-11.718750
7776		-5.859375
7777		-7.812500
7778		-3.906250
7779		-5.859375
7780		0.000000
7781		-1.953125
7782		3.906250
7783		1.953125
7784		5.859375
7785		3.906250
7786		9.765625
7787		7.812500
7788		13.671875
7789		11.718750
7790		17.578125
7791		13.671875
7792		19.531250
7793		17.578125
7794		23.437500
7795		21.484375
7796		27.343750
7797		25.390625
7798		31.250000
7799		27.343750
7800		33.203125
7801		31.250000
7802		37.109375
7803		35.156250
7804		39.062500
7805		37.109375
7806		42.968750
7807		41.015625
7808		44.921875
7809		42.968750
7810		48.828125
7811		44.921875
7812		50.781250
7813		48.828125
7814		52.734375
7815		50.781250
7816		54.687500
7817		52.734375
7818		58.593750
7819		56.640625
7820		60.546875
7821		58.593750
7822		62.500000
7823		60.546875
7824		64.453125
7825		62.500000
7826		66.406250
7827		64.453125
7828		68.359375
7829		66.406250
7830		68.359375
7831		68.359375
7832		70.312500
7833		68.359375
7834		72.265625
7835		70.312500
7836		74.218750
7837		72.265625
7838		74.218750
7839		72.265625
7840		76.171875
7841		72.265625
7842		76.171875
7843		74.218750
7844		76.171875
7845		74.218750
7846		78.125000
7847		74.218750
7848		78.125000
7849		74.218750
7850		78.125000
7851		74.218750
7852		78.125000
7853		76.171875
7854		78.125000
7855		76.171875
7856		78.125000
7857		74.218750
7858		78.125000
7859		72.265625
7860		78.125000
7861		72.265625
7862		76.171875
7863		72.265625
7864		76.171875
7865		70.312500
7866		74.218750
7867		70.312500
7868		74.218750
7869		68.359375
7870		72.265625
7871		68.359375
7872		70.312500
7873		66.406250
7874		70.312500
7875		64.453125
7876		68.359375
7877		62.500000
7878		66.406250
7879		60.546875
7880		64.453125
7881		58.593750
7882		62.500000
7883		54.687500
7884		60.546875
7885		52.734375
7886		58.593750
7887		50.781250
7888		56.640625
7889		48.828125
7890		52.734375
7891		46.875000
7892		50.781250
7893		42.968750
7894		46.875000
7895		41.015625
7896		44.921875
7897		37.109375
7898		42.968750
7899		35.156250
7900		39.062500
7901		31.250000
7902		37.109375
7903		27.343750
7904		33.203125
7905		25.390625
7906		29.296875
7907		21.484375
7908		27.343750
7909		17.578125
7910		25.390625
7911		15.625000
7912		21.484375
7913		11.718750
7914		17.578125
7915		7.812500
7916		13.671875
7917		3.906250
7918		9.765625
7919		1.953125
7920		5.859375
7921		-1.953125
7922		3.906250
7923		-5.859375
7924		0.000000
7925		-9.765625
7926		-3.906250
7927		-13.671875
7928		-7.812500
7929		-15.625000
7930		-9.765625
7931		-17.578125
7932		-13.671875
7933		-21.484375
7934		-17.578125
7935		-25.390625
7936		-19.531250
7937		-27.343750
7938		-23.437500
7939		-31.250000
7940		-25.390625
7941		-35.156250
7942		-29.296875
7943		-37.109375
7944		-31.250000
7945		-39.062500
7946		-33.203125
7947		-41.015625
7948		-37.109375
7949		-42.968750
7950		-39.062500
7951		-46.875000
7952		-41.015625
7953		-48.828125
7954		-44.921875
7955		-50.781250
7956		-46.875000
7957		-52.734375
7958		-48.828125
7959		-54.687500
7960		-48.828125
7961		-54.687500
7962		-52.734375
7963		-56.640625
7964		-52.734375
7965		-58.593750
7966		-54.687500
7967		-58.593750
7968		-54.687500
7969		-60.546875
7970		-56.640625
7971		-60.546875
7972		-56.640625
7973		-60.546875
7974		-58.593750
7975		-60.546875
7976		-58.593750
7977		-60.546875
7978		-58.593750
7979		-60.546875
7980		-56.640625
7981		-60.546875
7982		-58.593750
7983		-60.546875
7984		-56.640625
7985		-60.546875
7986		-56.640625
7987		-58.593750
7988		-54.687500
7989		-58.593750
7990		-54.687500
7991		-56.640625
7992		-54.687500
7993		-56.640625
7994		-52.734375
7995		-54.687500
7996		-50.781250
7997		-52.734375
7998		-48.828125
7999		-50.781250
8000		-46.875000
8001		-48.828125
8002		-44.921875
8003		-46.875000
8004		-42.968750
8005		-44.921875
8006		-41.015625
8007		-42.968750
8008		-39.062500
8009		-41.015625
8010		-35.156250
8011		-39.062500
8012		-33.203125
8013		-35.156250
8014		-31.250000
8015		-33.203125
8016		-27.343750
8017		-29.296875
8018		-25.390625
8019		-27.343750
8020		-21.484375
8021		-23.437500
8022		-19.531250
8023		-19.531250
8024		-15.625000
8025		-17.578125
8026		-11.718750
8027		-13.671875
8028		-7.812500
8029		-11.718750
8030		-5.859375
8031		-7.812500
8032		-1.953125
8033		-3.906250
8034		0.000000
8035		0.000000
8036		3.906250
8037		1.953125
8038		7.812500
8039		5.859375
8040		11.718750
8041		9.765625
8042		13.671875
8043		13.671875
8044		17.578125
8045		15.625000
8046		21.484375
8047		19.531250
8048		25.390625
8049		23.437500
8050		27.343750
8051		25.390625
8052		31.250000
8053		29.296875
8054		33.203125
8055		33.203125
8056		37.109375
8057		35.156250
8058		39.062500
8059		39.062500
8060		42.968750
8061		41.015625
8062		44.921875
8063		44.921875
8064		48.828125
8065		46.875000
8066		50.781250
8067		48.828125
8068		52.734375
8069		52.734375
8070		56.640625
8071		54.687500
8072		58.593750
8073		56.640625
8074		60.546875
8075		58.593750
8076		62.500000
8077		60.546875
8078		64.453125
8079		62.500000
8080		66.406250
8081		64.453125
8082		68.359375
8083		66.406250
8084		70.312500
8085		68.359375
8086		72.265625
8087		68.359375
8088		74.218750
8089		68.359375
8090		74.218750
8091		72.265625
8092		74.218750
8093		72.265625
8094		76.171875
8095		72.265625
8096		76.171875
8097		74.218750
8098		78.125000
8099		74.218750
8100		78.125000
8101		76.171875
8102		78.125000
8103		74.218750
8104		78.125000
8105		74.218750
8106		78.125000
8107		74.218750
8108		78.125000
8109		74.218750
8110		78.125000
8111		74.218750
8112		78.125000
8113		74.218750
8114		76.171875
8115		74.218750
8116		76.171875
8117		72.265625
8118		76.171875
8119		70.312500
8120		74.218750
8121		70.312500
8122		72.265625
8123		68.359375
8124		72.265625
8125		66.406250
8126		70.312500
8127		64.453125
8128		68.359375
8129		62.500000
8130		66.406250
8131		60.546875
8132		66.406250
8133		60.546875
8134		62.500000
8135		56.640625
8136		62.500000
8137		54.687500
8138		58.593750
8139		52.734375
8140		58.593750
8141		50.781250
8142		54.687500
8143		46.875000
8144		52.734375
8145		44.921875
8146		48.828125
8147		42.968750
8148		46.875000
8149		39.062500
8150		42.968750
8151		37.109375
8152		41.015625
8153		33.203125
8154		37.109375
8155		29.296875
8156		35.156250
8157		27.343750
8158		31.250000
8159		23.437500
8160		29.296875
8161		19.531250
8162		25.390625
8163		17.578125
8164		21.484375
8165		13.671875
8166		17.578125
8167		9.765625
8168		15.625000
8169		7.812500
8170		11.718750
8171		3.906250
8172		9.765625
8173		0.000000
8174		5.859375
8175		-3.906250
8176		1.953125
8177		-7.812500
8178		-1.953125
8179		-9.765625
8180		-5.859375
8181		-13.671875
8182		-9.765625
8183		-17.578125
8184		-11.718750
8185		-19.531250
8186		-15.625000
8187		-23.437500
8188		-17.578125
8189		-25.390625
8190		-21.484375
8191		-29.296875
8192		-25.390625
8193		-33.203125
8194		-27.343750
8195		-35.156250
8196		-29.296875
8197		-37.109375
8198		-33.203125
8199		-39.062500
8200		-35.156250
8201		-42.968750
8202		-39.062500
8203		-44.921875
8204		-41.015625
8205		-48.828125
8206		-42.968750
8207		-48.828125
8208		-44.921875
8209		-50.781250
8210		-46.875000
8211		-52.734375
8212		-48.828125
8213		-54.687500
8214		-50.781250
8215		-56.640625
8216		-52.734375
8217		-56.640625
8218		-54.687500
8219		-58.593750
8220		-54.687500
8221		-58.593750
8222		-56.640625
8223		-60.546875
8224		-56.640625
8225		-60.546875
8226		-58.593750
8227		-62.500000
8228		-56.640625
8229		-60.546875
8230		-58.593750
8231		-62.500000
8232		-58.593750
8233		-62.500000
8234		-58.593750
8235		-60.546875
8236		-56.640625
8237		-60.546875
8238		-56.640625
8239		-60.546875
8240		-56.640625
8241		-58.593750
8242		-56.640625
8243		-58.593750
8244		-54.687500
8245		-56.640625
8246		-52.734375
8247		-56.640625
8248		-52.734375
8249		-54.687500
8250		-50.781250
8251		-52.734375
8252		-48.828125
8253		-50.781250
8254		-46.875000
8255		-48.828125
8256		-44.921875
8257		-46.875000
8258		-42.968750
8259		-44.921875
8260		-41.015625
8261		-42.968750
8262		-37.109375
8263		-39.062500
8264		-35.156250
8265		-37.109375
8266		-33.203125
8267		-35.156250
8268		-29.296875
8269		-31.250000
8270		-27.343750
8271		-29.296875
8272		-23.437500
8273		-25.390625
8274		-21.484375
8275		-23.437500
8276		-17.578125
8277		-19.531250
8278		-13.671875
8279		-17.578125
8280		-11.718750
8281		-13.671875
8282		-7.812500
8283		-9.765625
8284		-5.859375
8285		-7.812500
8286		-1.953125
8287		-3.906250
8288		1.953125
8289		0.000000
8290		5.859375
8291		3.906250
8292		7.812500
8293		7.812500
8294		11.718750
8295		9.765625
8296		15.625000
8297		13.671875
8298		19.531250
8299		17.578125
8300		21.484375
8301		19.531250
8302		25.390625
8303		23.437500
8304		29.296875
8305		27.343750
8306		31.250000
8307		29.296875
8308		35.156250
8309		33.203125
8310		37.109375
8311		37.109375
8312		41.015625
8313		39.062500
8314		44.921875
8315		41.015625
8316		46.875000
8317		44.921875
8318		48.828125
8319		46.875000
8320		52.734375
8321		50.781250
8322		54.687500
8323		52.734375
8324		56.640625
8325		54.687500
8326		58.593750
8327		56.640625
8328		60.546875
8329		58.593750
8330		62.500000
8331		60.546875
8332		64.453125
8333		62.500000
8334		68.359375
8335		64.453125
8336		70.312500
8337		66.406250
8338		70.312500
8339		68.359375
8340		72.265625
8341		70.312500
8342		72.265625
8343		70.312500
8344		74.218750
8345		70.312500
8346		76.171875
8347		72.265625
8348		76.171875
8349		72.265625
8350		76.171875
8351		74.218750
8352		78.125000
8353		72.265625
8354		78.125000
8355		74.218750
8356		78.125000
8357		74.218750
8358		78.125000
8359		76.171875
8360		78.125000
8361		76.171875
8362		78.125000
8363		74.218750
8364		78.125000
8365		74.218750
8366		78.125000
8367		74.218750
8368		76.171875
8369		72.265625
8370		78.125000
8371		72.265625
8372		74.218750
8373		70.312500
8374		74.218750
8375		70.312500
8376		72.265625
8377		68.359375
8378		72.265625
8379		66.406250
8380		70.312500
8381		64.453125
8382		68.359375
8383		62.500000
8384		66.406250
8385		60.546875
8386		64.453125
8387		58.593750
8388		64.453125
8389		54.687500
8390		62.500000
8391		54.687500
8392		60.546875
8393		52.734375
8394		56.640625
8395		48.828125
8396		54.687500
8397		46.875000
8398		50.781250
8399		44.921875
8400		48.828125
8401		41.015625
8402		46.875000
8403		37.109375
8404		42.968750
8405		35.156250
8406		41.015625
8407		33.203125
8408		39.062500
8409		29.296875
8410		33.203125
8411		25.390625
8412		31.250000
8413		21.484375
8414		29.296875
8415		17.578125
8416		27.343750
8417		15.625000
8418		23.437500
8419		11.718750
8420		19.531250
8421		7.812500
8422		15.625000
8423		3.906250
8424		11.718750
8425		1.953125
8426		7.812500
8427		0.000000
8428		3.906250
8429		-5.859375
8430		0.000000
8431		-9.765625
8432		0.000000
8433		-13.671875
8434		-3.906250
8435		-15.625000
8436		-7.812500
8437		-19.531250
8438		-9.765625
8439		-21.484375
8440		-13.671875
8441		-23.437500
8442		-17.578125
8443		-27.343750
8444		-23.437500
8445		-29.296875
8446		-25.390625
8447		-33.203125
8448		-25.390625
8449		-37.109375
8450		-29.296875
8451		-39.062500
8452		-31.250000
8453		-42.968750
8454		-35.156250
8455		-44.921875
8456		-37.109375
8457		-46.875000
8458		-39.062500
8459		-46.875000
8460		-42.968750
8461		-48.828125
8462		-46.875000
8463		-52.734375
8464		-46.875000
8465		-56.640625
8466		-46.875000
8467		-56.640625
8468		-48.828125
8469		-58.593750
8470		-50.781250
8471		-60.546875
8472		-52.734375
8473		-60.546875
8474		-52.734375
8475		-60.546875
8476		-54.687500
8477		-58.593750
8478		-56.640625
8479		-62.500000
8480		-56.640625
8481		-62.500000
8482		-56.640625
8483		-64.453125
8484		-56.640625
8485		-62.500000
8486		-56.640625
8487		-62.500000
8488		-56.640625
8489		-62.500000
8490		-56.640625
8491		-62.500000
8492		-56.640625
8493		-58.593750
8494		-56.640625
8495		-58.593750
8496		-56.640625
8497		-60.546875
8498		-52.734375
8499		-58.593750
8500		-50.781250
8501		-56.640625
8502		-50.781250
8503		-56.640625
8504		-46.875000
8505		-54.687500
8506		-46.875000
8507		-52.734375
8508		-44.921875
8509		-50.781250
8510		-44.921875
8511		-46.875000
8512		-42.968750
8513		-44.921875
8514		-37.109375
8515		-44.921875
8516		-35.156250
8517		-41.015625
8518		-33.203125
8519		-39.062500
8520		-29.296875
8521		-35.156250
8522		-27.343750
8523		-33.203125
8524		-25.390625
8525		-29.296875
8526		-23.437500
8527		-25.390625
8528		-19.531250
8529		-21.484375
8530		-17.578125
8531		-19.531250
8532		-11.718750
8533		-15.625000
8534		-9.765625
8535		-13.671875
8536		-5.859375
8537		-11.718750
8538		-1.953125
8539		-7.812500
8540		1.953125
8541		-5.859375
8542		5.859375
8543		0.000000
8544		5.859375
8545		3.906250
8546		9.765625
8547		7.812500
8548		15.625000
8549		9.765625
8550		17.578125
8551		13.671875
8552		21.484375
8553		15.625000
8554		25.390625
8555		19.531250
8556		27.343750
8557		21.484375
8558		31.250000
8559		25.390625
8560		33.203125
8561		31.250000
8562		35.156250
8563		33.203125
8564		41.015625
8565		35.156250
8566		44.921875
8567		39.062500
8568		46.875000
8569		41.015625
8570		48.828125
8571		42.968750
8572		52.734375
8573		44.921875
8574		54.687500
8575		48.828125
8576		56.640625
8577		52.734375
8578		56.640625
8579		56.640625
8580		60.546875
8581		56.640625
8582		64.453125
8583		58.593750
8584		66.406250
8585		60.546875
8586		68.359375
8587		62.500000
8588		68.359375
8589		64.453125
8590		70.312500
8591		64.453125
8592		72.265625
8593		66.406250
8594		72.265625
8595		70.312500
8596		74.218750
8597		70.312500
8598		76.171875
8599		70.312500
8600		78.125000
8601		70.312500
8602		78.125000
8603		72.265625
8604		78.125000
8605		72.265625
8606		80.078125
8607		72.265625
8608		80.078125
8609		74.218750
8610		80.078125
8611		76.171875
8612		78.125000
8613		76.171875
8614		78.125000
8615		72.265625
8616		80.078125
8617		72.265625
8618		80.078125
8619		72.265625
8620		80.078125
8621		72.265625
8622		78.125000
8623		70.312500
8624		78.125000
8625		70.312500
8626		76.171875
8627		70.312500
8628		74.218750
8629		70.312500
8630		72.265625
8631		66.406250
8632		72.265625
8633		64.453125
8634		72.265625
8635		62.500000
8636		70.312500
8637		60.546875
8638		68.359375
8639		58.593750
8640		66.406250
8641		56.640625
8642		64.453125
8643		54.687500
8644		62.500000
8645		54.687500
8646		58.593750
8647		48.828125
8648		56.640625
8649		46.875000
8650		54.687500
8651		44.921875
8652		52.734375
8653		41.015625
8654		48.828125
8655		39.062500
8656		46.875000
8657		35.156250
8658		44.921875
8659		33.203125
8660		41.015625
8661		31.250000
8662		37.109375
8663		29.296875
8664		33.203125
8665		23.437500
8666		31.250000
8667		19.531250
8668		29.296875
8669		15.625000
8670		25.390625
8671		13.671875
8672		21.484375
8673		9.765625
8674		19.531250
8675		5.859375
8676		15.625000
8677		5.859375
8678		11.718750
8679		1.953125
8680		7.812500
8681		-3.906250
8682		3.906250
8683		-7.812500
8684		1.953125
8685		-9.765625
8686		-1.953125
8687		-13.671875
8688		-3.906250
8689		-17.578125
8690		-7.812500
8691		-21.484375
8692		-11.718750
8693		-21.484375
8694		-15.625000
8695		-23.437500
8696		-19.531250
8697		-27.343750
8698		-23.437500
8699		-33.203125
8700		-23.437500
8701		-35.156250
8702		-27.343750
8703		-37.109375
8704		-29.296875
8705		-41.015625
8706		-33.203125
8707		-42.968750
8708		-35.156250
8709		-46.875000
8710		-37.109375
8711		-44.921875
8712		-41.015625
8713		-46.875000
8714		-44.921875
8715		-52.734375
8716		-44.921875
8717		-54.687500
8718		-46.875000
8719		-56.640625
8720		-48.828125
8721		-56.640625
8722		-48.828125
8723		-58.593750
8724		-50.781250
8725		-58.593750
8726		-52.734375
8727		-60.546875
8728		-52.734375
8729		-58.593750
8730		-56.640625
8731		-62.500000
8732		-56.640625
8733		-62.500000
8734		-54.687500
8735		-62.500000
8736		-54.687500
8737		-64.453125
8738		-56.640625
8739		-62.500000
8740		-56.640625
8741		-62.500000
8742		-54.687500
8743		-62.500000
8744		-54.687500
8745		-58.593750
8746		-56.640625
8747		-58.593750
8748		-56.640625
8749		-60.546875
8750		-52.734375
8751		-58.593750
8752		-50.781250
8753		-58.593750
8754		-50.781250
8755		-56.640625
8756		-48.828125
8757		-54.687500
8758		-46.875000
8759		-52.734375
8760		-44.921875
8761		-52.734375
8762		-44.921875
8763		-48.828125
8764		-42.968750
8765		-46.875000
8766		-39.062500
8767		-44.921875
8768		-37.109375
8769		-42.968750
8770		-33.203125
8771		-39.062500
8772		-31.250000
8773		-37.109375
8774		-29.296875
8775		-35.156250
8776		-27.343750
8777		-31.250000
8778		-23.437500
8779		-27.343750
8780		-21.484375
8781		-23.437500
8782		-19.531250
8783		-21.484375
8784		-13.671875
8785		-19.531250
8786		-11.718750
8787		-17.578125
8788		-7.812500
8789		-11.718750
8790		-3.906250
8791		-9.765625
8792		0.000000
8793		-5.859375
8794		3.906250
8795		-1.953125
8796		3.906250
8797		1.953125
8798		7.812500
8799		5.859375
8800		13.671875
8801		7.812500
8802		15.625000
8803		9.765625
8804		19.531250
8805		13.671875
8806		23.437500
8807		17.578125
8808		27.343750
8809		21.484375
8810		29.296875
8811		23.437500
8812		31.250000
8813		29.296875
8814		33.203125
8815		33.203125
8816		39.062500
8817		33.203125
8818		42.968750
8819		37.109375
8820		44.921875
8821		39.062500
8822		48.828125
8823		41.015625
8824		50.781250
8825		44.921875
8826		52.734375
8827		46.875000
8828		54.687500
8829		52.734375
8830		56.640625
8831		54.687500
8832		58.593750
8833		56.640625
8834		62.500000
8835		56.640625
8836		64.453125
8837		58.593750
8838		66.406250
8839		60.546875
8840		68.359375
8841		62.500000
8842		70.312500
8843		64.453125
8844		72.265625
8845		66.406250
8846		72.265625
8847		70.312500
8848		72.265625
8849		70.312500
8850		76.171875
8851		68.359375
8852		78.125000
8853		70.312500
8854		78.125000
8855		72.265625
8856		78.125000
8857		72.265625
8858		80.078125
8859		72.265625
8860		80.078125
8861		72.265625
8862		80.078125
8863		76.171875
8864		78.125000
8865		76.171875
8866		78.125000
8867		72.265625
8868		80.078125
8869		74.218750
8870		80.078125
8871		72.265625
8872		80.078125
8873		72.265625
8874		80.078125
8875		70.312500
8876		78.125000
8877		70.312500
8878		78.125000
8879		72.265625
8880		76.171875
8881		70.312500
8882		74.218750
8883		66.406250
8884		74.218750
8885		64.453125
8886		74.218750
8887		64.453125
8888		72.265625
8889		62.500000
8890		70.312500
8891		60.546875
8892		68.359375
8893		58.593750
8894		66.406250
8895		56.640625
8896		64.453125
8897		56.640625
8898		60.546875
8899		52.734375
8900		58.593750
8901		50.781250
8902		56.640625
8903		46.875000
8904		54.687500
8905		44.921875
8906		50.781250
8907		41.015625
8908		48.828125
8909		39.062500
8910		46.875000
8911		37.109375
8912		42.968750
8913		35.156250
8914		39.062500
8915		31.250000
8916		35.156250
8917		27.343750
8918		33.203125
8919		23.437500
8920		31.250000
8921		19.531250
8922		29.296875
8923		15.625000
8924		25.390625
8925		13.671875
8926		21.484375
8927		9.765625
8928		19.531250
8929		7.812500
8930		15.625000
8931		3.906250
8932		9.765625
8933		0.000000
8934		5.859375
8935		-3.906250
8936		5.859375
8937		-7.812500
8938		1.953125
8939		-11.718750
8940		-1.953125
8941		-15.625000
8942		-5.859375
8943		-19.531250
8944		-7.812500
8945		-19.531250
8946		-11.718750
8947		-21.484375
8948		-17.578125
8949		-25.390625
8950		-21.484375
8951		-29.296875
8952		-21.484375
8953		-33.203125
8954		-25.390625
8955		-35.156250
8956		-27.343750
8957		-39.062500
8958		-29.296875
8959		-41.015625
8960		-31.250000
8961		-42.968750
8962		-35.156250
8963		-44.921875
8964		-37.109375
8965		-46.875000
8966		-42.968750
8967		-50.781250
8968		-42.968750
8969		-52.734375
8970		-44.921875
8971		-54.687500
8972		-44.921875
8973		-56.640625
8974		-46.875000
8975		-56.640625
8976		-48.828125
8977		-58.593750
8978		-50.781250
8979		-58.593750
8980		-52.734375
8981		-58.593750
8982		-54.687500
8983		-58.593750
8984		-56.640625
8985		-62.500000
8986		-54.687500
8987		-62.500000
8988		-56.640625
8989		-62.500000
8990		-56.640625
8991		-62.500000
8992		-56.640625
8993		-62.500000
8994		-54.687500
8995		-62.500000
8996		-56.640625
8997		-60.546875
8998		-56.640625
8999		-58.593750
9000		-56.640625
9001		-60.546875
9002		-52.734375
9003		-60.546875
9004		-52.734375
9005		-58.593750
9006		-52.734375
9007		-58.593750
9008		-50.781250
9009		-56.640625
9010		-48.828125
9011		-54.687500
9012		-46.875000
9013		-52.734375
9014		-46.875000
9015		-48.828125
9016		-44.921875
9017		-48.828125
9018		-41.015625
9019		-46.875000
9020		-39.062500
9021		-44.921875
9022		-37.109375
9023		-42.968750
9024		-35.156250
9025		-41.015625
9026		-31.250000
9027		-37.109375
9028		-29.296875
9029		-35.156250
9030		-27.343750
9031		-29.296875
9032		-25.390625
9033		-25.390625
9034		-21.484375
9035		-25.390625
9036		-15.625000
9037		-21.484375
9038		-13.671875
9039		-19.531250
9040		-9.765625
9041		-15.625000
9042		-5.859375
9043		-11.718750
9044		-3.906250
9045		-7.812500
9046		0.000000
9047		-5.859375
9048		1.953125
9049		0.000000
9050		3.906250
9051		3.906250
9052		9.765625
9053		3.906250
9054		13.671875
9055		7.812500
9056		15.625000
9057		11.718750
9058		19.531250
9059		13.671875
9060		23.437500
9061		17.578125
9062		27.343750
9063		21.484375
9064		29.296875
9065		27.343750
9066		31.250000
9067		29.296875
9068		35.156250
9069		31.250000
9070		39.062500
9071		35.156250
9072		42.968750
9073		37.109375
9074		44.921875
9075		39.062500
9076		48.828125
9077		42.968750
9078		50.781250
9079		44.921875
9080		52.734375
9081		50.781250
9082		54.687500
9083		52.734375
9084		56.640625
9085		52.734375
9086		60.546875
9087		54.687500
9088		62.500000
9089		56.640625
9090		66.406250
9091		58.593750
9092		66.406250
9093		60.546875
9094		68.359375
9095		62.500000
9096		70.312500
9097		64.453125
9098		70.312500
9099		68.359375
9100		72.265625
9101		68.359375
9102		76.171875
9103		68.359375
9104		76.171875
9105		70.312500
9106		76.171875
9107		70.312500
9108		78.125000
9109		72.265625
9110		78.125000
9111		72.265625
9112		80.078125
9113		72.265625
9114		80.078125
9115		76.171875
9116		78.125000
9117		76.171875
9118		78.125000
9119		74.218750
9120		80.078125
9121		72.265625
9122		80.078125
9123		72.265625
9124		80.078125
9125		72.265625
9126		80.078125
9127		72.265625
9128		78.125000
9129		70.312500
9130		78.125000
9131		72.265625
9132		78.125000
9133		72.265625
9134		74.218750
9135		68.359375
9136		74.218750
9137		66.406250
9138		74.218750
9139		64.453125
9140		72.265625
9141		62.500000
9142		70.312500
9143		62.500000
9144		68.359375
9145		60.546875
9146		68.359375
9147		58.593750
9148		66.406250
9149		56.640625
9150		60.546875
9151		54.687500
9152		58.593750
9153		50.781250
9154		58.593750
9155		48.828125
9156		56.640625
9157		44.921875
9158		54.687500
9159		42.968750
9160		50.781250
9161		41.015625
9162		48.828125
9163		37.109375
9164		44.921875
9165		37.109375
9166		41.015625
9167		33.203125
9168		37.109375
9169		27.343750
9170		35.156250
9171		25.390625
9172		33.203125
9173		21.484375
9174		29.296875
9175		19.531250
9176		27.343750
9177		15.625000
9178		23.437500
9179		11.718750
9180		21.484375
9181		9.765625
9182		17.578125
9183		7.812500
9184		11.718750
9185		1.953125
9186		7.812500
9187		-1.953125
9188		5.859375
9189		-5.859375
9190		3.906250
9191		-9.765625
9192		0.000000
9193		-11.718750
9194		-3.906250
9195		-15.625000
9196		-7.812500
9197		-17.578125
9198		-9.765625
9199		-19.531250
9200		-15.625000
9201		-23.437500
9202		-17.578125
9203		-27.343750
9204		-19.531250
9205		-31.250000
9206		-23.437500
9207		-33.203125
9208		-23.437500
9209		-37.109375
9210		-27.343750
9211		-39.062500
9212		-31.250000
9213		-41.015625
9214		-33.203125
9215		-42.968750
9216		-37.109375
9217		-44.921875
9218		-41.015625
9219		-48.828125
9220		-42.968750
9221		-50.781250
9222		-42.968750
9223		-52.734375
9224		-46.875000
9225		-56.640625
9226		-46.875000
9227		-56.640625
9228		-48.828125
9229		-58.593750
9230		-50.781250
9231		-58.593750
9232		-50.781250
9233		-58.593750
9234		-54.687500
9235		-60.546875
9236		-54.687500
9237		-62.500000
9238		-54.687500
9239		-62.500000
9240		-56.640625
9241		-62.500000
9242		-56.640625
9243		-62.500000
9244		-56.640625
9245		-64.453125
9246		-56.640625
9247		-62.500000
9248		-56.640625
9249		-60.546875
9250		-56.640625
9251		-60.546875
9252		-56.640625
9253		-60.546875
9254		-54.687500
9255		-60.546875
9256		-52.734375
9257		-58.593750
9258		-52.734375
9259		-58.593750
9260		-50.781250
9261		-56.640625
9262		-50.781250
9263		-56.640625
9264		-48.828125
9265		-54.687500
9266		-48.828125
9267		-50.781250
9268		-46.875000
9269		-48.828125
9270		-42.968750
9271		-48.828125
9272		-41.015625
9273		-46.875000
9274		-39.062500
9275		-44.921875
9276		-35.156250
9277		-41.015625
9278		-33.203125
9279		-39.062500
9280		-29.296875
9281		-35.156250
9282		-27.343750
9283		-31.250000
9284		-27.343750
9285		-29.296875
9286		-23.437500
9287		-27.343750
9288		-19.531250
9289		-23.437500
9290		-15.625000
9291		-21.484375
9292		-11.718750
9293		-17.578125
9294		-7.812500
9295		-15.625000
9296		-5.859375
9297		-11.718750
9298		-1.953125
9299		-7.812500
9300		-1.953125
9301		-1.953125
9302		1.953125
9303		0.000000
9304		7.812500
9305		1.953125
9306		11.718750
9307		5.859375
9308		15.625000
9309		9.765625
9310		17.578125
9311		11.718750
9312		21.484375
9313		15.625000
9314		23.437500
9315		19.531250
9316		25.390625
9317		25.390625
9318		29.296875
9319		27.343750
9320		33.203125
9321		29.296875
9322		37.109375
9323		31.250000
9324		41.015625
9325		35.156250
9326		42.968750
9327		37.109375
9328		46.875000
9329		41.015625
9330		48.828125
9331		42.968750
9332		52.734375
9333		46.875000
9334		52.734375
9335		50.781250
9336		54.687500
9337		52.734375
9338		58.593750
9339		52.734375
9340		60.546875
9341		54.687500
9342		64.453125
9343		58.593750
9344		66.406250
9345		60.546875
9346		68.359375
9347		62.500000
9348		70.312500
9349		64.453125
9350		70.312500
9351		68.359375
9352		70.312500
9353		68.359375
9354		74.218750
9355		68.359375
9356		76.171875
9357		68.359375
9358		76.171875
9359		70.312500
9360		78.125000
9361		70.312500
9362		78.125000
9363		70.312500
9364		78.125000
9365		72.265625
9366		80.078125
9367		74.218750
9368		78.125000
9369		76.171875
9370		78.125000
9371		74.218750
9372		80.078125
9373		74.218750
9374		80.078125
9375		72.265625
9376		80.078125
9377		72.265625
9378		80.078125
9379		72.265625
9380		80.078125
9381		72.265625
9382		78.125000
9383		72.265625
9384		78.125000
9385		72.265625
9386		74.218750
9387		68.359375
9388		74.218750
9389		68.359375
9390		76.171875
9391		66.406250
9392		74.218750
9393		64.453125
9394		72.265625
9395		62.500000
9396		70.312500
9397		60.546875
9398		68.359375
9399		60.546875
9400		66.406250
9401		58.593750
9402		62.500000
9403		56.640625
9404		60.546875
9405		52.734375
9406		60.546875
9407		50.781250
9408		58.593750
9409		46.875000
9410		54.687500
9411		44.921875
9412		52.734375
9413		42.968750
9414		50.781250
9415		39.062500
9416		46.875000
9417		39.062500
9418		44.921875
9419		35.156250
9420		41.015625
9421		31.250000
9422		37.109375
9423		27.343750
9424		35.156250
9425		25.390625
9426		33.203125
9427		21.484375
9428		29.296875
9429		17.578125
9430		27.343750
9431		13.671875
9432		23.437500
9433		11.718750
9434		19.531250
9435		9.765625
9436		13.671875
9437		3.906250
9438		11.718750
9439		0.000000
9440		9.765625
9441		-3.906250
9442		5.859375
9443		-5.859375
9444		3.906250
9445		-9.765625
9446		0.000000
9447		-11.718750
9448		-3.906250
9449		-15.625000
9450		-7.812500
9451		-17.578125
9452		-13.671875
9453		-21.484375
9454		-15.625000
9455		-25.390625
9456		-17.578125
9457		-29.296875
9458		-19.531250
9459		-31.250000
9460		-23.437500
9461		-35.156250
9462		-25.390625
9463		-37.109375
9464		-29.296875
9465		-41.015625
9466		-31.250000
9467		-41.015625
9468		-35.156250
9469		-42.968750
9470		-39.062500
9471		-48.828125
9472		-41.015625
9473		-48.828125
9474		-41.015625
9475		-50.781250
9476		-42.968750
9477		-52.734375
9478		-44.921875
9479		-54.687500
9480		-46.875000
9481		-56.640625
9482		-48.828125
9483		-56.640625
9484		-50.781250
9485		-56.640625
9486		-54.687500
9487		-58.593750
9488		-54.687500
9489		-60.546875
9490		-54.687500
9491		-62.500000
9492		-54.687500
9493		-62.500000
9494		-54.687500
9495		-62.500000
9496		-56.640625
9497		-62.500000
9498		-56.640625
9499		-62.500000
9500		-56.640625
9501		-62.500000
9502		-56.640625
9503		-60.546875
9504		-58.593750
9505		-62.500000
9506		-54.687500
9507		-62.500000
9508		-54.687500
9509		-60.546875
9510		-52.734375
9511		-58.593750
9512		-52.734375
9513		-58.593750
9514		-50.781250
9515		-56.640625
9516		-50.781250
9517		-54.687500
9518		-48.828125
9519		-50.781250
9520		-48.828125
9521		-50.781250
9522		-44.921875
9523		-50.781250
9524		-42.968750
9525		-48.828125
9526		-39.062500
9527		-44.921875
9528		-37.109375
9529		-42.968750
9530		-35.156250
9531		-41.015625
9532		-33.203125
9533		-39.062500
9534		-29.296875
9535		-33.203125
9536		-29.296875
9537		-31.250000
9538		-25.390625
9539		-29.296875
9540		-21.484375
9541		-27.343750
9542		-17.578125
9543		-23.437500
9544		-13.671875
9545		-19.531250
9546		-11.718750
9547		-15.625000
9548		-7.812500
9549		-13.671875
9550		-5.859375
9551		-9.765625
9552		-3.906250
9553		-5.859375
9554		0.000000
9555		-1.953125
9556		5.859375
9557		0.000000
9558		7.812500
9559		1.953125
9560		11.718750
9561		5.859375
9562		15.625000
9563		9.765625
9564		19.531250
9565		13.671875
9566		21.484375
9567		17.578125
9568		25.390625
9569		21.484375
9570		27.343750
9571		25.390625
9572		29.296875
9573		27.343750
9574		35.156250
9575		29.296875
9576		39.062500
9577		33.203125
9578		41.015625
9579		37.109375
9580		44.921875
9581		39.062500
9582		46.875000
9583		41.015625
9584		48.828125
9585		44.921875
9586		50.781250
9587		48.828125
9588		52.734375
9589		50.781250
9590		58.593750
9591		50.781250
9592		58.593750
9593		52.734375
9594		62.500000
9595		56.640625
9596		64.453125
9597		58.593750
9598		66.406250
9599		60.546875
9600		68.359375
9601		62.500000
9602		68.359375
9603		66.406250
9604		68.359375
9605		68.359375
9606		70.312500
9607		66.406250
9608		74.218750
9609		68.359375
9610		76.171875
9611		70.312500
9612		76.171875
9613		70.312500
9614		78.125000
9615		72.265625
9616		78.125000
9617		72.265625
9618		78.125000
9619		74.218750
9620		76.171875
9621		76.171875
9622		78.125000
9623		74.218750
9624		80.078125
9625		74.218750
9626		80.078125
9627		72.265625
9628		80.078125
9629		72.265625
9630		80.078125
9631		72.265625
9632		80.078125
9633		72.265625
9634		78.125000
9635		72.265625
9636		78.125000
9637		72.265625
9638		76.171875
9639		70.312500
9640		76.171875
9641		68.359375
9642		76.171875
9643		66.406250
9644		74.218750
9645		66.406250
9646		72.265625
9647		64.453125
9648		72.265625
9649		62.500000
9650		70.312500
9651		60.546875
9652		68.359375
9653		60.546875
9654		64.453125
9655		58.593750
9656		62.500000
9657		54.687500
9658		62.500000
9659		52.734375
9660		60.546875
9661		48.828125
9662		56.640625
9663		46.875000
9664		54.687500
9665		42.968750
9666		52.734375
9667		41.015625
9668		50.781250
9669		41.015625
9670		46.875000
9671		37.109375
9672		42.968750
9673		33.203125
9674		39.062500
9675		29.296875
9676		39.062500
9677		27.343750
9678		35.156250
9679		23.437500
9680		31.250000
9681		19.531250
9682		29.296875
9683		17.578125
9684		25.390625
9685		15.625000
9686		21.484375
9687		11.718750
9688		15.625000
9689		7.812500
9690		13.671875
9691		3.906250
9692		11.718750
9693		0.000000
9694		7.812500
9695		-3.906250
9696		5.859375
9697		-7.812500
9698		1.953125
9699		-11.718750
9700		-1.953125
9701		-13.671875
9702		-3.906250
9703		-15.625000
9704		-9.765625
9705		-17.578125
9706		-13.671875
9707		-23.437500
9708		-15.625000
9709		-27.343750
9710		-17.578125
9711		-29.296875
9712		-21.484375
9713		-33.203125
9714		-23.437500
9715		-35.156250
9716		-27.343750
9717		-39.062500
9718		-31.250000
9719		-39.062500
9720		-33.203125
9721		-41.015625
9722		-37.109375
9723		-46.875000
9724		-39.062500
9725		-48.828125
9726		-41.015625
9727		-50.781250
9728		-42.968750
9729		-52.734375
9730		-44.921875
9731		-54.687500
9732		-46.875000
9733		-56.640625
9734		-48.828125
9735		-56.640625
9736		-48.828125
9737		-56.640625
9738		-52.734375
9739		-58.593750
9740		-54.687500
9741		-60.546875
9742		-54.687500
9743		-60.546875
9744		-54.687500
9745		-62.500000
9746		-54.687500
9747		-62.500000
9748		-54.687500
9749		-62.500000
9750		-56.640625
9751		-62.500000
9752		-56.640625
9753		-62.500000
9754		-56.640625
9755		-60.546875
9756		-58.593750
9757		-62.500000
9758		-54.687500
9759		-62.500000
9760		-54.687500
9761		-60.546875
9762		-54.687500
9763		-60.546875
9764		-52.734375
9765		-58.593750
9766		-52.734375
9767		-58.593750
9768		-50.781250
9769		-56.640625
9770		-50.781250
9771		-52.734375
9772		-48.828125
9773		-50.781250
9774		-48.828125
9775		-50.781250
9776		-42.968750
9777		-48.828125
9778		-41.015625
9779		-46.875000
9780		-39.062500
9781		-44.921875
9782		-37.109375
9783		-42.968750
9784		-35.156250
9785		-41.015625
9786		-31.250000
9787		-37.109375
9788		-31.250000
9789		-33.203125
9790		-29.296875
9791		-29.296875
9792		-23.437500
9793		-29.296875
9794		-19.531250
9795		-25.390625
9796		-15.625000
9797		-23.437500
9798		-13.671875
9799		-19.531250
9800		-11.718750
9801		-15.625000
9802		-7.812500
9803		-13.671875
9804		-5.859375
9805		-7.812500
9806		-1.953125
9807		-3.906250
9808		1.953125
9809		-3.906250
9810		5.859375
9811		0.000000
9812		9.765625
9813		3.906250
9814		13.671875
9815		7.812500
9816		17.578125
9817		9.765625
9818		19.531250
9819		13.671875
9820		21.484375
9821		19.531250
9822		23.437500
9823		23.437500
9824		27.343750
9825		25.390625
9826		33.203125
9827		27.343750
9828		35.156250
9829		29.296875
9830		39.062500
9831		33.203125
9832		41.015625
9833		37.109375
9834		44.921875
9835		39.062500
9836		46.875000
9837		41.015625
9838		48.828125
9839		46.875000
9840		50.781250
9841		48.828125
9842		56.640625
9843		50.781250
9844		58.593750
9845		52.734375
9846		60.546875
9847		54.687500
9848		62.500000
9849		56.640625
9850		64.453125
9851		58.593750
9852		66.406250
9853		60.546875
9854		68.359375
9855		64.453125
9856		68.359375
9857		66.406250
9858		70.312500
9859		66.406250
9860		74.218750
9861		66.406250
9862		74.218750
9863		68.359375
9864		76.171875
9865		70.312500
9866		76.171875
9867		70.312500
9868		78.125000
9869		72.265625
9870		78.125000
9871		74.218750
9872		78.125000
9873		74.218750
9874		78.125000
9875		74.218750
9876		80.078125
9877		72.265625
9878		80.078125
9879		72.265625
9880		80.078125
9881		72.265625
9882		80.078125
9883		72.265625
9884		80.078125
9885		72.265625
9886		80.078125
9887		72.265625
9888		80.078125
9889		74.218750
9890		76.171875
9891		72.265625
9892		76.171875
9893		70.312500
9894		76.171875
9895		68.359375
9896		76.171875
9897		66.406250
9898		74.218750
9899		64.453125
9900		72.265625
9901		64.453125
9902		72.265625
9903		62.500000
9904		70.312500
9905		62.500000
9906		66.406250
9907		60.546875
9908		64.453125
9909		56.640625
9910		62.500000
9911		54.687500
9912		62.500000
9913		50.781250
9914		60.546875
9915		48.828125
9916		56.640625
9917		46.875000
9918		54.687500
9919		42.968750
9920		52.734375
9921		42.968750
9922		48.828125
9923		41.015625
9924		44.921875
9925		35.156250
9926		41.015625
9927		31.250000
9928		41.015625
9929		29.296875
9930		37.109375
9931		25.390625
9932		35.156250
9933		21.484375
9934		31.250000
9935		19.531250
9936		27.343750
9937		17.578125
9938		25.390625
9939		13.671875
9940		19.531250
9941		11.718750
9942		15.625000
9943		5.859375
9944		13.671875
9945		1.953125
9946		11.718750
9947		0.000000
9948		7.812500
9949		-3.906250
9950		3.906250
9951		-7.812500
9952		0.000000
9953		-11.718750
9954		-1.953125
9955		-11.718750
9956		-5.859375
9957		-15.625000
9958		-11.718750
9959		-21.484375
9960		-13.671875
9961		-25.390625
9962		-15.625000
9963		-27.343750
9964		-19.531250
9965		-31.250000
9966		-21.484375
9967		-33.203125
9968		-25.390625
9969		-37.109375
9970		-27.343750
9971		-39.062500
9972		-31.250000
9973		-39.062500
9974		-35.156250
9975		-42.968750
9976		-37.109375
9977		-46.875000
9978		-39.062500
9979		-48.828125
9980		-41.015625
9981		-50.781250
9982		-42.968750
9983		-52.734375
9984		-44.921875
9985		-54.687500
9986		-46.875000
9987		-56.640625
9988		-48.828125
9989		-54.687500
9990		-52.734375
9991		-56.640625
9992		-52.734375
9993		-60.546875
9994		-52.734375
9995		-60.546875
9996		-52.734375
9997		-62.500000
9998		-54.687500
9999		-62.500000
10000		-54.687500
