Channel              :		CH1
Frequency            :		  1.999kHz NOOT: DIT IS HANDMATIG AANGEPAST VOOR DATA ANALYSE
Period               :		  ?
PK-PK                :		19.53mV
Probe attenuation    :		1X
Voltage per ADC value:		0.122070mV
Time interval        :		2.00000us

index		CH1_Voltage(mV)
1		5.859375
2		5.859375
3		7.812500
4		5.859375
5		7.812500
6		5.859375
7		7.812500
8		5.859375
9		9.765625
10		5.859375
11		7.812500
12		5.859375
13		9.765625
14		5.859375
15		7.812500
16		5.859375
17		9.765625
18		5.859375
19		9.765625
20		5.859375
21		9.765625
22		5.859375
23		9.765625
24		5.859375
25		9.765625
26		7.812500
27		9.765625
28		5.859375
29		9.765625
30		5.859375
31		11.718750
32		7.812500
33		9.765625
34		7.812500
35		11.718750
36		7.812500
37		11.718750
38		7.812500
39		11.718750
40		7.812500
41		9.765625
42		7.812500
43		11.718750
44		7.812500
45		11.718750
46		7.812500
47		11.718750
48		9.765625
49		11.718750
50		7.812500
51		11.718750
52		7.812500
53		11.718750
54		9.765625
55		11.718750
56		7.812500
57		11.718750
58		9.765625
59		11.718750
60		9.765625
61		11.718750
62		9.765625
63		11.718750
64		9.765625
65		13.671875
66		9.765625
67		11.718750
68		9.765625
69		13.671875
70		9.765625
71		13.671875
72		9.765625
73		13.671875
74		9.765625
75		13.671875
76		9.765625
77		13.671875
78		9.765625
79		13.671875
80		9.765625
81		13.671875
82		9.765625
83		13.671875
84		9.765625
85		13.671875
86		9.765625
87		13.671875
88		9.765625
89		13.671875
90		9.765625
91		13.671875
92		9.765625
93		13.671875
94		9.765625
95		13.671875
96		9.765625
97		13.671875
98		9.765625
99		13.671875
100		11.718750
101		13.671875
102		9.765625
103		13.671875
104		9.765625
105		13.671875
106		9.765625
107		13.671875
108		9.765625
109		13.671875
110		9.765625
111		13.671875
112		9.765625
113		13.671875
114		9.765625
115		13.671875
116		9.765625
117		11.718750
118		9.765625
119		13.671875
120		9.765625
121		11.718750
122		9.765625
123		13.671875
124		9.765625
125		13.671875
126		9.765625
127		11.718750
128		9.765625
129		13.671875
130		7.812500
131		13.671875
132		9.765625
133		11.718750
134		9.765625
135		11.718750
136		7.812500
137		11.718750
138		7.812500
139		11.718750
140		7.812500
141		11.718750
142		7.812500
143		11.718750
144		7.812500
145		11.718750
146		7.812500
147		11.718750
148		7.812500
149		9.765625
150		7.812500
151		9.765625
152		5.859375
153		9.765625
154		5.859375
155		9.765625
156		7.812500
157		9.765625
158		5.859375
159		9.765625
160		5.859375
161		9.765625
162		5.859375
163		9.765625
164		5.859375
165		9.765625
166		5.859375
167		9.765625
168		5.859375
169		9.765625
170		5.859375
171		7.812500
172		5.859375
173		9.765625
174		3.906250
175		9.765625
176		5.859375
177		7.812500
178		5.859375
179		7.812500
180		5.859375
181		7.812500
182		5.859375
183		7.812500
184		5.859375
185		7.812500
186		3.906250
187		7.812500
188		3.906250
189		7.812500
190		3.906250
191		7.812500
192		3.906250
193		7.812500
194		3.906250
195		7.812500
196		3.906250
197		7.812500
198		3.906250
199		7.812500
200		3.906250
201		7.812500
202		1.953125
203		7.812500
204		3.906250
205		7.812500
206		3.906250
207		7.812500
208		3.906250
209		5.859375
210		3.906250
211		7.812500
212		3.906250
213		7.812500
214		3.906250
215		7.812500
216		3.906250
217		5.859375
218		3.906250
219		5.859375
220		3.906250
221		7.812500
222		3.906250
223		5.859375
224		3.906250
225		7.812500
226		3.906250
227		7.812500
228		3.906250
229		7.812500
230		3.906250
231		7.812500
232		3.906250
233		7.812500
234		3.906250
235		7.812500
236		3.906250
237		7.812500
238		3.906250
239		7.812500
240		3.906250
241		7.812500
242		3.906250
243		7.812500
244		3.906250
245		7.812500
246		5.859375
247		7.812500
248		3.906250
249		7.812500
250		5.859375
251		7.812500
252		5.859375
253		7.812500
254		5.859375
255		9.765625
256		5.859375
257		7.812500
258		5.859375
259		7.812500
260		5.859375
261		9.765625
262		5.859375
263		9.765625
264		5.859375
265		9.765625
266		5.859375
267		9.765625
268		5.859375
269		9.765625
270		5.859375
271		9.765625
272		5.859375
273		9.765625
274		5.859375
275		9.765625
276		7.812500
277		9.765625
278		7.812500
279		9.765625
280		7.812500
281		9.765625
282		7.812500
283		9.765625
284		7.812500
285		9.765625
286		7.812500
287		11.718750
288		7.812500
289		11.718750
290		7.812500
291		11.718750
292		7.812500
293		11.718750
294		7.812500
295		11.718750
296		7.812500
297		11.718750
298		7.812500
299		11.718750
300		9.765625
301		11.718750
302		9.765625
303		11.718750
304		9.765625
305		11.718750
306		9.765625
307		11.718750
308		9.765625
309		11.718750
310		9.765625
311		13.671875
312		9.765625
313		13.671875
314		9.765625
315		13.671875
316		9.765625
317		13.671875
318		9.765625
319		11.718750
320		9.765625
321		13.671875
322		9.765625
323		13.671875
324		9.765625
325		13.671875
326		9.765625
327		13.671875
328		9.765625
329		13.671875
330		9.765625
331		13.671875
332		9.765625
333		13.671875
334		11.718750
335		13.671875
336		9.765625
337		13.671875
338		9.765625
339		13.671875
340		9.765625
341		13.671875
342		9.765625
343		13.671875
344		9.765625
345		13.671875
346		9.765625
347		13.671875
348		9.765625
349		13.671875
350		9.765625
351		13.671875
352		11.718750
353		13.671875
354		9.765625
355		13.671875
356		9.765625
357		13.671875
358		9.765625
359		13.671875
360		9.765625
361		13.671875
362		9.765625
363		13.671875
364		9.765625
365		13.671875
366		9.765625
367		13.671875
368		9.765625
369		13.671875
370		9.765625
371		13.671875
372		9.765625
373		13.671875
374		9.765625
375		13.671875
376		9.765625
377		13.671875
378		9.765625
379		11.718750
380		9.765625
381		13.671875
382		7.812500
383		13.671875
384		9.765625
385		11.718750
386		9.765625
387		11.718750
388		7.812500
389		11.718750
390		7.812500
391		11.718750
392		7.812500
393		11.718750
394		7.812500
395		11.718750
396		7.812500
397		11.718750
398		7.812500
399		11.718750
400		7.812500
401		11.718750
402		7.812500
403		9.765625
404		5.859375
405		11.718750
406		7.812500
407		9.765625
408		7.812500
409		9.765625
410		7.812500
411		9.765625
412		5.859375
413		9.765625
414		5.859375
415		9.765625
416		5.859375
417		9.765625
418		5.859375
419		9.765625
420		5.859375
421		7.812500
422		5.859375
423		9.765625
424		5.859375
425		9.765625
426		5.859375
427		7.812500
428		5.859375
429		7.812500
430		5.859375
431		7.812500
432		5.859375
433		7.812500
434		3.906250
435		7.812500
436		5.859375
437		7.812500
438		5.859375
439		7.812500
440		3.906250
441		7.812500
442		3.906250
443		7.812500
444		3.906250
445		7.812500
446		3.906250
447		7.812500
448		3.906250
449		7.812500
450		3.906250
451		7.812500
452		3.906250
453		5.859375
454		3.906250
455		7.812500
456		3.906250
457		7.812500
458		3.906250
459		7.812500
460		3.906250
461		7.812500
462		3.906250
463		7.812500
464		3.906250
465		7.812500
466		3.906250
467		7.812500
468		3.906250
469		5.859375
470		3.906250
471		5.859375
472		3.906250
473		7.812500
474		3.906250
475		7.812500
476		3.906250
477		7.812500
478		3.906250
479		5.859375
480		3.906250
481		7.812500
482		3.906250
483		7.812500
484		3.906250
485		7.812500
486		3.906250
487		7.812500
488		3.906250
489		7.812500
490		3.906250
491		7.812500
492		3.906250
493		7.812500
494		5.859375
495		7.812500
496		3.906250
497		7.812500
498		5.859375
499		7.812500
500		3.906250
501		7.812500
502		5.859375
503		7.812500
504		5.859375
505		7.812500
506		5.859375
507		9.765625
508		5.859375
509		9.765625
510		5.859375
511		9.765625
512		5.859375
513		9.765625
514		5.859375
515		9.765625
516		5.859375
517		9.765625
518		5.859375
519		9.765625
520		5.859375
521		9.765625
522		5.859375
523		9.765625
524		5.859375
525		9.765625
526		7.812500
527		9.765625
528		5.859375
529		9.765625
530		7.812500
531		9.765625
532		7.812500
533		9.765625
534		7.812500
535		11.718750
536		7.812500
537		9.765625
538		7.812500
539		11.718750
540		7.812500
541		11.718750
542		7.812500
543		11.718750
544		7.812500
545		11.718750
546		7.812500
547		11.718750
548		7.812500
549		11.718750
550		7.812500
551		11.718750
552		9.765625
553		11.718750
554		9.765625
555		11.718750
556		7.812500
557		11.718750
558		9.765625
559		11.718750
560		9.765625
561		11.718750
562		9.765625
563		11.718750
564		9.765625
565		13.671875
566		9.765625
567		13.671875
568		9.765625
569		13.671875
570		9.765625
571		11.718750
572		9.765625
573		13.671875
574		9.765625
575		13.671875
576		9.765625
577		13.671875
578		11.718750
579		13.671875
580		9.765625
581		13.671875
582		9.765625
583		13.671875
584		9.765625
585		13.671875
586		11.718750
587		13.671875
588		11.718750
589		13.671875
590		9.765625
591		13.671875
592		9.765625
593		13.671875
594		9.765625
595		13.671875
596		9.765625
597		13.671875
598		9.765625
599		13.671875
600		9.765625
601		13.671875
602		9.765625
603		13.671875
604		11.718750
605		13.671875
606		9.765625
607		13.671875
608		9.765625
609		13.671875
610		9.765625
611		13.671875
612		9.765625
613		13.671875
614		9.765625
615		13.671875
616		9.765625
617		13.671875
618		9.765625
619		13.671875
620		9.765625
621		13.671875
622		9.765625
623		13.671875
624		9.765625
625		13.671875
626		9.765625
627		13.671875
628		7.812500
629		13.671875
630		9.765625
631		11.718750
632		9.765625
633		11.718750
634		7.812500
635		13.671875
636		9.765625
637		11.718750
638		9.765625
639		11.718750
640		7.812500
641		11.718750
642		9.765625
643		11.718750
644		7.812500
645		11.718750
646		7.812500
647		11.718750
648		7.812500
649		11.718750
650		7.812500
651		11.718750
652		7.812500
653		11.718750
654		7.812500
655		9.765625
656		7.812500
657		9.765625
658		7.812500
659		9.765625
660		7.812500
661		11.718750
662		5.859375
663		9.765625
664		7.812500
665		9.765625
666		5.859375
667		9.765625
668		5.859375
669		9.765625
670		7.812500
671		9.765625
672		5.859375
673		9.765625
674		5.859375
675		9.765625
676		5.859375
677		9.765625
678		5.859375
679		9.765625
680		5.859375
681		9.765625
682		5.859375
683		7.812500
684		5.859375
685		7.812500
686		5.859375
687		9.765625
688		5.859375
689		7.812500
690		3.906250
691		7.812500
692		3.906250
693		7.812500
694		3.906250
695		7.812500
696		5.859375
697		7.812500
698		3.906250
699		7.812500
700		3.906250
701		7.812500
702		3.906250
703		7.812500
704		3.906250
705		7.812500
706		3.906250
707		9.765625
708		3.906250
709		7.812500
710		3.906250
711		7.812500
712		3.906250
713		7.812500
714		3.906250
715		7.812500
716		3.906250
717		7.812500
718		3.906250
719		7.812500
720		3.906250
721		7.812500
722		3.906250
723		7.812500
724		3.906250
725		7.812500
726		3.906250
727		7.812500
728		3.906250
729		7.812500
730		3.906250
731		7.812500
732		3.906250
733		7.812500
734		3.906250
735		7.812500
736		3.906250
737		7.812500
738		5.859375
739		7.812500
740		3.906250
741		7.812500
742		3.906250
743		7.812500
744		3.906250
745		7.812500
746		5.859375
747		7.812500
748		5.859375
749		7.812500
750		5.859375
751		7.812500
752		5.859375
753		7.812500
754		5.859375
755		7.812500
756		5.859375
757		7.812500
758		3.906250
759		9.765625
760		5.859375
761		9.765625
762		5.859375
763		9.765625
764		5.859375
765		9.765625
766		5.859375
767		9.765625
768		5.859375
769		9.765625
770		5.859375
771		9.765625
772		7.812500
773		9.765625
774		5.859375
775		9.765625
776		5.859375
777		9.765625
778		7.812500
779		9.765625
780		7.812500
781		9.765625
782		7.812500
783		11.718750
784		7.812500
785		11.718750
786		7.812500
787		11.718750
788		7.812500
789		9.765625
790		7.812500
791		11.718750
792		7.812500
793		11.718750
794		9.765625
795		11.718750
796		9.765625
797		11.718750
798		9.765625
799		11.718750
800		9.765625
801		11.718750
802		9.765625
803		11.718750
804		9.765625
805		11.718750
806		9.765625
807		11.718750
808		9.765625
809		13.671875
810		9.765625
811		13.671875
812		9.765625
813		13.671875
814		9.765625
815		13.671875
816		9.765625
817		13.671875
818		9.765625
819		13.671875
820		9.765625
821		13.671875
822		11.718750
823		13.671875
824		9.765625
825		13.671875
826		9.765625
827		13.671875
828		11.718750
829		13.671875
830		9.765625
831		13.671875
832		11.718750
833		13.671875
834		11.718750
835		13.671875
836		9.765625
837		15.625000
838		11.718750
839		13.671875
840		11.718750
841		13.671875
842		9.765625
843		15.625000
844		11.718750
845		13.671875
846		9.765625
847		13.671875
848		11.718750
849		13.671875
850		9.765625
851		13.671875
852		11.718750
853		13.671875
854		9.765625
855		13.671875
856		11.718750
857		13.671875
858		11.718750
859		13.671875
860		11.718750
861		13.671875
862		9.765625
863		13.671875
864		11.718750
865		13.671875
866		9.765625
867		13.671875
868		9.765625
869		13.671875
870		9.765625
871		13.671875
872		11.718750
873		13.671875
874		11.718750
875		13.671875
876		9.765625
877		13.671875
878		9.765625
879		13.671875
880		9.765625
881		13.671875
882		9.765625
883		13.671875
884		9.765625
885		13.671875
886		9.765625
887		13.671875
888		9.765625
889		11.718750
890		9.765625
891		11.718750
892		7.812500
893		13.671875
894		7.812500
895		11.718750
896		7.812500
897		11.718750
898		9.765625
899		11.718750
900		7.812500
901		11.718750
902		7.812500
903		11.718750
904		7.812500
905		11.718750
906		7.812500
907		11.718750
908		7.812500
909		11.718750
910		7.812500
911		11.718750
912		7.812500
913		9.765625
914		7.812500
915		9.765625
916		7.812500
917		9.765625
918		7.812500
919		9.765625
920		5.859375
921		9.765625
922		7.812500
923		9.765625
924		7.812500
925		9.765625
926		5.859375
927		9.765625
928		5.859375
929		9.765625
930		5.859375
931		9.765625
932		5.859375
933		9.765625
934		5.859375
935		9.765625
936		5.859375
937		9.765625
938		3.906250
939		9.765625
940		5.859375
941		7.812500
942		5.859375
943		7.812500
944		5.859375
945		7.812500
946		3.906250
947		7.812500
948		5.859375
949		7.812500
950		3.906250
951		7.812500
952		3.906250
953		7.812500
954		5.859375
955		7.812500
956		3.906250
957		7.812500
958		5.859375
959		7.812500
960		3.906250
961		7.812500
962		3.906250
963		7.812500
964		3.906250
965		7.812500
966		3.906250
967		7.812500
968		3.906250
969		7.812500
970		3.906250
971		7.812500
972		3.906250
973		7.812500
974		5.859375
975		7.812500
976		3.906250
977		7.812500
978		3.906250
979		7.812500
980		5.859375
981		7.812500
982		3.906250
983		7.812500
984		3.906250
985		7.812500
986		3.906250
987		7.812500
988		1.953125
989		9.765625
990		5.859375
991		7.812500
992		5.859375
993		9.765625
994		5.859375
995		7.812500
996		5.859375
997		7.812500
998		5.859375
999		9.765625
1000		5.859375
1001		7.812500
1002		5.859375
1003		9.765625
1004		5.859375
1005		9.765625
1006		5.859375
1007		7.812500
1008		5.859375
1009		7.812500
1010		5.859375
1011		9.765625
1012		5.859375
1013		9.765625
1014		5.859375
1015		9.765625
1016		5.859375
1017		9.765625
1018		5.859375
1019		9.765625
1020		5.859375
1021		11.718750
1022		5.859375
1023		9.765625
1024		7.812500
1025		9.765625
1026		5.859375
1027		11.718750
1028		7.812500
1029		9.765625
1030		7.812500
1031		11.718750
1032		7.812500
1033		11.718750
1034		7.812500
1035		11.718750
1036		7.812500
1037		11.718750
1038		7.812500
1039		11.718750
1040		7.812500
1041		11.718750
1042		7.812500
1043		11.718750
1044		7.812500
1045		11.718750
1046		7.812500
1047		11.718750
1048		9.765625
1049		11.718750
1050		9.765625
1051		11.718750
1052		9.765625
1053		11.718750
1054		9.765625
1055		13.671875
1056		9.765625
1057		13.671875
1058		9.765625
1059		11.718750
1060		9.765625
1061		13.671875
1062		9.765625
1063		13.671875
1064		9.765625
1065		13.671875
1066		9.765625
1067		13.671875
1068		9.765625
1069		13.671875
1070		9.765625
1071		13.671875
1072		9.765625
1073		13.671875
1074		11.718750
1075		13.671875
1076		9.765625
1077		13.671875
1078		9.765625
1079		13.671875
1080		11.718750
1081		13.671875
1082		9.765625
1083		13.671875
1084		9.765625
1085		13.671875
1086		11.718750
1087		13.671875
1088		11.718750
1089		15.625000
1090		11.718750
1091		13.671875
1092		11.718750
1093		13.671875
1094		9.765625
1095		15.625000
1096		11.718750
1097		13.671875
1098		11.718750
1099		13.671875
1100		11.718750
1101		13.671875
1102		9.765625
1103		13.671875
1104		11.718750
1105		13.671875
1106		11.718750
1107		15.625000
1108		11.718750
1109		13.671875
1110		11.718750
1111		15.625000
1112		11.718750
1113		13.671875
1114		11.718750
1115		13.671875
1116		11.718750
1117		13.671875
1118		9.765625
1119		13.671875
1120		9.765625
1121		13.671875
1122		9.765625
1123		13.671875
1124		11.718750
1125		13.671875
1126		11.718750
1127		13.671875
1128		9.765625
1129		13.671875
1130		9.765625
1131		13.671875
1132		9.765625
1133		13.671875
1134		9.765625
1135		13.671875
1136		9.765625
1137		13.671875
1138		9.765625
1139		13.671875
1140		9.765625
1141		13.671875
1142		9.765625
1143		11.718750
1144		7.812500
1145		11.718750
1146		7.812500
1147		11.718750
1148		9.765625
1149		11.718750
1150		7.812500
1151		11.718750
1152		7.812500
1153		11.718750
1154		7.812500
1155		11.718750
1156		7.812500
1157		11.718750
1158		7.812500
1159		11.718750
1160		7.812500
1161		11.718750
1162		7.812500
1163		11.718750
1164		7.812500
1165		11.718750
1166		7.812500
1167		9.765625
1168		7.812500
1169		11.718750
1170		7.812500
1171		9.765625
1172		7.812500
1173		11.718750
1174		7.812500
1175		9.765625
1176		7.812500
1177		9.765625
1178		5.859375
1179		9.765625
1180		5.859375
1181		9.765625
1182		5.859375
1183		9.765625
1184		5.859375
1185		9.765625
1186		5.859375
1187		9.765625
1188		5.859375
1189		7.812500
1190		5.859375
1191		9.765625
1192		5.859375
1193		7.812500
1194		5.859375
1195		9.765625
1196		5.859375
1197		7.812500
1198		5.859375
1199		7.812500
1200		5.859375
1201		7.812500
1202		3.906250
1203		7.812500
1204		3.906250
1205		7.812500
1206		3.906250
1207		9.765625
1208		5.859375
1209		7.812500
1210		5.859375
1211		7.812500
1212		5.859375
1213		7.812500
1214		3.906250
1215		7.812500
1216		3.906250
1217		7.812500
1218		3.906250
1219		7.812500
1220		3.906250
1221		7.812500
1222		3.906250
1223		7.812500
1224		3.906250
1225		7.812500
1226		3.906250
1227		7.812500
1228		3.906250
1229		7.812500
1230		3.906250
1231		7.812500
1232		3.906250
1233		7.812500
1234		3.906250
1235		7.812500
1236		3.906250
1237		7.812500
1238		3.906250
1239		7.812500
1240		5.859375
1241		7.812500
1242		5.859375
1243		7.812500
1244		3.906250
1245		7.812500
1246		5.859375
1247		7.812500
1248		5.859375
1249		9.765625
1250		5.859375
1251		9.765625
1252		5.859375
1253		7.812500
1254		5.859375
1255		9.765625
1256		5.859375
1257		9.765625
1258		5.859375
1259		7.812500
1260		5.859375
1261		9.765625
1262		5.859375
1263		9.765625
1264		5.859375
1265		9.765625
1266		5.859375
1267		9.765625
1268		5.859375
1269		9.765625
1270		5.859375
1271		9.765625
1272		7.812500
1273		9.765625
1274		5.859375
1275		9.765625
1276		7.812500
1277		9.765625
1278		7.812500
1279		11.718750
1280		7.812500
1281		11.718750
1282		7.812500
1283		11.718750
1284		7.812500
1285		9.765625
1286		7.812500
1287		11.718750
1288		7.812500
1289		11.718750
1290		7.812500
1291		11.718750
1292		9.765625
1293		11.718750
1294		7.812500
1295		11.718750
1296		7.812500
1297		11.718750
1298		7.812500
1299		11.718750
1300		9.765625
1301		11.718750
1302		7.812500
1303		11.718750
1304		9.765625
1305		11.718750
1306		9.765625
1307		11.718750
1308		9.765625
1309		13.671875
1310		9.765625
1311		11.718750
1312		9.765625
1313		13.671875
1314		9.765625
1315		13.671875
1316		9.765625
1317		13.671875
1318		9.765625
1319		13.671875
1320		9.765625
1321		13.671875
1322		11.718750
1323		13.671875
1324		9.765625
1325		13.671875
1326		11.718750
1327		13.671875
1328		9.765625
1329		13.671875
1330		11.718750
1331		13.671875
1332		11.718750
1333		13.671875
1334		11.718750
1335		13.671875
1336		11.718750
1337		13.671875
1338		11.718750
1339		13.671875
1340		9.765625
1341		15.625000
1342		11.718750
1343		13.671875
1344		11.718750
1345		13.671875
1346		11.718750
1347		13.671875
1348		11.718750
1349		13.671875
1350		11.718750
1351		13.671875
1352		11.718750
1353		15.625000
1354		11.718750
1355		15.625000
1356		11.718750
1357		13.671875
1358		9.765625
1359		15.625000
1360		11.718750
1361		13.671875
1362		9.765625
1363		13.671875
1364		11.718750
1365		13.671875
1366		11.718750
1367		13.671875
1368		11.718750
1369		13.671875
1370		11.718750
1371		13.671875
1372		11.718750
1373		13.671875
1374		9.765625
1375		13.671875
1376		11.718750
1377		13.671875
1378		11.718750
1379		13.671875
1380		9.765625
1381		13.671875
1382		9.765625
1383		13.671875
1384		9.765625
1385		13.671875
1386		9.765625
1387		13.671875
1388		9.765625
1389		13.671875
1390		9.765625
1391		13.671875
1392		9.765625
1393		13.671875
1394		9.765625
1395		11.718750
1396		9.765625
1397		13.671875
1398		9.765625
1399		11.718750
1400		7.812500
1401		11.718750
1402		9.765625
1403		11.718750
1404		7.812500
1405		11.718750
1406		7.812500
1407		11.718750
1408		7.812500
1409		11.718750
1410		7.812500
1411		11.718750
1412		7.812500
1413		11.718750
1414		7.812500
1415		11.718750
1416		7.812500
1417		9.765625
1418		7.812500
1419		11.718750
1420		7.812500
1421		9.765625
1422		7.812500
1423		9.765625
1424		5.859375
1425		11.718750
1426		7.812500
1427		9.765625
1428		7.812500
1429		9.765625
1430		5.859375
1431		9.765625
1432		5.859375
1433		9.765625
1434		5.859375
1435		9.765625
1436		5.859375
1437		9.765625
1438		5.859375
1439		9.765625
1440		5.859375
1441		9.765625
1442		5.859375
1443		9.765625
1444		5.859375
1445		7.812500
1446		3.906250
1447		7.812500
1448		5.859375
1449		7.812500
1450		3.906250
1451		7.812500
1452		5.859375
1453		7.812500
1454		3.906250
1455		7.812500
1456		3.906250
1457		7.812500
1458		3.906250
1459		7.812500
1460		3.906250
1461		7.812500
1462		5.859375
1463		7.812500
1464		3.906250
1465		7.812500
1466		3.906250
1467		7.812500
1468		3.906250
1469		7.812500
1470		3.906250
1471		7.812500
1472		3.906250
1473		7.812500
1474		3.906250
1475		7.812500
1476		3.906250
1477		7.812500
1478		5.859375
1479		7.812500
1480		3.906250
1481		7.812500
1482		3.906250
1483		7.812500
1484		3.906250
1485		7.812500
1486		3.906250
1487		7.812500
1488		5.859375
1489		7.812500
1490		3.906250
1491		7.812500
1492		3.906250
1493		9.765625
1494		5.859375
1495		7.812500
1496		5.859375
1497		7.812500
1498		5.859375
1499		7.812500
1500		3.906250
1501		9.765625
1502		5.859375
1503		7.812500
1504		5.859375
1505		9.765625
1506		5.859375
1507		9.765625
1508		5.859375
1509		9.765625
1510		5.859375
1511		7.812500
1512		5.859375
1513		9.765625
1514		3.906250
1515		9.765625
1516		5.859375
1517		9.765625
1518		5.859375
1519		9.765625
1520		5.859375
1521		9.765625
1522		7.812500
1523		9.765625
1524		7.812500
1525		11.718750
1526		7.812500
1527		9.765625
1528		7.812500
1529		9.765625
1530		5.859375
1531		11.718750
1532		7.812500
1533		11.718750
1534		7.812500
1535		11.718750
1536		7.812500
1537		11.718750
1538		7.812500
1539		11.718750
1540		7.812500
1541		11.718750
1542		7.812500
1543		11.718750
1544		9.765625
1545		11.718750
1546		9.765625
1547		11.718750
1548		7.812500
1549		13.671875
1550		9.765625
1551		11.718750
1552		9.765625
1553		11.718750
1554		9.765625
1555		11.718750
1556		9.765625
1557		11.718750
1558		9.765625
1559		11.718750
1560		7.812500
1561		13.671875
1562		9.765625
1563		11.718750
1564		9.765625
1565		13.671875
1566		9.765625
1567		13.671875
1568		9.765625
1569		13.671875
1570		9.765625
1571		13.671875
1572		9.765625
1573		13.671875
1574		9.765625
1575		13.671875
1576		11.718750
1577		15.625000
1578		11.718750
1579		13.671875
1580		11.718750
1581		13.671875
1582		9.765625
1583		15.625000
1584		11.718750
1585		13.671875
1586		11.718750
1587		13.671875
1588		11.718750
1589		13.671875
1590		11.718750
1591		13.671875
1592		11.718750
1593		13.671875
1594		9.765625
1595		15.625000
1596		11.718750
1597		13.671875
1598		9.765625
1599		15.625000
1600		11.718750
1601		15.625000
1602		11.718750
1603		15.625000
1604		11.718750
1605		13.671875
1606		11.718750
1607		15.625000
1608		11.718750
1609		13.671875
1610		11.718750
1611		13.671875
1612		11.718750
1613		13.671875
1614		9.765625
1615		15.625000
1616		9.765625
1617		13.671875
1618		9.765625
1619		13.671875
1620		11.718750
1621		13.671875
1622		11.718750
1623		13.671875
1624		11.718750
1625		13.671875
1626		9.765625
1627		13.671875
1628		9.765625
1629		13.671875
1630		11.718750
1631		13.671875
1632		11.718750
1633		13.671875
1634		11.718750
1635		13.671875
1636		9.765625
1637		13.671875
1638		9.765625
1639		13.671875
1640		9.765625
1641		11.718750
1642		9.765625
1643		11.718750
1644		9.765625
1645		11.718750
1646		9.765625
1647		11.718750
1648		7.812500
1649		13.671875
1650		9.765625
1651		11.718750
1652		9.765625
1653		11.718750
1654		9.765625
1655		11.718750
1656		9.765625
1657		11.718750
1658		7.812500
1659		11.718750
1660		7.812500
1661		11.718750
1662		7.812500
1663		11.718750
1664		7.812500
1665		11.718750
1666		5.859375
1667		11.718750
1668		7.812500
1669		11.718750
1670		7.812500
1671		11.718750
1672		7.812500
1673		9.765625
1674		5.859375
1675		9.765625
1676		7.812500
1677		9.765625
1678		5.859375
1679		9.765625
1680		5.859375
1681		9.765625
1682		5.859375
1683		9.765625
1684		5.859375
1685		9.765625
1686		5.859375
1687		9.765625
1688		5.859375
1689		9.765625
1690		5.859375
1691		9.765625
1692		5.859375
1693		9.765625
1694		3.906250
1695		9.765625
1696		5.859375
1697		7.812500
1698		5.859375
1699		9.765625
1700		5.859375
1701		7.812500
1702		5.859375
1703		9.765625
1704		5.859375
1705		9.765625
1706		3.906250
1707		7.812500
1708		3.906250
1709		9.765625
1710		3.906250
1711		7.812500
1712		5.859375
1713		7.812500
1714		5.859375
1715		7.812500
1716		3.906250
1717		7.812500
1718		3.906250
1719		7.812500
1720		3.906250
1721		7.812500
1722		3.906250
1723		7.812500
1724		3.906250
1725		7.812500
1726		3.906250
1727		7.812500
1728		5.859375
1729		7.812500
1730		3.906250
1731		7.812500
1732		3.906250
1733		7.812500
1734		5.859375
1735		7.812500
1736		3.906250
1737		7.812500
1738		5.859375
1739		7.812500
1740		5.859375
1741		7.812500
1742		3.906250
1743		7.812500
1744		3.906250
1745		7.812500
1746		5.859375
1747		7.812500
1748		5.859375
1749		7.812500
1750		5.859375
1751		9.765625
1752		5.859375
1753		9.765625
1754		5.859375
1755		9.765625
1756		5.859375
1757		9.765625
1758		5.859375
1759		9.765625
1760		5.859375
1761		9.765625
1762		3.906250
1763		9.765625
1764		5.859375
1765		9.765625
1766		5.859375
1767		9.765625
1768		5.859375
1769		9.765625
1770		5.859375
1771		9.765625
1772		7.812500
1773		9.765625
1774		5.859375
1775		9.765625
1776		5.859375
1777		11.718750
1778		7.812500
1779		11.718750
1780		7.812500
1781		9.765625
1782		5.859375
1783		11.718750
1784		7.812500
1785		11.718750
1786		7.812500
1787		11.718750
1788		7.812500
1789		11.718750
1790		7.812500
1791		11.718750
1792		7.812500
1793		11.718750
1794		7.812500
1795		11.718750
1796		9.765625
1797		11.718750
1798		9.765625
1799		11.718750
1800		7.812500
1801		11.718750
1802		9.765625
1803		11.718750
1804		9.765625
1805		13.671875
1806		9.765625
1807		13.671875
1808		9.765625
1809		13.671875
1810		9.765625
1811		13.671875
1812		9.765625
1813		13.671875
1814		9.765625
1815		13.671875
1816		9.765625
1817		13.671875
1818		9.765625
1819		13.671875
1820		9.765625
1821		13.671875
1822		9.765625
1823		13.671875
1824		9.765625
1825		13.671875
1826		11.718750
1827		13.671875
1828		9.765625
1829		13.671875
1830		11.718750
1831		13.671875
1832		9.765625
1833		15.625000
1834		11.718750
1835		13.671875
1836		9.765625
1837		13.671875
1838		11.718750
1839		13.671875
1840		11.718750
1841		13.671875
1842		11.718750
1843		13.671875
1844		11.718750
1845		15.625000
1846		11.718750
1847		15.625000
1848		11.718750
1849		13.671875
1850		9.765625
1851		15.625000
1852		11.718750
1853		13.671875
1854		11.718750
1855		13.671875
1856		11.718750
1857		15.625000
1858		11.718750
1859		15.625000
1860		11.718750
1861		13.671875
1862		11.718750
1863		15.625000
1864		11.718750
1865		13.671875
1866		11.718750
1867		15.625000
1868		11.718750
1869		15.625000
1870		11.718750
1871		13.671875
1872		11.718750
1873		15.625000
1874		11.718750
1875		13.671875
1876		11.718750
1877		13.671875
1878		11.718750
1879		13.671875
1880		11.718750
1881		13.671875
1882		11.718750
1883		13.671875
1884		9.765625
1885		13.671875
1886		9.765625
1887		13.671875
1888		9.765625
1889		13.671875
1890		9.765625
1891		13.671875
1892		9.765625
1893		13.671875
1894		9.765625
1895		13.671875
1896		9.765625
1897		13.671875
1898		9.765625
1899		11.718750
1900		9.765625
1901		11.718750
1902		9.765625
1903		13.671875
1904		9.765625
1905		13.671875
1906		9.765625
1907		11.718750
1908		7.812500
1909		11.718750
1910		7.812500
1911		11.718750
1912		7.812500
1913		11.718750
1914		7.812500
1915		11.718750
1916		9.765625
1917		11.718750
1918		7.812500
1919		11.718750
1920		7.812500
1921		11.718750
1922		7.812500
1923		11.718750
1924		7.812500
1925		11.718750
1926		7.812500
1927		9.765625
1928		7.812500
1929		9.765625
1930		5.859375
1931		9.765625
1932		7.812500
1933		9.765625
1934		5.859375
1935		9.765625
1936		5.859375
1937		9.765625
1938		5.859375
1939		9.765625
1940		5.859375
1941		9.765625
1942		5.859375
1943		9.765625
1944		5.859375
1945		9.765625
1946		5.859375
1947		7.812500
1948		5.859375
1949		9.765625
1950		3.906250
1951		7.812500
1952		5.859375
1953		9.765625
1954		5.859375
1955		7.812500
1956		5.859375
1957		7.812500
1958		5.859375
1959		7.812500
1960		3.906250
1961		7.812500
1962		3.906250
1963		7.812500
1964		5.859375
1965		7.812500
1966		5.859375
1967		7.812500
1968		3.906250
1969		7.812500
1970		3.906250
1971		7.812500
1972		3.906250
1973		7.812500
1974		3.906250
1975		7.812500
1976		3.906250
1977		7.812500
1978		3.906250
1979		7.812500
1980		3.906250
1981		7.812500
1982		5.859375
1983		7.812500
1984		3.906250
1985		7.812500
1986		3.906250
1987		7.812500
1988		3.906250
1989		7.812500
1990		5.859375
1991		7.812500
1992		5.859375
1993		7.812500
1994		5.859375
1995		7.812500
1996		5.859375
1997		9.765625
1998		5.859375
1999		7.812500
2000		5.859375
2001		7.812500
2002		5.859375
2003		9.765625
2004		5.859375
2005		9.765625
2006		5.859375
2007		9.765625
2008		5.859375
2009		9.765625
2010		5.859375
2011		9.765625
2012		5.859375
2013		9.765625
2014		5.859375
2015		9.765625
2016		5.859375
2017		9.765625
2018		5.859375
2019		9.765625
2020		5.859375
2021		9.765625
2022		5.859375
2023		9.765625
2024		7.812500
2025		9.765625
2026		7.812500
2027		9.765625
2028		7.812500
2029		9.765625
2030		5.859375
2031		11.718750
2032		7.812500
2033		9.765625
2034		7.812500
2035		11.718750
2036		7.812500
2037		11.718750
2038		7.812500
2039		11.718750
2040		7.812500
2041		11.718750
2042		7.812500
2043		11.718750
2044		7.812500
2045		11.718750
2046		7.812500
2047		13.671875
2048		9.765625
2049		11.718750
2050		9.765625
2051		11.718750
2052		9.765625
2053		11.718750
2054		9.765625
2055		13.671875
2056		9.765625
2057		11.718750
2058		9.765625
2059		11.718750
2060		9.765625
2061		13.671875
2062		9.765625
2063		13.671875
2064		9.765625
2065		13.671875
2066		9.765625
2067		13.671875
2068		9.765625
2069		13.671875
2070		9.765625
2071		13.671875
2072		9.765625
2073		13.671875
2074		9.765625
2075		13.671875
2076		9.765625
2077		13.671875
2078		9.765625
2079		13.671875
2080		11.718750
2081		13.671875
2082		11.718750
2083		13.671875
2084		11.718750
2085		15.625000
2086		9.765625
2087		15.625000
2088		11.718750
2089		13.671875
2090		11.718750
2091		15.625000
2092		11.718750
2093		13.671875
2094		11.718750
2095		15.625000
2096		11.718750
2097		13.671875
2098		9.765625
2099		15.625000
2100		11.718750
2101		15.625000
2102		11.718750
2103		15.625000
2104		11.718750
2105		15.625000
2106		11.718750
2107		15.625000
2108		11.718750
2109		15.625000
2110		11.718750
2111		13.671875
2112		11.718750
2113		15.625000
2114		9.765625
2115		15.625000
2116		11.718750
2117		13.671875
2118		11.718750
2119		13.671875
2120		11.718750
2121		15.625000
2122		11.718750
2123		13.671875
2124		11.718750
2125		15.625000
2126		11.718750
2127		13.671875
2128		11.718750
2129		13.671875
2130		9.765625
2131		13.671875
2132		11.718750
2133		13.671875
2134		11.718750
2135		13.671875
2136		9.765625
2137		13.671875
2138		9.765625
2139		13.671875
2140		9.765625
2141		13.671875
2142		9.765625
2143		13.671875
2144		9.765625
2145		13.671875
2146		9.765625
2147		13.671875
2148		9.765625
2149		13.671875
2150		9.765625
2151		11.718750
2152		7.812500
2153		13.671875
2154		9.765625
2155		11.718750
2156		9.765625
2157		11.718750
2158		9.765625
2159		11.718750
2160		7.812500
2161		11.718750
2162		9.765625
2163		11.718750
2164		7.812500
2165		11.718750
2166		9.765625
2167		11.718750
2168		7.812500
2169		11.718750
2170		7.812500
2171		11.718750
2172		7.812500
2173		11.718750
2174		7.812500
2175		11.718750
2176		7.812500
2177		9.765625
2178		7.812500
2179		11.718750
2180		7.812500
2181		11.718750
2182		5.859375
2183		11.718750
2184		5.859375
2185		9.765625
2186		7.812500
2187		9.765625
2188		5.859375
2189		9.765625
2190		5.859375
2191		9.765625
2192		5.859375
2193		9.765625
2194		5.859375
2195		9.765625
2196		5.859375
2197		9.765625
2198		5.859375
2199		9.765625
2200		5.859375
2201		7.812500
2202		5.859375
2203		9.765625
2204		3.906250
2205		9.765625
2206		5.859375
2207		9.765625
2208		5.859375
2209		9.765625
2210		5.859375
2211		7.812500
2212		5.859375
2213		7.812500
2214		5.859375
2215		7.812500
2216		5.859375
2217		7.812500
2218		5.859375
2219		7.812500
2220		3.906250
2221		7.812500
2222		5.859375
2223		7.812500
2224		3.906250
2225		7.812500
2226		5.859375
2227		9.765625
2228		3.906250
2229		7.812500
2230		5.859375
2231		7.812500
2232		3.906250
2233		7.812500
2234		5.859375
2235		7.812500
2236		5.859375
2237		7.812500
2238		3.906250
2239		7.812500
2240		5.859375
2241		7.812500
2242		5.859375
2243		7.812500
2244		5.859375
2245		7.812500
2246		5.859375
2247		9.765625
2248		5.859375
2249		7.812500
2250		5.859375
2251		7.812500
2252		5.859375
2253		7.812500
2254		5.859375
2255		9.765625
2256		5.859375
2257		9.765625
2258		5.859375
2259		9.765625
2260		5.859375
2261		9.765625
2262		5.859375
2263		9.765625
2264		5.859375
2265		9.765625
2266		5.859375
2267		9.765625
2268		7.812500
2269		9.765625
2270		5.859375
2271		9.765625
2272		7.812500
2273		9.765625
2274		7.812500
2275		9.765625
2276		7.812500
2277		9.765625
2278		5.859375
2279		11.718750
2280		7.812500
2281		11.718750
2282		7.812500
2283		11.718750
2284		7.812500
2285		9.765625
2286		7.812500
2287		9.765625
2288		7.812500
2289		11.718750
2290		7.812500
2291		11.718750
2292		7.812500
2293		11.718750
2294		7.812500
2295		11.718750
2296		7.812500
2297		11.718750
2298		9.765625
2299		11.718750
2300		7.812500
2301		11.718750
2302		9.765625
2303		11.718750
2304		9.765625
2305		13.671875
2306		9.765625
2307		13.671875
2308		9.765625
2309		11.718750
2310		9.765625
2311		13.671875
2312		9.765625
2313		13.671875
2314		9.765625
2315		13.671875
2316		9.765625
2317		13.671875
2318		9.765625
2319		13.671875
2320		11.718750
2321		13.671875
2322		9.765625
2323		13.671875
2324		11.718750
2325		13.671875
2326		9.765625
2327		13.671875
2328		9.765625
2329		13.671875
2330		11.718750
2331		13.671875
2332		9.765625
2333		13.671875
2334		11.718750
2335		13.671875
2336		11.718750
2337		15.625000
2338		11.718750
2339		15.625000
2340		11.718750
2341		15.625000
2342		11.718750
2343		13.671875
2344		11.718750
2345		15.625000
2346		11.718750
2347		15.625000
2348		11.718750
2349		15.625000
2350		11.718750
2351		15.625000
2352		11.718750
2353		15.625000
2354		11.718750
2355		15.625000
2356		9.765625
2357		15.625000
2358		11.718750
2359		15.625000
2360		11.718750
2361		15.625000
2362		11.718750
2363		15.625000
2364		11.718750
2365		15.625000
2366		11.718750
2367		15.625000
2368		11.718750
2369		13.671875
2370		11.718750
2371		13.671875
2372		11.718750
2373		15.625000
2374		11.718750
2375		15.625000
2376		11.718750
2377		15.625000
2378		9.765625
2379		15.625000
2380		9.765625
2381		15.625000
2382		9.765625
2383		15.625000
2384		9.765625
2385		13.671875
2386		11.718750
2387		13.671875
2388		11.718750
2389		13.671875
2390		9.765625
2391		13.671875
2392		9.765625
2393		13.671875
2394		9.765625
2395		13.671875
2396		9.765625
2397		13.671875
2398		9.765625
2399		13.671875
2400		9.765625
2401		13.671875
2402		9.765625
2403		11.718750
2404		7.812500
2405		13.671875
2406		7.812500
2407		13.671875
2408		7.812500
2409		13.671875
2410		7.812500
2411		13.671875
2412		7.812500
2413		13.671875
2414		7.812500
2415		13.671875
2416		7.812500
2417		13.671875
2418		9.765625
2419		11.718750
2420		7.812500
2421		11.718750
2422		7.812500
2423		11.718750
2424		7.812500
2425		11.718750
2426		5.859375
2427		11.718750
2428		7.812500
2429		11.718750
2430		5.859375
2431		11.718750
2432		5.859375
2433		11.718750
2434		5.859375
2435		11.718750
2436		7.812500
2437		9.765625
2438		5.859375
2439		9.765625
2440		5.859375
2441		11.718750
2442		5.859375
2443		11.718750
2444		5.859375
2445		9.765625
2446		5.859375
2447		9.765625
2448		5.859375
2449		9.765625
2450		5.859375
2451		9.765625
2452		5.859375
2453		9.765625
2454		5.859375
2455		9.765625
2456		5.859375
2457		9.765625
2458		3.906250
2459		9.765625
2460		3.906250
2461		9.765625
2462		3.906250
2463		9.765625
2464		3.906250
2465		9.765625
2466		3.906250
2467		9.765625
2468		3.906250
2469		9.765625
2470		5.859375
2471		7.812500
2472		5.859375
2473		7.812500
2474		5.859375
2475		7.812500
2476		5.859375
2477		7.812500
2478		3.906250
2479		7.812500
2480		5.859375
2481		7.812500
2482		5.859375
2483		7.812500
2484		5.859375
2485		9.765625
2486		5.859375
2487		7.812500
2488		5.859375
2489		9.765625
2490		5.859375
2491		7.812500
2492		5.859375
2493		7.812500
2494		5.859375
2495		7.812500
2496		5.859375
2497		7.812500
2498		5.859375
2499		7.812500
2500		5.859375
2501		9.765625
2502		5.859375
2503		7.812500
2504		5.859375
2505		7.812500
2506		5.859375
2507		7.812500
2508		5.859375
2509		9.765625
2510		5.859375
2511		9.765625
2512		5.859375
2513		9.765625
2514		7.812500
2515		9.765625
2516		7.812500
2517		9.765625
2518		7.812500
2519		9.765625
2520		7.812500
2521		9.765625
2522		7.812500
2523		9.765625
2524		7.812500
2525		9.765625
2526		7.812500
2527		9.765625
2528		7.812500
2529		9.765625
2530		7.812500
2531		9.765625
2532		7.812500
2533		9.765625
2534		7.812500
2535		11.718750
2536		7.812500
2537		11.718750
2538		7.812500
2539		11.718750
2540		7.812500
2541		11.718750
2542		9.765625
2543		11.718750
2544		9.765625
2545		11.718750
2546		7.812500
2547		11.718750
2548		9.765625
2549		11.718750
2550		9.765625
2551		11.718750
2552		9.765625
2553		11.718750
2554		9.765625
2555		11.718750
2556		9.765625
2557		11.718750
2558		9.765625
2559		13.671875
2560		9.765625
2561		11.718750
2562		9.765625
2563		13.671875
2564		11.718750
2565		13.671875
2566		11.718750
2567		13.671875
2568		11.718750
2569		13.671875
2570		9.765625
2571		13.671875
2572		9.765625
2573		17.578125
2574		7.812500
2575		17.578125
2576		7.812500
2577		17.578125
2578		9.765625
2579		17.578125
2580		11.718750
2581		13.671875
2582		11.718750
2583		13.671875
2584		11.718750
2585		13.671875
2586		11.718750
2587		15.625000
2588		11.718750
2589		15.625000
2590		9.765625
2591		17.578125
2592		7.812500
2593		17.578125
2594		9.765625
2595		17.578125
2596		11.718750
2597		15.625000
2598		11.718750
2599		15.625000
2600		11.718750
2601		15.625000
2602		11.718750
2603		15.625000
2604		11.718750
2605		15.625000
2606		9.765625
2607		17.578125
2608		9.765625
2609		19.531250
2610		9.765625
2611		17.578125
2612		7.812500
2613		19.531250
2614		11.718750
2615		15.625000
2616		11.718750
2617		15.625000
2618		11.718750
2619		13.671875
2620		11.718750
2621		15.625000
2622		11.718750
2623		15.625000
2624		7.812500
2625		19.531250
2626		9.765625
2627		17.578125
2628		7.812500
2629		17.578125
2630		11.718750
2631		13.671875
2632		11.718750
2633		13.671875
2634		11.718750
2635		13.671875
2636		11.718750
2637		13.671875
2638		11.718750
2639		13.671875
2640		7.812500
2641		17.578125
2642		7.812500
2643		17.578125
2644		7.812500
2645		17.578125
2646		9.765625
2647		13.671875
2648		11.718750
2649		13.671875
2650		9.765625
2651		13.671875
2652		9.765625
2653		13.671875
2654		9.765625
2655		13.671875
2656		9.765625
2657		13.671875
2658		5.859375
2659		15.625000
2660		5.859375
2661		17.578125
2662		5.859375
2663		17.578125
2664		9.765625
2665		11.718750
2666		9.765625
2667		11.718750
2668		9.765625
2669		11.718750
2670		9.765625
2671		11.718750
2672		7.812500
2673		11.718750
2674		5.859375
2675		15.625000
2676		3.906250
2677		15.625000
2678		3.906250
2679		15.625000
2680		7.812500
2681		11.718750
2682		7.812500
2683		11.718750
2684		7.812500
2685		11.718750
2686		7.812500
2687		9.765625
2688		7.812500
2689		9.765625
2690		3.906250
2691		13.671875
2692		3.906250
2693		13.671875
2694		3.906250
2695		13.671875
2696		3.906250
2697		13.671875
2698		7.812500
2699		9.765625
2700		5.859375
2701		9.765625
2702		5.859375
2703		9.765625
2704		5.859375
2705		9.765625
2706		5.859375
2707		9.765625
2708		1.953125
2709		11.718750
2710		3.906250
2711		11.718750
2712		3.906250
2713		11.718750
2714		5.859375
2715		7.812500
2716		5.859375
2717		7.812500
2718		5.859375
2719		7.812500
2720		5.859375
2721		7.812500
2722		5.859375
2723		7.812500
2724		1.953125
2725		11.718750
2726		1.953125
2727		11.718750
2728		1.953125
2729		11.718750
2730		3.906250
2731		11.718750
2732		5.859375
2733		7.812500
2734		5.859375
2735		7.812500
2736		5.859375
2737		7.812500
2738		5.859375
2739		7.812500
2740		5.859375
2741		7.812500
2742		1.953125
2743		11.718750
2744		1.953125
2745		11.718750
2746		1.953125
2747		11.718750
2748		5.859375
2749		7.812500
2750		5.859375
2751		7.812500
2752		5.859375
2753		7.812500
2754		5.859375
2755		7.812500
2756		5.859375
2757		9.765625
2758		5.859375
2759		9.765625
2760		3.906250
2761		13.671875
2762		5.859375
2763		11.718750
2764		7.812500
2765		9.765625
2766		7.812500
2767		9.765625
2768		7.812500
2769		9.765625
2770		7.812500
2771		9.765625
2772		7.812500
2773		9.765625
2774		7.812500
2775		9.765625
2776		5.859375
2777		11.718750
2778		5.859375
2779		13.671875
2780		7.812500
2781		9.765625
2782		7.812500
2783		11.718750
2784		7.812500
2785		11.718750
2786		7.812500
2787		11.718750
2788		7.812500
2789		11.718750
2790		9.765625
2791		11.718750
2792		7.812500
2793		11.718750
2794		7.812500
2795		13.671875
2796		7.812500
2797		13.671875
2798		9.765625
2799		11.718750
2800		9.765625
2801		11.718750
2802		9.765625
2803		11.718750
2804		9.765625
2805		11.718750
2806		9.765625
2807		11.718750
2808		9.765625
2809		11.718750
2810		9.765625
2811		13.671875
2812		9.765625
2813		13.671875
2814		9.765625
2815		13.671875
2816		9.765625
2817		13.671875
2818		11.718750
2819		13.671875
2820		11.718750
2821		13.671875
2822		11.718750
2823		13.671875
2824		9.765625
2825		13.671875
2826		11.718750
2827		13.671875
2828		11.718750
2829		13.671875
2830		11.718750
2831		13.671875
2832		11.718750
2833		13.671875
2834		11.718750
2835		13.671875
2836		11.718750
2837		13.671875
2838		11.718750
2839		15.625000
2840		11.718750
2841		15.625000
2842		11.718750
2843		15.625000
2844		11.718750
2845		13.671875
2846		11.718750
2847		15.625000
2848		11.718750
2849		15.625000
2850		11.718750
2851		15.625000
2852		11.718750
2853		15.625000
2854		11.718750
2855		15.625000
2856		11.718750
2857		15.625000
2858		11.718750
2859		15.625000
2860		11.718750
2861		15.625000
2862		13.671875
2863		15.625000
2864		11.718750
2865		15.625000
2866		11.718750
2867		15.625000
2868		11.718750
2869		15.625000
2870		11.718750
2871		15.625000
2872		11.718750
2873		15.625000
2874		11.718750
2875		15.625000
2876		9.765625
2877		15.625000
2878		11.718750
2879		15.625000
2880		11.718750
2881		13.671875
2882		11.718750
2883		15.625000
2884		11.718750
2885		15.625000
2886		11.718750
2887		15.625000
2888		11.718750
2889		13.671875
2890		11.718750
2891		13.671875
2892		11.718750
2893		13.671875
2894		11.718750
2895		13.671875
2896		11.718750
2897		13.671875
2898		9.765625
2899		13.671875
2900		9.765625
2901		13.671875
2902		11.718750
2903		13.671875
2904		11.718750
2905		13.671875
2906		9.765625
2907		13.671875
2908		9.765625
2909		13.671875
2910		9.765625
2911		13.671875
2912		9.765625
2913		13.671875
2914		9.765625
2915		11.718750
2916		9.765625
2917		13.671875
2918		7.812500
2919		13.671875
2920		9.765625
2921		11.718750
2922		9.765625
2923		11.718750
2924		9.765625
2925		11.718750
2926		5.859375
2927		13.671875
2928		7.812500
2929		11.718750
2930		7.812500
2931		11.718750
2932		7.812500
2933		11.718750
2934		7.812500
2935		11.718750
2936		7.812500
2937		9.765625
2938		7.812500
2939		9.765625
2940		7.812500
2941		9.765625
2942		5.859375
2943		9.765625
2944		7.812500
2945		9.765625
2946		5.859375
2947		9.765625
2948		7.812500
2949		9.765625
2950		5.859375
2951		9.765625
2952		5.859375
2953		9.765625
2954		5.859375
2955		9.765625
2956		5.859375
2957		9.765625
2958		5.859375
2959		9.765625
2960		5.859375
2961		9.765625
2962		5.859375
2963		9.765625
2964		5.859375
2965		9.765625
2966		5.859375
2967		9.765625
2968		5.859375
2969		9.765625
2970		5.859375
2971		7.812500
2972		5.859375
2973		7.812500
2974		5.859375
2975		7.812500
2976		5.859375
2977		9.765625
2978		5.859375
2979		9.765625
2980		5.859375
2981		7.812500
2982		5.859375
2983		9.765625
2984		5.859375
2985		9.765625
2986		5.859375
2987		7.812500
2988		5.859375
2989		7.812500
2990		5.859375
2991		7.812500
2992		5.859375
2993		7.812500
2994		3.906250
2995		9.765625
2996		5.859375
2997		9.765625
2998		5.859375
2999		7.812500
3000		5.859375
3001		9.765625
3002		5.859375
3003		9.765625
3004		5.859375
3005		7.812500
3006		5.859375
3007		7.812500
3008		5.859375
3009		9.765625
3010		3.906250
3011		9.765625
3012		5.859375
3013		9.765625
3014		7.812500
3015		9.765625
3016		5.859375
3017		9.765625
3018		5.859375
3019		9.765625
3020		7.812500
3021		9.765625
3022		7.812500
3023		9.765625
3024		7.812500
3025		9.765625
3026		7.812500
3027		9.765625
3028		7.812500
3029		11.718750
3030		7.812500
3031		11.718750
3032		7.812500
3033		9.765625
3034		7.812500
3035		11.718750
3036		7.812500
3037		11.718750
3038		7.812500
3039		11.718750
3040		7.812500
3041		11.718750
3042		9.765625
3043		11.718750
3044		9.765625
3045		11.718750
3046		9.765625
3047		11.718750
3048		9.765625
3049		11.718750
3050		9.765625
3051		11.718750
3052		9.765625
3053		11.718750
3054		9.765625
3055		11.718750
3056		9.765625
3057		11.718750
3058		9.765625
3059		11.718750
3060		9.765625
3061		13.671875
3062		9.765625
3063		13.671875
3064		9.765625
3065		13.671875
3066		9.765625
3067		13.671875
3068		9.765625
3069		13.671875
3070		9.765625
3071		13.671875
3072		11.718750
3073		13.671875
3074		11.718750
3075		13.671875
3076		11.718750
3077		13.671875
3078		9.765625
3079		13.671875
3080		11.718750
3081		13.671875
3082		11.718750
3083		13.671875
3084		11.718750
3085		13.671875
3086		11.718750
3087		13.671875
3088		11.718750
3089		13.671875
3090		11.718750
3091		15.625000
3092		11.718750
3093		13.671875
3094		11.718750
3095		15.625000
3096		11.718750
3097		13.671875
3098		11.718750
3099		15.625000
3100		11.718750
3101		13.671875
3102		11.718750
3103		15.625000
3104		11.718750
3105		15.625000
3106		11.718750
3107		15.625000
3108		11.718750
3109		15.625000
3110		11.718750
3111		15.625000
3112		11.718750
3113		15.625000
3114		11.718750
3115		13.671875
3116		11.718750
3117		13.671875
3118		11.718750
3119		15.625000
3120		11.718750
3121		15.625000
3122		11.718750
3123		13.671875
3124		11.718750
3125		13.671875
3126		11.718750
3127		13.671875
3128		11.718750
3129		15.625000
3130		11.718750
3131		13.671875
3132		11.718750
3133		13.671875
3134		11.718750
3135		13.671875
3136		11.718750
3137		13.671875
3138		11.718750
3139		13.671875
3140		11.718750
3141		13.671875
3142		11.718750
3143		13.671875
3144		11.718750
3145		13.671875
3146		11.718750
3147		13.671875
3148		11.718750
3149		13.671875
3150		11.718750
3151		13.671875
3152		11.718750
3153		13.671875
3154		11.718750
3155		13.671875
3156		9.765625
3157		13.671875
3158		9.765625
3159		13.671875
3160		9.765625
3161		11.718750
3162		9.765625
3163		13.671875
3164		9.765625
3165		11.718750
3166		9.765625
3167		11.718750
3168		9.765625
3169		11.718750
3170		9.765625
3171		11.718750
3172		9.765625
3173		11.718750
3174		9.765625
3175		11.718750
3176		9.765625
3177		11.718750
3178		7.812500
3179		11.718750
3180		7.812500
3181		11.718750
3182		7.812500
3183		9.765625
3184		7.812500
3185		9.765625
3186		7.812500
3187		9.765625
3188		7.812500
3189		9.765625
3190		7.812500
3191		9.765625
3192		7.812500
3193		9.765625
3194		5.859375
3195		11.718750
3196		5.859375
3197		11.718750
3198		7.812500
3199		11.718750
3200		7.812500
3201		9.765625
3202		5.859375
3203		9.765625
3204		5.859375
3205		9.765625
3206		5.859375
3207		9.765625
3208		5.859375
3209		9.765625
3210		5.859375
3211		7.812500
3212		3.906250
3213		9.765625
3214		5.859375
3215		9.765625
3216		5.859375
3217		7.812500
3218		5.859375
3219		7.812500
3220		5.859375
3221		7.812500
3222		5.859375
3223		7.812500
3224		5.859375
3225		7.812500
3226		5.859375
3227		7.812500
3228		3.906250
3229		9.765625
3230		3.906250
3231		9.765625
3232		5.859375
3233		7.812500
3234		5.859375
3235		7.812500
3236		5.859375
3237		7.812500
3238		5.859375
3239		7.812500
3240		5.859375
3241		7.812500
3242		5.859375
3243		7.812500
3244		5.859375
3245		7.812500
3246		3.906250
3247		9.765625
3248		3.906250
3249		9.765625
3250		5.859375
3251		7.812500
3252		5.859375
3253		7.812500
3254		5.859375
3255		7.812500
3256		5.859375
3257		7.812500
3258		5.859375
3259		7.812500
3260		5.859375
3261		9.765625
3262		3.906250
3263		11.718750
3264		5.859375
3265		9.765625
3266		5.859375
3267		9.765625
3268		7.812500
3269		9.765625
3270		7.812500
3271		9.765625
3272		7.812500
3273		9.765625
3274		7.812500
3275		9.765625
3276		7.812500
3277		9.765625
3278		5.859375
3279		11.718750
3280		5.859375
3281		11.718750
3282		5.859375
3283		11.718750
3284		7.812500
3285		9.765625
3286		7.812500
3287		11.718750
3288		7.812500
3289		9.765625
3290		7.812500
3291		11.718750
3292		7.812500
3293		11.718750
3294		7.812500
3295		11.718750
3296		7.812500
3297		13.671875
3298		7.812500
3299		13.671875
3300		9.765625
3301		11.718750
3302		9.765625
3303		11.718750
3304		9.765625
3305		11.718750
3306		9.765625
3307		11.718750
3308		9.765625
3309		11.718750
3310		9.765625
3311		11.718750
3312		7.812500
3313		13.671875
3314		7.812500
3315		13.671875
3316		9.765625
3317		13.671875
3318		9.765625
3319		13.671875
3320		11.718750
3321		13.671875
3322		11.718750
3323		13.671875
3324		11.718750
3325		13.671875
3326		9.765625
3327		13.671875
3328		11.718750
3329		13.671875
3330		9.765625
3331		15.625000
3332		9.765625
3333		15.625000
3334		11.718750
3335		13.671875
3336		11.718750
3337		13.671875
3338		11.718750
3339		13.671875
3340		11.718750
3341		13.671875
3342		11.718750
3343		15.625000
3344		11.718750
3345		15.625000
3346		9.765625
3347		15.625000
3348		9.765625
3349		15.625000
3350		11.718750
3351		15.625000
3352		11.718750
3353		13.671875
3354		11.718750
3355		15.625000
3356		11.718750
3357		15.625000
3358		11.718750
3359		15.625000
3360		11.718750
3361		15.625000
3362		11.718750
3363		17.578125
3364		11.718750
3365		15.625000
3366		11.718750
3367		15.625000
3368		11.718750
3369		15.625000
3370		11.718750
3371		15.625000
3372		11.718750
3373		15.625000
3374		11.718750
3375		15.625000
3376		11.718750
3377		15.625000
3378		11.718750
3379		13.671875
3380		11.718750
3381		15.625000
3382		11.718750
3383		13.671875
3384		11.718750
3385		13.671875
3386		11.718750
3387		13.671875
3388		11.718750
3389		13.671875
3390		11.718750
3391		13.671875
3392		11.718750
3393		13.671875
3394		11.718750
3395		13.671875
3396		9.765625
3397		15.625000
3398		11.718750
3399		13.671875
3400		11.718750
3401		13.671875
3402		11.718750
3403		13.671875
3404		11.718750
3405		13.671875
3406		9.765625
3407		13.671875
3408		11.718750
3409		13.671875
3410		9.765625
3411		13.671875
3412		9.765625
3413		13.671875
3414		9.765625
3415		13.671875
3416		9.765625
3417		11.718750
3418		9.765625
3419		11.718750
3420		9.765625
3421		11.718750
3422		9.765625
3423		11.718750
3424		9.765625
3425		11.718750
3426		9.765625
3427		11.718750
3428		9.765625
3429		11.718750
3430		7.812500
3431		11.718750
3432		7.812500
3433		11.718750
3434		7.812500
3435		11.718750
3436		7.812500
3437		9.765625
3438		7.812500
3439		9.765625
3440		7.812500
3441		9.765625
3442		7.812500
3443		9.765625
3444		7.812500
3445		9.765625
3446		7.812500
3447		9.765625
3448		7.812500
3449		9.765625
3450		7.812500
3451		9.765625
3452		7.812500
3453		9.765625
3454		5.859375
3455		9.765625
3456		5.859375
3457		9.765625
3458		5.859375
3459		9.765625
3460		5.859375
3461		7.812500
3462		5.859375
3463		7.812500
3464		5.859375
3465		9.765625
3466		5.859375
3467		7.812500
3468		5.859375
3469		7.812500
3470		5.859375
3471		7.812500
3472		5.859375
3473		7.812500
3474		5.859375
3475		7.812500
3476		5.859375
3477		7.812500
3478		5.859375
3479		7.812500
3480		5.859375
3481		7.812500
3482		5.859375
3483		7.812500
3484		5.859375
3485		7.812500
3486		5.859375
3487		7.812500
3488		5.859375
3489		7.812500
3490		5.859375
3491		7.812500
3492		5.859375
3493		7.812500
3494		5.859375
3495		7.812500
3496		5.859375
3497		7.812500
3498		5.859375
3499		7.812500
3500		5.859375
3501		7.812500
3502		5.859375
3503		7.812500
3504		5.859375
3505		7.812500
3506		5.859375
3507		7.812500
3508		5.859375
3509		7.812500
3510		5.859375
3511		7.812500
3512		5.859375
3513		7.812500
3514		5.859375
3515		9.765625
3516		5.859375
3517		9.765625
3518		5.859375
3519		9.765625
3520		5.859375
3521		9.765625
3522		7.812500
3523		9.765625
3524		7.812500
3525		9.765625
3526		7.812500
3527		9.765625
3528		7.812500
3529		9.765625
3530		7.812500
3531		9.765625
3532		7.812500
3533		9.765625
3534		7.812500
3535		9.765625
3536		7.812500
3537		9.765625
3538		7.812500
3539		9.765625
3540		7.812500
3541		11.718750
3542		7.812500
3543		11.718750
3544		7.812500
3545		11.718750
3546		9.765625
3547		11.718750
3548		9.765625
3549		11.718750
3550		9.765625
3551		11.718750
3552		9.765625
3553		11.718750
3554		9.765625
3555		11.718750
3556		9.765625
3557		11.718750
3558		9.765625
3559		11.718750
3560		9.765625
3561		11.718750
3562		9.765625
3563		13.671875
3564		9.765625
3565		11.718750
3566		9.765625
3567		13.671875
3568		9.765625
3569		13.671875
3570		9.765625
3571		13.671875
3572		9.765625
3573		13.671875
3574		11.718750
3575		13.671875
3576		11.718750
3577		13.671875
3578		11.718750
3579		13.671875
3580		11.718750
3581		13.671875
3582		11.718750
3583		13.671875
3584		11.718750
3585		13.671875
3586		11.718750
3587		13.671875
3588		11.718750
3589		13.671875
3590		11.718750
3591		13.671875
3592		11.718750
3593		13.671875
3594		11.718750
3595		15.625000
3596		11.718750
3597		13.671875
3598		11.718750
3599		13.671875
3600		11.718750
3601		15.625000
3602		11.718750
3603		13.671875
3604		11.718750
3605		15.625000
3606		11.718750
3607		15.625000
3608		11.718750
3609		13.671875
3610		11.718750
3611		15.625000
3612		11.718750
3613		15.625000
3614		11.718750
3615		13.671875
3616		11.718750
3617		15.625000
3618		11.718750
3619		13.671875
3620		11.718750
3621		15.625000
3622		11.718750
3623		15.625000
3624		11.718750
3625		15.625000
3626		11.718750
3627		15.625000
3628		11.718750
3629		13.671875
3630		11.718750
3631		13.671875
3632		11.718750
3633		13.671875
3634		11.718750
3635		13.671875
3636		11.718750
3637		13.671875
3638		11.718750
3639		13.671875
3640		11.718750
3641		13.671875
3642		11.718750
3643		13.671875
3644		11.718750
3645		13.671875
3646		11.718750
3647		13.671875
3648		11.718750
3649		13.671875
3650		11.718750
3651		13.671875
3652		11.718750
3653		13.671875
3654		11.718750
3655		13.671875
3656		9.765625
3657		13.671875
3658		9.765625
3659		13.671875
3660		9.765625
3661		13.671875
3662		9.765625
3663		11.718750
3664		9.765625
3665		11.718750
3666		9.765625
3667		11.718750
3668		9.765625
3669		11.718750
3670		9.765625
3671		11.718750
3672		9.765625
3673		11.718750
3674		9.765625
3675		11.718750
3676		9.765625
3677		11.718750
3678		9.765625
3679		11.718750
3680		7.812500
3681		11.718750
3682		7.812500
3683		11.718750
3684		7.812500
3685		9.765625
3686		7.812500
3687		9.765625
3688		7.812500
3689		9.765625
3690		7.812500
3691		9.765625
3692		7.812500
3693		9.765625
3694		7.812500
3695		9.765625
3696		7.812500
3697		9.765625
3698		7.812500
3699		9.765625
3700		7.812500
3701		9.765625
3702		7.812500
3703		9.765625
3704		5.859375
3705		9.765625
3706		5.859375
3707		9.765625
3708		5.859375
3709		9.765625
3710		5.859375
3711		9.765625
3712		5.859375
3713		9.765625
3714		5.859375
3715		7.812500
3716		5.859375
3717		7.812500
3718		5.859375
3719		9.765625
3720		5.859375
3721		7.812500
3722		5.859375
3723		7.812500
3724		5.859375
3725		7.812500
3726		5.859375
3727		7.812500
3728		5.859375
3729		7.812500
3730		5.859375
3731		7.812500
3732		5.859375
3733		7.812500
3734		5.859375
3735		7.812500
3736		5.859375
3737		7.812500
3738		5.859375
3739		7.812500
3740		5.859375
3741		7.812500
3742		5.859375
3743		7.812500
3744		5.859375
3745		7.812500
3746		5.859375
3747		7.812500
3748		5.859375
3749		7.812500
3750		5.859375
3751		7.812500
3752		5.859375
3753		7.812500
3754		5.859375
3755		9.765625
3756		5.859375
3757		7.812500
3758		5.859375
3759		7.812500
3760		5.859375
3761		7.812500
3762		5.859375
3763		7.812500
3764		5.859375
3765		9.765625
3766		5.859375
3767		9.765625
3768		5.859375
3769		9.765625
3770		5.859375
3771		9.765625
3772		7.812500
3773		9.765625
3774		7.812500
3775		9.765625
3776		7.812500
3777		9.765625
3778		7.812500
3779		9.765625
3780		7.812500
3781		9.765625
3782		7.812500
3783		9.765625
3784		7.812500
3785		9.765625
3786		7.812500
3787		9.765625
3788		7.812500
3789		9.765625
3790		7.812500
3791		9.765625
3792		7.812500
3793		9.765625
3794		7.812500
3795		11.718750
3796		7.812500
3797		11.718750
3798		7.812500
3799		11.718750
3800		7.812500
3801		11.718750
3802		9.765625
3803		11.718750
3804		9.765625
3805		11.718750
3806		9.765625
3807		11.718750
3808		9.765625
3809		11.718750
3810		9.765625
3811		11.718750
3812		9.765625
3813		11.718750
3814		9.765625
3815		11.718750
3816		9.765625
3817		11.718750
3818		9.765625
3819		11.718750
3820		9.765625
3821		13.671875
3822		9.765625
3823		13.671875
3824		11.718750
3825		13.671875
3826		11.718750
3827		13.671875
3828		11.718750
3829		13.671875
3830		11.718750
3831		13.671875
3832		11.718750
3833		13.671875
3834		11.718750
3835		13.671875
3836		11.718750
3837		13.671875
3838		11.718750
3839		13.671875
3840		11.718750
3841		13.671875
3842		11.718750
3843		13.671875
3844		11.718750
3845		13.671875
3846		9.765625
3847		15.625000
3848		11.718750
3849		13.671875
3850		11.718750
3851		13.671875
3852		11.718750
3853		15.625000
3854		11.718750
3855		13.671875
3856		11.718750
3857		13.671875
3858		11.718750
3859		13.671875
3860		11.718750
3861		13.671875
3862		11.718750
3863		15.625000
3864		11.718750
3865		13.671875
3866		11.718750
3867		15.625000
3868		11.718750
3869		15.625000
3870		11.718750
3871		15.625000
3872		11.718750
3873		13.671875
3874		11.718750
3875		15.625000
3876		11.718750
3877		13.671875
3878		11.718750
3879		15.625000
3880		11.718750
3881		15.625000
3882		11.718750
3883		13.671875
3884		11.718750
3885		13.671875
3886		11.718750
3887		13.671875
3888		11.718750
3889		13.671875
3890		11.718750
3891		13.671875
3892		11.718750
3893		13.671875
3894		11.718750
3895		13.671875
3896		11.718750
3897		13.671875
3898		11.718750
3899		13.671875
3900		11.718750
3901		13.671875
3902		11.718750
3903		13.671875
3904		11.718750
3905		13.671875
3906		9.765625
3907		13.671875
3908		9.765625
3909		13.671875
3910		9.765625
3911		13.671875
3912		9.765625
3913		11.718750
3914		9.765625
3915		11.718750
3916		9.765625
3917		11.718750
3918		9.765625
3919		13.671875
3920		9.765625
3921		11.718750
3922		9.765625
3923		11.718750
3924		9.765625
3925		11.718750
3926		9.765625
3927		11.718750
3928		9.765625
3929		11.718750
3930		9.765625
3931		11.718750
3932		7.812500
3933		11.718750
3934		7.812500
3935		11.718750
3936		7.812500
3937		9.765625
3938		7.812500
3939		9.765625
3940		7.812500
3941		11.718750
3942		7.812500
3943		9.765625
3944		7.812500
3945		9.765625
3946		7.812500
3947		9.765625
3948		7.812500
3949		9.765625
3950		7.812500
3951		9.765625
3952		7.812500
3953		9.765625
3954		5.859375
3955		9.765625
3956		5.859375
3957		9.765625
3958		5.859375
3959		9.765625
3960		5.859375
3961		9.765625
3962		5.859375
3963		9.765625
3964		5.859375
3965		7.812500
3966		5.859375
3967		7.812500
3968		5.859375
3969		7.812500
3970		5.859375
3971		7.812500
3972		5.859375
3973		7.812500
3974		5.859375
3975		7.812500
3976		5.859375
3977		7.812500
3978		5.859375
3979		7.812500
3980		5.859375
3981		7.812500
3982		5.859375
3983		7.812500
3984		5.859375
3985		7.812500
3986		5.859375
3987		7.812500
3988		5.859375
3989		7.812500
3990		5.859375
3991		7.812500
3992		5.859375
3993		7.812500
3994		5.859375
3995		7.812500
3996		5.859375
3997		7.812500
3998		5.859375
3999		7.812500
4000		5.859375
4001		7.812500
4002		5.859375
4003		7.812500
4004		5.859375
4005		7.812500
4006		5.859375
4007		7.812500
4008		5.859375
4009		7.812500
4010		5.859375
4011		7.812500
4012		5.859375
4013		7.812500
4014		5.859375
4015		7.812500
4016		5.859375
4017		7.812500
4018		5.859375
4019		9.765625
4020		5.859375
4021		9.765625
4022		5.859375
4023		9.765625
4024		5.859375
4025		9.765625
4026		7.812500
4027		9.765625
4028		5.859375
4029		9.765625
4030		7.812500
4031		9.765625
4032		7.812500
4033		9.765625
4034		7.812500
4035		9.765625
4036		7.812500
4037		9.765625
4038		7.812500
4039		9.765625
4040		7.812500
4041		9.765625
4042		7.812500
4043		9.765625
4044		7.812500
4045		11.718750
4046		7.812500
4047		11.718750
4048		7.812500
4049		11.718750
4050		7.812500
4051		11.718750
4052		9.765625
4053		11.718750
4054		9.765625
4055		11.718750
4056		9.765625
4057		11.718750
4058		9.765625
4059		11.718750
4060		9.765625
4061		11.718750
4062		9.765625
4063		11.718750
4064		9.765625
4065		11.718750
4066		9.765625
4067		11.718750
4068		9.765625
4069		11.718750
4070		9.765625
4071		13.671875
4072		9.765625
4073		13.671875
4074		9.765625
4075		13.671875
4076		11.718750
4077		13.671875
4078		11.718750
4079		13.671875
4080		11.718750
4081		13.671875
4082		11.718750
4083		13.671875
4084		11.718750
4085		13.671875
4086		11.718750
4087		13.671875
4088		11.718750
4089		13.671875
4090		11.718750
4091		13.671875
4092		11.718750
4093		13.671875
4094		11.718750
4095		13.671875
4096		9.765625
4097		15.625000
4098		11.718750
4099		13.671875
4100		11.718750
4101		13.671875
4102		11.718750
4103		13.671875
4104		11.718750
4105		13.671875
4106		11.718750
4107		13.671875
4108		11.718750
4109		13.671875
4110		11.718750
4111		13.671875
4112		11.718750
4113		13.671875
4114		11.718750
4115		13.671875
4116		11.718750
4117		15.625000
4118		11.718750
4119		13.671875
4120		11.718750
4121		15.625000
4122		11.718750
4123		13.671875
4124		11.718750
4125		15.625000
4126		11.718750
4127		15.625000
4128		11.718750
4129		13.671875
4130		11.718750
4131		15.625000
4132		11.718750
4133		13.671875
4134		11.718750
4135		13.671875
4136		11.718750
4137		13.671875
4138		11.718750
4139		15.625000
4140		11.718750
4141		13.671875
4142		11.718750
4143		13.671875
4144		11.718750
4145		13.671875
4146		11.718750
4147		13.671875
4148		11.718750
4149		13.671875
4150		11.718750
4151		13.671875
4152		11.718750
4153		13.671875
4154		11.718750
4155		13.671875
4156		11.718750
4157		13.671875
4158		11.718750
4159		13.671875
4160		9.765625
4161		13.671875
4162		9.765625
4163		13.671875
4164		9.765625
4165		11.718750
4166		9.765625
4167		11.718750
4168		9.765625
4169		11.718750
4170		9.765625
4171		11.718750
4172		9.765625
4173		11.718750
4174		9.765625
4175		11.718750
4176		9.765625
4177		11.718750
4178		9.765625
4179		11.718750
4180		9.765625
4181		11.718750
4182		7.812500
4183		11.718750
4184		7.812500
4185		11.718750
4186		7.812500
4187		11.718750
4188		7.812500
4189		9.765625
4190		7.812500
4191		9.765625
4192		7.812500
4193		9.765625
4194		7.812500
4195		9.765625
4196		7.812500
4197		9.765625
4198		7.812500
4199		9.765625
4200		7.812500
4201		9.765625
4202		7.812500
4203		9.765625
4204		5.859375
4205		9.765625
4206		7.812500
4207		9.765625
4208		5.859375
4209		9.765625
4210		5.859375
4211		9.765625
4212		5.859375
4213		7.812500
4214		5.859375
4215		9.765625
4216		5.859375
4217		7.812500
4218		5.859375
4219		7.812500
4220		3.906250
4221		9.765625
4222		5.859375
4223		7.812500
4224		3.906250
4225		9.765625
4226		5.859375
4227		7.812500
4228		3.906250
4229		9.765625
4230		5.859375
4231		7.812500
4232		5.859375
4233		7.812500
4234		5.859375
4235		7.812500
4236		5.859375
4237		7.812500
4238		5.859375
4239		7.812500
4240		3.906250
4241		9.765625
4242		3.906250
4243		7.812500
4244		5.859375
4245		9.765625
4246		3.906250
4247		9.765625
4248		3.906250
4249		11.718750
4250		5.859375
4251		7.812500
4252		5.859375
4253		7.812500
4254		5.859375
4255		9.765625
4256		5.859375
4257		7.812500
4258		3.906250
4259		9.765625
4260		5.859375
4261		9.765625
4262		5.859375
4263		11.718750
4264		5.859375
4265		7.812500
4266		3.906250
4267		11.718750
4268		5.859375
4269		9.765625
4270		5.859375
4271		9.765625
4272		3.906250
4273		11.718750
4274		5.859375
4275		9.765625
4276		5.859375
4277		11.718750
4278		5.859375
4279		9.765625
4280		5.859375
4281		9.765625
4282		5.859375
4283		11.718750
4284		7.812500
4285		9.765625
4286		7.812500
4287		9.765625
4288		5.859375
4289		9.765625
4290		5.859375
4291		11.718750
4292		5.859375
4293		11.718750
4294		7.812500
4295		11.718750
4296		7.812500
4297		11.718750
4298		7.812500
4299		11.718750
4300		7.812500
4301		11.718750
4302		7.812500
4303		11.718750
4304		7.812500
4305		11.718750
4306		5.859375
4307		13.671875
4308		7.812500
4309		13.671875
4310		7.812500
4311		13.671875
4312		7.812500
4313		13.671875
4314		5.859375
4315		15.625000
4316		5.859375
4317		15.625000
4318		9.765625
4319		11.718750
4320		9.765625
4321		11.718750
4322		9.765625
4323		13.671875
4324		7.812500
4325		15.625000
4326		9.765625
4327		13.671875
4328		9.765625
4329		13.671875
4330		7.812500
4331		17.578125
4332		7.812500
4333		17.578125
4334		11.718750
4335		13.671875
4336		11.718750
4337		13.671875
4338		9.765625
4339		15.625000
4340		7.812500
4341		17.578125
4342		11.718750
4343		15.625000
4344		11.718750
4345		13.671875
4346		7.812500
4347		15.625000
4348		9.765625
4349		17.578125
4350		7.812500
4351		17.578125
4352		11.718750
4353		13.671875
4354		9.765625
4355		15.625000
4356		9.765625
4357		17.578125
4358		7.812500
4359		17.578125
4360		11.718750
4361		15.625000
4362		11.718750
4363		15.625000
4364		7.812500
4365		17.578125
4366		9.765625
4367		17.578125
4368		11.718750
4369		15.625000
4370		11.718750
4371		13.671875
4372		9.765625
4373		15.625000
4374		9.765625
4375		17.578125
4376		9.765625
4377		15.625000
4378		11.718750
4379		15.625000
4380		9.765625
4381		17.578125
4382		7.812500
4383		17.578125
4384		9.765625
4385		17.578125
4386		11.718750
4387		13.671875
4388		11.718750
4389		15.625000
4390		7.812500
4391		17.578125
4392		9.765625
4393		15.625000
4394		11.718750
4395		13.671875
4396		9.765625
4397		15.625000
4398		7.812500
4399		17.578125
4400		5.859375
4401		17.578125
4402		11.718750
4403		13.671875
4404		11.718750
4405		13.671875
4406		9.765625
4407		15.625000
4408		7.812500
4409		17.578125
4410		9.765625
4411		15.625000
4412		9.765625
4413		13.671875
4414		7.812500
4415		17.578125
4416		7.812500
4417		15.625000
4418		9.765625
4419		13.671875
4420		9.765625
4421		11.718750
4422		7.812500
4423		13.671875
4424		5.859375
4425		15.625000
4426		7.812500
4427		13.671875
4428		9.765625
4429		11.718750
4430		5.859375
4431		13.671875
4432		5.859375
4433		13.671875
4434		7.812500
4435		13.671875
4436		7.812500
4437		11.718750
4438		7.812500
4439		9.765625
4440		5.859375
4441		11.718750
4442		3.906250
4443		13.671875
4444		5.859375
4445		11.718750
4446		7.812500
4447		11.718750
4448		3.906250
4449		13.671875
4450		3.906250
4451		11.718750
4452		7.812500
4453		9.765625
4454		7.812500
4455		9.765625
4456		5.859375
4457		9.765625
4458		3.906250
4459		11.718750
4460		3.906250
4461		11.718750
4462		5.859375
4463		7.812500
4464		3.906250
4465		11.718750
4466		1.953125
4467		11.718750
4468		3.906250
4469		11.718750
4470		5.859375
4471		7.812500
4472		5.859375
4473		9.765625
4474		3.906250
4475		9.765625
4476		3.906250
4477		9.765625
4478		5.859375
4479		7.812500
4480		3.906250
4481		9.765625
4482		1.953125
4483		11.718750
4484		3.906250
4485		11.718750
4486		5.859375
4487		7.812500
4488		5.859375
4489		7.812500
4490		3.906250
4491		9.765625
4492		5.859375
4493		7.812500
4494		3.906250
4495		7.812500
4496		5.859375
4497		7.812500
4498		3.906250
4499		9.765625
4500		3.906250
4501		9.765625
4502		3.906250
4503		9.765625
4504		5.859375
4505		7.812500
4506		5.859375
4507		7.812500
4508		5.859375
4509		7.812500
4510		3.906250
4511		9.765625
4512		5.859375
4513		7.812500
4514		3.906250
4515		9.765625
4516		5.859375
4517		7.812500
4518		5.859375
4519		7.812500
4520		5.859375
4521		7.812500
4522		5.859375
4523		9.765625
4524		5.859375
4525		9.765625
4526		5.859375
4527		11.718750
4528		5.859375
4529		9.765625
4530		5.859375
4531		9.765625
4532		5.859375
4533		9.765625
4534		7.812500
4535		9.765625
4536		7.812500
4537		9.765625
4538		7.812500
4539		9.765625
4540		7.812500
4541		9.765625
4542		7.812500
4543		9.765625
4544		7.812500
4545		9.765625
4546		7.812500
4547		9.765625
4548		7.812500
4549		11.718750
4550		7.812500
4551		11.718750
4552		7.812500
4553		11.718750
4554		7.812500
4555		11.718750
4556		7.812500
4557		11.718750
4558		9.765625
4559		11.718750
4560		9.765625
4561		11.718750
4562		9.765625
4563		11.718750
4564		9.765625
4565		11.718750
4566		9.765625
4567		11.718750
4568		9.765625
4569		13.671875
4570		9.765625
4571		11.718750
4572		9.765625
4573		11.718750
4574		9.765625
4575		13.671875
4576		9.765625
4577		13.671875
4578		9.765625
4579		13.671875
4580		9.765625
4581		15.625000
4582		9.765625
4583		13.671875
4584		9.765625
4585		13.671875
4586		9.765625
4587		13.671875
4588		11.718750
4589		13.671875
4590		9.765625
4591		15.625000
4592		9.765625
4593		15.625000
4594		9.765625
4595		15.625000
4596		9.765625
4597		15.625000
4598		9.765625
4599		15.625000
4600		9.765625
4601		15.625000
4602		9.765625
4603		15.625000
4604		11.718750
4605		13.671875
4606		11.718750
4607		13.671875
4608		9.765625
4609		15.625000
4610		11.718750
4611		15.625000
4612		9.765625
4613		15.625000
4614		9.765625
4615		15.625000
4616		11.718750
4617		15.625000
4618		9.765625
4619		15.625000
4620		9.765625
4621		15.625000
4622		11.718750
4623		15.625000
4624		11.718750
4625		15.625000
4626		11.718750
4627		15.625000
4628		9.765625
4629		15.625000
4630		9.765625
4631		17.578125
4632		9.765625
4633		15.625000
4634		11.718750
4635		15.625000
4636		11.718750
4637		15.625000
4638		11.718750
4639		13.671875
4640		11.718750
4641		15.625000
4642		11.718750
4643		15.625000
4644		11.718750
4645		15.625000
4646		9.765625
4647		15.625000
4648		9.765625
4649		15.625000
4650		9.765625
4651		15.625000
4652		9.765625
4653		15.625000
4654		11.718750
4655		13.671875
4656		11.718750
4657		13.671875
4658		9.765625
4659		13.671875
4660		9.765625
4661		13.671875
4662		9.765625
4663		13.671875
4664		7.812500
4665		15.625000
4666		9.765625
4667		13.671875
4668		7.812500
4669		13.671875
4670		9.765625
4671		13.671875
4672		9.765625
4673		11.718750
4674		7.812500
4675		13.671875
4676		7.812500
4677		11.718750
4678		7.812500
4679		13.671875
4680		7.812500
4681		13.671875
4682		7.812500
4683		13.671875
4684		7.812500
4685		11.718750
4686		7.812500
4687		11.718750
4688		7.812500
4689		9.765625
4690		7.812500
4691		9.765625
4692		5.859375
4693		11.718750
4694		7.812500
4695		9.765625
4696		7.812500
4697		11.718750
4698		5.859375
4699		11.718750
4700		7.812500
4701		9.765625
4702		5.859375
4703		9.765625
4704		7.812500
4705		9.765625
4706		5.859375
4707		9.765625
4708		5.859375
4709		9.765625
4710		5.859375
4711		9.765625
4712		5.859375
4713		9.765625
4714		3.906250
4715		11.718750
4716		5.859375
4717		9.765625
4718		5.859375
4719		9.765625
4720		5.859375
4721		7.812500
4722		5.859375
4723		7.812500
4724		5.859375
4725		9.765625
4726		5.859375
4727		7.812500
4728		5.859375
4729		7.812500
4730		3.906250
4731		9.765625
4732		3.906250
4733		7.812500
4734		5.859375
4735		9.765625
4736		3.906250
4737		7.812500
4738		3.906250
4739		7.812500
4740		5.859375
4741		7.812500
4742		3.906250
4743		7.812500
4744		5.859375
4745		7.812500
4746		3.906250
4747		7.812500
4748		3.906250
4749		9.765625
4750		3.906250
4751		7.812500
4752		5.859375
4753		7.812500
4754		3.906250
4755		7.812500
4756		5.859375
4757		7.812500
4758		3.906250
4759		9.765625
4760		5.859375
4761		7.812500
4762		5.859375
4763		7.812500
4764		3.906250
4765		9.765625
4766		5.859375
4767		7.812500
4768		5.859375
4769		7.812500
4770		5.859375
4771		9.765625
4772		5.859375
4773		7.812500
4774		5.859375
4775		7.812500
4776		5.859375
4777		9.765625
4778		5.859375
4779		9.765625
4780		5.859375
4781		9.765625
4782		5.859375
4783		11.718750
4784		5.859375
4785		9.765625
4786		5.859375
4787		9.765625
4788		5.859375
4789		11.718750
4790		7.812500
4791		9.765625
4792		7.812500
4793		9.765625
4794		7.812500
4795		11.718750
4796		7.812500
4797		11.718750
4798		7.812500
4799		11.718750
4800		7.812500
4801		11.718750
4802		7.812500
4803		11.718750
4804		7.812500
4805		11.718750
4806		7.812500
4807		11.718750
4808		7.812500
4809		11.718750
4810		7.812500
4811		11.718750
4812		7.812500
4813		11.718750
4814		7.812500
4815		13.671875
4816		9.765625
4817		11.718750
4818		9.765625
4819		11.718750
4820		9.765625
4821		13.671875
4822		9.765625
4823		11.718750
4824		9.765625
4825		11.718750
4826		9.765625
4827		13.671875
4828		9.765625
4829		13.671875
4830		9.765625
4831		13.671875
4832		9.765625
4833		13.671875
4834		9.765625
4835		13.671875
4836		9.765625
4837		13.671875
4838		9.765625
4839		13.671875
4840		11.718750
4841		13.671875
4842		9.765625
4843		13.671875
4844		11.718750
4845		13.671875
4846		9.765625
4847		13.671875
4848		11.718750
4849		13.671875
4850		11.718750
4851		15.625000
4852		11.718750
4853		15.625000
4854		9.765625
4855		15.625000
4856		11.718750
4857		13.671875
4858		11.718750
4859		13.671875
4860		9.765625
4861		15.625000
4862		11.718750
4863		15.625000
4864		11.718750
4865		15.625000
4866		11.718750
4867		15.625000
4868		11.718750
4869		15.625000
4870		11.718750
4871		15.625000
4872		11.718750
4873		15.625000
4874		11.718750
4875		15.625000
4876		11.718750
4877		15.625000
4878		11.718750
4879		15.625000
4880		11.718750
4881		15.625000
4882		11.718750
4883		15.625000
4884		11.718750
4885		13.671875
4886		11.718750
4887		15.625000
4888		11.718750
4889		15.625000
4890		11.718750
4891		13.671875
4892		9.765625
4893		13.671875
4894		11.718750
4895		13.671875
4896		11.718750
4897		13.671875
4898		11.718750
4899		13.671875
4900		9.765625
4901		13.671875
4902		9.765625
4903		13.671875
4904		9.765625
4905		13.671875
4906		11.718750
4907		13.671875
4908		9.765625
4909		13.671875
4910		9.765625
4911		13.671875
4912		9.765625
4913		13.671875
4914		9.765625
4915		13.671875
4916		9.765625
4917		13.671875
4918		9.765625
4919		13.671875
4920		9.765625
4921		13.671875
4922		9.765625
4923		13.671875
4924		9.765625
4925		11.718750
4926		7.812500
4927		11.718750
4928		9.765625
4929		11.718750
4930		7.812500
4931		11.718750
4932		7.812500
4933		11.718750
4934		7.812500
4935		11.718750
4936		7.812500
4937		11.718750
4938		7.812500
4939		11.718750
4940		7.812500
4941		11.718750
4942		7.812500
4943		9.765625
4944		7.812500
4945		11.718750
4946		7.812500
4947		9.765625
4948		5.859375
4949		9.765625
4950		5.859375
4951		9.765625
4952		7.812500
4953		9.765625
4954		5.859375
4955		9.765625
4956		5.859375
4957		9.765625
4958		5.859375
4959		9.765625
4960		5.859375
4961		9.765625
4962		5.859375
4963		9.765625
4964		5.859375
4965		9.765625
4966		5.859375
4967		9.765625
4968		5.859375
4969		9.765625
4970		5.859375
4971		7.812500
4972		5.859375
4973		9.765625
4974		5.859375
4975		7.812500
4976		3.906250
4977		9.765625
4978		3.906250
4979		7.812500
4980		5.859375
4981		7.812500
4982		5.859375
4983		7.812500
4984		5.859375
4985		7.812500
4986		5.859375
4987		7.812500
4988		3.906250
4989		7.812500
4990		5.859375
4991		7.812500
4992		5.859375
4993		7.812500
4994		3.906250
4995		7.812500
4996		5.859375
4997		7.812500
4998		5.859375
4999		7.812500
5000		3.906250
5001		7.812500
5002		3.906250
5003		7.812500
5004		5.859375
5005		7.812500
5006		3.906250
5007		7.812500
5008		5.859375
5009		7.812500
5010		3.906250
5011		7.812500
5012		5.859375
5013		7.812500
5014		5.859375
5015		9.765625
5016		5.859375
5017		7.812500
5018		5.859375
5019		7.812500
5020		5.859375
5021		9.765625
5022		5.859375
5023		9.765625
5024		5.859375
5025		9.765625
5026		5.859375
5027		7.812500
5028		5.859375
5029		9.765625
5030		5.859375
5031		9.765625
5032		5.859375
5033		9.765625
5034		5.859375
5035		9.765625
5036		5.859375
5037		9.765625
5038		5.859375
5039		9.765625
5040		5.859375
5041		9.765625
5042		7.812500
5043		9.765625
5044		5.859375
5045		9.765625
5046		7.812500
5047		9.765625
5048		7.812500
5049		9.765625
5050		7.812500
5051		11.718750
5052		7.812500
5053		11.718750
5054		7.812500
5055		11.718750
5056		7.812500
5057		11.718750
5058		7.812500
5059		11.718750
5060		7.812500
5061		11.718750
5062		7.812500
5063		11.718750
5064		7.812500
5065		11.718750
5066		9.765625
5067		11.718750
5068		9.765625
5069		11.718750
5070		9.765625
5071		11.718750
5072		9.765625
5073		13.671875
5074		9.765625
5075		11.718750
5076		9.765625
5077		11.718750
5078		9.765625
5079		13.671875
5080		9.765625
5081		13.671875
5082		9.765625
5083		13.671875
5084		9.765625
5085		13.671875
5086		9.765625
5087		13.671875
5088		9.765625
5089		13.671875
5090		9.765625
5091		13.671875
5092		11.718750
5093		13.671875
5094		9.765625
5095		13.671875
5096		9.765625
5097		13.671875
5098		11.718750
5099		13.671875
5100		11.718750
5101		13.671875
5102		9.765625
5103		15.625000
5104		11.718750
5105		13.671875
5106		11.718750
5107		13.671875
5108		11.718750
5109		13.671875
5110		11.718750
5111		13.671875
5112		9.765625
5113		13.671875
5114		11.718750
5115		13.671875
5116		11.718750
5117		13.671875
5118		11.718750
5119		13.671875
5120		11.718750
5121		13.671875
5122		11.718750
5123		15.625000
5124		11.718750
5125		15.625000
5126		11.718750
5127		13.671875
5128		11.718750
5129		15.625000
5130		11.718750
5131		13.671875
5132		11.718750
5133		15.625000
5134		11.718750
5135		13.671875
5136		11.718750
5137		13.671875
5138		11.718750
5139		15.625000
5140		9.765625
5141		13.671875
5142		11.718750
5143		13.671875
5144		11.718750
5145		13.671875
5146		11.718750
5147		15.625000
5148		9.765625
5149		13.671875
5150		11.718750
5151		13.671875
5152		9.765625
5153		13.671875
5154		9.765625
5155		13.671875
5156		9.765625
5157		13.671875
5158		9.765625
5159		13.671875
5160		9.765625
5161		13.671875
5162		9.765625
5163		13.671875
5164		9.765625
5165		13.671875
5166		9.765625
5167		13.671875
5168		9.765625
5169		13.671875
5170		9.765625
5171		11.718750
5172		9.765625
5173		11.718750
5174		7.812500
5175		11.718750
5176		9.765625
5177		11.718750
5178		7.812500
5179		11.718750
5180		7.812500
5181		11.718750
5182		7.812500
5183		11.718750
5184		7.812500
5185		11.718750
5186		7.812500
5187		11.718750
5188		7.812500
5189		11.718750
5190		7.812500
5191		11.718750
5192		7.812500
5193		9.765625
5194		7.812500
5195		9.765625
5196		7.812500
5197		11.718750
5198		7.812500
5199		9.765625
5200		7.812500
5201		9.765625
5202		5.859375
5203		9.765625
5204		5.859375
5205		9.765625
5206		5.859375
5207		9.765625
5208		5.859375
5209		11.718750
5210		5.859375
5211		9.765625
5212		5.859375
5213		9.765625
5214		5.859375
5215		9.765625
5216		5.859375
5217		9.765625
5218		5.859375
5219		7.812500
5220		5.859375
5221		9.765625
5222		5.859375
5223		7.812500
5224		3.906250
5225		7.812500
5226		5.859375
5227		7.812500
5228		5.859375
5229		7.812500
5230		3.906250
5231		9.765625
5232		5.859375
5233		7.812500
5234		3.906250
5235		7.812500
5236		3.906250
5237		7.812500
5238		3.906250
5239		7.812500
5240		3.906250
5241		7.812500
5242		3.906250
5243		7.812500
5244		5.859375
5245		7.812500
5246		3.906250
5247		7.812500
5248		5.859375
5249		7.812500
5250		5.859375
5251		7.812500
5252		3.906250
5253		7.812500
5254		3.906250
5255		7.812500
5256		3.906250
5257		7.812500
5258		3.906250
5259		7.812500
5260		5.859375
5261		7.812500
5262		3.906250
5263		7.812500
5264		3.906250
5265		9.765625
5266		5.859375
5267		9.765625
5268		5.859375
5269		7.812500
5270		5.859375
5271		9.765625
5272		3.906250
5273		9.765625
5274		3.906250
5275		9.765625
5276		5.859375
5277		7.812500
5278		5.859375
5279		7.812500
5280		5.859375
5281		9.765625
5282		5.859375
5283		9.765625
5284		5.859375
5285		9.765625
5286		5.859375
5287		9.765625
5288		5.859375
5289		9.765625
5290		5.859375
5291		9.765625
5292		5.859375
5293		9.765625
5294		7.812500
5295		9.765625
5296		7.812500
5297		11.718750
5298		7.812500
5299		9.765625
5300		7.812500
5301		9.765625
5302		7.812500
5303		9.765625
5304		7.812500
5305		11.718750
5306		7.812500
5307		11.718750
5308		7.812500
5309		11.718750
5310		7.812500
5311		11.718750
5312		7.812500
5313		11.718750
5314		7.812500
5315		11.718750
5316		7.812500
5317		11.718750
5318		7.812500
5319		11.718750
5320		7.812500
5321		11.718750
5322		9.765625
5323		11.718750
5324		9.765625
5325		13.671875
5326		9.765625
5327		11.718750
5328		9.765625
5329		11.718750
5330		7.812500
5331		13.671875
5332		9.765625
5333		13.671875
5334		9.765625
5335		11.718750
5336		9.765625
5337		13.671875
5338		9.765625
5339		13.671875
5340		9.765625
5341		13.671875
5342		9.765625
5343		13.671875
5344		11.718750
5345		13.671875
5346		9.765625
5347		13.671875
5348		9.765625
5349		13.671875
5350		11.718750
5351		13.671875
5352		11.718750
5353		13.671875
5354		9.765625
5355		15.625000
5356		9.765625
5357		13.671875
5358		9.765625
5359		15.625000
5360		11.718750
5361		13.671875
5362		11.718750
5363		13.671875
5364		11.718750
5365		13.671875
5366		11.718750
5367		15.625000
5368		9.765625
5369		15.625000
5370		11.718750
5371		13.671875
5372		11.718750
5373		15.625000
5374		11.718750
5375		13.671875
5376		11.718750
5377		15.625000
5378		11.718750
5379		13.671875
5380		11.718750
5381		13.671875
5382		11.718750
5383		13.671875
5384		9.765625
5385		15.625000
5386		9.765625
5387		15.625000
5388		11.718750
5389		15.625000
5390		11.718750
5391		13.671875
5392		9.765625
5393		15.625000
5394		11.718750
5395		13.671875
5396		11.718750
5397		13.671875
5398		9.765625
5399		13.671875
5400		11.718750
5401		13.671875
5402		9.765625
5403		13.671875
5404		9.765625
5405		13.671875
5406		9.765625
5407		13.671875
5408		9.765625
5409		13.671875
5410		9.765625
5411		13.671875
5412		9.765625
5413		13.671875
5414		9.765625
5415		13.671875
5416		9.765625
5417		11.718750
5418		9.765625
5419		11.718750
5420		9.765625
5421		11.718750
5422		9.765625
5423		11.718750
5424		9.765625
5425		11.718750
5426		9.765625
5427		13.671875
5428		9.765625
5429		11.718750
5430		9.765625
5431		11.718750
5432		7.812500
5433		11.718750
5434		9.765625
5435		11.718750
5436		7.812500
5437		11.718750
5438		7.812500
5439		11.718750
5440		7.812500
5441		11.718750
5442		7.812500
5443		11.718750
5444		7.812500
5445		9.765625
5446		7.812500
5447		9.765625
5448		5.859375
5449		9.765625
5450		7.812500
5451		9.765625
5452		5.859375
5453		9.765625
5454		5.859375
5455		9.765625
5456		5.859375
5457		9.765625
5458		5.859375
5459		9.765625
5460		5.859375
5461		9.765625
5462		5.859375
5463		7.812500
5464		5.859375
5465		9.765625
5466		5.859375
5467		9.765625
5468		5.859375
5469		9.765625
5470		5.859375
5471		7.812500
5472		5.859375
5473		7.812500
5474		5.859375
5475		7.812500
5476		5.859375
5477		9.765625
5478		5.859375
5479		7.812500
5480		5.859375
5481		7.812500
5482		3.906250
5483		7.812500
5484		3.906250
5485		7.812500
5486		3.906250
5487		7.812500
5488		3.906250
5489		7.812500
5490		3.906250
5491		7.812500
5492		5.859375
5493		7.812500
5494		3.906250
5495		7.812500
5496		5.859375
5497		7.812500
5498		3.906250
5499		7.812500
5500		3.906250
5501		7.812500
5502		3.906250
5503		7.812500
5504		3.906250
5505		7.812500
5506		3.906250
5507		7.812500
5508		3.906250
5509		7.812500
5510		3.906250
5511		7.812500
5512		5.859375
5513		7.812500
5514		3.906250
5515		7.812500
5516		3.906250
5517		7.812500
5518		5.859375
5519		7.812500
5520		5.859375
5521		7.812500
5522		5.859375
5523		7.812500
5524		5.859375
5525		7.812500
5526		5.859375
5527		9.765625
5528		5.859375
5529		7.812500
5530		5.859375
5531		7.812500
5532		3.906250
5533		9.765625
5534		5.859375
5535		9.765625
5536		5.859375
5537		9.765625
5538		5.859375
5539		9.765625
5540		5.859375
5541		9.765625
5542		5.859375
5543		9.765625
5544		5.859375
5545		9.765625
5546		7.812500
5547		9.765625
5548		5.859375
5549		9.765625
5550		5.859375
5551		9.765625
5552		7.812500
5553		9.765625
5554		7.812500
5555		9.765625
5556		7.812500
5557		9.765625
5558		7.812500
5559		9.765625
5560		7.812500
5561		11.718750
5562		7.812500
5563		11.718750
5564		7.812500
5565		11.718750
5566		7.812500
5567		11.718750
5568		7.812500
5569		11.718750
5570		9.765625
5571		11.718750
5572		7.812500
5573		11.718750
5574		7.812500
5575		11.718750
5576		9.765625
5577		11.718750
5578		9.765625
5579		11.718750
5580		9.765625
5581		11.718750
5582		9.765625
5583		11.718750
5584		9.765625
5585		13.671875
5586		9.765625
5587		13.671875
5588		9.765625
5589		13.671875
5590		9.765625
5591		13.671875
5592		9.765625
5593		13.671875
5594		9.765625
5595		13.671875
5596		9.765625
5597		13.671875
5598		9.765625
5599		13.671875
5600		9.765625
5601		13.671875
5602		9.765625
5603		13.671875
5604		9.765625
5605		13.671875
5606		9.765625
5607		13.671875
5608		9.765625
5609		13.671875
5610		11.718750
5611		13.671875
5612		11.718750
5613		13.671875
5614		11.718750
5615		13.671875
5616		9.765625
5617		15.625000
5618		11.718750
5619		15.625000
5620		11.718750
5621		13.671875
5622		11.718750
5623		13.671875
5624		11.718750
5625		13.671875
5626		11.718750
5627		13.671875
5628		9.765625
5629		15.625000
5630		11.718750
5631		13.671875
5632		11.718750
5633		13.671875
5634		11.718750
5635		13.671875
5636		11.718750
5637		13.671875
5638		11.718750
5639		13.671875
5640		11.718750
5641		13.671875
5642		11.718750
5643		13.671875
5644		9.765625
5645		15.625000
5646		11.718750
5647		13.671875
5648		11.718750
5649		13.671875
5650		11.718750
5651		13.671875
5652		9.765625
5653		13.671875
5654		9.765625
5655		13.671875
5656		9.765625
5657		13.671875
5658		9.765625
5659		13.671875
5660		9.765625
5661		13.671875
5662		9.765625
5663		13.671875
5664		9.765625
5665		13.671875
5666		9.765625
5667		13.671875
5668		9.765625
5669		11.718750
5670		9.765625
5671		13.671875
5672		9.765625
5673		13.671875
5674		9.765625
5675		11.718750
5676		9.765625
5677		11.718750
5678		7.812500
5679		11.718750
5680		9.765625
5681		11.718750
5682		7.812500
5683		11.718750
5684		7.812500
5685		11.718750
5686		7.812500
5687		11.718750
5688		7.812500
5689		11.718750
5690		7.812500
5691		11.718750
5692		7.812500
5693		11.718750
5694		5.859375
5695		11.718750
5696		7.812500
5697		9.765625
5698		7.812500
5699		9.765625
5700		5.859375
5701		11.718750
5702		5.859375
5703		9.765625
5704		5.859375
5705		9.765625
5706		5.859375
5707		9.765625
5708		5.859375
5709		9.765625
5710		5.859375
5711		9.765625
5712		5.859375
5713		9.765625
5714		5.859375
5715		7.812500
5716		5.859375
5717		7.812500
5718		5.859375
5719		7.812500
5720		5.859375
5721		7.812500
5722		5.859375
5723		7.812500
5724		5.859375
5725		7.812500
5726		5.859375
5727		7.812500
5728		3.906250
5729		7.812500
5730		5.859375
5731		7.812500
5732		5.859375
5733		7.812500
5734		3.906250
5735		7.812500
5736		3.906250
5737		7.812500
5738		3.906250
5739		7.812500
5740		3.906250
5741		7.812500
5742		3.906250
5743		7.812500
5744		3.906250
5745		7.812500
5746		3.906250
5747		7.812500
5748		3.906250
5749		7.812500
5750		3.906250
5751		7.812500
5752		3.906250
5753		7.812500
5754		3.906250
5755		7.812500
5756		3.906250
5757		7.812500
5758		3.906250
5759		7.812500
5760		3.906250
5761		7.812500
5762		3.906250
5763		7.812500
5764		5.859375
5765		7.812500
5766		5.859375
5767		7.812500
5768		3.906250
5769		7.812500
5770		3.906250
5771		7.812500
5772		5.859375
5773		7.812500
5774		5.859375
5775		7.812500
5776		3.906250
5777		7.812500
5778		3.906250
5779		7.812500
5780		5.859375
5781		7.812500
5782		5.859375
5783		7.812500
5784		5.859375
5785		9.765625
5786		5.859375
5787		7.812500
5788		5.859375
5789		9.765625
5790		5.859375
5791		9.765625
5792		5.859375
5793		9.765625
5794		5.859375
5795		9.765625
5796		5.859375
5797		9.765625
5798		7.812500
5799		9.765625
5800		5.859375
5801		9.765625
5802		5.859375
5803		9.765625
5804		5.859375
5805		9.765625
5806		7.812500
5807		11.718750
5808		7.812500
5809		9.765625
5810		7.812500
5811		11.718750
5812		7.812500
5813		11.718750
5814		7.812500
5815		9.765625
5816		7.812500
5817		9.765625
5818		7.812500
5819		11.718750
5820		7.812500
5821		11.718750
5822		7.812500
5823		11.718750
5824		7.812500
5825		11.718750
5826		7.812500
5827		11.718750
5828		9.765625
5829		11.718750
5830		7.812500
5831		11.718750
5832		9.765625
5833		11.718750
5834		9.765625
5835		13.671875
5836		9.765625
5837		11.718750
5838		9.765625
5839		11.718750
5840		9.765625
5841		13.671875
5842		9.765625
5843		13.671875
5844		9.765625
5845		13.671875
5846		9.765625
5847		13.671875
5848		9.765625
5849		13.671875
5850		9.765625
5851		13.671875
5852		9.765625
5853		13.671875
5854		9.765625
5855		13.671875
5856		9.765625
5857		13.671875
5858		9.765625
5859		13.671875
5860		11.718750
5861		13.671875
5862		9.765625
5863		13.671875
5864		9.765625
5865		13.671875
5866		9.765625
5867		13.671875
5868		9.765625
5869		13.671875
5870		9.765625
5871		13.671875
5872		9.765625
5873		13.671875
5874		9.765625
5875		13.671875
5876		9.765625
5877		13.671875
5878		11.718750
5879		13.671875
5880		11.718750
5881		13.671875
5882		11.718750
5883		13.671875
5884		9.765625
5885		13.671875
5886		9.765625
5887		13.671875
5888		11.718750
5889		13.671875
5890		9.765625
5891		13.671875
5892		11.718750
5893		13.671875
5894		11.718750
5895		13.671875
5896		9.765625
5897		13.671875
5898		11.718750
5899		13.671875
5900		9.765625
5901		13.671875
5902		9.765625
5903		13.671875
5904		9.765625
5905		13.671875
5906		9.765625
5907		13.671875
5908		9.765625
5909		13.671875
5910		9.765625
5911		13.671875
5912		9.765625
5913		13.671875
5914		7.812500
5915		13.671875
5916		9.765625
5917		11.718750
5918		7.812500
5919		13.671875
5920		9.765625
5921		11.718750
5922		7.812500
5923		11.718750
5924		9.765625
5925		11.718750
5926		9.765625
5927		11.718750
5928		7.812500
5929		11.718750
5930		7.812500
5931		11.718750
5932		7.812500
5933		11.718750
5934		7.812500
5935		11.718750
5936		7.812500
5937		11.718750
5938		7.812500
5939		11.718750
5940		7.812500
5941		11.718750
5942		7.812500
5943		9.765625
5944		7.812500
5945		11.718750
5946		5.859375
5947		9.765625
5948		7.812500
5949		11.718750
5950		7.812500
5951		9.765625
5952		5.859375
5953		9.765625
5954		5.859375
5955		9.765625
5956		5.859375
5957		9.765625
5958		5.859375
5959		9.765625
5960		5.859375
5961		7.812500
5962		5.859375
5963		9.765625
5964		5.859375
5965		9.765625
5966		5.859375
5967		7.812500
5968		3.906250
5969		7.812500
5970		5.859375
5971		7.812500
5972		5.859375
5973		7.812500
5974		3.906250
5975		7.812500
5976		3.906250
5977		7.812500
5978		5.859375
5979		7.812500
5980		3.906250
5981		7.812500
5982		3.906250
5983		7.812500
5984		3.906250
5985		7.812500
5986		3.906250
5987		7.812500
5988		3.906250
5989		7.812500
5990		3.906250
5991		7.812500
5992		3.906250
5993		7.812500
5994		3.906250
5995		7.812500
5996		3.906250
5997		7.812500
5998		3.906250
5999		7.812500
6000		3.906250
6001		7.812500
6002		3.906250
6003		7.812500
6004		3.906250
6005		7.812500
6006		3.906250
6007		7.812500
6008		3.906250
6009		7.812500
6010		3.906250
6011		7.812500
6012		3.906250
6013		7.812500
6014		3.906250
6015		7.812500
6016		3.906250
6017		7.812500
6018		3.906250
6019		7.812500
6020		3.906250
6021		7.812500
6022		3.906250
6023		7.812500
6024		3.906250
6025		7.812500
6026		3.906250
6027		7.812500
6028		3.906250
6029		7.812500
6030		3.906250
6031		7.812500
6032		5.859375
6033		7.812500
6034		5.859375
6035		7.812500
6036		3.906250
6037		7.812500
6038		5.859375
6039		9.765625
6040		5.859375
6041		9.765625
6042		5.859375
6043		9.765625
6044		5.859375
6045		9.765625
6046		5.859375
6047		9.765625
6048		5.859375
6049		9.765625
6050		5.859375
6051		9.765625
6052		5.859375
6053		9.765625
6054		5.859375
6055		9.765625
6056		5.859375
6057		9.765625
6058		5.859375
6059		9.765625
6060		7.812500
6061		9.765625
6062		7.812500
6063		9.765625
6064		7.812500
6065		11.718750
6066		7.812500
6067		9.765625
6068		7.812500
6069		9.765625
6070		7.812500
6071		11.718750
6072		7.812500
6073		11.718750
6074		7.812500
6075		11.718750
6076		7.812500
6077		11.718750
6078		7.812500
6079		11.718750
6080		7.812500
6081		11.718750
6082		9.765625
6083		11.718750
6084		9.765625
6085		11.718750
6086		9.765625
6087		13.671875
6088		9.765625
6089		11.718750
6090		9.765625
6091		11.718750
6092		7.812500
6093		13.671875
6094		9.765625
6095		13.671875
6096		9.765625
6097		13.671875
6098		9.765625
6099		13.671875
6100		9.765625
6101		11.718750
6102		9.765625
6103		13.671875
6104		9.765625
6105		13.671875
6106		9.765625
6107		13.671875
6108		9.765625
6109		13.671875
6110		9.765625
6111		13.671875
6112		9.765625
6113		13.671875
6114		9.765625
6115		13.671875
6116		9.765625
6117		13.671875
6118		9.765625
6119		13.671875
6120		11.718750
6121		13.671875
6122		9.765625
6123		13.671875
6124		9.765625
6125		13.671875
6126		9.765625
6127		13.671875
6128		9.765625
6129		13.671875
6130		9.765625
6131		13.671875
6132		9.765625
6133		13.671875
6134		9.765625
6135		13.671875
6136		9.765625
6137		13.671875
6138		9.765625
6139		13.671875
6140		9.765625
6141		13.671875
6142		9.765625
6143		13.671875
6144		9.765625
6145		13.671875
6146		9.765625
6147		13.671875
6148		9.765625
6149		13.671875
6150		9.765625
6151		13.671875
6152		9.765625
6153		13.671875
6154		9.765625
6155		13.671875
6156		9.765625
6157		13.671875
6158		9.765625
6159		13.671875
6160		9.765625
6161		11.718750
6162		9.765625
6163		13.671875
6164		9.765625
6165		13.671875
6166		9.765625
6167		11.718750
6168		9.765625
6169		11.718750
6170		7.812500
6171		13.671875
6172		7.812500
6173		11.718750
6174		7.812500
6175		11.718750
6176		9.765625
6177		11.718750
6178		7.812500
6179		11.718750
6180		7.812500
6181		11.718750
6182		7.812500
6183		11.718750
6184		7.812500
6185		11.718750
6186		7.812500
6187		9.765625
6188		7.812500
6189		11.718750
6190		7.812500
6191		11.718750
6192		7.812500
6193		11.718750
6194		5.859375
6195		11.718750
6196		7.812500
6197		9.765625
6198		7.812500
6199		9.765625
6200		5.859375
6201		9.765625
6202		5.859375
6203		9.765625
6204		5.859375
6205		9.765625
6206		5.859375
6207		9.765625
6208		5.859375
6209		9.765625
6210		5.859375
6211		9.765625
6212		5.859375
6213		9.765625
6214		5.859375
6215		9.765625
6216		5.859375
6217		9.765625
6218		5.859375
6219		7.812500
6220		5.859375
6221		7.812500
6222		5.859375
6223		7.812500
6224		3.906250
6225		7.812500
6226		3.906250
6227		7.812500
6228		3.906250
6229		7.812500
6230		3.906250
6231		7.812500
6232		3.906250
6233		7.812500
6234		3.906250
6235		7.812500
6236		3.906250
6237		7.812500
6238		3.906250
6239		7.812500
6240		3.906250
6241		7.812500
6242		3.906250
6243		7.812500
6244		3.906250
6245		7.812500
6246		3.906250
6247		7.812500
6248		3.906250
6249		7.812500
6250		3.906250
6251		7.812500
6252		3.906250
6253		7.812500
6254		3.906250
6255		7.812500
6256		3.906250
6257		7.812500
6258		3.906250
6259		7.812500
6260		3.906250
6261		7.812500
6262		3.906250
6263		7.812500
6264		3.906250
6265		7.812500
6266		3.906250
6267		7.812500
6268		3.906250
6269		7.812500
6270		5.859375
6271		7.812500
6272		3.906250
6273		7.812500
6274		3.906250
6275		7.812500
6276		3.906250
6277		7.812500
6278		5.859375
6279		7.812500
6280		5.859375
6281		7.812500
6282		3.906250
6283		7.812500
6284		5.859375
6285		9.765625
6286		5.859375
6287		7.812500
6288		3.906250
6289		7.812500
6290		5.859375
6291		7.812500
6292		5.859375
6293		9.765625
6294		5.859375
6295		9.765625
6296		5.859375
6297		9.765625
6298		5.859375
6299		9.765625
6300		5.859375
6301		9.765625
6302		5.859375
6303		9.765625
6304		5.859375
6305		9.765625
6306		5.859375
6307		9.765625
6308		5.859375
6309		9.765625
6310		5.859375
6311		9.765625
6312		7.812500
6313		9.765625
6314		5.859375
6315		11.718750
6316		5.859375
6317		11.718750
6318		7.812500
6319		9.765625
6320		7.812500
6321		9.765625
6322		7.812500
6323		11.718750
6324		7.812500
6325		11.718750
6326		7.812500
6327		11.718750
6328		7.812500
6329		11.718750
6330		7.812500
6331		11.718750
6332		7.812500
6333		11.718750
6334		7.812500
6335		11.718750
6336		9.765625
6337		11.718750
6338		9.765625
6339		11.718750
6340		9.765625
6341		11.718750
6342		9.765625
6343		11.718750
6344		9.765625
6345		13.671875
6346		9.765625
6347		13.671875
6348		9.765625
6349		13.671875
6350		7.812500
6351		13.671875
6352		9.765625
6353		11.718750
6354		9.765625
6355		13.671875
6356		9.765625
6357		13.671875
6358		9.765625
6359		13.671875
6360		9.765625
6361		13.671875
6362		9.765625
6363		13.671875
6364		9.765625
6365		13.671875
6366		9.765625
6367		13.671875
6368		11.718750
6369		13.671875
6370		9.765625
6371		13.671875
6372		9.765625
6373		13.671875
6374		11.718750
6375		13.671875
6376		9.765625
6377		13.671875
6378		9.765625
6379		13.671875
6380		9.765625
6381		13.671875
6382		11.718750
6383		13.671875
6384		9.765625
6385		13.671875
6386		11.718750
6387		13.671875
6388		11.718750
6389		13.671875
6390		9.765625
6391		13.671875
6392		11.718750
6393		13.671875
6394		9.765625
6395		13.671875
6396		9.765625
6397		13.671875
6398		9.765625
6399		13.671875
6400		9.765625
6401		13.671875
6402		9.765625
6403		13.671875
6404		9.765625
6405		13.671875
6406		9.765625
6407		13.671875
6408		9.765625
6409		13.671875
6410		9.765625
6411		13.671875
6412		9.765625
6413		13.671875
6414		9.765625
6415		13.671875
6416		9.765625
6417		13.671875
6418		9.765625
6419		13.671875
6420		9.765625
6421		11.718750
6422		7.812500
6423		11.718750
6424		9.765625
6425		11.718750
6426		7.812500
6427		11.718750
6428		7.812500
6429		11.718750
6430		7.812500
6431		11.718750
6432		7.812500
6433		11.718750
6434		7.812500
6435		11.718750
6436		7.812500
6437		9.765625
6438		7.812500
6439		11.718750
6440		7.812500
6441		11.718750
6442		7.812500
6443		9.765625
6444		7.812500
6445		11.718750
6446		7.812500
6447		9.765625
6448		7.812500
6449		9.765625
6450		5.859375
6451		9.765625
6452		5.859375
6453		9.765625
6454		5.859375
6455		9.765625
6456		5.859375
6457		9.765625
6458		5.859375
6459		9.765625
6460		5.859375
6461		9.765625
6462		5.859375
6463		7.812500
6464		5.859375
6465		9.765625
6466		5.859375
6467		9.765625
6468		3.906250
6469		9.765625
6470		5.859375
6471		7.812500
6472		5.859375
6473		7.812500
6474		3.906250
6475		7.812500
6476		3.906250
6477		7.812500
6478		3.906250
6479		7.812500
6480		3.906250
6481		7.812500
6482		3.906250
6483		7.812500
6484		3.906250
6485		7.812500
6486		3.906250
6487		7.812500
6488		3.906250
6489		7.812500
6490		3.906250
6491		7.812500
6492		3.906250
6493		7.812500
6494		3.906250
6495		7.812500
6496		3.906250
6497		5.859375
6498		3.906250
6499		7.812500
6500		3.906250
6501		7.812500
6502		3.906250
6503		7.812500
6504		3.906250
6505		7.812500
6506		3.906250
6507		7.812500
6508		3.906250
6509		7.812500
6510		3.906250
6511		7.812500
6512		3.906250
6513		7.812500
6514		3.906250
6515		7.812500
6516		3.906250
6517		7.812500
6518		3.906250
6519		7.812500
6520		3.906250
6521		7.812500
6522		3.906250
6523		7.812500
6524		3.906250
6525		7.812500
6526		3.906250
6527		7.812500
6528		3.906250
6529		7.812500
6530		3.906250
6531		7.812500
6532		3.906250
6533		7.812500
6534		3.906250
6535		7.812500
6536		3.906250
6537		9.765625
6538		5.859375
6539		7.812500
6540		5.859375
6541		7.812500
6542		5.859375
6543		9.765625
6544		5.859375
6545		9.765625
6546		5.859375
6547		7.812500
6548		5.859375
6549		9.765625
6550		5.859375
6551		9.765625
6552		5.859375
6553		9.765625
6554		5.859375
6555		9.765625
6556		5.859375
6557		9.765625
6558		5.859375
6559		9.765625
6560		5.859375
6561		9.765625
6562		5.859375
6563		9.765625
6564		7.812500
6565		9.765625
6566		7.812500
6567		9.765625
6568		7.812500
6569		9.765625
6570		7.812500
6571		9.765625
6572		7.812500
6573		9.765625
6574		7.812500
6575		11.718750
6576		7.812500
6577		11.718750
6578		7.812500
6579		11.718750
6580		7.812500
6581		11.718750
6582		7.812500
6583		11.718750
6584		7.812500
6585		11.718750
6586		7.812500
6587		11.718750
6588		9.765625
6589		11.718750
6590		9.765625
6591		11.718750
6592		9.765625
6593		11.718750
6594		9.765625
6595		11.718750
6596		9.765625
6597		13.671875
6598		9.765625
6599		13.671875
6600		9.765625
6601		13.671875
6602		9.765625
6603		13.671875
6604		9.765625
6605		11.718750
6606		9.765625
6607		13.671875
6608		9.765625
6609		13.671875
6610		9.765625
6611		13.671875
6612		9.765625
6613		13.671875
6614		9.765625
6615		13.671875
6616		9.765625
6617		13.671875
6618		9.765625
6619		13.671875
6620		9.765625
6621		13.671875
6622		11.718750
6623		13.671875
6624		9.765625
6625		13.671875
6626		9.765625
6627		13.671875
6628		9.765625
6629		13.671875
6630		11.718750
6631		13.671875
6632		9.765625
6633		13.671875
6634		11.718750
6635		13.671875
6636		9.765625
6637		13.671875
6638		11.718750
6639		13.671875
6640		11.718750
6641		13.671875
6642		9.765625
6643		13.671875
6644		9.765625
6645		13.671875
6646		9.765625
6647		13.671875
6648		9.765625
6649		13.671875
6650		9.765625
6651		13.671875
6652		9.765625
6653		13.671875
6654		9.765625
6655		13.671875
6656		9.765625
6657		13.671875
6658		9.765625
6659		13.671875
6660		9.765625
6661		13.671875
6662		9.765625
6663		13.671875
6664		9.765625
6665		13.671875
6666		9.765625
6667		13.671875
6668		9.765625
6669		11.718750
6670		7.812500
6671		13.671875
6672		9.765625
6673		11.718750
6674		9.765625
6675		11.718750
6676		7.812500
6677		11.718750
6678		7.812500
6679		11.718750
6680		9.765625
6681		11.718750
6682		7.812500
6683		11.718750
6684		7.812500
6685		11.718750
6686		7.812500
6687		11.718750
6688		7.812500
6689		9.765625
6690		7.812500
6691		9.765625
6692		7.812500
6693		11.718750
6694		7.812500
6695		9.765625
6696		7.812500
6697		9.765625
6698		5.859375
6699		9.765625
6700		5.859375
6701		9.765625
6702		5.859375
6703		9.765625
6704		5.859375
6705		9.765625
6706		5.859375
6707		9.765625
6708		5.859375
6709		9.765625
6710		5.859375
6711		9.765625
6712		5.859375
6713		7.812500
6714		5.859375
6715		7.812500
6716		5.859375
6717		9.765625
6718		5.859375
6719		7.812500
6720		3.906250
6721		9.765625
6722		5.859375
6723		7.812500
6724		5.859375
6725		7.812500
6726		3.906250
6727		9.765625
6728		3.906250
6729		7.812500
6730		3.906250
6731		7.812500
6732		3.906250
6733		7.812500
6734		3.906250
6735		7.812500
6736		3.906250
6737		7.812500
6738		3.906250
6739		7.812500
6740		3.906250
6741		7.812500
6742		3.906250
6743		7.812500
6744		3.906250
6745		7.812500
6746		3.906250
6747		7.812500
6748		3.906250
6749		7.812500
6750		3.906250
6751		5.859375
6752		3.906250
6753		7.812500
6754		3.906250
6755		7.812500
6756		3.906250
6757		5.859375
6758		3.906250
6759		7.812500
6760		3.906250
6761		7.812500
6762		3.906250
6763		7.812500
6764		3.906250
6765		7.812500
6766		3.906250
6767		7.812500
6768		3.906250
6769		7.812500
6770		3.906250
6771		7.812500
6772		3.906250
6773		5.859375
6774		3.906250
6775		7.812500
6776		3.906250
6777		7.812500
6778		3.906250
6779		7.812500
6780		3.906250
6781		7.812500
6782		3.906250
6783		7.812500
6784		3.906250
6785		7.812500
6786		3.906250
6787		7.812500
6788		3.906250
6789		7.812500
6790		5.859375
6791		7.812500
6792		3.906250
6793		7.812500
6794		5.859375
6795		7.812500
6796		5.859375
6797		9.765625
6798		5.859375
6799		9.765625
6800		5.859375
6801		9.765625
6802		5.859375
6803		9.765625
6804		5.859375
6805		9.765625
6806		5.859375
6807		9.765625
6808		5.859375
6809		9.765625
6810		5.859375
6811		9.765625
6812		5.859375
6813		9.765625
6814		5.859375
6815		9.765625
6816		5.859375
6817		9.765625
6818		7.812500
6819		9.765625
6820		7.812500
6821		9.765625
6822		5.859375
6823		9.765625
6824		7.812500
6825		9.765625
6826		7.812500
6827		9.765625
6828		7.812500
6829		11.718750
6830		7.812500
6831		11.718750
6832		7.812500
6833		11.718750
6834		7.812500
6835		11.718750
6836		7.812500
6837		11.718750
6838		7.812500
6839		11.718750
6840		9.765625
6841		11.718750
6842		7.812500
6843		11.718750
6844		9.765625
6845		11.718750
6846		7.812500
6847		11.718750
6848		9.765625
6849		11.718750
6850		9.765625
6851		11.718750
6852		9.765625
6853		13.671875
6854		9.765625
6855		13.671875
6856		9.765625
6857		11.718750
6858		9.765625
6859		11.718750
6860		9.765625
6861		13.671875
6862		9.765625
6863		13.671875
6864		9.765625
6865		13.671875
6866		9.765625
6867		13.671875
6868		9.765625
6869		13.671875
6870		9.765625
6871		13.671875
6872		9.765625
6873		13.671875
6874		9.765625
6875		13.671875
6876		9.765625
6877		13.671875
6878		9.765625
6879		13.671875
6880		9.765625
6881		13.671875
6882		11.718750
6883		13.671875
6884		9.765625
6885		13.671875
6886		9.765625
6887		13.671875
6888		9.765625
6889		13.671875
6890		11.718750
6891		13.671875
6892		9.765625
6893		13.671875
6894		9.765625
6895		13.671875
6896		9.765625
6897		13.671875
6898		9.765625
6899		13.671875
6900		9.765625
6901		13.671875
6902		9.765625
6903		13.671875
6904		9.765625
6905		13.671875
6906		9.765625
6907		13.671875
6908		9.765625
6909		11.718750
6910		7.812500
6911		13.671875
6912		9.765625
6913		13.671875
6914		9.765625
6915		13.671875
6916		9.765625
6917		13.671875
6918		9.765625
6919		11.718750
6920		9.765625
6921		11.718750
6922		9.765625
6923		11.718750
6924		9.765625
6925		11.718750
6926		7.812500
6927		13.671875
6928		7.812500
6929		11.718750
6930		7.812500
6931		11.718750
6932		7.812500
6933		11.718750
6934		7.812500
6935		11.718750
6936		7.812500
6937		11.718750
6938		7.812500
6939		11.718750
6940		7.812500
6941		9.765625
6942		7.812500
6943		9.765625
6944		7.812500
6945		9.765625
6946		7.812500
6947		9.765625
6948		7.812500
6949		9.765625
6950		5.859375
6951		9.765625
6952		5.859375
6953		9.765625
6954		5.859375
6955		9.765625
6956		5.859375
6957		9.765625
6958		5.859375
6959		9.765625
6960		5.859375
6961		9.765625
6962		5.859375
6963		9.765625
6964		5.859375
6965		9.765625
6966		5.859375
6967		7.812500
6968		5.859375
6969		7.812500
6970		5.859375
6971		7.812500
6972		3.906250
6973		7.812500
6974		5.859375
6975		7.812500
6976		5.859375
6977		7.812500
6978		3.906250
6979		7.812500
6980		3.906250
6981		7.812500
6982		3.906250
6983		7.812500
6984		3.906250
6985		7.812500
6986		3.906250
6987		7.812500
6988		3.906250
6989		7.812500
6990		3.906250
6991		7.812500
6992		3.906250
6993		7.812500
6994		3.906250
6995		7.812500
6996		3.906250
6997		7.812500
6998		3.906250
6999		7.812500
7000		3.906250
7001		7.812500
7002		3.906250
7003		5.859375
7004		3.906250
7005		7.812500
7006		3.906250
7007		7.812500
7008		3.906250
7009		5.859375
7010		3.906250
7011		5.859375
7012		3.906250
7013		7.812500
7014		3.906250
7015		7.812500
7016		3.906250
7017		7.812500
7018		3.906250
7019		7.812500
7020		3.906250
7021		7.812500
7022		3.906250
7023		7.812500
7024		3.906250
7025		7.812500
7026		3.906250
7027		7.812500
7028		3.906250
7029		7.812500
7030		3.906250
7031		7.812500
7032		3.906250
7033		7.812500
7034		3.906250
7035		7.812500
7036		3.906250
7037		7.812500
7038		3.906250
7039		7.812500
7040		3.906250
7041		7.812500
7042		5.859375
7043		7.812500
7044		3.906250
7045		7.812500
7046		5.859375
7047		7.812500
7048		5.859375
7049		7.812500
7050		5.859375
7051		7.812500
7052		5.859375
7053		9.765625
7054		5.859375
7055		9.765625
7056		5.859375
7057		9.765625
7058		5.859375
7059		7.812500
7060		5.859375
7061		9.765625
7062		5.859375
7063		9.765625
7064		5.859375
7065		9.765625
7066		5.859375
7067		9.765625
7068		7.812500
7069		9.765625
7070		5.859375
7071		9.765625
7072		7.812500
7073		9.765625
7074		5.859375
7075		9.765625
7076		7.812500
7077		9.765625
7078		7.812500
7079		11.718750
7080		7.812500
7081		9.765625
7082		7.812500
7083		11.718750
7084		7.812500
7085		11.718750
7086		7.812500
7087		11.718750
7088		7.812500
7089		11.718750
7090		7.812500
7091		11.718750
7092		9.765625
7093		11.718750
7094		7.812500
7095		11.718750
7096		9.765625
7097		11.718750
7098		9.765625
7099		11.718750
7100		9.765625
7101		11.718750
7102		9.765625
7103		11.718750
7104		9.765625
7105		11.718750
7106		9.765625
7107		11.718750
7108		9.765625
7109		11.718750
7110		9.765625
7111		11.718750
7112		9.765625
7113		11.718750
7114		9.765625
7115		13.671875
7116		7.812500
7117		13.671875
7118		9.765625
7119		13.671875
7120		9.765625
7121		13.671875
7122		9.765625
7123		13.671875
7124		9.765625
7125		13.671875
7126		9.765625
7127		13.671875
7128		9.765625
7129		13.671875
7130		9.765625
7131		13.671875
7132		9.765625
7133		13.671875
7134		9.765625
7135		13.671875
7136		9.765625
7137		13.671875
7138		9.765625
7139		13.671875
7140		9.765625
7141		13.671875
7142		9.765625
7143		13.671875
7144		9.765625
7145		13.671875
7146		9.765625
7147		13.671875
7148		9.765625
7149		13.671875
7150		9.765625
7151		13.671875
7152		9.765625
7153		13.671875
7154		9.765625
7155		13.671875
7156		9.765625
7157		13.671875
7158		9.765625
7159		13.671875
7160		9.765625
7161		13.671875
7162		9.765625
7163		13.671875
7164		9.765625
7165		13.671875
7166		9.765625
7167		13.671875
7168		9.765625
7169		11.718750
7170		7.812500
7171		11.718750
7172		9.765625
7173		11.718750
7174		7.812500
7175		11.718750
7176		9.765625
7177		11.718750
7178		9.765625
7179		11.718750
7180		7.812500
7181		11.718750
7182		7.812500
7183		11.718750
7184		7.812500
7185		11.718750
7186		7.812500
7187		11.718750
7188		7.812500
7189		11.718750
7190		7.812500
7191		11.718750
7192		7.812500
7193		11.718750
7194		7.812500
7195		9.765625
7196		5.859375
7197		9.765625
7198		5.859375
7199		9.765625
7200		7.812500
7201		9.765625
7202		7.812500
7203		9.765625
7204		5.859375
7205		9.765625
7206		5.859375
7207		9.765625
7208		5.859375
7209		9.765625
7210		5.859375
7211		9.765625
7212		5.859375
7213		9.765625
7214		5.859375
7215		9.765625
7216		5.859375
7217		9.765625
7218		5.859375
7219		7.812500
7220		5.859375
7221		7.812500
7222		5.859375
7223		7.812500
7224		3.906250
7225		7.812500
7226		5.859375
7227		7.812500
7228		5.859375
7229		7.812500
7230		3.906250
7231		7.812500
7232		3.906250
7233		7.812500
7234		3.906250
7235		7.812500
7236		3.906250
7237		7.812500
7238		3.906250
7239		7.812500
7240		3.906250
7241		7.812500
7242		3.906250
7243		7.812500
7244		3.906250
7245		5.859375
7246		3.906250
7247		7.812500
7248		3.906250
7249		7.812500
7250		3.906250
7251		7.812500
7252		3.906250
7253		7.812500
7254		3.906250
7255		5.859375
7256		3.906250
7257		7.812500
7258		3.906250
7259		7.812500
7260		3.906250
7261		7.812500
7262		3.906250
7263		5.859375
7264		3.906250
7265		7.812500
7266		3.906250
7267		7.812500
7268		3.906250
7269		5.859375
7270		3.906250
7271		7.812500
7272		3.906250
7273		7.812500
7274		3.906250
7275		7.812500
7276		3.906250
7277		7.812500
7278		3.906250
7279		5.859375
7280		3.906250
7281		7.812500
7282		3.906250
7283		7.812500
7284		3.906250
7285		7.812500
7286		3.906250
7287		7.812500
7288		3.906250
7289		7.812500
7290		3.906250
7291		7.812500
7292		3.906250
7293		7.812500
7294		3.906250
7295		7.812500
7296		5.859375
7297		7.812500
7298		3.906250
7299		7.812500
7300		5.859375
7301		7.812500
7302		5.859375
7303		7.812500
7304		5.859375
7305		9.765625
7306		5.859375
7307		9.765625
7308		5.859375
7309		9.765625
7310		5.859375
7311		7.812500
7312		5.859375
7313		9.765625
7314		5.859375
7315		9.765625
7316		5.859375
7317		9.765625
7318		5.859375
7319		9.765625
7320		7.812500
7321		9.765625
7322		5.859375
7323		9.765625
7324		7.812500
7325		9.765625
7326		7.812500
7327		9.765625
7328		7.812500
7329		11.718750
7330		7.812500
7331		11.718750
7332		7.812500
7333		9.765625
7334		7.812500
7335		11.718750
7336		7.812500
7337		11.718750
7338		7.812500
7339		11.718750
7340		7.812500
7341		11.718750
7342		7.812500
7343		11.718750
7344		7.812500
7345		11.718750
7346		9.765625
7347		11.718750
7348		7.812500
7349		11.718750
7350		9.765625
7351		11.718750
7352		9.765625
7353		11.718750
7354		9.765625
7355		11.718750
7356		9.765625
7357		11.718750
7358		9.765625
7359		13.671875
7360		7.812500
7361		13.671875
7362		9.765625
7363		11.718750
7364		9.765625
7365		13.671875
7366		9.765625
7367		13.671875
7368		9.765625
7369		13.671875
7370		9.765625
7371		13.671875
7372		9.765625
7373		13.671875
7374		9.765625
7375		13.671875
7376		9.765625
7377		13.671875
7378		9.765625
7379		13.671875
7380		9.765625
7381		13.671875
7382		9.765625
7383		13.671875
7384		9.765625
7385		13.671875
7386		9.765625
7387		13.671875
7388		9.765625
7389		13.671875
7390		9.765625
7391		13.671875
7392		9.765625
7393		13.671875
7394		9.765625
7395		13.671875
7396		9.765625
7397		13.671875
7398		9.765625
7399		13.671875
7400		9.765625
7401		13.671875
7402		9.765625
7403		13.671875
7404		9.765625
7405		13.671875
7406		9.765625
7407		13.671875
7408		9.765625
7409		13.671875
7410		9.765625
7411		13.671875
7412		9.765625
7413		11.718750
7414		7.812500
7415		13.671875
7416		9.765625
7417		11.718750
7418		9.765625
7419		13.671875
7420		9.765625
7421		13.671875
7422		9.765625
7423		11.718750
7424		9.765625
7425		11.718750
7426		7.812500
7427		13.671875
7428		9.765625
7429		11.718750
7430		7.812500
7431		11.718750
7432		7.812500
7433		11.718750
7434		7.812500
7435		11.718750
7436		7.812500
7437		11.718750
7438		7.812500
7439		11.718750
7440		7.812500
7441		11.718750
7442		7.812500
7443		11.718750
7444		5.859375
7445		9.765625
7446		7.812500
7447		9.765625
7448		5.859375
7449		9.765625
7450		5.859375
7451		9.765625
7452		5.859375
7453		9.765625
7454		5.859375
7455		9.765625
7456		5.859375
7457		9.765625
7458		5.859375
7459		9.765625
7460		5.859375
7461		9.765625
7462		5.859375
7463		7.812500
7464		3.906250
7465		9.765625
7466		5.859375
7467		9.765625
7468		5.859375
7469		7.812500
7470		5.859375
7471		7.812500
7472		5.859375
7473		7.812500
7474		3.906250
7475		7.812500
7476		3.906250
7477		7.812500
7478		3.906250
7479		7.812500
7480		3.906250
7481		7.812500
7482		3.906250
7483		7.812500
7484		3.906250
7485		7.812500
7486		3.906250
7487		7.812500
7488		3.906250
7489		7.812500
7490		3.906250
7491		7.812500
7492		3.906250
7493		5.859375
7494		1.953125
7495		7.812500
7496		3.906250
7497		5.859375
7498		3.906250
7499		7.812500
7500		3.906250
7501		7.812500
7502		3.906250
7503		5.859375
7504		3.906250
7505		5.859375
7506		3.906250
7507		5.859375
7508		1.953125
7509		5.859375
7510		1.953125
7511		7.812500
7512		1.953125
7513		5.859375
7514		3.906250
7515		5.859375
7516		3.906250
7517		7.812500
7518		1.953125
7519		5.859375
7520		3.906250
7521		5.859375
7522		3.906250
7523		5.859375
7524		3.906250
7525		5.859375
7526		3.906250
7527		5.859375
7528		3.906250
7529		7.812500
7530		3.906250
7531		5.859375
7532		3.906250
7533		7.812500
7534		3.906250
7535		5.859375
7536		3.906250
7537		7.812500
7538		3.906250
7539		7.812500
7540		3.906250
7541		7.812500
7542		3.906250
7543		7.812500
7544		3.906250
7545		7.812500
7546		3.906250
7547		7.812500
7548		5.859375
7549		7.812500
7550		3.906250
7551		7.812500
7552		3.906250
7553		7.812500
7554		5.859375
7555		7.812500
7556		5.859375
7557		7.812500
7558		3.906250
7559		7.812500
7560		5.859375
7561		9.765625
7562		3.906250
7563		9.765625
7564		5.859375
7565		7.812500
7566		5.859375
7567		9.765625
7568		5.859375
7569		9.765625
7570		5.859375
7571		9.765625
7572		5.859375
7573		9.765625
7574		5.859375
7575		9.765625
7576		5.859375
7577		9.765625
7578		5.859375
7579		11.718750
7580		7.812500
7581		9.765625
7582		5.859375
7583		9.765625
7584		7.812500
7585		11.718750
7586		7.812500
7587		9.765625
7588		7.812500
7589		11.718750
7590		7.812500
7591		11.718750
7592		7.812500
7593		11.718750
7594		7.812500
7595		11.718750
7596		7.812500
7597		11.718750
7598		7.812500
7599		11.718750
7600		7.812500
7601		11.718750
7602		7.812500
7603		11.718750
7604		7.812500
7605		11.718750
7606		7.812500
7607		11.718750
7608		9.765625
7609		11.718750
7610		9.765625
7611		11.718750
7612		9.765625
7613		11.718750
7614		9.765625
7615		11.718750
7616		7.812500
7617		13.671875
7618		7.812500
7619		13.671875
7620		9.765625
7621		13.671875
7622		9.765625
7623		11.718750
7624		9.765625
7625		13.671875
7626		9.765625
7627		13.671875
7628		9.765625
7629		13.671875
7630		9.765625
7631		11.718750
7632		7.812500
7633		13.671875
7634		9.765625
7635		13.671875
7636		9.765625
7637		13.671875
7638		7.812500
7639		13.671875
7640		9.765625
7641		13.671875
7642		9.765625
7643		13.671875
7644		7.812500
7645		15.625000
7646		9.765625
7647		11.718750
7648		9.765625
7649		11.718750
7650		9.765625
7651		13.671875
7652		9.765625
7653		13.671875
7654		7.812500
7655		13.671875
7656		9.765625
7657		13.671875
7658		9.765625
7659		11.718750
7660		7.812500
7661		13.671875
7662		7.812500
7663		13.671875
7664		7.812500
7665		11.718750
7666		7.812500
7667		11.718750
7668		7.812500
7669		11.718750
7670		7.812500
7671		13.671875
7672		7.812500
7673		13.671875
7674		5.859375
7675		13.671875
7676		7.812500
7677		13.671875
7678		5.859375
7679		13.671875
7680		7.812500
7681		11.718750
7682		7.812500
7683		11.718750
7684		7.812500
7685		11.718750
7686		7.812500
7687		11.718750
7688		5.859375
7689		11.718750
7690		5.859375
7691		11.718750
7692		5.859375
7693		11.718750
7694		5.859375
7695		11.718750
7696		5.859375
7697		11.718750
7698		5.859375
7699		9.765625
7700		5.859375
7701		11.718750
7702		3.906250
7703		11.718750
7704		3.906250
7705		11.718750
7706		3.906250
7707		11.718750
7708		3.906250
7709		11.718750
7710		3.906250
7711		9.765625
7712		3.906250
7713		9.765625
7714		5.859375
7715		7.812500
7716		5.859375
7717		7.812500
7718		1.953125
7719		9.765625
7720		3.906250
7721		9.765625
7722		1.953125
7723		9.765625
7724		1.953125
7725		9.765625
7726		3.906250
7727		9.765625
7728		1.953125
7729		9.765625
7730		3.906250
7731		7.812500
7732		3.906250
7733		5.859375
7734		1.953125
7735		7.812500
7736		1.953125
7737		9.765625
7738		1.953125
7739		7.812500
7740		1.953125
7741		7.812500
7742		1.953125
7743		7.812500
7744		1.953125
7745		7.812500
7746		1.953125
7747		7.812500
7748		3.906250
7749		5.859375
7750		1.953125
7751		5.859375
7752		1.953125
7753		7.812500
7754		0.000000
7755		7.812500
7756		1.953125
7757		7.812500
7758		0.000000
7759		7.812500
7760		0.000000
7761		7.812500
7762		0.000000
7763		7.812500
7764		3.906250
7765		5.859375
7766		3.906250
7767		5.859375
7768		1.953125
7769		7.812500
7770		0.000000
7771		7.812500
7772		1.953125
7773		7.812500
7774		1.953125
7775		7.812500
7776		1.953125
7777		7.812500
7778		1.953125
7779		7.812500
7780		1.953125
7781		7.812500
7782		3.906250
7783		5.859375
7784		1.953125
7785		7.812500
7786		1.953125
7787		7.812500
7788		1.953125
7789		7.812500
7790		1.953125
7791		7.812500
7792		1.953125
7793		9.765625
7794		1.953125
7795		9.765625
7796		1.953125
7797		9.765625
7798		5.859375
7799		7.812500
7800		3.906250
7801		7.812500
7802		1.953125
7803		9.765625
7804		1.953125
7805		9.765625
7806		3.906250
7807		9.765625
7808		3.906250
7809		9.765625
7810		3.906250
7811		9.765625
7812		3.906250
7813		9.765625
7814		5.859375
7815		9.765625
7816		5.859375
7817		7.812500
7818		3.906250
7819		9.765625
7820		3.906250
7821		11.718750
7822		3.906250
7823		11.718750
7824		3.906250
7825		11.718750
7826		3.906250
7827		11.718750
7828		3.906250
7829		11.718750
7830		5.859375
7831		11.718750
7832		7.812500
7833		9.765625
7834		5.859375
7835		11.718750
7836		5.859375
7837		11.718750
7838		5.859375
7839		11.718750
7840		5.859375
7841		11.718750
7842		5.859375
7843		13.671875
7844		5.859375
7845		13.671875
7846		5.859375
7847		13.671875
7848		7.812500
7849		11.718750
7850		7.812500
7851		11.718750
7852		5.859375
7853		13.671875
7854		5.859375
7855		13.671875
7856		5.859375
7857		13.671875
7858		5.859375
7859		13.671875
7860		5.859375
7861		13.671875
7862		7.812500
7863		13.671875
7864		7.812500
7865		13.671875
7866		7.812500
7867		11.718750
7868		7.812500
7869		13.671875
7870		7.812500
7871		13.671875
7872		7.812500
7873		13.671875
7874		7.812500
7875		13.671875
7876		7.812500
7877		13.671875
7878		7.812500
7879		15.625000
7880		7.812500
7881		13.671875
7882		9.765625
7883		11.718750
7884		9.765625
7885		11.718750
7886		7.812500
7887		15.625000
7888		7.812500
7889		13.671875
7890		7.812500
7891		15.625000
7892		9.765625
7893		13.671875
7894		9.765625
7895		11.718750
7896		7.812500
7897		13.671875
7898		9.765625
7899		13.671875
7900		9.765625
7901		11.718750
7902		7.812500
7903		15.625000
7904		7.812500
7905		13.671875
7906		7.812500
7907		13.671875
7908		9.765625
7909		13.671875
7910		9.765625
7911		11.718750
7912		7.812500
7913		13.671875
7914		9.765625
7915		13.671875
7916		9.765625
7917		11.718750
7918		9.765625
7919		11.718750
7920		7.812500
7921		13.671875
7922		7.812500
7923		11.718750
7924		7.812500
7925		13.671875
7926		7.812500
7927		13.671875
7928		7.812500
7929		13.671875
7930		7.812500
7931		11.718750
7932		7.812500
7933		11.718750
7934		7.812500
7935		11.718750
7936		7.812500
7937		11.718750
7938		7.812500
7939		11.718750
7940		7.812500
7941		11.718750
7942		5.859375
7943		11.718750
7944		5.859375
7945		11.718750
7946		5.859375
7947		11.718750
7948		5.859375
7949		11.718750
7950		5.859375
7951		9.765625
7952		5.859375
7953		9.765625
7954		5.859375
7955		9.765625
7956		5.859375
7957		9.765625
7958		5.859375
7959		9.765625
7960		3.906250
7961		9.765625
7962		3.906250
7963		9.765625
7964		3.906250
7965		9.765625
7966		5.859375
7967		7.812500
7968		5.859375
7969		7.812500
7970		3.906250
7971		7.812500
7972		3.906250
7973		7.812500
7974		3.906250
7975		7.812500
7976		3.906250
7977		7.812500
7978		3.906250
7979		7.812500
7980		3.906250
7981		7.812500
7982		3.906250
7983		7.812500
7984		3.906250
7985		7.812500
7986		3.906250
7987		7.812500
7988		3.906250
7989		7.812500
7990		3.906250
7991		7.812500
7992		3.906250
7993		5.859375
7994		3.906250
7995		5.859375
7996		1.953125
7997		7.812500
7998		1.953125
7999		7.812500
8000		3.906250
8001		5.859375
8002		1.953125
8003		5.859375
8004		3.906250
8005		7.812500
8006		3.906250
8007		5.859375
8008		1.953125
8009		5.859375
8010		1.953125
8011		5.859375
8012		1.953125
8013		5.859375
8014		3.906250
8015		5.859375
8016		3.906250
8017		5.859375
8018		3.906250
8019		5.859375
8020		1.953125
8021		5.859375
8022		1.953125
8023		7.812500
8024		3.906250
8025		5.859375
8026		3.906250
8027		5.859375
8028		3.906250
8029		5.859375
8030		1.953125
8031		5.859375
8032		3.906250
8033		7.812500
8034		3.906250
8035		5.859375
8036		1.953125
8037		7.812500
8038		3.906250
8039		5.859375
8040		3.906250
8041		5.859375
8042		3.906250
8043		7.812500
8044		3.906250
8045		7.812500
8046		3.906250
8047		7.812500
8048		3.906250
8049		7.812500
8050		3.906250
8051		7.812500
8052		5.859375
8053		7.812500
8054		3.906250
8055		7.812500
8056		3.906250
8057		7.812500
8058		3.906250
8059		7.812500
8060		5.859375
8061		7.812500
8062		5.859375
8063		7.812500
8064		5.859375
8065		7.812500
8066		3.906250
8067		9.765625
8068		5.859375
8069		7.812500
8070		3.906250
8071		9.765625
8072		5.859375
8073		9.765625
8074		5.859375
8075		9.765625
8076		5.859375
8077		9.765625
8078		5.859375
8079		9.765625
8080		5.859375
8081		9.765625
8082		5.859375
8083		9.765625
8084		7.812500
8085		9.765625
8086		5.859375
8087		9.765625
8088		7.812500
8089		11.718750
8090		7.812500
8091		11.718750
8092		7.812500
8093		9.765625
8094		7.812500
8095		9.765625
8096		7.812500
8097		11.718750
8098		7.812500
8099		11.718750
8100		7.812500
8101		11.718750
8102		7.812500
8103		11.718750
8104		7.812500
8105		11.718750
8106		7.812500
8107		11.718750
8108		7.812500
8109		11.718750
8110		7.812500
8111		11.718750
8112		9.765625
8113		11.718750
8114		9.765625
8115		11.718750
8116		7.812500
8117		13.671875
8118		9.765625
8119		11.718750
8120		9.765625
8121		11.718750
8122		9.765625
8123		13.671875
8124		9.765625
8125		11.718750
8126		9.765625
8127		11.718750
8128		9.765625
8129		11.718750
8130		9.765625
8131		11.718750
8132		7.812500
8133		13.671875
8134		9.765625
8135		11.718750
8136		9.765625
8137		11.718750
8138		9.765625
8139		13.671875
8140		9.765625
8141		13.671875
8142		9.765625
8143		13.671875
8144		9.765625
8145		13.671875
8146		9.765625
8147		11.718750
8148		9.765625
8149		13.671875
8150		9.765625
8151		13.671875
8152		9.765625
8153		11.718750
8154		9.765625
8155		13.671875
8156		9.765625
8157		13.671875
8158		9.765625
8159		13.671875
8160		9.765625
8161		11.718750
8162		9.765625
8163		11.718750
8164		9.765625
8165		11.718750
8166		9.765625
8167		13.671875
8168		9.765625
8169		11.718750
8170		9.765625
8171		11.718750
8172		7.812500
8173		13.671875
8174		7.812500
8175		11.718750
8176		7.812500
8177		11.718750
8178		9.765625
8179		11.718750
8180		7.812500
8181		11.718750
8182		7.812500
8183		11.718750
8184		7.812500
8185		11.718750
8186		7.812500
8187		11.718750
8188		7.812500
8189		11.718750
8190		7.812500
8191		11.718750
8192		7.812500
8193		11.718750
8194		7.812500
8195		11.718750
8196		7.812500
8197		11.718750
8198		7.812500
8199		9.765625
8200		5.859375
8201		9.765625
8202		7.812500
8203		9.765625
8204		5.859375
8205		9.765625
8206		5.859375
8207		9.765625
8208		5.859375
8209		9.765625
8210		5.859375
8211		9.765625
8212		5.859375
8213		9.765625
8214		5.859375
8215		7.812500
8216		5.859375
8217		9.765625
8218		5.859375
8219		7.812500
8220		5.859375
8221		7.812500
8222		3.906250
8223		7.812500
8224		3.906250
8225		7.812500
8226		3.906250
8227		7.812500
8228		3.906250
8229		7.812500
8230		3.906250
8231		7.812500
8232		3.906250
8233		7.812500
8234		3.906250
8235		7.812500
8236		3.906250
8237		5.859375
8238		3.906250
8239		7.812500
8240		3.906250
8241		5.859375
8242		3.906250
8243		7.812500
8244		3.906250
8245		7.812500
8246		3.906250
8247		5.859375
8248		3.906250
8249		5.859375
8250		1.953125
8251		7.812500
8252		3.906250
8253		5.859375
8254		3.906250
8255		5.859375
8256		3.906250
8257		7.812500
8258		3.906250
8259		5.859375
8260		3.906250
8261		5.859375
8262		3.906250
8263		5.859375
8264		3.906250
8265		5.859375
8266		1.953125
8267		7.812500
8268		3.906250
8269		5.859375
8270		3.906250
8271		5.859375
8272		1.953125
8273		5.859375
8274		1.953125
8275		7.812500
8276		1.953125
8277		5.859375
8278		3.906250
8279		7.812500
8280		1.953125
8281		5.859375
8282		3.906250
8283		5.859375
8284		3.906250
8285		7.812500
8286		3.906250
8287		7.812500
8288		3.906250
8289		7.812500
8290		3.906250
8291		5.859375
8292		3.906250
8293		7.812500
8294		3.906250
8295		7.812500
8296		3.906250
8297		7.812500
8298		3.906250
8299		7.812500
8300		3.906250
8301		7.812500
8302		5.859375
8303		7.812500
8304		5.859375
8305		7.812500
8306		3.906250
8307		7.812500
8308		5.859375
8309		7.812500
8310		5.859375
8311		7.812500
8312		5.859375
8313		7.812500
8314		5.859375
8315		7.812500
8316		5.859375
8317		7.812500
8318		5.859375
8319		9.765625
8320		5.859375
8321		9.765625
8322		5.859375
8323		9.765625
8324		5.859375
8325		9.765625
8326		5.859375
8327		9.765625
8328		5.859375
8329		9.765625
8330		5.859375
8331		9.765625
8332		5.859375
8333		9.765625
8334		5.859375
8335		9.765625
8336		7.812500
8337		9.765625
8338		7.812500
8339		9.765625
8340		7.812500
8341		11.718750
8342		7.812500
8343		11.718750
8344		7.812500
8345		11.718750
8346		7.812500
8347		11.718750
8348		7.812500
8349		11.718750
8350		7.812500
8351		11.718750
8352		7.812500
8353		11.718750
8354		7.812500
8355		11.718750
8356		7.812500
8357		11.718750
8358		9.765625
8359		11.718750
8360		7.812500
8361		11.718750
8362		7.812500
8363		11.718750
8364		7.812500
8365		11.718750
8366		9.765625
8367		11.718750
8368		9.765625
8369		13.671875
8370		9.765625
8371		11.718750
8372		7.812500
8373		11.718750
8374		9.765625
8375		13.671875
8376		9.765625
8377		11.718750
8378		9.765625
8379		13.671875
8380		9.765625
8381		11.718750
8382		9.765625
8383		13.671875
8384		9.765625
8385		13.671875
8386		9.765625
8387		11.718750
8388		9.765625
8389		11.718750
8390		9.765625
8391		13.671875
8392		9.765625
8393		13.671875
8394		9.765625
8395		13.671875
8396		9.765625
8397		13.671875
8398		9.765625
8399		13.671875
8400		9.765625
8401		13.671875
8402		9.765625
8403		13.671875
8404		9.765625
8405		11.718750
8406		9.765625
8407		13.671875
8408		9.765625
8409		11.718750
8410		9.765625
8411		13.671875
8412		9.765625
8413		11.718750
8414		9.765625
8415		13.671875
8416		9.765625
8417		11.718750
8418		7.812500
8419		13.671875
8420		9.765625
8421		11.718750
8422		7.812500
8423		11.718750
8424		7.812500
8425		13.671875
8426		7.812500
8427		11.718750
8428		7.812500
8429		11.718750
8430		7.812500
8431		11.718750
8432		7.812500
8433		11.718750
8434		7.812500
8435		11.718750
8436		7.812500
8437		11.718750
8438		7.812500
8439		11.718750
8440		7.812500
8441		11.718750
8442		7.812500
8443		11.718750
8444		7.812500
8445		9.765625
8446		5.859375
8447		9.765625
8448		5.859375
8449		9.765625
8450		5.859375
8451		9.765625
8452		7.812500
8453		9.765625
8454		7.812500
8455		9.765625
8456		3.906250
8457		11.718750
8458		5.859375
8459		9.765625
8460		5.859375
8461		9.765625
8462		5.859375
8463		7.812500
8464		5.859375
8465		7.812500
8466		5.859375
8467		9.765625
8468		3.906250
8469		9.765625
8470		5.859375
8471		7.812500
8472		5.859375
8473		7.812500
8474		3.906250
8475		7.812500
8476		3.906250
8477		7.812500
8478		3.906250
8479		7.812500
8480		3.906250
8481		7.812500
8482		3.906250
8483		7.812500
8484		3.906250
8485		7.812500
8486		3.906250
8487		7.812500
8488		3.906250
8489		7.812500
8490		3.906250
8491		7.812500
8492		3.906250
8493		7.812500
8494		3.906250
8495		5.859375
8496		3.906250
8497		5.859375
8498		3.906250
8499		5.859375
8500		3.906250
8501		7.812500
8502		3.906250
8503		7.812500
8504		3.906250
8505		5.859375
8506		3.906250
8507		5.859375
8508		1.953125
8509		7.812500
8510		3.906250
8511		5.859375
8512		3.906250
8513		5.859375
8514		3.906250
8515		5.859375
8516		3.906250
8517		5.859375
8518		1.953125
8519		5.859375
8520		1.953125
8521		7.812500
8522		3.906250
8523		5.859375
8524		1.953125
8525		7.812500
8526		3.906250
8527		5.859375
8528		3.906250
8529		5.859375
8530		3.906250
8531		5.859375
8532		3.906250
8533		5.859375
8534		3.906250
8535		5.859375
8536		3.906250
8537		7.812500
8538		3.906250
8539		5.859375
8540		1.953125
8541		7.812500
8542		3.906250
8543		7.812500
8544		3.906250
8545		7.812500
8546		3.906250
8547		7.812500
8548		3.906250
8549		7.812500
8550		3.906250
8551		7.812500
8552		3.906250
8553		7.812500
8554		3.906250
8555		7.812500
8556		3.906250
8557		7.812500
8558		3.906250
8559		9.765625
8560		3.906250
8561		7.812500
8562		5.859375
8563		7.812500
8564		5.859375
8565		7.812500
8566		5.859375
8567		9.765625
8568		5.859375
8569		7.812500
8570		5.859375
8571		9.765625
8572		5.859375
8573		7.812500
8574		5.859375
8575		11.718750
8576		5.859375
8577		9.765625
8578		5.859375
8579		9.765625
8580		5.859375
8581		9.765625
8582		5.859375
8583		9.765625
8584		5.859375
8585		9.765625
8586		5.859375
8587		9.765625
8588		7.812500
8589		9.765625
8590		7.812500
8591		11.718750
8592		5.859375
8593		11.718750
8594		7.812500
8595		9.765625
8596		7.812500
8597		11.718750
8598		7.812500
8599		11.718750
8600		7.812500
8601		11.718750
8602		7.812500
8603		11.718750
8604		7.812500
8605		11.718750
8606		9.765625
8607		11.718750
8608		7.812500
8609		11.718750
8610		7.812500
8611		11.718750
8612		7.812500
8613		11.718750
8614		7.812500
8615		11.718750
8616		9.765625
8617		11.718750
8618		7.812500
8619		11.718750
8620		9.765625
8621		11.718750
8622		9.765625
8623		11.718750
8624		7.812500
8625		13.671875
8626		9.765625
8627		13.671875
8628		9.765625
8629		13.671875
8630		9.765625
8631		13.671875
8632		9.765625
8633		11.718750
8634		9.765625
8635		13.671875
8636		9.765625
8637		13.671875
8638		9.765625
8639		11.718750
8640		9.765625
8641		11.718750
8642		7.812500
8643		13.671875
8644		9.765625
8645		13.671875
8646		9.765625
8647		13.671875
8648		9.765625
8649		11.718750
8650		9.765625
8651		11.718750
8652		9.765625
8653		13.671875
8654		9.765625
8655		13.671875
8656		9.765625
8657		11.718750
8658		7.812500
8659		13.671875
8660		9.765625
8661		13.671875
8662		9.765625
8663		13.671875
8664		9.765625
8665		11.718750
8666		9.765625
8667		11.718750
8668		9.765625
8669		11.718750
8670		7.812500
8671		11.718750
8672		9.765625
8673		11.718750
8674		9.765625
8675		11.718750
8676		9.765625
8677		11.718750
8678		7.812500
8679		11.718750
8680		9.765625
8681		11.718750
8682		7.812500
8683		11.718750
8684		7.812500
8685		11.718750
8686		7.812500
8687		11.718750
8688		7.812500
8689		11.718750
8690		7.812500
8691		11.718750
8692		7.812500
8693		11.718750
8694		7.812500
8695		9.765625
8696		7.812500
8697		9.765625
8698		7.812500
8699		11.718750
8700		7.812500
8701		9.765625
8702		7.812500
8703		9.765625
8704		7.812500
8705		9.765625
8706		7.812500
8707		9.765625
8708		5.859375
8709		9.765625
8710		5.859375
8711		9.765625
8712		5.859375
8713		9.765625
8714		5.859375
8715		9.765625
8716		5.859375
8717		7.812500
8718		5.859375
8719		9.765625
8720		5.859375
8721		9.765625
8722		5.859375
8723		7.812500
8724		3.906250
8725		7.812500
8726		3.906250
8727		7.812500
8728		3.906250
8729		7.812500
8730		3.906250
8731		7.812500
8732		5.859375
8733		7.812500
8734		3.906250
8735		7.812500
8736		3.906250
8737		7.812500
8738		3.906250
8739		7.812500
8740		3.906250
8741		7.812500
8742		3.906250
8743		7.812500
8744		3.906250
8745		7.812500
8746		3.906250
8747		7.812500
8748		3.906250
8749		7.812500
8750		3.906250
8751		7.812500
8752		1.953125
8753		5.859375
8754		1.953125
8755		7.812500
8756		3.906250
8757		5.859375
8758		3.906250
8759		5.859375
8760		1.953125
8761		7.812500
8762		1.953125
8763		7.812500
8764		3.906250
8765		5.859375
8766		3.906250
8767		5.859375
8768		3.906250
8769		5.859375
8770		1.953125
8771		5.859375
8772		1.953125
8773		5.859375
8774		3.906250
8775		5.859375
8776		3.906250
8777		5.859375
8778		3.906250
8779		5.859375
8780		3.906250
8781		5.859375
8782		3.906250
8783		5.859375
8784		3.906250
8785		5.859375
8786		3.906250
8787		5.859375
8788		3.906250
8789		7.812500
8790		3.906250
8791		7.812500
8792		3.906250
8793		5.859375
8794		1.953125
8795		7.812500
8796		3.906250
8797		7.812500
8798		3.906250
8799		7.812500
8800		3.906250
8801		7.812500
8802		3.906250
8803		7.812500
8804		3.906250
8805		7.812500
8806		5.859375
8807		7.812500
8808		5.859375
8809		7.812500
8810		3.906250
8811		7.812500
8812		3.906250
8813		7.812500
8814		5.859375
8815		7.812500
8816		5.859375
8817		7.812500
8818		5.859375
8819		9.765625
8820		5.859375
8821		9.765625
8822		5.859375
8823		9.765625
8824		5.859375
8825		9.765625
8826		5.859375
8827		9.765625
8828		5.859375
8829		9.765625
8830		5.859375
8831		9.765625
8832		5.859375
8833		9.765625
8834		5.859375
8835		9.765625
8836		7.812500
8837		9.765625
8838		5.859375
8839		9.765625
8840		7.812500
8841		9.765625
8842		7.812500
8843		9.765625
8844		5.859375
8845		11.718750
8846		7.812500
8847		11.718750
8848		7.812500
8849		11.718750
8850		7.812500
8851		11.718750
8852		7.812500
8853		11.718750
8854		7.812500
8855		11.718750
8856		7.812500
8857		11.718750
8858		7.812500
8859		11.718750
8860		7.812500
8861		11.718750
8862		9.765625
8863		11.718750
8864		9.765625
8865		11.718750
8866		9.765625
8867		11.718750
8868		9.765625
8869		11.718750
8870		9.765625
8871		11.718750
8872		7.812500
8873		11.718750
8874		9.765625
8875		11.718750
8876		9.765625
8877		13.671875
8878		9.765625
8879		13.671875
8880		9.765625
8881		13.671875
8882		9.765625
8883		13.671875
8884		9.765625
8885		13.671875
8886		9.765625
8887		13.671875
8888		9.765625
8889		13.671875
8890		9.765625
8891		13.671875
8892		9.765625
8893		13.671875
8894		9.765625
8895		13.671875
8896		9.765625
8897		13.671875
8898		9.765625
8899		13.671875
8900		9.765625
8901		13.671875
8902		9.765625
8903		13.671875
8904		9.765625
8905		13.671875
8906		9.765625
8907		13.671875
8908		9.765625
8909		11.718750
8910		9.765625
8911		13.671875
8912		9.765625
8913		11.718750
8914		9.765625
8915		13.671875
8916		9.765625
8917		13.671875
8918		9.765625
8919		13.671875
8920		9.765625
8921		11.718750
8922		9.765625
8923		11.718750
8924		9.765625
8925		11.718750
8926		9.765625
8927		11.718750
8928		7.812500
8929		11.718750
8930		7.812500
8931		11.718750
8932		7.812500
8933		11.718750
8934		9.765625
8935		11.718750
8936		7.812500
8937		11.718750
8938		7.812500
8939		11.718750
8940		7.812500
8941		11.718750
8942		7.812500
8943		9.765625
8944		7.812500
8945		11.718750
8946		7.812500
8947		11.718750
8948		7.812500
8949		11.718750
8950		7.812500
8951		9.765625
8952		7.812500
8953		9.765625
8954		7.812500
8955		9.765625
8956		5.859375
8957		9.765625
8958		7.812500
8959		9.765625
8960		7.812500
8961		9.765625
8962		5.859375
8963		9.765625
8964		5.859375
8965		9.765625
8966		5.859375
8967		9.765625
8968		5.859375
8969		9.765625
8970		5.859375
8971		9.765625
8972		5.859375
8973		7.812500
8974		5.859375
8975		9.765625
8976		5.859375
8977		7.812500
8978		3.906250
8979		7.812500
8980		3.906250
8981		7.812500
8982		5.859375
8983		7.812500
8984		3.906250
8985		7.812500
8986		3.906250
8987		7.812500
8988		3.906250
8989		7.812500
8990		3.906250
8991		7.812500
8992		3.906250
8993		5.859375
8994		1.953125
8995		7.812500
8996		3.906250
8997		7.812500
8998		3.906250
8999		5.859375
9000		3.906250
9001		5.859375
9002		3.906250
9003		5.859375
9004		3.906250
9005		7.812500
9006		3.906250
9007		5.859375
9008		3.906250
9009		5.859375
9010		3.906250
9011		5.859375
9012		3.906250
9013		5.859375
9014		3.906250
9015		5.859375
9016		3.906250
9017		7.812500
9018		1.953125
9019		5.859375
9020		1.953125
9021		5.859375
9022		3.906250
9023		5.859375
9024		1.953125
9025		5.859375
9026		3.906250
9027		5.859375
9028		3.906250
9029		7.812500
9030		3.906250
9031		5.859375
9032		3.906250
9033		7.812500
9034		3.906250
9035		5.859375
9036		3.906250
9037		5.859375
9038		3.906250
9039		7.812500
9040		3.906250
9041		7.812500
9042		3.906250
9043		5.859375
9044		3.906250
9045		5.859375
9046		1.953125
9047		7.812500
9048		3.906250
9049		7.812500
9050		3.906250
9051		7.812500
9052		3.906250
9053		7.812500
9054		3.906250
9055		7.812500
9056		3.906250
9057		7.812500
9058		3.906250
9059		7.812500
9060		5.859375
9061		7.812500
9062		3.906250
9063		7.812500
9064		5.859375
9065		7.812500
9066		5.859375
9067		7.812500
9068		5.859375
9069		7.812500
9070		5.859375
9071		9.765625
9072		5.859375
9073		9.765625
9074		5.859375
9075		9.765625
9076		5.859375
9077		7.812500
9078		5.859375
9079		9.765625
9080		5.859375
9081		9.765625
9082		5.859375
9083		9.765625
9084		5.859375
9085		9.765625
9086		5.859375
9087		9.765625
9088		5.859375
9089		9.765625
9090		5.859375
9091		9.765625
9092		7.812500
9093		9.765625
9094		7.812500
9095		9.765625
9096		7.812500
9097		11.718750
9098		7.812500
9099		9.765625
9100		7.812500
9101		11.718750
9102		7.812500
9103		11.718750
9104		7.812500
9105		11.718750
9106		7.812500
9107		11.718750
9108		7.812500
9109		11.718750
9110		9.765625
9111		11.718750
9112		7.812500
9113		11.718750
9114		7.812500
9115		11.718750
9116		9.765625
9117		11.718750
9118		9.765625
9119		13.671875
9120		7.812500
9121		11.718750
9122		9.765625
9123		11.718750
9124		9.765625
9125		13.671875
9126		9.765625
9127		11.718750
9128		9.765625
9129		13.671875
9130		7.812500
9131		13.671875
9132		9.765625
9133		11.718750
9134		9.765625
9135		13.671875
9136		9.765625
9137		11.718750
9138		9.765625
9139		13.671875
9140		9.765625
9141		13.671875
9142		9.765625
9143		11.718750
9144		9.765625
9145		11.718750
9146		9.765625
9147		13.671875
9148		9.765625
9149		13.671875
9150		9.765625
9151		13.671875
9152		9.765625
9153		13.671875
9154		9.765625
9155		13.671875
9156		9.765625
9157		13.671875
9158		9.765625
9159		13.671875
9160		9.765625
9161		11.718750
9162		9.765625
9163		13.671875
9164		9.765625
9165		11.718750
9166		9.765625
9167		13.671875
9168		9.765625
9169		11.718750
9170		9.765625
9171		13.671875
9172		9.765625
9173		11.718750
9174		9.765625
9175		13.671875
9176		9.765625
9177		11.718750
9178		9.765625
9179		11.718750
9180		7.812500
9181		11.718750
9182		9.765625
9183		11.718750
9184		7.812500
9185		11.718750
9186		9.765625
9187		11.718750
9188		7.812500
9189		11.718750
9190		7.812500
9191		11.718750
9192		7.812500
9193		11.718750
9194		7.812500
9195		11.718750
9196		7.812500
9197		11.718750
9198		7.812500
9199		11.718750
9200		7.812500
9201		9.765625
9202		7.812500
9203		11.718750
9204		7.812500
9205		9.765625
9206		5.859375
9207		9.765625
9208		7.812500
9209		9.765625
9210		5.859375
9211		9.765625
9212		5.859375
9213		9.765625
9214		5.859375
9215		9.765625
9216		5.859375
9217		9.765625
9218		5.859375
9219		9.765625
9220		5.859375
9221		7.812500
9222		5.859375
9223		7.812500
9224		5.859375
9225		7.812500
9226		3.906250
9227		9.765625
9228		5.859375
9229		7.812500
9230		5.859375
9231		9.765625
9232		5.859375
9233		7.812500
9234		3.906250
9235		7.812500
9236		3.906250
9237		7.812500
9238		3.906250
9239		7.812500
9240		3.906250
9241		7.812500
9242		3.906250
9243		7.812500
9244		3.906250
9245		5.859375
9246		3.906250
9247		7.812500
9248		3.906250
9249		7.812500
9250		3.906250
9251		7.812500
9252		3.906250
9253		7.812500
9254		3.906250
9255		5.859375
9256		3.906250
9257		5.859375
9258		3.906250
9259		7.812500
9260		3.906250
9261		5.859375
9262		3.906250
9263		5.859375
9264		1.953125
9265		5.859375
9266		3.906250
9267		5.859375
9268		1.953125
9269		5.859375
9270		3.906250
9271		5.859375
9272		3.906250
9273		5.859375
9274		3.906250
9275		5.859375
9276		1.953125
9277		7.812500
9278		3.906250
9279		5.859375
9280		3.906250
9281		7.812500
9282		3.906250
9283		5.859375
9284		3.906250
9285		5.859375
9286		3.906250
9287		7.812500
9288		3.906250
9289		5.859375
9290		3.906250
9291		5.859375
9292		3.906250
9293		7.812500
9294		3.906250
9295		5.859375
9296		3.906250
9297		5.859375
9298		3.906250
9299		7.812500
9300		3.906250
9301		7.812500
9302		3.906250
9303		7.812500
9304		3.906250
9305		7.812500
9306		3.906250
9307		7.812500
9308		3.906250
9309		7.812500
9310		3.906250
9311		7.812500
9312		5.859375
9313		7.812500
9314		3.906250
9315		7.812500
9316		3.906250
9317		7.812500
9318		5.859375
9319		7.812500
9320		5.859375
9321		7.812500
9322		5.859375
9323		9.765625
9324		5.859375
9325		9.765625
9326		5.859375
9327		9.765625
9328		5.859375
9329		9.765625
9330		5.859375
9331		9.765625
9332		5.859375
9333		9.765625
9334		5.859375
9335		9.765625
9336		5.859375
9337		9.765625
9338		7.812500
9339		9.765625
9340		7.812500
9341		9.765625
9342		7.812500
9343		9.765625
9344		7.812500
9345		9.765625
9346		7.812500
9347		9.765625
9348		7.812500
9349		11.718750
9350		7.812500
9351		11.718750
9352		7.812500
9353		11.718750
9354		7.812500
9355		11.718750
9356		7.812500
9357		11.718750
9358		7.812500
9359		11.718750
9360		7.812500
9361		11.718750
9362		9.765625
9363		11.718750
9364		7.812500
9365		11.718750
9366		7.812500
9367		11.718750
9368		9.765625
9369		11.718750
9370		9.765625
9371		11.718750
9372		9.765625
9373		11.718750
9374		7.812500
9375		11.718750
9376		7.812500
9377		13.671875
9378		9.765625
9379		11.718750
9380		9.765625
9381		11.718750
9382		9.765625
9383		13.671875
9384		9.765625
9385		13.671875
9386		9.765625
9387		13.671875
9388		9.765625
9389		13.671875
9390		9.765625
9391		13.671875
9392		9.765625
9393		13.671875
9394		9.765625
9395		13.671875
9396		9.765625
9397		11.718750
9398		9.765625
9399		13.671875
9400		9.765625
9401		13.671875
9402		9.765625
9403		13.671875
9404		9.765625
9405		13.671875
9406		9.765625
9407		13.671875
9408		9.765625
9409		13.671875
9410		9.765625
9411		13.671875
9412		9.765625
9413		13.671875
9414		9.765625
9415		11.718750
9416		9.765625
9417		13.671875
9418		9.765625
9419		13.671875
9420		9.765625
9421		13.671875
9422		9.765625
9423		13.671875
9424		9.765625
9425		11.718750
9426		7.812500
9427		11.718750
9428		9.765625
9429		11.718750
9430		9.765625
9431		11.718750
9432		7.812500
9433		11.718750
9434		7.812500
9435		11.718750
9436		7.812500
9437		11.718750
9438		7.812500
9439		11.718750
9440		7.812500
9441		11.718750
9442		7.812500
9443		11.718750
9444		7.812500
9445		11.718750
9446		7.812500
9447		9.765625
9448		7.812500
9449		11.718750
9450		7.812500
9451		11.718750
9452		7.812500
9453		9.765625
9454		7.812500
9455		11.718750
9456		7.812500
9457		11.718750
9458		5.859375
9459		9.765625
9460		5.859375
9461		9.765625
9462		5.859375
9463		9.765625
9464		5.859375
9465		9.765625
9466		5.859375
9467		9.765625
9468		5.859375
9469		9.765625
9470		5.859375
9471		9.765625
9472		5.859375
9473		9.765625
9474		5.859375
9475		9.765625
9476		5.859375
9477		9.765625
9478		5.859375
9479		9.765625
9480		5.859375
9481		7.812500
9482		3.906250
9483		7.812500
9484		3.906250
9485		7.812500
9486		3.906250
9487		7.812500
9488		3.906250
9489		7.812500
9490		3.906250
9491		7.812500
9492		3.906250
9493		7.812500
9494		3.906250
9495		7.812500
9496		3.906250
9497		5.859375
9498		3.906250
9499		7.812500
9500		3.906250
9501		7.812500
9502		3.906250
9503		7.812500
9504		3.906250
9505		5.859375
9506		3.906250
9507		7.812500
9508		3.906250
9509		5.859375
9510		1.953125
9511		7.812500
9512		1.953125
9513		5.859375
9514		3.906250
9515		5.859375
9516		3.906250
9517		5.859375
9518		1.953125
9519		5.859375
9520		3.906250
9521		7.812500
9522		3.906250
9523		5.859375
9524		3.906250
9525		5.859375
9526		1.953125
9527		7.812500
9528		3.906250
9529		7.812500
9530		3.906250
9531		5.859375
9532		1.953125
9533		5.859375
9534		3.906250
9535		5.859375
9536		3.906250
9537		5.859375
9538		3.906250
9539		7.812500
9540		3.906250
9541		7.812500
9542		3.906250
9543		5.859375
9544		3.906250
9545		7.812500
9546		3.906250
9547		5.859375
9548		3.906250
9549		7.812500
9550		3.906250
9551		7.812500
9552		3.906250
9553		7.812500
9554		3.906250
9555		7.812500
9556		3.906250
9557		7.812500
9558		3.906250
9559		7.812500
9560		3.906250
9561		7.812500
9562		3.906250
9563		7.812500
9564		5.859375
9565		7.812500
9566		3.906250
9567		7.812500
9568		3.906250
9569		7.812500
9570		3.906250
9571		9.765625
9572		5.859375
9573		7.812500
9574		5.859375
9575		9.765625
9576		5.859375
9577		9.765625
9578		5.859375
9579		9.765625
9580		5.859375
9581		9.765625
9582		5.859375
9583		9.765625
9584		5.859375
9585		9.765625
9586		5.859375
9587		9.765625
9588		5.859375
9589		9.765625
9590		5.859375
9591		9.765625
9592		7.812500
9593		11.718750
9594		7.812500
9595		11.718750
9596		7.812500
9597		9.765625
9598		7.812500
9599		9.765625
9600		5.859375
9601		11.718750
9602		7.812500
9603		11.718750
9604		7.812500
9605		11.718750
9606		7.812500
9607		11.718750
9608		7.812500
9609		11.718750
9610		7.812500
9611		11.718750
9612		7.812500
9613		11.718750
9614		7.812500
9615		11.718750
9616		7.812500
9617		11.718750
9618		9.765625
9619		11.718750
9620		9.765625
9621		11.718750
9622		9.765625
9623		11.718750
9624		9.765625
9625		11.718750
9626		9.765625
9627		11.718750
9628		9.765625
9629		11.718750
9630		9.765625
9631		11.718750
9632		9.765625
9633		11.718750
9634		9.765625
9635		13.671875
9636		9.765625
9637		13.671875
9638		9.765625
9639		13.671875
9640		9.765625
9641		13.671875
9642		9.765625
9643		13.671875
9644		9.765625
9645		13.671875
9646		9.765625
9647		13.671875
9648		9.765625
9649		13.671875
9650		9.765625
9651		13.671875
9652		9.765625
9653		13.671875
9654		9.765625
9655		13.671875
9656		9.765625
9657		13.671875
9658		9.765625
9659		13.671875
9660		9.765625
9661		13.671875
9662		9.765625
9663		13.671875
9664		9.765625
9665		13.671875
9666		9.765625
9667		11.718750
9668		7.812500
9669		13.671875
9670		9.765625
9671		13.671875
9672		9.765625
9673		13.671875
9674		9.765625
9675		13.671875
9676		9.765625
9677		11.718750
9678		9.765625
9679		13.671875
9680		9.765625
9681		13.671875
9682		9.765625
9683		11.718750
9684		7.812500
9685		13.671875
9686		9.765625
9687		11.718750
9688		9.765625
9689		11.718750
9690		9.765625
9691		11.718750
9692		7.812500
9693		11.718750
9694		7.812500
9695		11.718750
9696		7.812500
9697		11.718750
9698		7.812500
9699		11.718750
9700		7.812500
9701		11.718750
9702		7.812500
9703		11.718750
9704		7.812500
9705		11.718750
9706		7.812500
9707		9.765625
9708		7.812500
9709		9.765625
9710		7.812500
9711		9.765625
9712		5.859375
9713		9.765625
9714		5.859375
9715		9.765625
9716		5.859375
9717		9.765625
9718		5.859375
9719		9.765625
9720		5.859375
9721		9.765625
9722		5.859375
9723		9.765625
9724		5.859375
9725		9.765625
9726		5.859375
9727		7.812500
9728		5.859375
9729		7.812500
9730		3.906250
9731		9.765625
9732		5.859375
9733		7.812500
9734		5.859375
9735		7.812500
9736		3.906250
9737		7.812500
9738		5.859375
9739		7.812500
9740		5.859375
9741		7.812500
9742		3.906250
9743		7.812500
9744		3.906250
9745		7.812500
9746		3.906250
9747		7.812500
9748		3.906250
9749		7.812500
9750		3.906250
9751		7.812500
9752		1.953125
9753		7.812500
9754		3.906250
9755		7.812500
9756		3.906250
9757		7.812500
9758		3.906250
9759		5.859375
9760		3.906250
9761		5.859375
9762		3.906250
9763		7.812500
9764		1.953125
9765		7.812500
9766		3.906250
9767		5.859375
9768		1.953125
9769		5.859375
9770		3.906250
9771		5.859375
9772		3.906250
9773		5.859375
9774		3.906250
9775		5.859375
9776		3.906250
9777		5.859375
9778		3.906250
9779		5.859375
9780		1.953125
9781		5.859375
9782		3.906250
9783		5.859375
9784		1.953125
9785		7.812500
9786		3.906250
9787		5.859375
9788		3.906250
9789		5.859375
9790		1.953125
9791		7.812500
9792		3.906250
9793		7.812500
9794		3.906250
9795		7.812500
9796		3.906250
9797		7.812500
9798		3.906250
9799		5.859375
9800		3.906250
9801		7.812500
9802		3.906250
9803		7.812500
9804		3.906250
9805		7.812500
9806		3.906250
9807		7.812500
9808		3.906250
9809		7.812500
9810		3.906250
9811		9.765625
9812		3.906250
9813		7.812500
9814		5.859375
9815		7.812500
9816		5.859375
9817		7.812500
9818		3.906250
9819		9.765625
9820		5.859375
9821		7.812500
9822		5.859375
9823		7.812500
9824		5.859375
9825		9.765625
9826		5.859375
9827		9.765625
9828		5.859375
9829		9.765625
9830		5.859375
9831		9.765625
9832		7.812500
9833		9.765625
9834		7.812500
9835		9.765625
9836		5.859375
9837		9.765625
9838		5.859375
9839		9.765625
9840		7.812500
9841		9.765625
9842		7.812500
9843		11.718750
9844		7.812500
9845		11.718750
9846		7.812500
9847		11.718750
9848		7.812500
9849		11.718750
9850		7.812500
9851		9.765625
9852		7.812500
9853		11.718750
9854		7.812500
9855		11.718750
9856		7.812500
9857		11.718750
9858		7.812500
9859		11.718750
9860		7.812500
9861		11.718750
9862		7.812500
9863		11.718750
9864		7.812500
9865		11.718750
9866		9.765625
9867		11.718750
9868		9.765625
9869		13.671875
9870		9.765625
9871		11.718750
9872		9.765625
9873		11.718750
9874		9.765625
9875		11.718750
9876		9.765625
9877		13.671875
9878		9.765625
9879		11.718750
9880		9.765625
9881		13.671875
9882		9.765625
9883		11.718750
9884		9.765625
9885		11.718750
9886		9.765625
9887		13.671875
9888		9.765625
9889		13.671875
9890		9.765625
9891		13.671875
9892		9.765625
9893		13.671875
9894		9.765625
9895		13.671875
9896		9.765625
9897		13.671875
9898		9.765625
9899		13.671875
9900		9.765625
9901		13.671875
9902		9.765625
9903		13.671875
9904		9.765625
9905		13.671875
9906		9.765625
9907		13.671875
9908		9.765625
9909		13.671875
9910		9.765625
9911		13.671875
9912		9.765625
9913		13.671875
9914		9.765625
9915		13.671875
9916		9.765625
9917		13.671875
9918		9.765625
9919		13.671875
9920		9.765625
9921		13.671875
9922		9.765625
9923		13.671875
9924		9.765625
9925		13.671875
9926		9.765625
9927		13.671875
9928		9.765625
9929		13.671875
9930		9.765625
9931		13.671875
9932		7.812500
9933		11.718750
9934		9.765625
9935		11.718750
9936		9.765625
9937		13.671875
9938		7.812500
9939		13.671875
9940		7.812500
9941		11.718750
9942		7.812500
9943		11.718750
9944		7.812500
9945		11.718750
9946		7.812500
9947		11.718750
9948		7.812500
9949		11.718750
9950		7.812500
9951		11.718750
9952		7.812500
9953		11.718750
9954		7.812500
9955		11.718750
9956		7.812500
9957		11.718750
9958		5.859375
9959		9.765625
9960		7.812500
9961		9.765625
9962		7.812500
9963		9.765625
9964		5.859375
9965		9.765625
9966		7.812500
9967		9.765625
9968		5.859375
9969		9.765625
9970		5.859375
9971		9.765625
9972		5.859375
9973		9.765625
9974		5.859375
9975		9.765625
9976		5.859375
9977		7.812500
9978		5.859375
9979		9.765625
9980		5.859375
9981		7.812500
9982		3.906250
9983		9.765625
9984		5.859375
9985		7.812500
9986		3.906250
9987		9.765625
9988		3.906250
9989		7.812500
9990		3.906250
9991		7.812500
9992		3.906250
9993		7.812500
9994		3.906250
9995		7.812500
9996		3.906250
9997		7.812500
9998		3.906250
9999		7.812500
10000		3.906250
