Channel              :		CH1
Frequency            :		1.978kHz
Period               :		0.506ms
PK-PK                :		128.9mV
Probe attenuation    :		1X
Voltage per ADC value:		0.122070mV
Time interval        :		2.00000us

index		CH1_Voltage(mV)
1		68.359375
2		68.359375
3		72.265625
4		68.359375
5		72.265625
6		68.359375
7		72.265625
8		70.312500
9		72.265625
10		70.312500
11		72.265625
12		68.359375
13		72.265625
14		68.359375
15		70.312500
16		66.406250
17		72.265625
18		68.359375
19		70.312500
20		66.406250
21		70.312500
22		66.406250
23		68.359375
24		64.453125
25		68.359375
26		64.453125
27		66.406250
28		62.500000
29		66.406250
30		60.546875
31		64.453125
32		60.546875
33		62.500000
34		58.593750
35		62.500000
36		56.640625
37		60.546875
38		54.687500
39		58.593750
40		52.734375
41		56.640625
42		50.781250
43		54.687500
44		46.875000
45		52.734375
46		46.875000
47		50.781250
48		42.968750
49		46.875000
50		41.015625
51		44.921875
52		39.062500
53		42.968750
54		35.156250
55		41.015625
56		33.203125
57		37.109375
58		31.250000
59		35.156250
60		27.343750
61		33.203125
62		25.390625
63		29.296875
64		21.484375
65		27.343750
66		17.578125
67		23.437500
68		15.625000
69		21.484375
70		13.671875
71		17.578125
72		9.765625
73		15.625000
74		5.859375
75		11.718750
76		3.906250
77		9.765625
78		1.953125
79		5.859375
80		-1.953125
81		1.953125
82		-3.906250
83		0.000000
84		-7.812500
85		-1.953125
86		-9.765625
87		-5.859375
88		-13.671875
89		-9.765625
90		-15.625000
91		-11.718750
92		-19.531250
93		-13.671875
94		-21.484375
95		-15.625000
96		-23.437500
97		-19.531250
98		-27.343750
99		-21.484375
100		-29.296875
101		-23.437500
102		-31.250000
103		-27.343750
104		-33.203125
105		-27.343750
106		-35.156250
107		-31.250000
108		-37.109375
109		-33.203125
110		-39.062500
111		-35.156250
112		-41.015625
113		-37.109375
114		-41.015625
115		-39.062500
116		-42.968750
117		-39.062500
118		-44.921875
119		-41.015625
120		-46.875000
121		-42.968750
122		-46.875000
123		-42.968750
124		-46.875000
125		-44.921875
126		-48.828125
127		-44.921875
128		-48.828125
129		-44.921875
130		-48.828125
131		-44.921875
132		-48.828125
133		-46.875000
134		-48.828125
135		-46.875000
136		-50.781250
137		-46.875000
138		-48.828125
139		-46.875000
140		-48.828125
141		-44.921875
142		-48.828125
143		-44.921875
144		-48.828125
145		-44.921875
146		-46.875000
147		-42.968750
148		-44.921875
149		-42.968750
150		-44.921875
151		-41.015625
152		-42.968750
153		-39.062500
154		-42.968750
155		-39.062500
156		-41.015625
157		-37.109375
158		-39.062500
159		-35.156250
160		-37.109375
161		-33.203125
162		-35.156250
163		-31.250000
164		-33.203125
165		-29.296875
166		-31.250000
167		-27.343750
168		-29.296875
169		-25.390625
170		-27.343750
171		-21.484375
172		-25.390625
173		-19.531250
174		-21.484375
175		-17.578125
176		-19.531250
177		-15.625000
178		-15.625000
179		-11.718750
180		-15.625000
181		-9.765625
182		-11.718750
183		-5.859375
184		-7.812500
185		-1.953125
186		-5.859375
187		0.000000
188		-1.953125
189		1.953125
190		0.000000
191		5.859375
192		1.953125
193		7.812500
194		5.859375
195		11.718750
196		9.765625
197		13.671875
198		11.718750
199		17.578125
200		15.625000
201		19.531250
202		17.578125
203		23.437500
204		21.484375
205		25.390625
206		23.437500
207		29.296875
208		27.343750
209		31.250000
210		29.296875
211		33.203125
212		31.250000
213		37.109375
214		33.203125
215		39.062500
216		37.109375
217		42.968750
218		41.015625
219		44.921875
220		42.968750
221		46.875000
222		44.921875
223		48.828125
224		46.875000
225		52.734375
226		48.828125
227		52.734375
228		52.734375
229		56.640625
230		54.687500
231		56.640625
232		56.640625
233		58.593750
234		56.640625
235		62.500000
236		58.593750
237		62.500000
238		60.546875
239		64.453125
240		62.500000
241		64.453125
242		64.453125
243		66.406250
244		64.453125
245		68.359375
246		64.453125
247		70.312500
248		66.406250
249		70.312500
250		68.359375
251		70.312500
252		66.406250
253		72.265625
254		68.359375
255		72.265625
256		68.359375
257		72.265625
258		68.359375
259		72.265625
260		68.359375
261		72.265625
262		70.312500
263		72.265625
264		68.359375
265		72.265625
266		68.359375
267		72.265625
268		68.359375
269		70.312500
270		68.359375
271		70.312500
272		66.406250
273		70.312500
274		66.406250
275		70.312500
276		64.453125
277		70.312500
278		64.453125
279		68.359375
280		62.500000
281		66.406250
282		62.500000
283		64.453125
284		60.546875
285		64.453125
286		58.593750
287		62.500000
288		56.640625
289		60.546875
290		54.687500
291		58.593750
292		52.734375
293		56.640625
294		50.781250
295		54.687500
296		48.828125
297		52.734375
298		46.875000
299		52.734375
300		44.921875
301		48.828125
302		41.015625
303		46.875000
304		39.062500
305		42.968750
306		37.109375
307		41.015625
308		33.203125
309		39.062500
310		31.250000
311		35.156250
312		29.296875
313		33.203125
314		25.390625
315		31.250000
316		23.437500
317		27.343750
318		19.531250
319		25.390625
320		17.578125
321		21.484375
322		13.671875
323		19.531250
324		11.718750
325		17.578125
326		7.812500
327		13.671875
328		5.859375
329		9.765625
330		1.953125
331		7.812500
332		0.000000
333		3.906250
334		-3.906250
335		1.953125
336		-5.859375
337		-1.953125
338		-9.765625
339		-3.906250
340		-11.718750
341		-7.812500
342		-15.625000
343		-9.765625
344		-17.578125
345		-13.671875
346		-19.531250
347		-15.625000
348		-23.437500
349		-17.578125
350		-25.390625
351		-21.484375
352		-27.343750
353		-23.437500
354		-29.296875
355		-25.390625
356		-31.250000
357		-27.343750
358		-35.156250
359		-29.296875
360		-37.109375
361		-31.250000
362		-37.109375
363		-35.156250
364		-39.062500
365		-35.156250
366		-41.015625
367		-37.109375
368		-42.968750
369		-39.062500
370		-44.921875
371		-39.062500
372		-44.921875
373		-41.015625
374		-46.875000
375		-42.968750
376		-46.875000
377		-44.921875
378		-48.828125
379		-44.921875
380		-48.828125
381		-44.921875
382		-48.828125
383		-46.875000
384		-48.828125
385		-46.875000
386		-50.781250
387		-46.875000
388		-48.828125
389		-46.875000
390		-48.828125
391		-46.875000
392		-48.828125
393		-44.921875
394		-48.828125
395		-44.921875
396		-48.828125
397		-44.921875
398		-46.875000
399		-42.968750
400		-46.875000
401		-42.968750
402		-44.921875
403		-42.968750
404		-44.921875
405		-41.015625
406		-42.968750
407		-39.062500
408		-41.015625
409		-37.109375
410		-39.062500
411		-37.109375
412		-37.109375
413		-33.203125
414		-35.156250
415		-31.250000
416		-33.203125
417		-31.250000
418		-31.250000
419		-27.343750
420		-29.296875
421		-25.390625
422		-27.343750
423		-23.437500
424		-25.390625
425		-21.484375
426		-23.437500
427		-17.578125
428		-21.484375
429		-15.625000
430		-17.578125
431		-13.671875
432		-15.625000
433		-9.765625
434		-11.718750
435		-7.812500
436		-9.765625
437		-3.906250
438		-7.812500
439		-1.953125
440		-3.906250
441		1.953125
442		0.000000
443		3.906250
444		1.953125
445		7.812500
446		3.906250
447		9.765625
448		7.812500
449		13.671875
450		11.718750
451		15.625000
452		13.671875
453		19.531250
454		17.578125
455		21.484375
456		19.531250
457		25.390625
458		21.484375
459		27.343750
460		25.390625
461		29.296875
462		29.296875
463		33.203125
464		31.250000
465		37.109375
466		33.203125
467		39.062500
468		37.109375
469		41.015625
470		39.062500
471		42.968750
472		41.015625
473		44.921875
474		44.921875
475		48.828125
476		46.875000
477		50.781250
478		46.875000
479		52.734375
480		50.781250
481		54.687500
482		52.734375
483		56.640625
484		54.687500
485		58.593750
486		56.640625
487		60.546875
488		58.593750
489		62.500000
490		60.546875
491		64.453125
492		62.500000
493		64.453125
494		62.500000
495		66.406250
496		64.453125
497		68.359375
498		64.453125
499		70.312500
500		66.406250
501		70.312500
502		66.406250
503		70.312500
504		66.406250
505		70.312500
506		68.359375
507		72.265625
508		68.359375
509		72.265625
510		68.359375
511		72.265625
512		70.312500
513		72.265625
514		70.312500
515		72.265625
516		68.359375
517		72.265625
518		70.312500
519		72.265625
520		68.359375
521		72.265625
522		68.359375
523		72.265625
524		66.406250
525		70.312500
526		66.406250
527		70.312500
528		66.406250
529		70.312500
530		64.453125
531		68.359375
532		62.500000
533		66.406250
534		62.500000
535		64.453125
536		60.546875
537		64.453125
538		58.593750
539		62.500000
540		58.593750
541		60.546875
542		56.640625
543		60.546875
544		52.734375
545		58.593750
546		52.734375
547		56.640625
548		50.781250
549		54.687500
550		46.875000
551		52.734375
552		44.921875
553		48.828125
554		42.968750
555		46.875000
556		41.015625
557		44.921875
558		39.062500
559		42.968750
560		35.156250
561		39.062500
562		33.203125
563		37.109375
564		29.296875
565		35.156250
566		27.343750
567		33.203125
568		25.390625
569		29.296875
570		21.484375
571		25.390625
572		19.531250
573		23.437500
574		15.625000
575		21.484375
576		13.671875
577		17.578125
578		9.765625
579		13.671875
580		7.812500
581		11.718750
582		3.906250
583		9.765625
584		0.000000
585		5.859375
586		-1.953125
587		1.953125
588		-5.859375
589		0.000000
590		-7.812500
591		-1.953125
592		-9.765625
593		-5.859375
594		-13.671875
595		-7.812500
596		-15.625000
597		-11.718750
598		-19.531250
599		-13.671875
600		-21.484375
601		-17.578125
602		-23.437500
603		-19.531250
604		-27.343750
605		-21.484375
606		-29.296875
607		-25.390625
608		-31.250000
609		-27.343750
610		-33.203125
611		-29.296875
612		-35.156250
613		-31.250000
614		-37.109375
615		-33.203125
616		-39.062500
617		-35.156250
618		-41.015625
619		-37.109375
620		-41.015625
621		-39.062500
622		-42.968750
623		-39.062500
624		-44.921875
625		-41.015625
626		-44.921875
627		-42.968750
628		-46.875000
629		-42.968750
630		-46.875000
631		-44.921875
632		-48.828125
633		-44.921875
634		-48.828125
635		-44.921875
636		-48.828125
637		-46.875000
638		-50.781250
639		-46.875000
640		-48.828125
641		-46.875000
642		-48.828125
643		-46.875000
644		-48.828125
645		-46.875000
646		-48.828125
647		-44.921875
648		-48.828125
649		-44.921875
650		-46.875000
651		-42.968750
652		-46.875000
653		-42.968750
654		-44.921875
655		-42.968750
656		-46.875000
657		-41.015625
658		-42.968750
659		-39.062500
660		-41.015625
661		-39.062500
662		-41.015625
663		-37.109375
664		-39.062500
665		-35.156250
666		-37.109375
667		-33.203125
668		-37.109375
669		-31.250000
670		-33.203125
671		-29.296875
672		-31.250000
673		-27.343750
674		-29.296875
675		-23.437500
676		-25.390625
677		-21.484375
678		-23.437500
679		-19.531250
680		-21.484375
681		-17.578125
682		-19.531250
683		-13.671875
684		-15.625000
685		-11.718750
686		-13.671875
687		-9.765625
688		-9.765625
689		-5.859375
690		-7.812500
691		-1.953125
692		-3.906250
693		0.000000
694		-1.953125
695		3.906250
696		1.953125
697		5.859375
698		3.906250
699		9.765625
700		7.812500
701		11.718750
702		9.765625
703		13.671875
704		13.671875
705		17.578125
706		15.625000
707		21.484375
708		19.531250
709		23.437500
710		21.484375
711		27.343750
712		25.390625
713		29.296875
714		27.343750
715		33.203125
716		29.296875
717		35.156250
718		33.203125
719		37.109375
720		35.156250
721		39.062500
722		39.062500
723		42.968750
724		41.015625
725		44.921875
726		42.968750
727		46.875000
728		44.921875
729		48.828125
730		48.828125
731		52.734375
732		48.828125
733		54.687500
734		52.734375
735		56.640625
736		54.687500
737		58.593750
738		56.640625
739		58.593750
740		56.640625
741		60.546875
742		58.593750
743		62.500000
744		60.546875
745		64.453125
746		62.500000
747		66.406250
748		62.500000
749		66.406250
750		64.453125
751		68.359375
752		64.453125
753		68.359375
754		66.406250
755		70.312500
756		68.359375
757		70.312500
758		68.359375
759		72.265625
760		68.359375
761		72.265625
762		68.359375
763		72.265625
764		68.359375
765		72.265625
766		70.312500
767		72.265625
768		68.359375
769		74.218750
770		70.312500
771		72.265625
772		68.359375
773		72.265625
774		68.359375
775		72.265625
776		68.359375
777		72.265625
778		66.406250
779		70.312500
780		66.406250
781		70.312500
782		64.453125
783		68.359375
784		64.453125
785		68.359375
786		62.500000
787		66.406250
788		62.500000
789		64.453125
790		60.546875
791		64.453125
792		58.593750
793		62.500000
794		56.640625
795		60.546875
796		54.687500
797		58.593750
798		52.734375
799		56.640625
800		50.781250
801		54.687500
802		48.828125
803		52.734375
804		46.875000
805		50.781250
806		44.921875
807		48.828125
808		42.968750
809		46.875000
810		39.062500
811		42.968750
812		37.109375
813		41.015625
814		33.203125
815		39.062500
816		31.250000
817		35.156250
818		27.343750
819		33.203125
820		25.390625
821		31.250000
822		23.437500
823		27.343750
824		19.531250
825		25.390625
826		17.578125
827		21.484375
828		13.671875
829		19.531250
830		9.765625
831		15.625000
832		7.812500
833		11.718750
834		5.859375
835		9.765625
836		1.953125
837		7.812500
838		0.000000
839		3.906250
840		-3.906250
841		0.000000
842		-5.859375
843		-1.953125
844		-9.765625
845		-5.859375
846		-11.718750
847		-7.812500
848		-13.671875
849		-11.718750
850		-17.578125
851		-13.671875
852		-19.531250
853		-15.625000
854		-23.437500
855		-19.531250
856		-25.390625
857		-21.484375
858		-27.343750
859		-23.437500
860		-29.296875
861		-25.390625
862		-33.203125
863		-27.343750
864		-33.203125
865		-29.296875
866		-37.109375
867		-31.250000
868		-39.062500
869		-33.203125
870		-39.062500
871		-35.156250
872		-41.015625
873		-37.109375
874		-42.968750
875		-39.062500
876		-44.921875
877		-41.015625
878		-44.921875
879		-41.015625
880		-46.875000
881		-42.968750
882		-46.875000
883		-42.968750
884		-46.875000
885		-44.921875
886		-48.828125
887		-44.921875
888		-48.828125
889		-44.921875
890		-48.828125
891		-46.875000
892		-48.828125
893		-44.921875
894		-48.828125
895		-44.921875
896		-48.828125
897		-44.921875
898		-48.828125
899		-44.921875
900		-48.828125
901		-44.921875
902		-48.828125
903		-42.968750
904		-46.875000
905		-42.968750
906		-44.921875
907		-42.968750
908		-44.921875
909		-41.015625
910		-42.968750
911		-39.062500
912		-41.015625
913		-39.062500
914		-41.015625
915		-35.156250
916		-39.062500
917		-35.156250
918		-37.109375
919		-33.203125
920		-35.156250
921		-31.250000
922		-33.203125
923		-29.296875
924		-31.250000
925		-27.343750
926		-29.296875
927		-25.390625
928		-27.343750
929		-21.484375
930		-23.437500
931		-19.531250
932		-21.484375
933		-17.578125
934		-19.531250
935		-13.671875
936		-17.578125
937		-11.718750
938		-13.671875
939		-9.765625
940		-11.718750
941		-5.859375
942		-9.765625
943		-3.906250
944		-5.859375
945		0.000000
946		-1.953125
947		1.953125
948		0.000000
949		5.859375
950		3.906250
951		7.812500
952		5.859375
953		11.718750
954		9.765625
955		13.671875
956		11.718750
957		17.578125
958		15.625000
959		19.531250
960		17.578125
961		23.437500
962		21.484375
963		25.390625
964		23.437500
965		29.296875
966		27.343750
967		31.250000
968		29.296875
969		33.203125
970		31.250000
971		37.109375
972		35.156250
973		39.062500
974		37.109375
975		42.968750
976		39.062500
977		44.921875
978		42.968750
979		46.875000
980		44.921875
981		48.828125
982		46.875000
983		52.734375
984		48.828125
985		52.734375
986		50.781250
987		56.640625
988		54.687500
989		56.640625
990		56.640625
991		58.593750
992		56.640625
993		60.546875
994		58.593750
995		62.500000
996		60.546875
997		64.453125
998		62.500000
999		66.406250
1000		64.453125
1001		66.406250
1002		64.453125
1003		68.359375
1004		66.406250
1005		68.359375
1006		66.406250
1007		70.312500
1008		68.359375
1009		70.312500
1010		68.359375
1011		72.265625
1012		68.359375
1013		72.265625
1014		68.359375
1015		72.265625
1016		68.359375
1017		72.265625
1018		68.359375
1019		72.265625
1020		70.312500
1021		74.218750
1022		70.312500
1023		72.265625
1024		70.312500
1025		72.265625
1026		68.359375
1027		72.265625
1028		68.359375
1029		72.265625
1030		68.359375
1031		72.265625
1032		66.406250
1033		70.312500
1034		66.406250
1035		70.312500
1036		64.453125
1037		68.359375
1038		64.453125
1039		66.406250
1040		62.500000
1041		66.406250
1042		60.546875
1043		64.453125
1044		58.593750
1045		64.453125
1046		56.640625
1047		60.546875
1048		54.687500
1049		60.546875
1050		54.687500
1051		58.593750
1052		52.734375
1053		56.640625
1054		50.781250
1055		54.687500
1056		46.875000
1057		50.781250
1058		44.921875
1059		48.828125
1060		42.968750
1061		46.875000
1062		41.015625
1063		44.921875
1064		39.062500
1065		42.968750
1066		35.156250
1067		39.062500
1068		33.203125
1069		37.109375
1070		29.296875
1071		35.156250
1072		27.343750
1073		31.250000
1074		23.437500
1075		29.296875
1076		21.484375
1077		25.390625
1078		17.578125
1079		23.437500
1080		15.625000
1081		21.484375
1082		11.718750
1083		17.578125
1084		9.765625
1085		13.671875
1086		5.859375
1087		11.718750
1088		3.906250
1089		7.812500
1090		0.000000
1091		5.859375
1092		-1.953125
1093		1.953125
1094		-5.859375
1095		0.000000
1096		-7.812500
1097		-3.906250
1098		-11.718750
1099		-5.859375
1100		-13.671875
1101		-9.765625
1102		-17.578125
1103		-11.718750
1104		-19.531250
1105		-15.625000
1106		-21.484375
1107		-17.578125
1108		-23.437500
1109		-19.531250
1110		-25.390625
1111		-21.484375
1112		-29.296875
1113		-23.437500
1114		-31.250000
1115		-27.343750
1116		-33.203125
1117		-29.296875
1118		-35.156250
1119		-31.250000
1120		-37.109375
1121		-33.203125
1122		-39.062500
1123		-35.156250
1124		-41.015625
1125		-37.109375
1126		-42.968750
1127		-37.109375
1128		-42.968750
1129		-39.062500
1130		-44.921875
1131		-41.015625
1132		-44.921875
1133		-41.015625
1134		-46.875000
1135		-42.968750
1136		-46.875000
1137		-44.921875
1138		-48.828125
1139		-44.921875
1140		-48.828125
1141		-44.921875
1142		-48.828125
1143		-44.921875
1144		-48.828125
1145		-44.921875
1146		-48.828125
1147		-46.875000
1148		-48.828125
1149		-44.921875
1150		-48.828125
1151		-44.921875
1152		-48.828125
1153		-44.921875
1154		-48.828125
1155		-44.921875
1156		-46.875000
1157		-44.921875
1158		-44.921875
1159		-42.968750
1160		-44.921875
1161		-41.015625
1162		-42.968750
1163		-41.015625
1164		-42.968750
1165		-39.062500
1166		-41.015625
1167		-37.109375
1168		-39.062500
1169		-37.109375
1170		-39.062500
1171		-33.203125
1172		-37.109375
1173		-33.203125
1174		-33.203125
1175		-31.250000
1176		-31.250000
1177		-27.343750
1178		-29.296875
1179		-25.390625
1180		-27.343750
1181		-23.437500
1182		-25.390625
1183		-21.484375
1184		-23.437500
1185		-19.531250
1186		-19.531250
1187		-15.625000
1188		-17.578125
1189		-13.671875
1190		-15.625000
1191		-11.718750
1192		-11.718750
1193		-7.812500
1194		-11.718750
1195		-5.859375
1196		-7.812500
1197		-1.953125
1198		-3.906250
1199		1.953125
1200		0.000000
1201		3.906250
1202		1.953125
1203		5.859375
1204		3.906250
1205		9.765625
1206		7.812500
1207		11.718750
1208		9.765625
1209		15.625000
1210		13.671875
1211		17.578125
1212		17.578125
1213		21.484375
1214		19.531250
1215		23.437500
1216		23.437500
1217		27.343750
1218		25.390625
1219		29.296875
1220		27.343750
1221		33.203125
1222		31.250000
1223		35.156250
1224		33.203125
1225		39.062500
1226		37.109375
1227		41.015625
1228		39.062500
1229		42.968750
1230		41.015625
1231		44.921875
1232		42.968750
1233		48.828125
1234		44.921875
1235		50.781250
1236		48.828125
1237		52.734375
1238		48.828125
1239		54.687500
1240		52.734375
1241		56.640625
1242		54.687500
1243		58.593750
1244		56.640625
1245		60.546875
1246		58.593750
1247		62.500000
1248		60.546875
1249		64.453125
1250		60.546875
1251		64.453125
1252		62.500000
1253		66.406250
1254		62.500000
1255		68.359375
1256		64.453125
1257		68.359375
1258		66.406250
1259		68.359375
1260		66.406250
1261		70.312500
1262		68.359375
1263		70.312500
1264		68.359375
1265		72.265625
1266		68.359375
1267		72.265625
1268		68.359375
1269		72.265625
1270		68.359375
1271		74.218750
1272		70.312500
1273		74.218750
1274		68.359375
1275		72.265625
1276		70.312500
1277		72.265625
1278		68.359375
1279		72.265625
1280		68.359375
1281		72.265625
1282		68.359375
1283		70.312500
1284		64.453125
1285		70.312500
1286		66.406250
1287		70.312500
1288		64.453125
1289		70.312500
1290		64.453125
1291		68.359375
1292		62.500000
1293		66.406250
1294		58.593750
1295		64.453125
1296		58.593750
1297		64.453125
1298		56.640625
1299		62.500000
1300		54.687500
1301		60.546875
1302		52.734375
1303		60.546875
1304		50.781250
1305		58.593750
1306		50.781250
1307		56.640625
1308		48.828125
1309		52.734375
1310		44.921875
1311		50.781250
1312		41.015625
1313		48.828125
1314		41.015625
1315		46.875000
1316		39.062500
1317		42.968750
1318		33.203125
1319		42.968750
1320		31.250000
1321		39.062500
1322		29.296875
1323		37.109375
1324		27.343750
1325		33.203125
1326		25.390625
1327		29.296875
1328		21.484375
1329		27.343750
1330		17.578125
1331		25.390625
1332		15.625000
1333		21.484375
1334		11.718750
1335		19.531250
1336		7.812500
1337		17.578125
1338		3.906250
1339		13.671875
1340		3.906250
1341		11.718750
1342		1.953125
1343		5.859375
1344		-3.906250
1345		3.906250
1346		-5.859375
1347		1.953125
1348		-9.765625
1349		-1.953125
1350		-11.718750
1351		-3.906250
1352		-15.625000
1353		-5.859375
1354		-17.578125
1355		-7.812500
1356		-19.531250
1357		-11.718750
1358		-21.484375
1359		-17.578125
1360		-23.437500
1361		-17.578125
1362		-27.343750
1363		-19.531250
1364		-31.250000
1365		-21.484375
1366		-33.203125
1367		-25.390625
1368		-35.156250
1369		-27.343750
1370		-37.109375
1371		-29.296875
1372		-39.062500
1373		-31.250000
1374		-39.062500
1375		-33.203125
1376		-41.015625
1377		-37.109375
1378		-42.968750
1379		-37.109375
1380		-44.921875
1381		-39.062500
1382		-46.875000
1383		-39.062500
1384		-46.875000
1385		-41.015625
1386		-48.828125
1387		-41.015625
1388		-48.828125
1389		-42.968750
1390		-50.781250
1391		-42.968750
1392		-48.828125
1393		-44.921875
1394		-48.828125
1395		-44.921875
1396		-50.781250
1397		-44.921875
1398		-50.781250
1399		-44.921875
1400		-50.781250
1401		-44.921875
1402		-50.781250
1403		-44.921875
1404		-50.781250
1405		-42.968750
1406		-50.781250
1407		-42.968750
1408		-46.875000
1409		-44.921875
1410		-46.875000
1411		-42.968750
1412		-46.875000
1413		-41.015625
1414		-46.875000
1415		-39.062500
1416		-44.921875
1417		-39.062500
1418		-44.921875
1419		-37.109375
1420		-42.968750
1421		-35.156250
1422		-41.015625
1423		-33.203125
1424		-39.062500
1425		-33.203125
1426		-35.156250
1427		-31.250000
1428		-33.203125
1429		-27.343750
1430		-33.203125
1431		-25.390625
1432		-31.250000
1433		-21.484375
1434		-29.296875
1435		-19.531250
1436		-25.390625
1437		-17.578125
1438		-23.437500
1439		-15.625000
1440		-21.484375
1441		-13.671875
1442		-17.578125
1443		-11.718750
1444		-13.671875
1445		-9.765625
1446		-13.671875
1447		-5.859375
1448		-9.765625
1449		-1.953125
1450		-7.812500
1451		1.953125
1452		-5.859375
1453		3.906250
1454		-1.953125
1455		7.812500
1456		1.953125
1457		9.765625
1458		5.859375
1459		11.718750
1460		9.765625
1461		13.671875
1462		11.718750
1463		19.531250
1464		13.671875
1465		21.484375
1466		15.625000
1467		25.390625
1468		17.578125
1469		27.343750
1470		21.484375
1471		31.250000
1472		25.390625
1473		33.203125
1474		27.343750
1475		35.156250
1476		33.203125
1477		37.109375
1478		35.156250
1479		39.062500
1480		35.156250
1481		42.968750
1482		37.109375
1483		46.875000
1484		41.015625
1485		48.828125
1486		42.968750
1487		50.781250
1488		44.921875
1489		52.734375
1490		48.828125
1491		54.687500
1492		50.781250
1493		54.687500
1494		52.734375
1495		56.640625
1496		54.687500
1497		60.546875
1498		54.687500
1499		62.500000
1500		56.640625
1501		64.453125
1502		58.593750
1503		66.406250
1504		58.593750
1505		68.359375
1506		60.546875
1507		68.359375
1508		62.500000
1509		68.359375
1510		66.406250
1511		68.359375
1512		66.406250
1513		70.312500
1514		64.453125
1515		72.265625
1516		66.406250
1517		72.265625
1518		66.406250
1519		74.218750
1520		66.406250
1521		74.218750
1522		68.359375
1523		74.218750
1524		66.406250
1525		74.218750
1526		70.312500
1527		72.265625
1528		70.312500
1529		72.265625
1530		68.359375
1531		74.218750
1532		66.406250
1533		74.218750
1534		66.406250
1535		74.218750
1536		64.453125
1537		72.265625
1538		64.453125
1539		72.265625
1540		62.500000
1541		70.312500
1542		64.453125
1543		70.312500
1544		62.500000
1545		66.406250
1546		58.593750
1547		66.406250
1548		58.593750
1549		66.406250
1550		56.640625
1551		64.453125
1552		54.687500
1553		62.500000
1554		52.734375
1555		60.546875
1556		50.781250
1557		58.593750
1558		50.781250
1559		58.593750
1560		48.828125
1561		52.734375
1562		46.875000
1563		50.781250
1564		42.968750
1565		50.781250
1566		41.015625
1567		48.828125
1568		39.062500
1569		44.921875
1570		35.156250
1571		42.968750
1572		31.250000
1573		41.015625
1574		29.296875
1575		37.109375
1576		29.296875
1577		33.203125
1578		25.390625
1579		31.250000
1580		21.484375
1581		29.296875
1582		17.578125
1583		27.343750
1584		15.625000
1585		25.390625
1586		11.718750
1587		21.484375
1588		9.765625
1589		17.578125
1590		5.859375
1591		15.625000
1592		5.859375
1593		11.718750
1594		1.953125
1595		7.812500
1596		-1.953125
1597		3.906250
1598		-5.859375
1599		1.953125
1600		-7.812500
1601		0.000000
1602		-11.718750
1603		-1.953125
1604		-13.671875
1605		-3.906250
1606		-17.578125
1607		-7.812500
1608		-19.531250
1609		-11.718750
1610		-19.531250
1611		-15.625000
1612		-23.437500
1613		-19.531250
1614		-27.343750
1615		-19.531250
1616		-29.296875
1617		-21.484375
1618		-31.250000
1619		-23.437500
1620		-35.156250
1621		-25.390625
1622		-37.109375
1623		-27.343750
1624		-39.062500
1625		-31.250000
1626		-39.062500
1627		-31.250000
1628		-39.062500
1629		-37.109375
1630		-42.968750
1631		-37.109375
1632		-44.921875
1633		-37.109375
1634		-46.875000
1635		-39.062500
1636		-46.875000
1637		-41.015625
1638		-48.828125
1639		-41.015625
1640		-48.828125
1641		-42.968750
1642		-50.781250
1643		-42.968750
1644		-48.828125
1645		-44.921875
1646		-48.828125
1647		-46.875000
1648		-50.781250
1649		-44.921875
1650		-50.781250
1651		-44.921875
1652		-52.734375
1653		-44.921875
1654		-52.734375
1655		-44.921875
1656		-50.781250
1657		-44.921875
1658		-50.781250
1659		-42.968750
1660		-48.828125
1661		-44.921875
1662		-46.875000
1663		-44.921875
1664		-48.828125
1665		-41.015625
1666		-46.875000
1667		-41.015625
1668		-46.875000
1669		-39.062500
1670		-44.921875
1671		-37.109375
1672		-42.968750
1673		-35.156250
1674		-42.968750
1675		-35.156250
1676		-41.015625
1677		-33.203125
1678		-37.109375
1679		-33.203125
1680		-35.156250
1681		-29.296875
1682		-33.203125
1683		-27.343750
1684		-31.250000
1685		-25.390625
1686		-29.296875
1687		-23.437500
1688		-27.343750
1689		-19.531250
1690		-23.437500
1691		-17.578125
1692		-21.484375
1693		-15.625000
1694		-17.578125
1695		-13.671875
1696		-15.625000
1697		-11.718750
1698		-13.671875
1699		-5.859375
1700		-11.718750
1701		-3.906250
1702		-9.765625
1703		0.000000
1704		-5.859375
1705		1.953125
1706		-1.953125
1707		5.859375
1708		0.000000
1709		9.765625
1710		3.906250
1711		9.765625
1712		7.812500
1713		11.718750
1714		11.718750
1715		17.578125
1716		11.718750
1717		19.531250
1718		15.625000
1719		23.437500
1720		17.578125
1721		25.390625
1722		21.484375
1723		29.296875
1724		23.437500
1725		31.250000
1726		25.390625
1727		33.203125
1728		31.250000
1729		35.156250
1730		33.203125
1731		39.062500
1732		35.156250
1733		42.968750
1734		37.109375
1735		44.921875
1736		39.062500
1737		48.828125
1738		41.015625
1739		48.828125
1740		44.921875
1741		50.781250
1742		46.875000
1743		54.687500
1744		50.781250
1745		54.687500
1746		52.734375
1747		56.640625
1748		52.734375
1749		60.546875
1750		54.687500
1751		62.500000
1752		56.640625
1753		62.500000
1754		58.593750
1755		66.406250
1756		58.593750
1757		66.406250
1758		60.546875
1759		68.359375
1760		62.500000
1761		68.359375
1762		64.453125
1763		68.359375
1764		64.453125
1765		70.312500
1766		64.453125
1767		72.265625
1768		64.453125
1769		72.265625
1770		66.406250
1771		74.218750
1772		66.406250
1773		74.218750
1774		66.406250
1775		74.218750
1776		66.406250
1777		74.218750
1778		70.312500
1779		72.265625
1780		70.312500
1781		72.265625
1782		66.406250
1783		74.218750
1784		66.406250
1785		74.218750
1786		66.406250
1787		72.265625
1788		64.453125
1789		72.265625
1790		64.453125
1791		72.265625
1792		64.453125
1793		70.312500
1794		64.453125
1795		70.312500
1796		64.453125
1797		66.406250
1798		60.546875
1799		66.406250
1800		58.593750
1801		66.406250
1802		56.640625
1803		64.453125
1804		54.687500
1805		62.500000
1806		54.687500
1807		60.546875
1808		50.781250
1809		60.546875
1810		50.781250
1811		58.593750
1812		50.781250
1813		52.734375
1814		46.875000
1815		50.781250
1816		42.968750
1817		52.734375
1818		41.015625
1819		48.828125
1820		39.062500
1821		46.875000
1822		35.156250
1823		42.968750
1824		33.203125
1825		41.015625
1826		29.296875
1827		39.062500
1828		29.296875
1829		35.156250
1830		27.343750
1831		31.250000
1832		21.484375
1833		29.296875
1834		19.531250
1835		27.343750
1836		15.625000
1837		25.390625
1838		13.671875
1839		21.484375
1840		11.718750
1841		19.531250
1842		7.812500
1843		15.625000
1844		5.859375
1845		13.671875
1846		3.906250
1847		7.812500
1848		0.000000
1849		5.859375
1850		-3.906250
1851		3.906250
1852		-7.812500
1853		0.000000
1854		-9.765625
1855		-1.953125
1856		-13.671875
1857		-5.859375
1858		-15.625000
1859		-7.812500
1860		-17.578125
1861		-9.765625
1862		-19.531250
1863		-15.625000
1864		-21.484375
1865		-17.578125
1866		-25.390625
1867		-19.531250
1868		-29.296875
1869		-21.484375
1870		-31.250000
1871		-23.437500
1872		-33.203125
1873		-25.390625
1874		-35.156250
1875		-27.343750
1876		-37.109375
1877		-29.296875
1878		-37.109375
1879		-31.250000
1880		-39.062500
1881		-35.156250
1882		-42.968750
1883		-37.109375
1884		-44.921875
1885		-37.109375
1886		-46.875000
1887		-39.062500
1888		-46.875000
1889		-39.062500
1890		-48.828125
1891		-41.015625
1892		-48.828125
1893		-42.968750
1894		-48.828125
1895		-42.968750
1896		-48.828125
1897		-44.921875
1898		-48.828125
1899		-46.875000
1900		-50.781250
1901		-44.921875
1902		-52.734375
1903		-44.921875
1904		-52.734375
1905		-44.921875
1906		-52.734375
1907		-44.921875
1908		-50.781250
1909		-44.921875
1910		-50.781250
1911		-44.921875
1912		-50.781250
1913		-44.921875
1914		-46.875000
1915		-44.921875
1916		-48.828125
1917		-41.015625
1918		-48.828125
1919		-41.015625
1920		-46.875000
1921		-39.062500
1922		-44.921875
1923		-39.062500
1924		-44.921875
1925		-37.109375
1926		-42.968750
1927		-35.156250
1928		-41.015625
1929		-35.156250
1930		-37.109375
1931		-33.203125
1932		-35.156250
1933		-29.296875
1934		-35.156250
1935		-27.343750
1936		-33.203125
1937		-25.390625
1938		-31.250000
1939		-23.437500
1940		-29.296875
1941		-21.484375
1942		-25.390625
1943		-17.578125
1944		-23.437500
1945		-15.625000
1946		-19.531250
1947		-15.625000
1948		-15.625000
1949		-11.718750
1950		-15.625000
1951		-7.812500
1952		-13.671875
1953		-3.906250
1954		-9.765625
1955		-1.953125
1956		-5.859375
1957		1.953125
1958		-3.906250
1959		3.906250
1960		-1.953125
1961		7.812500
1962		0.000000
1963		7.812500
1964		5.859375
1965		11.718750
1966		9.765625
1967		15.625000
1968		9.765625
1969		19.531250
1970		13.671875
1971		21.484375
1972		15.625000
1973		25.390625
1974		19.531250
1975		27.343750
1976		21.484375
1977		31.250000
1978		25.390625
1979		33.203125
1980		29.296875
1981		33.203125
1982		33.203125
1983		37.109375
1984		33.203125
1985		41.015625
1986		35.156250
1987		42.968750
1988		39.062500
1989		46.875000
1990		41.015625
1991		48.828125
1992		42.968750
1993		50.781250
1994		44.921875
1995		52.734375
1996		48.828125
1997		52.734375
1998		50.781250
1999		54.687500
2000		52.734375
2001		58.593750
2002		52.734375
2003		60.546875
2004		54.687500
2005		62.500000
2006		56.640625
2007		64.453125
2008		58.593750
2009		66.406250
2010		60.546875
2011		66.406250
2012		62.500000
2013		68.359375
2014		64.453125
2015		68.359375
2016		64.453125
2017		70.312500
2018		64.453125
2019		70.312500
2020		64.453125
2021		72.265625
2022		66.406250
2023		72.265625
2024		66.406250
2025		72.265625
2026		66.406250
2027		74.218750
2028		66.406250
2029		74.218750
2030		68.359375
2031		72.265625
2032		68.359375
2033		72.265625
2034		66.406250
2035		74.218750
2036		66.406250
2037		74.218750
2038		66.406250
2039		72.265625
2040		64.453125
2041		72.265625
2042		64.453125
2043		72.265625
2044		64.453125
2045		70.312500
2046		64.453125
2047		70.312500
2048		64.453125
2049		66.406250
2050		60.546875
2051		66.406250
2052		58.593750
2053		66.406250
2054		56.640625
2055		66.406250
2056		54.687500
2057		64.453125
2058		54.687500
2059		60.546875
2060		52.734375
2061		60.546875
2062		50.781250
2063		58.593750
2064		50.781250
2065		54.687500
2066		48.828125
2067		52.734375
2068		42.968750
2069		50.781250
2070		41.015625
2071		48.828125
2072		39.062500
2073		46.875000
2074		37.109375
2075		44.921875
2076		33.203125
2077		42.968750
2078		31.250000
2079		41.015625
2080		31.250000
2081		37.109375
2082		27.343750
2083		33.203125
2084		23.437500
2085		29.296875
2086		19.531250
2087		29.296875
2088		17.578125
2089		25.390625
2090		13.671875
2091		23.437500
2092		11.718750
2093		19.531250
2094		7.812500
2095		17.578125
2096		5.859375
2097		13.671875
2098		3.906250
2099		9.765625
2100		0.000000
2101		5.859375
2102		-3.906250
2103		5.859375
2104		-5.859375
2105		1.953125
2106		-9.765625
2107		0.000000
2108		-11.718750
2109		-3.906250
2110		-15.625000
2111		-5.859375
2112		-17.578125
2113		-9.765625
2114		-17.578125
2115		-11.718750
2116		-21.484375
2117		-15.625000
2118		-25.390625
2119		-17.578125
2120		-27.343750
2121		-19.531250
2122		-31.250000
2123		-23.437500
2124		-33.203125
2125		-23.437500
2126		-35.156250
2127		-27.343750
2128		-37.109375
2129		-29.296875
2130		-37.109375
2131		-31.250000
2132		-39.062500
2133		-35.156250
2134		-42.968750
2135		-37.109375
2136		-44.921875
2137		-37.109375
2138		-46.875000
2139		-39.062500
2140		-46.875000
2141		-39.062500
2142		-48.828125
2143		-41.015625
2144		-48.828125
2145		-41.015625
2146		-50.781250
2147		-42.968750
2148		-48.828125
2149		-44.921875
2150		-48.828125
2151		-46.875000
2152		-50.781250
2153		-44.921875
2154		-52.734375
2155		-44.921875
2156		-52.734375
2157		-44.921875
2158		-52.734375
2159		-44.921875
2160		-52.734375
2161		-44.921875
2162		-50.781250
2163		-44.921875
2164		-50.781250
2165		-44.921875
2166		-48.828125
2167		-44.921875
2168		-48.828125
2169		-42.968750
2170		-48.828125
2171		-41.015625
2172		-46.875000
2173		-41.015625
2174		-46.875000
2175		-39.062500
2176		-46.875000
2177		-37.109375
2178		-42.968750
2179		-35.156250
2180		-42.968750
2181		-35.156250
2182		-39.062500
2183		-35.156250
2184		-37.109375
2185		-31.250000
2186		-37.109375
2187		-27.343750
2188		-35.156250
2189		-25.390625
2190		-31.250000
2191		-23.437500
2192		-29.296875
2193		-21.484375
2194		-27.343750
2195		-19.531250
2196		-25.390625
2197		-17.578125
2198		-21.484375
2199		-15.625000
2200		-17.578125
2201		-13.671875
2202		-15.625000
2203		-7.812500
2204		-15.625000
2205		-5.859375
2206		-11.718750
2207		-3.906250
2208		-7.812500
2209		0.000000
2210		-5.859375
2211		3.906250
2212		-1.953125
2213		5.859375
2214		0.000000
2215		5.859375
2216		5.859375
2217		9.765625
2218		7.812500
2219		15.625000
2220		9.765625
2221		17.578125
2222		11.718750
2223		21.484375
2224		13.671875
2225		23.437500
2226		17.578125
2227		27.343750
2228		21.484375
2229		29.296875
2230		23.437500
2231		31.250000
2232		27.343750
2233		33.203125
2234		31.250000
2235		35.156250
2236		33.203125
2237		39.062500
2238		33.203125
2239		42.968750
2240		37.109375
2241		44.921875
2242		39.062500
2243		46.875000
2244		41.015625
2245		50.781250
2246		44.921875
2247		52.734375
2248		46.875000
2249		52.734375
2250		50.781250
2251		54.687500
2252		50.781250
2253		58.593750
2254		52.734375
2255		60.546875
2256		54.687500
2257		62.500000
2258		54.687500
2259		62.500000
2260		56.640625
2261		64.453125
2262		58.593750
2263		66.406250
2264		60.546875
2265		68.359375
2266		64.453125
2267		66.406250
2268		64.453125
2269		68.359375
2270		62.500000
2271		72.265625
2272		64.453125
2273		72.265625
2274		64.453125
2275		72.265625
2276		66.406250
2277		72.265625
2278		66.406250
2279		72.265625
2280		66.406250
2281		74.218750
2282		68.359375
2283		72.265625
2284		68.359375
2285		72.265625
2286		66.406250
2287		72.265625
2288		66.406250
2289		74.218750
2290		66.406250
2291		72.265625
2292		64.453125
2293		72.265625
2294		64.453125
2295		72.265625
2296		62.500000
2297		70.312500
2298		62.500000
2299		70.312500
2300		64.453125
2301		66.406250
2302		60.546875
2303		66.406250
2304		58.593750
2305		66.406250
2306		58.593750
2307		64.453125
2308		56.640625
2309		64.453125
2310		52.734375
2311		62.500000
2312		52.734375
2313		60.546875
2314		50.781250
2315		58.593750
2316		50.781250
2317		54.687500
2318		48.828125
2319		52.734375
2320		44.921875
2321		50.781250
2322		41.015625
2323		50.781250
2324		39.062500
2325		46.875000
2326		37.109375
2327		46.875000
2328		35.156250
2329		42.968750
2330		31.250000
2331		39.062500
2332		31.250000
2333		37.109375
2334		29.296875
2335		33.203125
2336		23.437500
2337		29.296875
2338		21.484375
2339		29.296875
2340		17.578125
2341		27.343750
2342		15.625000
2343		23.437500
2344		11.718750
2345		21.484375
2346		9.765625
2347		17.578125
2348		7.812500
2349		15.625000
2350		5.859375
2351		9.765625
2352		1.953125
2353		5.859375
2354		-1.953125
2355		5.859375
2356		-5.859375
2357		1.953125
2358		-7.812500
2359		0.000000
2360		-11.718750
2361		-3.906250
2362		-15.625000
2363		-5.859375
2364		-17.578125
2365		-7.812500
2366		-17.578125
2367		-13.671875
2368		-19.531250
2369		-15.625000
2370		-25.390625
2371		-17.578125
2372		-27.343750
2373		-19.531250
2374		-29.296875
2375		-21.484375
2376		-33.203125
2377		-23.437500
2378		-35.156250
2379		-27.343750
2380		-37.109375
2381		-29.296875
2382		-37.109375
2383		-31.250000
2384		-39.062500
2385		-35.156250
2386		-42.968750
2387		-37.109375
2388		-44.921875
2389		-37.109375
2390		-44.921875
2391		-39.062500
2392		-46.875000
2393		-39.062500
2394		-48.828125
2395		-41.015625
2396		-48.828125
2397		-41.015625
2398		-48.828125
2399		-42.968750
2400		-48.828125
2401		-44.921875
2402		-48.828125
2403		-46.875000
2404		-52.734375
2405		-44.921875
2406		-52.734375
2407		-44.921875
2408		-52.734375
2409		-44.921875
2410		-52.734375
2411		-44.921875
2412		-52.734375
2413		-44.921875
2414		-52.734375
2415		-44.921875
2416		-50.781250
2417		-44.921875
2418		-48.828125
2419		-44.921875
2420		-50.781250
2421		-42.968750
2422		-48.828125
2423		-42.968750
2424		-48.828125
2425		-41.015625
2426		-46.875000
2427		-39.062500
2428		-46.875000
2429		-39.062500
2430		-44.921875
2431		-37.109375
2432		-42.968750
2433		-37.109375
2434		-39.062500
2435		-35.156250
2436		-37.109375
2437		-33.203125
2438		-37.109375
2439		-29.296875
2440		-35.156250
2441		-27.343750
2442		-33.203125
2443		-25.390625
2444		-31.250000
2445		-23.437500
2446		-29.296875
2447		-21.484375
2448		-25.390625
2449		-17.578125
2450		-23.437500
2451		-17.578125
2452		-19.531250
2453		-15.625000
2454		-17.578125
2455		-9.765625
2456		-15.625000
2457		-5.859375
2458		-13.671875
2459		-3.906250
2460		-9.765625
2461		-1.953125
2462		-7.812500
2463		1.953125
2464		-3.906250
2465		3.906250
2466		-1.953125
2467		5.859375
2468		3.906250
2469		7.812500
2470		5.859375
2471		11.718750
2472		7.812500
2473		15.625000
2474		9.765625
2475		19.531250
2476		13.671875
2477		21.484375
2478		17.578125
2479		25.390625
2480		19.531250
2481		27.343750
2482		23.437500
2483		29.296875
2484		27.343750
2485		31.250000
2486		29.296875
2487		35.156250
2488		31.250000
2489		39.062500
2490		33.203125
2491		41.015625
2492		35.156250
2493		44.921875
2494		39.062500
2495		46.875000
2496		41.015625
2497		48.828125
2498		42.968750
2499		50.781250
2500		44.921875
2501		50.781250
2502		48.828125
2503		54.687500
2504		50.781250
2505		56.640625
2506		50.781250
2507		58.593750
2508		52.734375
2509		60.546875
2510		54.687500
2511		62.500000
2512		56.640625
2513		64.453125
2514		56.640625
2515		64.453125
2516		58.593750
2517		66.406250
2518		62.500000
2519		66.406250
2520		64.453125
2521		66.406250
2522		62.500000
2523		70.312500
2524		62.500000
2525		70.312500
2526		64.453125
2527		72.265625
2528		64.453125
2529		72.265625
2530		64.453125
2531		72.265625
2532		66.406250
2533		72.265625
2534		68.359375
2535		72.265625
2536		68.359375
2537		70.312500
2538		66.406250
2539		74.218750
2540		66.406250
2541		72.265625
2542		64.453125
2543		72.265625
2544		64.453125
2545		72.265625
2546		64.453125
2547		72.265625
2548		64.453125
2549		70.312500
2550		62.500000
2551		70.312500
2552		64.453125
2553		66.406250
2554		62.500000
2555		66.406250
2556		58.593750
2557		66.406250
2558		58.593750
2559		66.406250
2560		56.640625
2561		64.453125
2562		54.687500
2563		62.500000
2564		52.734375
2565		60.546875
2566		50.781250
2567		58.593750
2568		50.781250
2569		54.687500
2570		48.828125
2571		52.734375
2572		44.921875
2573		52.734375
2574		42.968750
2575		50.781250
2576		41.015625
2577		48.828125
2578		37.109375
2579		46.875000
2580		35.156250
2581		44.921875
2582		31.250000
2583		41.015625
2584		31.250000
2585		39.062500
2586		29.296875
2587		33.203125
2588		25.390625
2589		31.250000
2590		21.484375
2591		31.250000
2592		17.578125
2593		27.343750
2594		15.625000
2595		25.390625
2596		11.718750
2597		21.484375
2598		9.765625
2599		17.578125
2600		7.812500
2601		15.625000
2602		5.859375
2603		9.765625
2604		3.906250
2605		7.812500
2606		-1.953125
2607		5.859375
2608		-3.906250
2609		3.906250
2610		-7.812500
2611		1.953125
2612		-11.718750
2613		-1.953125
2614		-13.671875
2615		-5.859375
2616		-15.625000
2617		-7.812500
2618		-17.578125
2619		-11.718750
2620		-19.531250
2621		-15.625000
2622		-25.390625
2623		-17.578125
2624		-27.343750
2625		-19.531250
2626		-29.296875
2627		-21.484375
2628		-33.203125
2629		-23.437500
2630		-35.156250
2631		-27.343750
2632		-37.109375
2633		-27.343750
2634		-37.109375
2635		-31.250000
2636		-37.109375
2637		-35.156250
2638		-41.015625
2639		-37.109375
2640		-44.921875
2641		-37.109375
2642		-44.921875
2643		-37.109375
2644		-46.875000
2645		-39.062500
2646		-48.828125
2647		-41.015625
2648		-48.828125
2649		-41.015625
2650		-50.781250
2651		-42.968750
2652		-48.828125
2653		-46.875000
2654		-48.828125
2655		-46.875000
2656		-52.734375
2657		-44.921875
2658		-52.734375
2659		-44.921875
2660		-52.734375
2661		-44.921875
2662		-52.734375
2663		-46.875000
2664		-52.734375
2665		-44.921875
2666		-52.734375
2667		-44.921875
2668		-52.734375
2669		-44.921875
2670		-48.828125
2671		-46.875000
2672		-50.781250
2673		-44.921875
2674		-50.781250
2675		-42.968750
2676		-50.781250
2677		-42.968750
2678		-48.828125
2679		-41.015625
2680		-46.875000
2681		-41.015625
2682		-44.921875
2683		-37.109375
2684		-42.968750
2685		-37.109375
2686		-41.015625
2687		-37.109375
2688		-39.062500
2689		-35.156250
2690		-39.062500
2691		-31.250000
2692		-37.109375
2693		-29.296875
2694		-35.156250
2695		-27.343750
2696		-33.203125
2697		-23.437500
2698		-31.250000
2699		-21.484375
2700		-27.343750
2701		-19.531250
2702		-25.390625
2703		-19.531250
2704		-21.484375
2705		-15.625000
2706		-17.578125
2707		-11.718750
2708		-17.578125
2709		-7.812500
2710		-13.671875
2711		-5.859375
2712		-11.718750
2713		-3.906250
2714		-9.765625
2715		0.000000
2716		-5.859375
2717		1.953125
2718		-1.953125
2719		3.906250
2720		1.953125
2721		7.812500
2722		3.906250
2723		11.718750
2724		5.859375
2725		15.625000
2726		9.765625
2727		17.578125
2728		11.718750
2729		21.484375
2730		15.625000
2731		23.437500
2732		17.578125
2733		27.343750
2734		19.531250
2735		29.296875
2736		25.390625
2737		29.296875
2738		29.296875
2739		33.203125
2740		29.296875
2741		37.109375
2742		31.250000
2743		41.015625
2744		35.156250
2745		42.968750
2746		37.109375
2747		44.921875
2748		39.062500
2749		46.875000
2750		41.015625
2751		48.828125
2752		44.921875
2753		50.781250
2754		48.828125
2755		52.734375
2756		48.828125
2757		56.640625
2758		50.781250
2759		58.593750
2760		52.734375
2761		60.546875
2762		54.687500
2763		60.546875
2764		54.687500
2765		62.500000
2766		56.640625
2767		64.453125
2768		58.593750
2769		66.406250
2770		62.500000
2771		64.453125
2772		62.500000
2773		66.406250
2774		62.500000
2775		68.359375
2776		62.500000
2777		70.312500
2778		64.453125
2779		70.312500
2780		64.453125
2781		72.265625
2782		64.453125
2783		72.265625
2784		64.453125
2785		72.265625
2786		66.406250
2787		72.265625
2788		68.359375
2789		70.312500
2790		66.406250
2791		72.265625
2792		66.406250
2793		72.265625
2794		64.453125
2795		72.265625
2796		64.453125
2797		72.265625
2798		64.453125
2799		72.265625
2800		64.453125
2801		70.312500
2802		64.453125
2803		70.312500
2804		64.453125
2805		66.406250
2806		62.500000
2807		66.406250
2808		58.593750
2809		66.406250
2810		58.593750
2811		66.406250
2812		56.640625
2813		64.453125
2814		54.687500
2815		62.500000
2816		54.687500
2817		60.546875
2818		52.734375
2819		58.593750
2820		52.734375
2821		56.640625
2822		48.828125
2823		52.734375
2824		44.921875
2825		52.734375
2826		42.968750
2827		50.781250
2828		41.015625
2829		48.828125
2830		39.062500
2831		46.875000
2832		35.156250
2833		44.921875
2834		33.203125
2835		41.015625
2836		31.250000
2837		39.062500
2838		31.250000
2839		35.156250
2840		25.390625
2841		31.250000
2842		23.437500
2843		31.250000
2844		19.531250
2845		27.343750
2846		15.625000
2847		25.390625
2848		13.671875
2849		21.484375
2850		11.718750
2851		19.531250
2852		7.812500
2853		17.578125
2854		7.812500
2855		11.718750
2856		3.906250
2857		7.812500
2858		0.000000
2859		5.859375
2860		-3.906250
2861		3.906250
2862		-7.812500
2863		1.953125
2864		-9.765625
2865		-1.953125
2866		-13.671875
2867		-3.906250
2868		-15.625000
2869		-7.812500
2870		-15.625000
2871		-9.765625
2872		-19.531250
2873		-15.625000
2874		-23.437500
2875		-17.578125
2876		-25.390625
2877		-17.578125
2878		-29.296875
2879		-21.484375
2880		-33.203125
2881		-23.437500
2882		-33.203125
2883		-25.390625
2884		-35.156250
2885		-27.343750
2886		-37.109375
2887		-29.296875
2888		-37.109375
2889		-33.203125
2890		-39.062500
2891		-35.156250
2892		-42.968750
2893		-35.156250
2894		-44.921875
2895		-37.109375
2896		-46.875000
2897		-39.062500
2898		-48.828125
2899		-41.015625
2900		-48.828125
2901		-41.015625
2902		-50.781250
2903		-42.968750
2904		-48.828125
2905		-44.921875
2906		-48.828125
2907		-46.875000
2908		-52.734375
2909		-44.921875
2910		-52.734375
2911		-46.875000
2912		-52.734375
2913		-46.875000
2914		-52.734375
2915		-46.875000
2916		-52.734375
2917		-46.875000
2918		-52.734375
2919		-46.875000
2920		-52.734375
2921		-46.875000
2922		-50.781250
2923		-46.875000
2924		-50.781250
2925		-44.921875
2926		-50.781250
2927		-42.968750
2928		-50.781250
2929		-42.968750
2930		-48.828125
2931		-41.015625
2932		-46.875000
2933		-41.015625
2934		-46.875000
2935		-39.062500
2936		-44.921875
2937		-37.109375
2938		-41.015625
2939		-37.109375
2940		-39.062500
2941		-35.156250
2942		-39.062500
2943		-31.250000
2944		-39.062500
2945		-29.296875
2946		-35.156250
2947		-27.343750
2948		-33.203125
2949		-25.390625
2950		-31.250000
2951		-23.437500
2952		-29.296875
2953		-19.531250
2954		-25.390625
2955		-19.531250
2956		-21.484375
2957		-17.578125
2958		-19.531250
2959		-11.718750
2960		-19.531250
2961		-9.765625
2962		-15.625000
2963		-7.812500
2964		-13.671875
2965		-3.906250
2966		-9.765625
2967		-1.953125
2968		-5.859375
2969		1.953125
2970		-3.906250
2971		3.906250
2972		0.000000
2973		5.859375
2974		3.906250
2975		7.812500
2976		5.859375
2977		13.671875
2978		7.812500
2979		15.625000
2980		11.718750
2981		19.531250
2982		13.671875
2983		21.484375
2984		15.625000
2985		25.390625
2986		19.531250
2987		27.343750
2988		23.437500
2989		29.296875
2990		27.343750
2991		31.250000
2992		29.296875
2993		37.109375
2994		29.296875
2995		39.062500
2996		33.203125
2997		41.015625
2998		35.156250
2999		42.968750
3000		39.062500
3001		46.875000
3002		41.015625
3003		48.828125
3004		42.968750
3005		48.828125
3006		46.875000
3007		50.781250
3008		48.828125
3009		54.687500
3010		48.828125
3011		56.640625
3012		50.781250
3013		58.593750
3014		52.734375
3015		60.546875
3016		54.687500
3017		62.500000
3018		56.640625
3019		64.453125
3020		58.593750
3021		64.453125
3022		62.500000
3023		64.453125
3024		62.500000
3025		66.406250
3026		62.500000
3027		68.359375
3028		62.500000
3029		70.312500
3030		62.500000
3031		70.312500
3032		64.453125
3033		72.265625
3034		64.453125
3035		72.265625
3036		64.453125
3037		72.265625
3038		66.406250
3039		72.265625
3040		68.359375
3041		70.312500
3042		66.406250
3043		72.265625
3044		66.406250
3045		72.265625
3046		66.406250
3047		72.265625
3048		64.453125
3049		72.265625
3050		64.453125
3051		70.312500
3052		64.453125
3053		70.312500
3054		64.453125
3055		70.312500
3056		64.453125
3057		66.406250
3058		62.500000
3059		66.406250
3060		60.546875
3061		66.406250
3062		58.593750
3063		66.406250
3064		56.640625
3065		64.453125
3066		54.687500
3067		62.500000
3068		54.687500
3069		62.500000
3070		52.734375
3071		60.546875
3072		52.734375
3073		56.640625
3074		50.781250
3075		54.687500
3076		46.875000
3077		52.734375
3078		44.921875
3079		52.734375
3080		41.015625
3081		50.781250
3082		39.062500
3083		46.875000
3084		37.109375
3085		44.921875
3086		33.203125
3087		42.968750
3088		33.203125
3089		39.062500
3090		31.250000
3091		35.156250
3092		25.390625
3093		33.203125
3094		23.437500
3095		33.203125
3096		19.531250
3097		29.296875
3098		17.578125
3099		25.390625
3100		15.625000
3101		23.437500
3102		11.718750
3103		21.484375
3104		9.765625
3105		17.578125
3106		7.812500
3107		11.718750
3108		5.859375
3109		9.765625
3110		0.000000
3111		7.812500
3112		-3.906250
3113		5.859375
3114		-5.859375
3115		3.906250
3116		-9.765625
3117		0.000000
3118		-11.718750
3119		-3.906250
3120		-15.625000
3121		-5.859375
3122		-15.625000
3123		-9.765625
3124		-17.578125
3125		-13.671875
3126		-23.437500
3127		-15.625000
3128		-25.390625
3129		-17.578125
3130		-27.343750
3131		-19.531250
3132		-31.250000
3133		-21.484375
3134		-33.203125
3135		-23.437500
3136		-35.156250
3137		-27.343750
3138		-37.109375
3139		-29.296875
3140		-37.109375
3141		-33.203125
3142		-39.062500
3143		-35.156250
3144		-42.968750
3145		-35.156250
3146		-44.921875
3147		-37.109375
3148		-46.875000
3149		-39.062500
3150		-46.875000
3151		-41.015625
3152		-48.828125
3153		-41.015625
3154		-50.781250
3155		-42.968750
3156		-50.781250
3157		-42.968750
3158		-50.781250
3159		-46.875000
3160		-52.734375
3161		-44.921875
3162		-52.734375
3163		-44.921875
3164		-52.734375
3165		-44.921875
3166		-52.734375
3167		-44.921875
3168		-52.734375
3169		-46.875000
3170		-52.734375
3171		-44.921875
3172		-52.734375
3173		-46.875000
3174		-50.781250
3175		-46.875000
3176		-50.781250
3177		-46.875000
3178		-50.781250
3179		-44.921875
3180		-50.781250
3181		-42.968750
3182		-48.828125
3183		-41.015625
3184		-48.828125
3185		-41.015625
3186		-46.875000
3187		-39.062500
3188		-44.921875
3189		-39.062500
3190		-41.015625
3191		-39.062500
3192		-41.015625
3193		-37.109375
3194		-39.062500
3195		-33.203125
3196		-39.062500
3197		-29.296875
3198		-37.109375
3199		-29.296875
3200		-35.156250
3201		-27.343750
3202		-31.250000
3203		-23.437500
3204		-29.296875
3205		-21.484375
3206		-27.343750
3207		-21.484375
3208		-23.437500
3209		-19.531250
3210		-19.531250
3211		-13.671875
3212		-19.531250
3213		-11.718750
3214		-17.578125
3215		-7.812500
3216		-13.671875
3217		-5.859375
3218		-11.718750
3219		-1.953125
3220		-7.812500
3221		0.000000
3222		-5.859375
3223		1.953125
3224		0.000000
3225		3.906250
3226		1.953125
3227		7.812500
3228		3.906250
3229		11.718750
3230		7.812500
3231		15.625000
3232		9.765625
3233		17.578125
3234		11.718750
3235		21.484375
3236		15.625000
3237		25.390625
3238		17.578125
3239		27.343750
3240		21.484375
3241		27.343750
3242		25.390625
3243		29.296875
3244		29.296875
3245		35.156250
3246		29.296875
3247		39.062500
3248		31.250000
3249		41.015625
3250		35.156250
3251		42.968750
3252		37.109375
3253		44.921875
3254		39.062500
3255		46.875000
3256		42.968750
3257		48.828125
3258		46.875000
3259		50.781250
3260		48.828125
3261		52.734375
3262		48.828125
3263		56.640625
3264		50.781250
3265		58.593750
3266		52.734375
3267		60.546875
3268		54.687500
3269		62.500000
3270		54.687500
3271		62.500000
3272		56.640625
3273		64.453125
3274		60.546875
3275		64.453125
3276		62.500000
3277		66.406250
3278		62.500000
3279		68.359375
3280		62.500000
3281		70.312500
3282		62.500000
3283		70.312500
3284		64.453125
3285		70.312500
3286		64.453125
3287		72.265625
3288		64.453125
3289		72.265625
3290		64.453125
3291		72.265625
3292		68.359375
3293		70.312500
3294		66.406250
3295		72.265625
3296		66.406250
3297		72.265625
3298		66.406250
3299		72.265625
3300		64.453125
3301		72.265625
3302		64.453125
3303		72.265625
3304		64.453125
3305		70.312500
3306		64.453125
3307		70.312500
3308		64.453125
3309		68.359375
3310		64.453125
3311		66.406250
3312		60.546875
3313		68.359375
3314		58.593750
3315		66.406250
3316		58.593750
3317		66.406250
3318		56.640625
3319		64.453125
3320		54.687500
3321		62.500000
3322		52.734375
3323		60.546875
3324		52.734375
3325		58.593750
3326		50.781250
3327		54.687500
3328		46.875000
3329		54.687500
3330		44.921875
3331		52.734375
3332		42.968750
3333		50.781250
3334		41.015625
3335		48.828125
3336		39.062500
3337		46.875000
3338		35.156250
3339		42.968750
3340		33.203125
3341		41.015625
3342		33.203125
3343		37.109375
3344		27.343750
3345		33.203125
3346		23.437500
3347		31.250000
3348		21.484375
3349		29.296875
3350		19.531250
3351		27.343750
3352		15.625000
3353		25.390625
3354		13.671875
3355		21.484375
3356		9.765625
3357		17.578125
3358		9.765625
3359		13.671875
3360		5.859375
3361		9.765625
3362		1.953125
3363		7.812500
3364		-1.953125
3365		5.859375
3366		-3.906250
3367		1.953125
3368		-5.859375
3369		0.000000
3370		-9.765625
3371		-3.906250
3372		-11.718750
3373		-7.812500
3374		-13.671875
3375		-7.812500
3376		-17.578125
3377		-11.718750
3378		-21.484375
3379		-15.625000
3380		-25.390625
3381		-15.625000
3382		-27.343750
3383		-19.531250
3384		-29.296875
3385		-21.484375
3386		-31.250000
3387		-25.390625
3388		-33.203125
3389		-27.343750
3390		-35.156250
3391		-27.343750
3392		-35.156250
3393		-33.203125
3394		-39.062500
3395		-35.156250
3396		-42.968750
3397		-35.156250
3398		-42.968750
3399		-35.156250
3400		-44.921875
3401		-37.109375
3402		-44.921875
3403		-41.015625
3404		-46.875000
3405		-42.968750
3406		-48.828125
3407		-42.968750
3408		-48.828125
3409		-44.921875
3410		-48.828125
3411		-46.875000
3412		-52.734375
3413		-44.921875
3414		-52.734375
3415		-44.921875
3416		-52.734375
3417		-46.875000
3418		-50.781250
3419		-48.828125
3420		-50.781250
3421		-48.828125
3422		-50.781250
3423		-48.828125
3424		-50.781250
3425		-46.875000
3426		-50.781250
3427		-48.828125
3428		-50.781250
3429		-46.875000
3430		-52.734375
3431		-44.921875
3432		-52.734375
3433		-42.968750
3434		-46.875000
3435		-44.921875
3436		-46.875000
3437		-42.968750
3438		-44.921875
3439		-41.015625
3440		-44.921875
3441		-39.062500
3442		-42.968750
3443		-39.062500
3444		-41.015625
3445		-37.109375
3446		-39.062500
3447		-35.156250
3448		-39.062500
3449		-33.203125
3450		-35.156250
3451		-31.250000
3452		-33.203125
3453		-29.296875
3454		-31.250000
3455		-27.343750
3456		-29.296875
3457		-25.390625
3458		-27.343750
3459		-21.484375
3460		-23.437500
3461		-19.531250
3462		-21.484375
3463		-15.625000
3464		-19.531250
3465		-13.671875
3466		-15.625000
3467		-11.718750
3468		-13.671875
3469		-9.765625
3470		-9.765625
3471		-5.859375
3472		-7.812500
3473		-3.906250
3474		-3.906250
3475		0.000000
3476		-1.953125
3477		1.953125
3478		1.953125
3479		5.859375
3480		3.906250
3481		7.812500
3482		7.812500
3483		11.718750
3484		9.765625
3485		15.625000
3486		13.671875
3487		17.578125
3488		15.625000
3489		21.484375
3490		19.531250
3491		25.390625
3492		21.484375
3493		25.390625
3494		25.390625
3495		29.296875
3496		27.343750
3497		31.250000
3498		29.296875
3499		35.156250
3500		33.203125
3501		37.109375
3502		35.156250
3503		39.062500
3504		37.109375
3505		42.968750
3506		41.015625
3507		44.921875
3508		42.968750
3509		46.875000
3510		44.921875
3511		48.828125
3512		46.875000
3513		50.781250
3514		48.828125
3515		52.734375
3516		50.781250
3517		56.640625
3518		52.734375
3519		56.640625
3520		54.687500
3521		58.593750
3522		56.640625
3523		60.546875
3524		58.593750
3525		62.500000
3526		58.593750
3527		62.500000
3528		62.500000
3529		64.453125
3530		60.546875
3531		66.406250
3532		64.453125
3533		66.406250
3534		64.453125
3535		68.359375
3536		64.453125
3537		68.359375
3538		66.406250
3539		70.312500
3540		66.406250
3541		70.312500
3542		66.406250
3543		70.312500
3544		68.359375
3545		70.312500
3546		66.406250
3547		72.265625
3548		68.359375
3549		70.312500
3550		66.406250
3551		70.312500
3552		66.406250
3553		70.312500
3554		66.406250
3555		70.312500
3556		64.453125
3557		70.312500
3558		66.406250
3559		68.359375
3560		64.453125
3561		68.359375
3562		64.453125
3563		66.406250
3564		62.500000
3565		66.406250
3566		62.500000
3567		64.453125
3568		60.546875
3569		64.453125
3570		58.593750
3571		62.500000
3572		56.640625
3573		60.546875
3574		54.687500
3575		60.546875
3576		52.734375
3577		58.593750
3578		52.734375
3579		54.687500
3580		50.781250
3581		52.734375
3582		48.828125
3583		50.781250
3584		44.921875
3585		48.828125
3586		42.968750
3587		46.875000
3588		41.015625
3589		46.875000
3590		39.062500
3591		42.968750
3592		35.156250
3593		41.015625
3594		33.203125
3595		37.109375
3596		31.250000
3597		35.156250
3598		27.343750
3599		33.203125
3600		25.390625
3601		29.296875
3602		21.484375
3603		27.343750
3604		17.578125
3605		23.437500
3606		15.625000
3607		21.484375
3608		13.671875
3609		17.578125
3610		9.765625
3611		15.625000
3612		7.812500
3613		11.718750
3614		3.906250
3615		7.812500
3616		0.000000
3617		5.859375
3618		-1.953125
3619		3.906250
3620		-3.906250
3621		0.000000
3622		-7.812500
3623		-1.953125
3624		-9.765625
3625		-5.859375
3626		-13.671875
3627		-7.812500
3628		-15.625000
3629		-11.718750
3630		-19.531250
3631		-13.671875
3632		-21.484375
3633		-15.625000
3634		-23.437500
3635		-19.531250
3636		-27.343750
3637		-21.484375
3638		-29.296875
3639		-25.390625
3640		-31.250000
3641		-27.343750
3642		-35.156250
3643		-29.296875
3644		-35.156250
3645		-31.250000
3646		-37.109375
3647		-33.203125
3648		-41.015625
3649		-35.156250
3650		-41.015625
3651		-37.109375
3652		-42.968750
3653		-39.062500
3654		-44.921875
3655		-41.015625
3656		-46.875000
3657		-41.015625
3658		-46.875000
3659		-42.968750
3660		-48.828125
3661		-44.921875
3662		-48.828125
3663		-46.875000
3664		-48.828125
3665		-46.875000
3666		-50.781250
3667		-46.875000
3668		-50.781250
3669		-46.875000
3670		-50.781250
3671		-48.828125
3672		-50.781250
3673		-48.828125
3674		-50.781250
3675		-48.828125
3676		-50.781250
3677		-46.875000
3678		-50.781250
3679		-48.828125
3680		-50.781250
3681		-46.875000
3682		-50.781250
3683		-46.875000
3684		-48.828125
3685		-46.875000
3686		-48.828125
3687		-44.921875
3688		-46.875000
3689		-42.968750
3690		-46.875000
3691		-42.968750
3692		-46.875000
3693		-41.015625
3694		-42.968750
3695		-41.015625
3696		-42.968750
3697		-39.062500
3698		-41.015625
3699		-37.109375
3700		-39.062500
3701		-33.203125
3702		-37.109375
3703		-33.203125
3704		-35.156250
3705		-31.250000
3706		-31.250000
3707		-27.343750
3708		-29.296875
3709		-25.390625
3710		-27.343750
3711		-23.437500
3712		-25.390625
3713		-21.484375
3714		-23.437500
3715		-17.578125
3716		-19.531250
3717		-15.625000
3718		-17.578125
3719		-11.718750
3720		-15.625000
3721		-9.765625
3722		-11.718750
3723		-7.812500
3724		-9.765625
3725		-3.906250
3726		-5.859375
3727		0.000000
3728		-1.953125
3729		1.953125
3730		0.000000
3731		3.906250
3732		3.906250
3733		7.812500
3734		5.859375
3735		9.765625
3736		9.765625
3737		13.671875
3738		11.718750
3739		15.625000
3740		13.671875
3741		19.531250
3742		17.578125
3743		21.484375
3744		19.531250
3745		25.390625
3746		23.437500
3747		27.343750
3748		27.343750
3749		31.250000
3750		29.296875
3751		33.203125
3752		31.250000
3753		37.109375
3754		35.156250
3755		39.062500
3756		37.109375
3757		42.968750
3758		39.062500
3759		42.968750
3760		41.015625
3761		46.875000
3762		44.921875
3763		48.828125
3764		46.875000
3765		50.781250
3766		46.875000
3767		52.734375
3768		50.781250
3769		54.687500
3770		52.734375
3771		56.640625
3772		54.687500
3773		58.593750
3774		56.640625
3775		60.546875
3776		58.593750
3777		62.500000
3778		58.593750
3779		62.500000
3780		60.546875
3781		64.453125
3782		62.500000
3783		66.406250
3784		62.500000
3785		66.406250
3786		64.453125
3787		68.359375
3788		66.406250
3789		68.359375
3790		66.406250
3791		70.312500
3792		66.406250
3793		70.312500
3794		66.406250
3795		70.312500
3796		68.359375
3797		70.312500
3798		68.359375
3799		70.312500
3800		68.359375
3801		70.312500
3802		68.359375
3803		70.312500
3804		66.406250
3805		70.312500
3806		66.406250
3807		70.312500
3808		66.406250
3809		70.312500
3810		66.406250
3811		70.312500
3812		66.406250
3813		68.359375
3814		64.453125
3815		66.406250
3816		62.500000
3817		66.406250
3818		60.546875
3819		64.453125
3820		60.546875
3821		64.453125
3822		60.546875
3823		62.500000
3824		58.593750
3825		60.546875
3826		56.640625
3827		60.546875
3828		54.687500
3829		58.593750
3830		52.734375
3831		56.640625
3832		48.828125
3833		54.687500
3834		48.828125
3835		52.734375
3836		46.875000
3837		50.781250
3838		44.921875
3839		48.828125
3840		41.015625
3841		46.875000
3842		39.062500
3843		42.968750
3844		37.109375
3845		41.015625
3846		33.203125
3847		39.062500
3848		31.250000
3849		35.156250
3850		29.296875
3851		33.203125
3852		25.390625
3853		31.250000
3854		23.437500
3855		27.343750
3856		19.531250
3857		25.390625
3858		17.578125
3859		21.484375
3860		13.671875
3861		19.531250
3862		11.718750
3863		17.578125
3864		7.812500
3865		13.671875
3866		3.906250
3867		9.765625
3868		1.953125
3869		7.812500
3870		0.000000
3871		3.906250
3872		-3.906250
3873		0.000000
3874		-5.859375
3875		-1.953125
3876		-9.765625
3877		-3.906250
3878		-13.671875
3879		-7.812500
3880		-15.625000
3881		-9.765625
3882		-19.531250
3883		-13.671875
3884		-21.484375
3885		-15.625000
3886		-23.437500
3887		-19.531250
3888		-25.390625
3889		-21.484375
3890		-27.343750
3891		-23.437500
3892		-31.250000
3893		-25.390625
3894		-33.203125
3895		-29.296875
3896		-35.156250
3897		-31.250000
3898		-37.109375
3899		-33.203125
3900		-39.062500
3901		-35.156250
3902		-41.015625
3903		-37.109375
3904		-42.968750
3905		-39.062500
3906		-42.968750
3907		-41.015625
3908		-44.921875
3909		-41.015625
3910		-46.875000
3911		-42.968750
3912		-48.828125
3913		-42.968750
3914		-48.828125
3915		-44.921875
3916		-50.781250
3917		-46.875000
3918		-50.781250
3919		-46.875000
3920		-50.781250
3921		-46.875000
3922		-50.781250
3923		-48.828125
3924		-50.781250
3925		-48.828125
3926		-50.781250
3927		-48.828125
3928		-52.734375
3929		-46.875000
3930		-50.781250
3931		-48.828125
3932		-50.781250
3933		-48.828125
3934		-50.781250
3935		-46.875000
3936		-48.828125
3937		-44.921875
3938		-48.828125
3939		-44.921875
3940		-46.875000
3941		-44.921875
3942		-46.875000
3943		-42.968750
3944		-46.875000
3945		-41.015625
3946		-44.921875
3947		-41.015625
3948		-42.968750
3949		-39.062500
3950		-41.015625
3951		-37.109375
3952		-39.062500
3953		-35.156250
3954		-37.109375
3955		-33.203125
3956		-35.156250
3957		-31.250000
3958		-33.203125
3959		-29.296875
3960		-31.250000
3961		-25.390625
3962		-29.296875
3963		-23.437500
3964		-25.390625
3965		-21.484375
3966		-23.437500
3967		-17.578125
3968		-21.484375
3969		-17.578125
3970		-19.531250
3971		-13.671875
3972		-15.625000
3973		-11.718750
3974		-13.671875
3975		-7.812500
3976		-9.765625
3977		-5.859375
3978		-7.812500
3979		-1.953125
3980		-3.906250
3981		0.000000
3982		-1.953125
3983		3.906250
3984		1.953125
3985		5.859375
3986		3.906250
3987		9.765625
3988		7.812500
3989		13.671875
3990		11.718750
3991		15.625000
3992		13.671875
3993		17.578125
3994		17.578125
3995		21.484375
3996		19.531250
3997		23.437500
3998		21.484375
3999		27.343750
4000		25.390625
4001		29.296875
4002		27.343750
4003		33.203125
4004		31.250000
4005		35.156250
4006		33.203125
4007		37.109375
4008		35.156250
4009		41.015625
4010		39.062500
4011		42.968750
4012		41.015625
4013		44.921875
4014		42.968750
4015		46.875000
4016		44.921875
4017		48.828125
4018		46.875000
4019		50.781250
4020		48.828125
4021		54.687500
4022		52.734375
4023		56.640625
4024		54.687500
4025		58.593750
4026		56.640625
4027		60.546875
4028		56.640625
4029		60.546875
4030		58.593750
4031		62.500000
4032		60.546875
4033		64.453125
4034		60.546875
4035		64.453125
4036		62.500000
4037		66.406250
4038		62.500000
4039		66.406250
4040		64.453125
4041		68.359375
4042		66.406250
4043		68.359375
4044		66.406250
4045		70.312500
4046		66.406250
4047		70.312500
4048		66.406250
4049		70.312500
4050		68.359375
4051		70.312500
4052		66.406250
4053		72.265625
4054		68.359375
4055		70.312500
4056		66.406250
4057		70.312500
4058		66.406250
4059		70.312500
4060		66.406250
4061		70.312500
4062		64.453125
4063		70.312500
4064		66.406250
4065		68.359375
4066		64.453125
4067		68.359375
4068		64.453125
4069		66.406250
4070		62.500000
4071		66.406250
4072		60.546875
4073		64.453125
4074		58.593750
4075		64.453125
4076		58.593750
4077		62.500000
4078		56.640625
4079		60.546875
4080		54.687500
4081		58.593750
4082		52.734375
4083		56.640625
4084		50.781250
4085		54.687500
4086		48.828125
4087		52.734375
4088		46.875000
4089		50.781250
4090		44.921875
4091		48.828125
4092		42.968750
4093		46.875000
4094		39.062500
4095		44.921875
4096		37.109375
4097		41.015625
4098		35.156250
4099		39.062500
4100		31.250000
4101		37.109375
4102		29.296875
4103		35.156250
4104		27.343750
4105		31.250000
4106		23.437500
4107		29.296875
4108		21.484375
4109		25.390625
4110		17.578125
4111		23.437500
4112		13.671875
4113		19.531250
4114		11.718750
4115		17.578125
4116		9.765625
4117		13.671875
4118		5.859375
4119		11.718750
4120		3.906250
4121		7.812500
4122		0.000000
4123		5.859375
4124		-1.953125
4125		1.953125
4126		-5.859375
4127		0.000000
4128		-7.812500
4129		-3.906250
4130		-11.718750
4131		-7.812500
4132		-13.671875
4133		-9.765625
4134		-17.578125
4135		-11.718750
4136		-19.531250
4137		-13.671875
4138		-23.437500
4139		-17.578125
4140		-25.390625
4141		-21.484375
4142		-27.343750
4143		-23.437500
4144		-31.250000
4145		-25.390625
4146		-33.203125
4147		-27.343750
4148		-35.156250
4149		-29.296875
4150		-37.109375
4151		-33.203125
4152		-39.062500
4153		-35.156250
4154		-41.015625
4155		-37.109375
4156		-42.968750
4157		-37.109375
4158		-42.968750
4159		-39.062500
4160		-44.921875
4161		-41.015625
4162		-46.875000
4163		-42.968750
4164		-46.875000
4165		-42.968750
4166		-48.828125
4167		-44.921875
4168		-50.781250
4169		-46.875000
4170		-50.781250
4171		-46.875000
4172		-50.781250
4173		-46.875000
4174		-50.781250
4175		-48.828125
4176		-52.734375
4177		-48.828125
4178		-52.734375
4179		-48.828125
4180		-50.781250
4181		-48.828125
4182		-50.781250
4183		-48.828125
4184		-50.781250
4185		-48.828125
4186		-52.734375
4187		-46.875000
4188		-50.781250
4189		-46.875000
4190		-50.781250
4191		-46.875000
4192		-48.828125
4193		-44.921875
4194		-46.875000
4195		-42.968750
4196		-46.875000
4197		-41.015625
4198		-44.921875
4199		-41.015625
4200		-42.968750
4201		-39.062500
4202		-41.015625
4203		-39.062500
4204		-41.015625
4205		-37.109375
4206		-39.062500
4207		-35.156250
4208		-35.156250
4209		-33.203125
4210		-35.156250
4211		-29.296875
4212		-31.250000
4213		-27.343750
4214		-29.296875
4215		-25.390625
4216		-27.343750
4217		-23.437500
4218		-25.390625
4219		-21.484375
4220		-23.437500
4221		-17.578125
4222		-19.531250
4223		-15.625000
4224		-17.578125
4225		-11.718750
4226		-13.671875
4227		-9.765625
4228		-11.718750
4229		-5.859375
4230		-9.765625
4231		-3.906250
4232		-5.859375
4233		0.000000
4234		-1.953125
4235		1.953125
4236		0.000000
4237		3.906250
4238		3.906250
4239		7.812500
4240		5.859375
4241		9.765625
4242		7.812500
4243		13.671875
4244		11.718750
4245		17.578125
4246		15.625000
4247		19.531250
4248		17.578125
4249		21.484375
4250		21.484375
4251		25.390625
4252		23.437500
4253		29.296875
4254		25.390625
4255		31.250000
4256		29.296875
4257		33.203125
4258		31.250000
4259		37.109375
4260		35.156250
4261		39.062500
4262		37.109375
4263		41.015625
4264		39.062500
4265		44.921875
4266		41.015625
4267		46.875000
4268		44.921875
4269		48.828125
4270		46.875000
4271		50.781250
4272		48.828125
4273		52.734375
4274		50.781250
4275		54.687500
4276		52.734375
4277		56.640625
4278		54.687500
4279		58.593750
4280		56.640625
4281		60.546875
4282		56.640625
4283		60.546875
4284		60.546875
4285		62.500000
4286		60.546875
4287		64.453125
4288		62.500000
4289		66.406250
4290		62.500000
4291		66.406250
4292		64.453125
4293		66.406250
4294		64.453125
4295		68.359375
4296		66.406250
4297		68.359375
4298		66.406250
4299		70.312500
4300		66.406250
4301		68.359375
4302		68.359375
4303		70.312500
4304		66.406250
4305		70.312500
4306		66.406250
4307		70.312500
4308		66.406250
4309		70.312500
4310		66.406250
4311		70.312500
4312		66.406250
4313		70.312500
4314		66.406250
4315		68.359375
4316		66.406250
4317		68.359375
4318		64.453125
4319		66.406250
4320		62.500000
4321		68.359375
4322		62.500000
4323		66.406250
4324		62.500000
4325		64.453125
4326		60.546875
4327		64.453125
4328		58.593750
4329		62.500000
4330		56.640625
4331		60.546875
4332		54.687500
4333		60.546875
4334		54.687500
4335		56.640625
4336		52.734375
4337		54.687500
4338		48.828125
4339		54.687500
4340		46.875000
4341		50.781250
4342		44.921875
4343		48.828125
4344		42.968750
4345		46.875000
4346		41.015625
4347		44.921875
4348		37.109375
4349		42.968750
4350		35.156250
4351		39.062500
4352		33.203125
4353		37.109375
4354		29.296875
4355		35.156250
4356		27.343750
4357		31.250000
4358		25.390625
4359		29.296875
4360		21.484375
4361		25.390625
4362		19.531250
4363		23.437500
4364		15.625000
4365		21.484375
4366		13.671875
4367		17.578125
4368		9.765625
4369		13.671875
4370		5.859375
4371		11.718750
4372		3.906250
4373		7.812500
4374		1.953125
4375		5.859375
4376		-1.953125
4377		1.953125
4378		-5.859375
4379		0.000000
4380		-7.812500
4381		-1.953125
4382		-11.718750
4383		-5.859375
4384		-13.671875
4385		-9.765625
4386		-15.625000
4387		-11.718750
4388		-19.531250
4389		-13.671875
4390		-23.437500
4391		-17.578125
4392		-23.437500
4393		-19.531250
4394		-27.343750
4395		-23.437500
4396		-29.296875
4397		-25.390625
4398		-31.250000
4399		-27.343750
4400		-33.203125
4401		-29.296875
4402		-35.156250
4403		-31.250000
4404		-37.109375
4405		-33.203125
4406		-39.062500
4407		-35.156250
4408		-41.015625
4409		-37.109375
4410		-42.968750
4411		-39.062500
4412		-44.921875
4413		-41.015625
4414		-44.921875
4415		-42.968750
4416		-46.875000
4417		-42.968750
4418		-48.828125
4419		-44.921875
4420		-48.828125
4421		-46.875000
4422		-50.781250
4423		-46.875000
4424		-50.781250
4425		-48.828125
4426		-50.781250
4427		-48.828125
4428		-52.734375
4429		-48.828125
4430		-52.734375
4431		-48.828125
4432		-52.734375
4433		-48.828125
4434		-50.781250
4435		-48.828125
4436		-50.781250
4437		-48.828125
4438		-52.734375
4439		-48.828125
4440		-50.781250
4441		-46.875000
4442		-50.781250
4443		-46.875000
4444		-48.828125
4445		-44.921875
4446		-48.828125
4447		-44.921875
4448		-46.875000
4449		-42.968750
4450		-46.875000
4451		-42.968750
4452		-44.921875
4453		-41.015625
4454		-42.968750
4455		-39.062500
4456		-41.015625
4457		-37.109375
4458		-39.062500
4459		-35.156250
4460		-37.109375
4461		-33.203125
4462		-35.156250
4463		-31.250000
4464		-33.203125
4465		-29.296875
4466		-31.250000
4467		-27.343750
4468		-29.296875
4469		-25.390625
4470		-25.390625
4471		-21.484375
4472		-25.390625
4473		-19.531250
4474		-21.484375
4475		-15.625000
4476		-17.578125
4477		-13.671875
4478		-15.625000
4479		-9.765625
4480		-11.718750
4481		-7.812500
4482		-11.718750
4483		-5.859375
4484		-7.812500
4485		-1.953125
4486		-3.906250
4487		0.000000
4488		-1.953125
4489		3.906250
4490		1.953125
4491		7.812500
4492		5.859375
4493		9.765625
4494		7.812500
4495		13.671875
4496		11.718750
4497		15.625000
4498		13.671875
4499		17.578125
4500		15.625000
4501		21.484375
4502		19.531250
4503		23.437500
4504		23.437500
4505		27.343750
4506		25.390625
4507		29.296875
4508		27.343750
4509		33.203125
4510		31.250000
4511		35.156250
4512		33.203125
4513		37.109375
4514		35.156250
4515		41.015625
4516		39.062500
4517		42.968750
4518		41.015625
4519		44.921875
4520		42.968750
4521		46.875000
4522		44.921875
4523		48.828125
4524		46.875000
4525		52.734375
4526		50.781250
4527		54.687500
4528		50.781250
4529		56.640625
4530		52.734375
4531		58.593750
4532		56.640625
4533		58.593750
4534		56.640625
4535		60.546875
4536		58.593750
4537		62.500000
4538		60.546875
4539		64.453125
4540		60.546875
4541		64.453125
4542		62.500000
4543		66.406250
4544		64.453125
4545		66.406250
4546		64.453125
4547		68.359375
4548		64.453125
4549		68.359375
4550		66.406250
4551		70.312500
4552		66.406250
4553		70.312500
4554		66.406250
4555		70.312500
4556		66.406250
4557		70.312500
4558		68.359375
4559		70.312500
4560		66.406250
4561		70.312500
4562		66.406250
4563		70.312500
4564		66.406250
4565		70.312500
4566		66.406250
4567		70.312500
4568		64.453125
4569		68.359375
4570		64.453125
4571		68.359375
4572		62.500000
4573		66.406250
4574		62.500000
4575		66.406250
4576		60.546875
4577		66.406250
4578		60.546875
4579		64.453125
4580		58.593750
4581		62.500000
4582		56.640625
4583		60.546875
4584		56.640625
4585		60.546875
4586		52.734375
4587		58.593750
4588		50.781250
4589		56.640625
4590		50.781250
4591		54.687500
4592		48.828125
4593		52.734375
4594		46.875000
4595		50.781250
4596		44.921875
4597		48.828125
4598		41.015625
4599		46.875000
4600		37.109375
4601		42.968750
4602		37.109375
4603		41.015625
4604		35.156250
4605		39.062500
4606		31.250000
4607		35.156250
4608		27.343750
4609		33.203125
4610		25.390625
4611		31.250000
4612		23.437500
4613		27.343750
4614		19.531250
4615		25.390625
4616		17.578125
4617		21.484375
4618		13.671875
4619		19.531250
4620		11.718750
4621		15.625000
4622		7.812500
4623		13.671875
4624		5.859375
4625		9.765625
4626		1.953125
4627		7.812500
4628		0.000000
4629		3.906250
4630		-3.906250
4631		0.000000
4632		-5.859375
4633		-1.953125
4634		-9.765625
4635		-3.906250
4636		-11.718750
4637		-7.812500
4638		-15.625000
4639		-9.765625
4640		-17.578125
4641		-13.671875
4642		-21.484375
4643		-15.625000
4644		-23.437500
4645		-19.531250
4646		-27.343750
4647		-21.484375
4648		-29.296875
4649		-23.437500
4650		-31.250000
4651		-25.390625
4652		-33.203125
4653		-29.296875
4654		-35.156250
4655		-31.250000
4656		-37.109375
4657		-33.203125
4658		-39.062500
4659		-35.156250
4660		-41.015625
4661		-37.109375
4662		-42.968750
4663		-39.062500
4664		-44.921875
4665		-41.015625
4666		-46.875000
4667		-41.015625
4668		-46.875000
4669		-42.968750
4670		-48.828125
4671		-44.921875
4672		-48.828125
4673		-46.875000
4674		-50.781250
4675		-44.921875
4676		-50.781250
4677		-46.875000
4678		-50.781250
4679		-48.828125
4680		-52.734375
4681		-48.828125
4682		-52.734375
4683		-48.828125
4684		-52.734375
4685		-48.828125
4686		-52.734375
4687		-48.828125
4688		-52.734375
4689		-48.828125
4690		-50.781250
4691		-46.875000
4692		-50.781250
4693		-46.875000
4694		-50.781250
4695		-46.875000
4696		-48.828125
4697		-46.875000
4698		-48.828125
4699		-44.921875
4700		-48.828125
4701		-44.921875
4702		-46.875000
4703		-42.968750
4704		-44.921875
4705		-41.015625
4706		-42.968750
4707		-41.015625
4708		-42.968750
4709		-37.109375
4710		-41.015625
4711		-37.109375
4712		-39.062500
4713		-33.203125
4714		-37.109375
4715		-31.250000
4716		-35.156250
4717		-29.296875
4718		-31.250000
4719		-27.343750
4720		-29.296875
4721		-25.390625
4722		-27.343750
4723		-23.437500
4724		-25.390625
4725		-19.531250
4726		-21.484375
4727		-17.578125
4728		-19.531250
4729		-15.625000
4730		-15.625000
4731		-11.718750
4732		-13.671875
4733		-9.765625
4734		-11.718750
4735		-5.859375
4736		-7.812500
4737		-3.906250
4738		-5.859375
4739		0.000000
4740		-1.953125
4741		1.953125
4742		0.000000
4743		5.859375
4744		3.906250
4745		7.812500
4746		5.859375
4747		11.718750
4748		9.765625
4749		13.671875
4750		11.718750
4751		17.578125
4752		15.625000
4753		19.531250
4754		17.578125
4755		23.437500
4756		21.484375
4757		25.390625
4758		23.437500
4759		29.296875
4760		27.343750
4761		31.250000
4762		29.296875
4763		33.203125
4764		33.203125
4765		37.109375
4766		35.156250
4767		41.015625
4768		37.109375
4769		42.968750
4770		39.062500
4771		44.921875
4772		42.968750
4773		46.875000
4774		44.921875
4775		48.828125
4776		46.875000
4777		50.781250
4778		48.828125
4779		52.734375
4780		50.781250
4781		54.687500
4782		52.734375
4783		56.640625
4784		54.687500
4785		58.593750
4786		56.640625
4787		60.546875
4788		58.593750
4789		60.546875
4790		58.593750
4791		64.453125
4792		60.546875
4793		64.453125
4794		62.500000
4795		64.453125
4796		62.500000
4797		66.406250
4798		64.453125
4799		68.359375
4800		64.453125
4801		68.359375
4802		64.453125
4803		68.359375
4804		66.406250
4805		68.359375
4806		66.406250
4807		70.312500
4808		66.406250
4809		70.312500
4810		66.406250
4811		70.312500
4812		66.406250
4813		70.312500
4814		66.406250
4815		70.312500
4816		66.406250
4817		70.312500
4818		64.453125
4819		70.312500
4820		64.453125
4821		68.359375
4822		64.453125
4823		68.359375
4824		64.453125
4825		68.359375
4826		62.500000
4827		66.406250
4828		62.500000
4829		66.406250
4830		62.500000
4831		64.453125
4832		60.546875
4833		64.453125
4834		58.593750
4835		62.500000
4836		56.640625
4837		60.546875
4838		54.687500
4839		58.593750
4840		52.734375
4841		56.640625
4842		50.781250
4843		54.687500
4844		48.828125
4845		52.734375
4846		46.875000
4847		50.781250
4848		44.921875
4849		48.828125
4850		42.968750
4851		46.875000
4852		39.062500
4853		44.921875
4854		37.109375
4855		42.968750
4856		35.156250
4857		39.062500
4858		31.250000
4859		37.109375
4860		29.296875
4861		35.156250
4862		27.343750
4863		31.250000
4864		23.437500
4865		29.296875
4866		21.484375
4867		25.390625
4868		17.578125
4869		23.437500
4870		15.625000
4871		19.531250
4872		11.718750
4873		15.625000
4874		7.812500
4875		13.671875
4876		5.859375
4877		11.718750
4878		3.906250
4879		7.812500
4880		0.000000
4881		5.859375
4882		-1.953125
4883		1.953125
4884		-5.859375
4885		0.000000
4886		-9.765625
4887		-3.906250
4888		-11.718750
4889		-7.812500
4890		-13.671875
4891		-9.765625
4892		-17.578125
4893		-11.718750
4894		-19.531250
4895		-15.625000
4896		-21.484375
4897		-17.578125
4898		-25.390625
4899		-21.484375
4900		-27.343750
4901		-21.484375
4902		-29.296875
4903		-25.390625
4904		-33.203125
4905		-27.343750
4906		-35.156250
4907		-31.250000
4908		-37.109375
4909		-33.203125
4910		-39.062500
4911		-35.156250
4912		-41.015625
4913		-35.156250
4914		-41.015625
4915		-39.062500
4916		-42.968750
4917		-39.062500
4918		-44.921875
4919		-41.015625
4920		-46.875000
4921		-42.968750
4922		-46.875000
4923		-44.921875
4924		-48.828125
4925		-44.921875
4926		-48.828125
4927		-46.875000
4928		-50.781250
4929		-46.875000
4930		-50.781250
4931		-48.828125
4932		-52.734375
4933		-48.828125
4934		-52.734375
4935		-48.828125
4936		-52.734375
4937		-48.828125
4938		-52.734375
4939		-48.828125
4940		-52.734375
4941		-48.828125
4942		-52.734375
4943		-48.828125
4944		-50.781250
4945		-48.828125
4946		-50.781250
4947		-46.875000
4948		-50.781250
4949		-46.875000
4950		-48.828125
4951		-44.921875
4952		-48.828125
4953		-44.921875
4954		-46.875000
4955		-42.968750
4956		-44.921875
4957		-42.968750
4958		-44.921875
4959		-39.062500
4960		-42.968750
4961		-37.109375
4962		-41.015625
4963		-37.109375
4964		-39.062500
4965		-35.156250
4966		-37.109375
4967		-33.203125
4968		-35.156250
4969		-31.250000
4970		-33.203125
4971		-27.343750
4972		-29.296875
4973		-27.343750
4974		-29.296875
4975		-23.437500
4976		-25.390625
4977		-19.531250
4978		-23.437500
4979		-19.531250
4980		-19.531250
4981		-15.625000
4982		-17.578125
4983		-13.671875
4984		-15.625000
4985		-9.765625
4986		-11.718750
4987		-7.812500
4988		-9.765625
4989		-5.859375
4990		-5.859375
4991		-1.953125
4992		-3.906250
4993		1.953125
4994		0.000000
4995		3.906250
4996		1.953125
4997		7.812500
4998		3.906250
4999		9.765625
5000		7.812500
5001		13.671875
5002		11.718750
5003		15.625000
5004		13.671875
5005		19.531250
5006		17.578125
5007		21.484375
5008		19.531250
5009		25.390625
5010		21.484375
5011		27.343750
5012		25.390625
5013		31.250000
5014		29.296875
5015		33.203125
5016		31.250000
5017		37.109375
5018		33.203125
5019		39.062500
5020		37.109375
5021		41.015625
5022		39.062500
5023		42.968750
5024		41.015625
5025		44.921875
5026		42.968750
5027		48.828125
5028		46.875000
5029		50.781250
5030		48.828125
5031		52.734375
5032		50.781250
5033		54.687500
5034		52.734375
5035		56.640625
5036		54.687500
5037		58.593750
5038		54.687500
5039		60.546875
5040		56.640625
5041		60.546875
5042		58.593750
5043		62.500000
5044		60.546875
5045		64.453125
5046		62.500000
5047		64.453125
5048		62.500000
5049		66.406250
5050		64.453125
5051		66.406250
5052		64.453125
5053		68.359375
5054		64.453125
5055		68.359375
5056		66.406250
5057		68.359375
5058		66.406250
5059		68.359375
5060		66.406250
5061		70.312500
5062		66.406250
5063		70.312500
5064		66.406250
5065		70.312500
5066		68.359375
5067		70.312500
5068		66.406250
5069		70.312500
5070		66.406250
5071		70.312500
5072		66.406250
5073		70.312500
5074		66.406250
5075		68.359375
5076		64.453125
5077		68.359375
5078		64.453125
5079		66.406250
5080		62.500000
5081		66.406250
5082		62.500000
5083		64.453125
5084		60.546875
5085		64.453125
5086		58.593750
5087		62.500000
5088		56.640625
5089		60.546875
5090		54.687500
5091		58.593750
5092		54.687500
5093		56.640625
5094		52.734375
5095		56.640625
5096		48.828125
5097		54.687500
5098		48.828125
5099		50.781250
5100		44.921875
5101		48.828125
5102		42.968750
5103		46.875000
5104		41.015625
5105		44.921875
5106		39.062500
5107		42.968750
5108		37.109375
5109		41.015625
5110		33.203125
5111		37.109375
5112		31.250000
5113		35.156250
5114		27.343750
5115		33.203125
5116		25.390625
5117		31.250000
5118		21.484375
5119		27.343750
5120		19.531250
5121		23.437500
5122		15.625000
5123		21.484375
5124		13.671875
5125		17.578125
5126		9.765625
5127		15.625000
5128		7.812500
5129		11.718750
5130		3.906250
5131		9.765625
5132		1.953125
5133		5.859375
5134		-1.953125
5135		3.906250
5136		-3.906250
5137		0.000000
5138		-7.812500
5139		-1.953125
5140		-9.765625
5141		-5.859375
5142		-11.718750
5143		-7.812500
5144		-15.625000
5145		-11.718750
5146		-19.531250
5147		-13.671875
5148		-21.484375
5149		-17.578125
5150		-23.437500
5151		-19.531250
5152		-27.343750
5153		-21.484375
5154		-29.296875
5155		-25.390625
5156		-31.250000
5157		-27.343750
5158		-33.203125
5159		-29.296875
5160		-37.109375
5161		-31.250000
5162		-37.109375
5163		-33.203125
5164		-39.062500
5165		-35.156250
5166		-41.015625
5167		-37.109375
5168		-42.968750
5169		-39.062500
5170		-44.921875
5171		-41.015625
5172		-46.875000
5173		-42.968750
5174		-46.875000
5175		-42.968750
5176		-48.828125
5177		-44.921875
5178		-48.828125
5179		-44.921875
5180		-50.781250
5181		-46.875000
5182		-50.781250
5183		-46.875000
5184		-52.734375
5185		-48.828125
5186		-52.734375
5187		-48.828125
5188		-52.734375
5189		-48.828125
5190		-52.734375
5191		-48.828125
5192		-50.781250
5193		-48.828125
5194		-52.734375
5195		-48.828125
5196		-50.781250
5197		-48.828125
5198		-50.781250
5199		-46.875000
5200		-50.781250
5201		-46.875000
5202		-48.828125
5203		-46.875000
5204		-48.828125
5205		-44.921875
5206		-46.875000
5207		-44.921875
5208		-44.921875
5209		-42.968750
5210		-44.921875
5211		-41.015625
5212		-42.968750
5213		-39.062500
5214		-41.015625
5215		-37.109375
5216		-39.062500
5217		-35.156250
5218		-39.062500
5219		-33.203125
5220		-37.109375
5221		-31.250000
5222		-33.203125
5223		-27.343750
5224		-31.250000
5225		-27.343750
5226		-29.296875
5227		-25.390625
5228		-25.390625
5229		-21.484375
5230		-25.390625
5231		-19.531250
5232		-21.484375
5233		-17.578125
5234		-19.531250
5235		-13.671875
5236		-15.625000
5237		-11.718750
5238		-13.671875
5239		-9.765625
5240		-11.718750
5241		-5.859375
5242		-7.812500
5243		-3.906250
5244		-3.906250
5245		0.000000
5246		-1.953125
5247		3.906250
5248		1.953125
5249		5.859375
5250		3.906250
5251		9.765625
5252		7.812500
5253		11.718750
5254		9.765625
5255		15.625000
5256		13.671875
5257		17.578125
5258		15.625000
5259		19.531250
5260		19.531250
5261		23.437500
5262		21.484375
5263		27.343750
5264		25.390625
5265		29.296875
5266		27.343750
5267		31.250000
5268		29.296875
5269		35.156250
5270		33.203125
5271		37.109375
5272		35.156250
5273		39.062500
5274		39.062500
5275		42.968750
5276		41.015625
5277		44.921875
5278		42.968750
5279		46.875000
5280		44.921875
5281		48.828125
5282		46.875000
5283		50.781250
5284		48.828125
5285		52.734375
5286		50.781250
5287		56.640625
5288		52.734375
5289		56.640625
5290		54.687500
5291		58.593750
5292		56.640625
5293		60.546875
5294		58.593750
5295		62.500000
5296		58.593750
5297		64.453125
5298		60.546875
5299		64.453125
5300		62.500000
5301		66.406250
5302		64.453125
5303		66.406250
5304		64.453125
5305		68.359375
5306		64.453125
5307		68.359375
5308		66.406250
5309		68.359375
5310		66.406250
5311		68.359375
5312		66.406250
5313		70.312500
5314		66.406250
5315		70.312500
5316		66.406250
5317		70.312500
5318		66.406250
5319		70.312500
5320		66.406250
5321		70.312500
5322		66.406250
5323		70.312500
5324		66.406250
5325		70.312500
5326		66.406250
5327		68.359375
5328		64.453125
5329		68.359375
5330		64.453125
5331		68.359375
5332		62.500000
5333		66.406250
5334		62.500000
5335		66.406250
5336		60.546875
5337		64.453125
5338		58.593750
5339		62.500000
5340		58.593750
5341		60.546875
5342		56.640625
5343		60.546875
5344		54.687500
5345		58.593750
5346		52.734375
5347		56.640625
5348		50.781250
5349		54.687500
5350		48.828125
5351		52.734375
5352		46.875000
5353		50.781250
5354		44.921875
5355		48.828125
5356		41.015625
5357		46.875000
5358		39.062500
5359		44.921875
5360		37.109375
5361		41.015625
5362		33.203125
5363		39.062500
5364		31.250000
5365		37.109375
5366		29.296875
5367		35.156250
5368		27.343750
5369		31.250000
5370		23.437500
5371		29.296875
5372		19.531250
5373		25.390625
5374		17.578125
5375		21.484375
5376		15.625000
5377		19.531250
5378		11.718750
5379		15.625000
5380		9.765625
5381		13.671875
5382		5.859375
5383		11.718750
5384		3.906250
5385		7.812500
5386		0.000000
5387		5.859375
5388		-3.906250
5389		1.953125
5390		-7.812500
5391		-1.953125
5392		-7.812500
5393		-3.906250
5394		-11.718750
5395		-7.812500
5396		-15.625000
5397		-9.765625
5398		-17.578125
5399		-13.671875
5400		-19.531250
5401		-13.671875
5402		-23.437500
5403		-17.578125
5404		-25.390625
5405		-21.484375
5406		-27.343750
5407		-23.437500
5408		-29.296875
5409		-25.390625
5410		-33.203125
5411		-29.296875
5412		-35.156250
5413		-31.250000
5414		-37.109375
5415		-33.203125
5416		-39.062500
5417		-35.156250
5418		-41.015625
5419		-37.109375
5420		-42.968750
5421		-39.062500
5422		-44.921875
5423		-41.015625
5424		-44.921875
5425		-41.015625
5426		-46.875000
5427		-42.968750
5428		-46.875000
5429		-44.921875
5430		-48.828125
5431		-44.921875
5432		-48.828125
5433		-46.875000
5434		-50.781250
5435		-46.875000
5436		-50.781250
5437		-48.828125
5438		-50.781250
5439		-48.828125
5440		-52.734375
5441		-48.828125
5442		-52.734375
5443		-48.828125
5444		-52.734375
5445		-48.828125
5446		-52.734375
5447		-48.828125
5448		-52.734375
5449		-48.828125
5450		-50.781250
5451		-46.875000
5452		-50.781250
5453		-46.875000
5454		-50.781250
5455		-46.875000
5456		-48.828125
5457		-44.921875
5458		-48.828125
5459		-42.968750
5460		-46.875000
5461		-42.968750
5462		-44.921875
5463		-41.015625
5464		-44.921875
5465		-39.062500
5466		-42.968750
5467		-39.062500
5468		-41.015625
5469		-37.109375
5470		-39.062500
5471		-35.156250
5472		-37.109375
5473		-33.203125
5474		-35.156250
5475		-31.250000
5476		-33.203125
5477		-29.296875
5478		-29.296875
5479		-25.390625
5480		-27.343750
5481		-23.437500
5482		-25.390625
5483		-19.531250
5484		-23.437500
5485		-17.578125
5486		-19.531250
5487		-15.625000
5488		-17.578125
5489		-13.671875
5490		-13.671875
5491		-9.765625
5492		-11.718750
5493		-7.812500
5494		-9.765625
5495		-3.906250
5496		-5.859375
5497		0.000000
5498		-3.906250
5499		1.953125
5500		0.000000
5501		3.906250
5502		3.906250
5503		7.812500
5504		5.859375
5505		9.765625
5506		9.765625
5507		13.671875
5508		11.718750
5509		17.578125
5510		15.625000
5511		19.531250
5512		17.578125
5513		23.437500
5514		21.484375
5515		25.390625
5516		23.437500
5517		27.343750
5518		25.390625
5519		31.250000
5520		29.296875
5521		33.203125
5522		31.250000
5523		37.109375
5524		35.156250
5525		39.062500
5526		35.156250
5527		41.015625
5528		39.062500
5529		44.921875
5530		42.968750
5531		46.875000
5532		44.921875
5533		48.828125
5534		46.875000
5535		50.781250
5536		48.828125
5537		52.734375
5538		50.781250
5539		54.687500
5540		52.734375
5541		56.640625
5542		54.687500
5543		58.593750
5544		56.640625
5545		60.546875
5546		58.593750
5547		60.546875
5548		58.593750
5549		62.500000
5550		60.546875
5551		64.453125
5552		62.500000
5553		64.453125
5554		62.500000
5555		66.406250
5556		64.453125
5557		66.406250
5558		64.453125
5559		68.359375
5560		66.406250
5561		68.359375
5562		66.406250
5563		68.359375
5564		66.406250
5565		70.312500
5566		66.406250
5567		70.312500
5568		66.406250
5569		70.312500
5570		66.406250
5571		70.312500
5572		66.406250
5573		70.312500
5574		66.406250
5575		70.312500
5576		66.406250
5577		70.312500
5578		66.406250
5579		70.312500
5580		64.453125
5581		68.359375
5582		64.453125
5583		68.359375
5584		62.500000
5585		66.406250
5586		62.500000
5587		66.406250
5588		60.546875
5589		64.453125
5590		58.593750
5591		64.453125
5592		58.593750
5593		62.500000
5594		56.640625
5595		60.546875
5596		54.687500
5597		58.593750
5598		52.734375
5599		56.640625
5600		52.734375
5601		54.687500
5602		48.828125
5603		54.687500
5604		46.875000
5605		50.781250
5606		44.921875
5607		48.828125
5608		42.968750
5609		46.875000
5610		41.015625
5611		44.921875
5612		39.062500
5613		42.968750
5614		35.156250
5615		39.062500
5616		33.203125
5617		37.109375
5618		29.296875
5619		35.156250
5620		27.343750
5621		31.250000
5622		23.437500
5623		29.296875
5624		21.484375
5625		25.390625
5626		19.531250
5627		23.437500
5628		15.625000
5629		21.484375
5630		13.671875
5631		17.578125
5632		9.765625
5633		15.625000
5634		5.859375
5635		11.718750
5636		3.906250
5637		7.812500
5638		1.953125
5639		5.859375
5640		-1.953125
5641		1.953125
5642		-5.859375
5643		0.000000
5644		-7.812500
5645		-1.953125
5646		-9.765625
5647		-5.859375
5648		-13.671875
5649		-9.765625
5650		-17.578125
5651		-11.718750
5652		-19.531250
5653		-13.671875
5654		-21.484375
5655		-17.578125
5656		-23.437500
5657		-19.531250
5658		-27.343750
5659		-21.484375
5660		-29.296875
5661		-25.390625
5662		-31.250000
5663		-27.343750
5664		-35.156250
5665		-29.296875
5666		-37.109375
5667		-31.250000
5668		-39.062500
5669		-35.156250
5670		-39.062500
5671		-35.156250
5672		-41.015625
5673		-37.109375
5674		-42.968750
5675		-39.062500
5676		-44.921875
5677		-41.015625
5678		-46.875000
5679		-42.968750
5680		-46.875000
5681		-44.921875
5682		-48.828125
5683		-44.921875
5684		-48.828125
5685		-46.875000
5686		-50.781250
5687		-46.875000
5688		-50.781250
5689		-48.828125
5690		-50.781250
5691		-48.828125
5692		-52.734375
5693		-48.828125
5694		-52.734375
5695		-48.828125
5696		-52.734375
5697		-48.828125
5698		-52.734375
5699		-48.828125
5700		-52.734375
5701		-48.828125
5702		-50.781250
5703		-48.828125
5704		-50.781250
5705		-46.875000
5706		-50.781250
5707		-46.875000
5708		-48.828125
5709		-46.875000
5710		-48.828125
5711		-44.921875
5712		-46.875000
5713		-42.968750
5714		-46.875000
5715		-42.968750
5716		-44.921875
5717		-41.015625
5718		-42.968750
5719		-39.062500
5720		-41.015625
5721		-37.109375
5722		-41.015625
5723		-35.156250
5724		-37.109375
5725		-33.203125
5726		-35.156250
5727		-31.250000
5728		-33.203125
5729		-29.296875
5730		-31.250000
5731		-27.343750
5732		-29.296875
5733		-23.437500
5734		-27.343750
5735		-21.484375
5736		-23.437500
5737		-19.531250
5738		-21.484375
5739		-15.625000
5740		-17.578125
5741		-13.671875
5742		-15.625000
5743		-11.718750
5744		-13.671875
5745		-7.812500
5746		-9.765625
5747		-5.859375
5748		-5.859375
5749		-1.953125
5750		-3.906250
5751		1.953125
5752		-1.953125
5753		3.906250
5754		1.953125
5755		5.859375
5756		3.906250
5757		9.765625
5758		7.812500
5759		11.718750
5760		9.765625
5761		15.625000
5762		13.671875
5763		17.578125
5764		17.578125
5765		21.484375
5766		19.531250
5767		25.390625
5768		21.484375
5769		27.343750
5770		25.390625
5771		31.250000
5772		27.343750
5773		33.203125
5774		31.250000
5775		35.156250
5776		33.203125
5777		39.062500
5778		35.156250
5779		41.015625
5780		39.062500
5781		42.968750
5782		41.015625
5783		44.921875
5784		42.968750
5785		46.875000
5786		44.921875
5787		50.781250
5788		46.875000
5789		52.734375
5790		48.828125
5791		54.687500
5792		50.781250
5793		56.640625
5794		52.734375
5795		58.593750
5796		54.687500
5797		58.593750
5798		56.640625
5799		60.546875
5800		58.593750
5801		62.500000
5802		58.593750
5803		64.453125
5804		60.546875
5805		64.453125
5806		62.500000
5807		66.406250
5808		64.453125
5809		68.359375
5810		64.453125
5811		68.359375
5812		64.453125
5813		68.359375
5814		66.406250
5815		68.359375
5816		64.453125
5817		70.312500
5818		66.406250
5819		70.312500
5820		66.406250
5821		70.312500
5822		66.406250
5823		70.312500
5824		66.406250
5825		72.265625
5826		66.406250
5827		70.312500
5828		66.406250
5829		70.312500
5830		66.406250
5831		68.359375
5832		64.453125
5833		68.359375
5834		64.453125
5835		68.359375
5836		62.500000
5837		68.359375
5838		62.500000
5839		66.406250
5840		60.546875
5841		66.406250
5842		58.593750
5843		64.453125
5844		58.593750
5845		64.453125
5846		58.593750
5847		60.546875
5848		56.640625
5849		58.593750
5850		52.734375
5851		58.593750
5852		50.781250
5853		56.640625
5854		48.828125
5855		54.687500
5856		46.875000
5857		52.734375
5858		44.921875
5859		50.781250
5860		42.968750
5861		48.828125
5862		41.015625
5863		46.875000
5864		39.062500
5865		42.968750
5866		37.109375
5867		41.015625
5868		33.203125
5869		39.062500
5870		29.296875
5871		37.109375
5872		27.343750
5873		33.203125
5874		25.390625
5875		31.250000
5876		21.484375
5877		27.343750
5878		19.531250
5879		25.390625
5880		17.578125
5881		21.484375
5882		13.671875
5883		19.531250
5884		11.718750
5885		15.625000
5886		7.812500
5887		11.718750
5888		5.859375
5889		9.765625
5890		1.953125
5891		5.859375
5892		0.000000
5893		3.906250
5894		-3.906250
5895		0.000000
5896		-5.859375
5897		-1.953125
5898		-9.765625
5899		-5.859375
5900		-13.671875
5901		-7.812500
5902		-15.625000
5903		-9.765625
5904		-17.578125
5905		-13.671875
5906		-21.484375
5907		-17.578125
5908		-23.437500
5909		-19.531250
5910		-25.390625
5911		-21.484375
5912		-29.296875
5913		-23.437500
5914		-31.250000
5915		-27.343750
5916		-33.203125
5917		-29.296875
5918		-35.156250
5919		-31.250000
5920		-37.109375
5921		-33.203125
5922		-39.062500
5923		-35.156250
5924		-41.015625
5925		-37.109375
5926		-42.968750
5927		-39.062500
5928		-44.921875
5929		-41.015625
5930		-44.921875
5931		-42.968750
5932		-46.875000
5933		-44.921875
5934		-48.828125
5935		-44.921875
5936		-48.828125
5937		-46.875000
5938		-50.781250
5939		-46.875000
5940		-50.781250
5941		-48.828125
5942		-50.781250
5943		-48.828125
5944		-52.734375
5945		-48.828125
5946		-52.734375
5947		-48.828125
5948		-52.734375
5949		-48.828125
5950		-52.734375
5951		-48.828125
5952		-50.781250
5953		-48.828125
5954		-50.781250
5955		-48.828125
5956		-50.781250
5957		-46.875000
5958		-50.781250
5959		-46.875000
5960		-48.828125
5961		-46.875000
5962		-48.828125
5963		-44.921875
5964		-46.875000
5965		-44.921875
5966		-46.875000
5967		-42.968750
5968		-44.921875
5969		-41.015625
5970		-42.968750
5971		-41.015625
5972		-41.015625
5973		-39.062500
5974		-39.062500
5975		-37.109375
5976		-39.062500
5977		-35.156250
5978		-37.109375
5979		-31.250000
5980		-33.203125
5981		-29.296875
5982		-31.250000
5983		-27.343750
5984		-31.250000
5985		-21.484375
5986		-29.296875
5987		-19.531250
5988		-27.343750
5989		-17.578125
5990		-23.437500
5991		-17.578125
5992		-19.531250
5993		-15.625000
5994		-17.578125
5995		-11.718750
5996		-13.671875
5997		-9.765625
5998		-11.718750
5999		-5.859375
6000		-7.812500
6001		-3.906250
6002		-7.812500
6003		0.000000
6004		-5.859375
6005		5.859375
6006		-1.953125
6007		5.859375
6008		3.906250
6009		7.812500
6010		5.859375
6011		11.718750
6012		9.765625
6013		13.671875
6014		11.718750
6015		17.578125
6016		15.625000
6017		19.531250
6018		15.625000
6019		25.390625
6020		19.531250
6021		29.296875
6022		23.437500
6023		33.203125
6024		27.343750
6025		31.250000
6026		29.296875
6027		33.203125
6028		33.203125
6029		37.109375
6030		35.156250
6031		39.062500
6032		37.109375
6033		41.015625
6034		39.062500
6035		46.875000
6036		39.062500
6037		50.781250
6038		41.015625
6039		50.781250
6040		42.968750
6041		52.734375
6042		48.828125
6043		52.734375
6044		50.781250
6045		54.687500
6046		52.734375
6047		56.640625
6048		54.687500
6049		58.593750
6050		56.640625
6051		60.546875
6052		54.687500
6053		64.453125
6054		56.640625
6055		66.406250
6056		56.640625
6057		68.359375
6058		62.500000
6059		64.453125
6060		62.500000
6061		66.406250
6062		64.453125
6063		66.406250
6064		64.453125
6065		68.359375
6066		66.406250
6067		68.359375
6068		64.453125
6069		72.265625
6070		62.500000
6071		72.265625
6072		62.500000
6073		74.218750
6074		64.453125
6075		74.218750
6076		66.406250
6077		70.312500
6078		66.406250
6079		70.312500
6080		66.406250
6081		70.312500
6082		66.406250
6083		68.359375
6084		66.406250
6085		68.359375
6086		62.500000
6087		72.265625
6088		60.546875
6089		70.312500
6090		60.546875
6091		70.312500
6092		62.500000
6093		64.453125
6094		60.546875
6095		64.453125
6096		60.546875
6097		62.500000
6098		58.593750
6099		62.500000
6100		56.640625
6101		60.546875
6102		50.781250
6103		60.546875
6104		50.781250
6105		58.593750
6106		48.828125
6107		58.593750
6108		48.828125
6109		52.734375
6110		46.875000
6111		50.781250
6112		44.921875
6113		48.828125
6114		42.968750
6115		46.875000
6116		39.062500
6117		42.968750
6118		33.203125
6119		42.968750
6120		31.250000
6121		42.968750
6122		29.296875
6123		39.062500
6124		29.296875
6125		37.109375
6126		27.343750
6127		31.250000
6128		23.437500
6129		27.343750
6130		21.484375
6131		25.390625
6132		17.578125
6133		23.437500
6134		15.625000
6135		19.531250
6136		7.812500
6137		19.531250
6138		7.812500
6139		17.578125
6140		3.906250
6141		13.671875
6142		3.906250
6143		7.812500
6144		0.000000
6145		5.859375
6146		-1.953125
6147		1.953125
6148		-5.859375
6149		0.000000
6150		-7.812500
6151		-3.906250
6152		-15.625000
6153		-5.859375
6154		-17.578125
6155		-5.859375
6156		-19.531250
6157		-7.812500
6158		-19.531250
6159		-11.718750
6160		-21.484375
6161		-17.578125
6162		-25.390625
6163		-21.484375
6164		-27.343750
6165		-23.437500
6166		-29.296875
6167		-25.390625
6168		-33.203125
6169		-29.296875
6170		-33.203125
6171		-31.250000
6172		-37.109375
6173		-29.296875
6174		-39.062500
6175		-33.203125
6176		-41.015625
6177		-37.109375
6178		-41.015625
6179		-39.062500
6180		-42.968750
6181		-41.015625
6182		-44.921875
6183		-42.968750
6184		-46.875000
6185		-42.968750
6186		-46.875000
6187		-44.921875
6188		-50.781250
6189		-44.921875
6190		-50.781250
6191		-44.921875
6192		-50.781250
6193		-46.875000
6194		-50.781250
6195		-48.828125
6196		-50.781250
6197		-48.828125
6198		-50.781250
6199		-48.828125
6200		-52.734375
6201		-48.828125
6202		-52.734375
6203		-48.828125
6204		-54.687500
6205		-46.875000
6206		-52.734375
6207		-46.875000
6208		-50.781250
6209		-48.828125
6210		-50.781250
6211		-48.828125
6212		-50.781250
6213		-46.875000
6214		-48.828125
6215		-46.875000
6216		-48.828125
6217		-44.921875
6218		-46.875000
6219		-44.921875
6220		-44.921875
6221		-42.968750
6222		-42.968750
6223		-41.015625
6224		-42.968750
6225		-39.062500
6226		-41.015625
6227		-37.109375
6228		-39.062500
6229		-35.156250
6230		-37.109375
6231		-33.203125
6232		-35.156250
6233		-31.250000
6234		-33.203125
6235		-29.296875
6236		-31.250000
6237		-27.343750
6238		-27.343750
6239		-23.437500
6240		-25.390625
6241		-21.484375
6242		-23.437500
6243		-19.531250
6244		-19.531250
6245		-15.625000
6246		-17.578125
6247		-13.671875
6248		-15.625000
6249		-9.765625
6250		-11.718750
6251		-7.812500
6252		-9.765625
6253		-3.906250
6254		-5.859375
6255		-1.953125
6256		-3.906250
6257		1.953125
6258		0.000000
6259		3.906250
6260		1.953125
6261		5.859375
6262		5.859375
6263		9.765625
6264		7.812500
6265		13.671875
6266		11.718750
6267		15.625000
6268		13.671875
6269		17.578125
6270		17.578125
6271		21.484375
6272		19.531250
6273		25.390625
6274		23.437500
6275		27.343750
6276		25.390625
6277		31.250000
6278		29.296875
6279		33.203125
6280		31.250000
6281		35.156250
6282		33.203125
6283		39.062500
6284		37.109375
6285		41.015625
6286		39.062500
6287		42.968750
6288		41.015625
6289		44.921875
6290		42.968750
6291		46.875000
6292		46.875000
6293		50.781250
6294		48.828125
6295		52.734375
6296		50.781250
6297		54.687500
6298		52.734375
6299		56.640625
6300		52.734375
6301		56.640625
6302		56.640625
6303		58.593750
6304		56.640625
6305		60.546875
6306		58.593750
6307		62.500000
6308		60.546875
6309		64.453125
6310		62.500000
6311		66.406250
6312		62.500000
6313		66.406250
6314		64.453125
6315		66.406250
6316		64.453125
6317		68.359375
6318		64.453125
6319		68.359375
6320		64.453125
6321		70.312500
6322		66.406250
6323		70.312500
6324		66.406250
6325		68.359375
6326		66.406250
6327		70.312500
6328		66.406250
6329		70.312500
6330		68.359375
6331		70.312500
6332		66.406250
6333		70.312500
6334		66.406250
6335		68.359375
6336		66.406250
6337		68.359375
6338		62.500000
6339		70.312500
6340		64.453125
6341		68.359375
6342		64.453125
6343		66.406250
6344		62.500000
6345		66.406250
6346		62.500000
6347		64.453125
6348		60.546875
6349		62.500000
6350		58.593750
6351		62.500000
6352		58.593750
6353		60.546875
6354		54.687500
6355		58.593750
6356		54.687500
6357		58.593750
6358		52.734375
6359		54.687500
6360		48.828125
6361		52.734375
6362		46.875000
6363		52.734375
6364		44.921875
6365		48.828125
6366		42.968750
6367		46.875000
6368		41.015625
6369		44.921875
6370		37.109375
6371		42.968750
6372		35.156250
6373		41.015625
6374		33.203125
6375		39.062500
6376		31.250000
6377		35.156250
6378		27.343750
6379		33.203125
6380		25.390625
6381		29.296875
6382		21.484375
6383		27.343750
6384		19.531250
6385		23.437500
6386		15.625000
6387		21.484375
6388		13.671875
6389		19.531250
6390		9.765625
6391		15.625000
6392		7.812500
6393		11.718750
6394		3.906250
6395		9.765625
6396		1.953125
6397		5.859375
6398		-1.953125
6399		3.906250
6400		-3.906250
6401		0.000000
6402		-7.812500
6403		-1.953125
6404		-11.718750
6405		-5.859375
6406		-13.671875
6407		-7.812500
6408		-15.625000
6409		-11.718750
6410		-19.531250
6411		-13.671875
6412		-21.484375
6413		-15.625000
6414		-23.437500
6415		-19.531250
6416		-25.390625
6417		-21.484375
6418		-29.296875
6419		-25.390625
6420		-31.250000
6421		-27.343750
6422		-35.156250
6423		-29.296875
6424		-35.156250
6425		-31.250000
6426		-37.109375
6427		-33.203125
6428		-41.015625
6429		-35.156250
6430		-41.015625
6431		-37.109375
6432		-42.968750
6433		-39.062500
6434		-44.921875
6435		-41.015625
6436		-46.875000
6437		-42.968750
6438		-46.875000
6439		-42.968750
6440		-48.828125
6441		-44.921875
6442		-48.828125
6443		-46.875000
6444		-50.781250
6445		-46.875000
6446		-50.781250
6447		-46.875000
6448		-50.781250
6449		-48.828125
6450		-50.781250
6451		-48.828125
6452		-52.734375
6453		-48.828125
6454		-52.734375
6455		-48.828125
6456		-50.781250
6457		-48.828125
6458		-50.781250
6459		-48.828125
6460		-50.781250
6461		-48.828125
6462		-50.781250
6463		-48.828125
6464		-50.781250
6465		-46.875000
6466		-48.828125
6467		-46.875000
6468		-48.828125
6469		-44.921875
6470		-46.875000
6471		-44.921875
6472		-44.921875
6473		-42.968750
6474		-44.921875
6475		-41.015625
6476		-42.968750
6477		-39.062500
6478		-41.015625
6479		-37.109375
6480		-39.062500
6481		-35.156250
6482		-37.109375
6483		-33.203125
6484		-35.156250
6485		-31.250000
6486		-33.203125
6487		-29.296875
6488		-31.250000
6489		-27.343750
6490		-29.296875
6491		-25.390625
6492		-25.390625
6493		-21.484375
6494		-23.437500
6495		-19.531250
6496		-21.484375
6497		-17.578125
6498		-17.578125
6499		-13.671875
6500		-15.625000
6501		-11.718750
6502		-13.671875
6503		-7.812500
6504		-9.765625
6505		-5.859375
6506		-7.812500
6507		-1.953125
6508		-3.906250
6509		0.000000
6510		-1.953125
6511		3.906250
6512		1.953125
6513		5.859375
6514		3.906250
6515		9.765625
6516		7.812500
6517		11.718750
6518		9.765625
6519		15.625000
6520		13.671875
6521		17.578125
6522		15.625000
6523		21.484375
6524		19.531250
6525		23.437500
6526		21.484375
6527		27.343750
6528		25.390625
6529		29.296875
6530		27.343750
6531		31.250000
6532		31.250000
6533		35.156250
6534		33.203125
6535		37.109375
6536		35.156250
6537		39.062500
6538		39.062500
6539		42.968750
6540		41.015625
6541		44.921875
6542		42.968750
6543		46.875000
6544		44.921875
6545		48.828125
6546		46.875000
6547		50.781250
6548		50.781250
6549		52.734375
6550		52.734375
6551		54.687500
6552		54.687500
6553		56.640625
6554		54.687500
6555		58.593750
6556		56.640625
6557		60.546875
6558		58.593750
6559		62.500000
6560		60.546875
6561		64.453125
6562		62.500000
6563		64.453125
6564		62.500000
6565		66.406250
6566		62.500000
6567		66.406250
6568		64.453125
6569		68.359375
6570		66.406250
6571		68.359375
6572		64.453125
6573		70.312500
6574		66.406250
6575		70.312500
6576		66.406250
6577		70.312500
6578		68.359375
6579		70.312500
6580		68.359375
6581		70.312500
6582		68.359375
6583		70.312500
6584		66.406250
6585		70.312500
6586		66.406250
6587		70.312500
6588		66.406250
6589		70.312500
6590		64.453125
6591		70.312500
6592		64.453125
6593		68.359375
6594		64.453125
6595		66.406250
6596		62.500000
6597		66.406250
6598		62.500000
6599		64.453125
6600		60.546875
6601		64.453125
6602		58.593750
6603		62.500000
6604		58.593750
6605		60.546875
6606		54.687500
6607		60.546875
6608		54.687500
6609		58.593750
6610		52.734375
6611		56.640625
6612		50.781250
6613		54.687500
6614		48.828125
6615		52.734375
6616		46.875000
6617		50.781250
6618		44.921875
6619		48.828125
6620		41.015625
6621		44.921875
6622		37.109375
6623		42.968750
6624		35.156250
6625		42.968750
6626		33.203125
6627		41.015625
6628		31.250000
6629		37.109375
6630		29.296875
6631		33.203125
6632		25.390625
6633		31.250000
6634		23.437500
6635		27.343750
6636		21.484375
6637		25.390625
6638		17.578125
6639		21.484375
6640		13.671875
6641		19.531250
6642		11.718750
6643		17.578125
6644		7.812500
6645		13.671875
6646		5.859375
6647		9.765625
6648		1.953125
6649		7.812500
6650		0.000000
6651		3.906250
6652		-3.906250
6653		1.953125
6654		-5.859375
6655		-1.953125
6656		-11.718750
6657		-3.906250
6658		-13.671875
6659		-5.859375
6660		-15.625000
6661		-9.765625
6662		-17.578125
6663		-13.671875
6664		-19.531250
6665		-15.625000
6666		-23.437500
6667		-19.531250
6668		-25.390625
6669		-21.484375
6670		-27.343750
6671		-23.437500
6672		-29.296875
6673		-25.390625
6674		-33.203125
6675		-27.343750
6676		-35.156250
6677		-29.296875
6678		-37.109375
6679		-33.203125
6680		-39.062500
6681		-35.156250
6682		-41.015625
6683		-37.109375
6684		-42.968750
6685		-39.062500
6686		-42.968750
6687		-41.015625
6688		-44.921875
6689		-41.015625
6690		-48.828125
6691		-42.968750
6692		-48.828125
6693		-42.968750
6694		-48.828125
6695		-46.875000
6696		-48.828125
6697		-46.875000
6698		-50.781250
6699		-46.875000
6700		-50.781250
6701		-48.828125
6702		-50.781250
6703		-48.828125
6704		-52.734375
6705		-48.828125
6706		-52.734375
6707		-48.828125
6708		-52.734375
6709		-46.875000
6710		-52.734375
6711		-46.875000
6712		-50.781250
6713		-48.828125
6714		-50.781250
6715		-48.828125
6716		-50.781250
6717		-46.875000
6718		-48.828125
6719		-46.875000
6720		-48.828125
6721		-44.921875
6722		-46.875000
6723		-42.968750
6724		-46.875000
6725		-41.015625
6726		-46.875000
6727		-41.015625
6728		-42.968750
6729		-41.015625
6730		-41.015625
6731		-39.062500
6732		-41.015625
6733		-37.109375
6734		-39.062500
6735		-35.156250
6736		-37.109375
6737		-33.203125
6738		-35.156250
6739		-31.250000
6740		-31.250000
6741		-27.343750
6742		-31.250000
6743		-23.437500
6744		-27.343750
6745		-23.437500
6746		-25.390625
6747		-19.531250
6748		-21.484375
6749		-17.578125
6750		-19.531250
6751		-15.625000
6752		-17.578125
6753		-13.671875
6754		-13.671875
6755		-9.765625
6756		-11.718750
6757		-7.812500
6758		-9.765625
6759		-3.906250
6760		-5.859375
6761		0.000000
6762		-1.953125
6763		1.953125
6764		0.000000
6765		5.859375
6766		3.906250
6767		7.812500
6768		5.859375
6769		11.718750
6770		9.765625
6771		13.671875
6772		11.718750
6773		17.578125
6774		15.625000
6775		21.484375
6776		17.578125
6777		23.437500
6778		21.484375
6779		25.390625
6780		23.437500
6781		27.343750
6782		27.343750
6783		31.250000
6784		29.296875
6785		33.203125
6786		33.203125
6787		37.109375
6788		35.156250
6789		39.062500
6790		37.109375
6791		42.968750
6792		41.015625
6793		44.921875
6794		42.968750
6795		46.875000
6796		44.921875
6797		48.828125
6798		46.875000
6799		50.781250
6800		48.828125
6801		52.734375
6802		50.781250
6803		54.687500
6804		52.734375
6805		56.640625
6806		54.687500
6807		58.593750
6808		56.640625
6809		60.546875
6810		58.593750
6811		62.500000
6812		60.546875
6813		62.500000
6814		60.546875
6815		64.453125
6816		62.500000
6817		66.406250
6818		62.500000
6819		66.406250
6820		64.453125
6821		66.406250
6822		66.406250
6823		68.359375
6824		66.406250
6825		70.312500
6826		66.406250
6827		68.359375
6828		66.406250
6829		70.312500
6830		68.359375
6831		70.312500
6832		68.359375
6833		70.312500
6834		68.359375
6835		70.312500
6836		66.406250
6837		70.312500
6838		66.406250
6839		70.312500
6840		66.406250
6841		70.312500
6842		66.406250
6843		70.312500
6844		66.406250
6845		68.359375
6846		64.453125
6847		68.359375
6848		64.453125
6849		66.406250
6850		62.500000
6851		66.406250
6852		62.500000
6853		64.453125
6854		60.546875
6855		64.453125
6856		58.593750
6857		62.500000
6858		56.640625
6859		60.546875
6860		54.687500
6861		58.593750
6862		54.687500
6863		56.640625
6864		50.781250
6865		54.687500
6866		48.828125
6867		52.734375
6868		46.875000
6869		50.781250
6870		44.921875
6871		48.828125
6872		42.968750
6873		46.875000
6874		41.015625
6875		44.921875
6876		39.062500
6877		42.968750
6878		35.156250
6879		39.062500
6880		33.203125
6881		37.109375
6882		31.250000
6883		35.156250
6884		27.343750
6885		31.250000
6886		25.390625
6887		29.296875
6888		21.484375
6889		27.343750
6890		19.531250
6891		23.437500
6892		15.625000
6893		21.484375
6894		13.671875
6895		17.578125
6896		9.765625
6897		15.625000
6898		7.812500
6899		11.718750
6900		3.906250
6901		7.812500
6902		1.953125
6903		5.859375
6904		-1.953125
6905		1.953125
6906		-3.906250
6907		0.000000
6908		-7.812500
6909		-3.906250
6910		-9.765625
6911		-5.859375
6912		-13.671875
6913		-7.812500
6914		-15.625000
6915		-11.718750
6916		-19.531250
6917		-13.671875
6918		-21.484375
6919		-17.578125
6920		-23.437500
6921		-19.531250
6922		-27.343750
6923		-23.437500
6924		-29.296875
6925		-25.390625
6926		-31.250000
6927		-27.343750
6928		-33.203125
6929		-29.296875
6930		-35.156250
6931		-31.250000
6932		-37.109375
6933		-35.156250
6934		-39.062500
6935		-37.109375
6936		-41.015625
6937		-39.062500
6938		-42.968750
6939		-39.062500
6940		-44.921875
6941		-41.015625
6942		-46.875000
6943		-42.968750
6944		-46.875000
6945		-44.921875
6946		-48.828125
6947		-44.921875
6948		-48.828125
6949		-46.875000
6950		-50.781250
6951		-46.875000
6952		-50.781250
6953		-48.828125
6954		-50.781250
6955		-48.828125
6956		-50.781250
6957		-48.828125
6958		-50.781250
6959		-48.828125
6960		-50.781250
6961		-48.828125
6962		-50.781250
6963		-48.828125
6964		-50.781250
6965		-48.828125
6966		-50.781250
6967		-48.828125
6968		-50.781250
6969		-46.875000
6970		-48.828125
6971		-46.875000
6972		-48.828125
6973		-46.875000
6974		-46.875000
6975		-44.921875
6976		-46.875000
6977		-42.968750
6978		-44.921875
6979		-42.968750
6980		-44.921875
6981		-41.015625
6982		-42.968750
6983		-39.062500
6984		-41.015625
6985		-37.109375
6986		-39.062500
6987		-35.156250
6988		-37.109375
6989		-33.203125
6990		-35.156250
6991		-31.250000
6992		-33.203125
6993		-29.296875
6994		-31.250000
6995		-27.343750
6996		-27.343750
6997		-23.437500
6998		-25.390625
6999		-21.484375
7000		-23.437500
7001		-19.531250
7002		-19.531250
7003		-15.625000
7004		-17.578125
7005		-13.671875
7006		-15.625000
7007		-9.765625
7008		-11.718750
7009		-7.812500
7010		-9.765625
7011		-5.859375
7012		-5.859375
7013		-1.953125
7014		-3.906250
7015		0.000000
7016		0.000000
7017		3.906250
7018		1.953125
7019		7.812500
7020		5.859375
7021		9.765625
7022		7.812500
7023		11.718750
7024		11.718750
7025		15.625000
7026		13.671875
7027		17.578125
7028		17.578125
7029		21.484375
7030		19.531250
7031		23.437500
7032		23.437500
7033		27.343750
7034		25.390625
7035		29.296875
7036		29.296875
7037		33.203125
7038		31.250000
7039		35.156250
7040		33.203125
7041		37.109375
7042		37.109375
7043		41.015625
7044		39.062500
7045		42.968750
7046		41.015625
7047		44.921875
7048		42.968750
7049		46.875000
7050		46.875000
7051		48.828125
7052		48.828125
7053		52.734375
7054		50.781250
7055		54.687500
7056		52.734375
7057		56.640625
7058		54.687500
7059		56.640625
7060		56.640625
7061		58.593750
7062		56.640625
7063		60.546875
7064		58.593750
7065		62.500000
7066		60.546875
7067		62.500000
7068		62.500000
7069		64.453125
7070		62.500000
7071		66.406250
7072		64.453125
7073		66.406250
7074		64.453125
7075		68.359375
7076		66.406250
7077		68.359375
7078		66.406250
7079		68.359375
7080		66.406250
7081		68.359375
7082		68.359375
7083		70.312500
7084		68.359375
7085		70.312500
7086		68.359375
7087		70.312500
7088		68.359375
7089		70.312500
7090		68.359375
7091		70.312500
7092		66.406250
7093		70.312500
7094		66.406250
7095		70.312500
7096		66.406250
7097		68.359375
7098		64.453125
7099		68.359375
7100		64.453125
7101		66.406250
7102		62.500000
7103		66.406250
7104		62.500000
7105		64.453125
7106		60.546875
7107		64.453125
7108		58.593750
7109		62.500000
7110		58.593750
7111		60.546875
7112		56.640625
7113		58.593750
7114		54.687500
7115		58.593750
7116		52.734375
7117		56.640625
7118		50.781250
7119		54.687500
7120		48.828125
7121		52.734375
7122		46.875000
7123		50.781250
7124		44.921875
7125		48.828125
7126		41.015625
7127		44.921875
7128		39.062500
7129		42.968750
7130		37.109375
7131		41.015625
7132		35.156250
7133		39.062500
7134		31.250000
7135		35.156250
7136		29.296875
7137		33.203125
7138		25.390625
7139		31.250000
7140		23.437500
7141		27.343750
7142		19.531250
7143		25.390625
7144		17.578125
7145		21.484375
7146		13.671875
7147		19.531250
7148		11.718750
7149		15.625000
7150		7.812500
7151		13.671875
7152		5.859375
7153		9.765625
7154		1.953125
7155		7.812500
7156		0.000000
7157		3.906250
7158		-3.906250
7159		0.000000
7160		-5.859375
7161		-1.953125
7162		-9.765625
7163		-3.906250
7164		-11.718750
7165		-7.812500
7166		-15.625000
7167		-9.765625
7168		-17.578125
7169		-13.671875
7170		-19.531250
7171		-15.625000
7172		-23.437500
7173		-19.531250
7174		-25.390625
7175		-21.484375
7176		-27.343750
7177		-23.437500
7178		-31.250000
7179		-27.343750
7180		-33.203125
7181		-29.296875
7182		-35.156250
7183		-31.250000
7184		-37.109375
7185		-33.203125
7186		-39.062500
7187		-35.156250
7188		-41.015625
7189		-37.109375
7190		-42.968750
7191		-39.062500
7192		-42.968750
7193		-41.015625
7194		-44.921875
7195		-42.968750
7196		-46.875000
7197		-42.968750
7198		-48.828125
7199		-44.921875
7200		-48.828125
7201		-44.921875
7202		-48.828125
7203		-46.875000
7204		-50.781250
7205		-46.875000
7206		-50.781250
7207		-48.828125
7208		-50.781250
7209		-48.828125
7210		-50.781250
7211		-48.828125
7212		-50.781250
7213		-48.828125
7214		-50.781250
7215		-48.828125
7216		-50.781250
7217		-48.828125
7218		-50.781250
7219		-48.828125
7220		-50.781250
7221		-48.828125
7222		-50.781250
7223		-46.875000
7224		-48.828125
7225		-46.875000
7226		-48.828125
7227		-44.921875
7228		-46.875000
7229		-44.921875
7230		-44.921875
7231		-42.968750
7232		-44.921875
7233		-41.015625
7234		-42.968750
7235		-39.062500
7236		-41.015625
7237		-37.109375
7238		-39.062500
7239		-37.109375
7240		-37.109375
7241		-33.203125
7242		-35.156250
7243		-31.250000
7244		-33.203125
7245		-29.296875
7246		-31.250000
7247		-27.343750
7248		-29.296875
7249		-25.390625
7250		-27.343750
7251		-21.484375
7252		-23.437500
7253		-19.531250
7254		-21.484375
7255		-17.578125
7256		-19.531250
7257		-13.671875
7258		-15.625000
7259		-11.718750
7260		-13.671875
7261		-9.765625
7262		-9.765625
7263		-5.859375
7264		-7.812500
7265		-3.906250
7266		-3.906250
7267		0.000000
7268		-1.953125
7269		1.953125
7270		1.953125
7271		5.859375
7272		3.906250
7273		7.812500
7274		7.812500
7275		11.718750
7276		9.765625
7277		15.625000
7278		13.671875
7279		17.578125
7280		15.625000
7281		19.531250
7282		19.531250
7283		23.437500
7284		21.484375
7285		27.343750
7286		25.390625
7287		29.296875
7288		27.343750
7289		31.250000
7290		31.250000
7291		35.156250
7292		33.203125
7293		37.109375
7294		35.156250
7295		39.062500
7296		37.109375
7297		42.968750
7298		41.015625
7299		44.921875
7300		42.968750
7301		46.875000
7302		44.921875
7303		48.828125
7304		46.875000
7305		50.781250
7306		50.781250
7307		52.734375
7308		52.734375
7309		54.687500
7310		52.734375
7311		56.640625
7312		54.687500
7313		58.593750
7314		56.640625
7315		60.546875
7316		58.593750
7317		62.500000
7318		60.546875
7319		62.500000
7320		62.500000
7321		64.453125
7322		62.500000
7323		66.406250
7324		64.453125
7325		66.406250
7326		64.453125
7327		68.359375
7328		66.406250
7329		68.359375
7330		66.406250
7331		68.359375
7332		66.406250
7333		70.312500
7334		68.359375
7335		70.312500
7336		68.359375
7337		70.312500
7338		68.359375
7339		70.312500
7340		68.359375
7341		70.312500
7342		68.359375
7343		70.312500
7344		68.359375
7345		70.312500
7346		66.406250
7347		70.312500
7348		66.406250
7349		68.359375
7350		66.406250
7351		68.359375
7352		64.453125
7353		68.359375
7354		64.453125
7355		66.406250
7356		62.500000
7357		66.406250
7358		60.546875
7359		64.453125
7360		60.546875
7361		62.500000
7362		58.593750
7363		62.500000
7364		56.640625
7365		60.546875
7366		54.687500
7367		58.593750
7368		52.734375
7369		56.640625
7370		52.734375
7371		54.687500
7372		48.828125
7373		52.734375
7374		46.875000
7375		50.781250
7376		44.921875
7377		48.828125
7378		42.968750
7379		46.875000
7380		41.015625
7381		44.921875
7382		39.062500
7383		42.968750
7384		35.156250
7385		39.062500
7386		33.203125
7387		37.109375
7388		29.296875
7389		35.156250
7390		27.343750
7391		31.250000
7392		25.390625
7393		29.296875
7394		21.484375
7395		25.390625
7396		19.531250
7397		23.437500
7398		15.625000
7399		19.531250
7400		13.671875
7401		17.578125
7402		9.765625
7403		13.671875
7404		7.812500
7405		11.718750
7406		3.906250
7407		7.812500
7408		0.000000
7409		5.859375
7410		-1.953125
7411		1.953125
7412		-3.906250
7413		0.000000
7414		-7.812500
7415		-3.906250
7416		-9.765625
7417		-5.859375
7418		-13.671875
7419		-7.812500
7420		-15.625000
7421		-11.718750
7422		-19.531250
7423		-15.625000
7424		-21.484375
7425		-17.578125
7426		-23.437500
7427		-19.531250
7428		-27.343750
7429		-23.437500
7430		-29.296875
7431		-25.390625
7432		-31.250000
7433		-27.343750
7434		-33.203125
7435		-29.296875
7436		-35.156250
7437		-31.250000
7438		-37.109375
7439		-33.203125
7440		-39.062500
7441		-35.156250
7442		-41.015625
7443		-37.109375
7444		-42.968750
7445		-39.062500
7446		-44.921875
7447		-41.015625
7448		-46.875000
7449		-42.968750
7450		-46.875000
7451		-44.921875
7452		-46.875000
7453		-44.921875
7454		-48.828125
7455		-46.875000
7456		-48.828125
7457		-46.875000
7458		-50.781250
7459		-46.875000
7460		-50.781250
7461		-48.828125
7462		-50.781250
7463		-48.828125
7464		-50.781250
7465		-48.828125
7466		-50.781250
7467		-48.828125
7468		-50.781250
7469		-48.828125
7470		-50.781250
7471		-48.828125
7472		-50.781250
7473		-46.875000
7474		-50.781250
7475		-46.875000
7476		-48.828125
7477		-46.875000
7478		-48.828125
7479		-44.921875
7480		-46.875000
7481		-44.921875
7482		-44.921875
7483		-42.968750
7484		-44.921875
7485		-41.015625
7486		-42.968750
7487		-39.062500
7488		-41.015625
7489		-37.109375
7490		-39.062500
7491		-37.109375
7492		-39.062500
7493		-35.156250
7494		-37.109375
7495		-31.250000
7496		-33.203125
7497		-29.296875
7498		-31.250000
7499		-27.343750
7500		-29.296875
7501		-25.390625
7502		-27.343750
7503		-23.437500
7504		-25.390625
7505		-21.484375
7506		-21.484375
7507		-17.578125
7508		-19.531250
7509		-15.625000
7510		-17.578125
7511		-11.718750
7512		-13.671875
7513		-9.765625
7514		-11.718750
7515		-7.812500
7516		-7.812500
7517		-3.906250
7518		-5.859375
7519		-1.953125
7520		-1.953125
7521		1.953125
7522		0.000000
7523		3.906250
7524		3.906250
7525		7.812500
7526		5.859375
7527		11.718750
7528		9.765625
7529		13.671875
7530		11.718750
7531		17.578125
7532		15.625000
7533		19.531250
7534		17.578125
7535		23.437500
7536		21.484375
7537		25.390625
7538		23.437500
7539		27.343750
7540		27.343750
7541		31.250000
7542		29.296875
7543		33.203125
7544		33.203125
7545		37.109375
7546		35.156250
7547		39.062500
7548		37.109375
7549		41.015625
7550		41.015625
7551		44.921875
7552		42.968750
7553		46.875000
7554		44.921875
7555		48.828125
7556		46.875000
7557		50.781250
7558		48.828125
7559		52.734375
7560		50.781250
7561		54.687500
7562		52.734375
7563		56.640625
7564		54.687500
7565		58.593750
7566		56.640625
7567		60.546875
7568		58.593750
7569		62.500000
7570		60.546875
7571		62.500000
7572		60.546875
7573		64.453125
7574		62.500000
7575		66.406250
7576		64.453125
7577		66.406250
7578		64.453125
7579		68.359375
7580		66.406250
7581		68.359375
7582		66.406250
7583		68.359375
7584		66.406250
7585		70.312500
7586		68.359375
7587		70.312500
7588		68.359375
7589		70.312500
7590		68.359375
7591		70.312500
7592		68.359375
7593		70.312500
7594		68.359375
7595		70.312500
7596		68.359375
7597		70.312500
7598		66.406250
7599		70.312500
7600		66.406250
7601		70.312500
7602		66.406250
7603		68.359375
7604		66.406250
7605		68.359375
7606		64.453125
7607		68.359375
7608		64.453125
7609		66.406250
7610		62.500000
7611		66.406250
7612		60.546875
7613		64.453125
7614		60.546875
7615		62.500000
7616		58.593750
7617		62.500000
7618		56.640625
7619		60.546875
7620		54.687500
7621		58.593750
7622		52.734375
7623		56.640625
7624		50.781250
7625		54.687500
7626		48.828125
7627		52.734375
7628		46.875000
7629		50.781250
7630		44.921875
7631		48.828125
7632		41.015625
7633		46.875000
7634		39.062500
7635		42.968750
7636		37.109375
7637		41.015625
7638		35.156250
7639		39.062500
7640		31.250000
7641		37.109375
7642		29.296875
7643		33.203125
7644		25.390625
7645		31.250000
7646		23.437500
7647		27.343750
7648		19.531250
7649		25.390625
7650		17.578125
7651		21.484375
7652		13.671875
7653		19.531250
7654		11.718750
7655		15.625000
7656		5.859375
7657		13.671875
7658		5.859375
7659		9.765625
7660		1.953125
7661		7.812500
7662		0.000000
7663		3.906250
7664		-3.906250
7665		1.953125
7666		-5.859375
7667		-1.953125
7668		-9.765625
7669		-5.859375
7670		-11.718750
7671		-5.859375
7672		-15.625000
7673		-9.765625
7674		-17.578125
7675		-11.718750
7676		-23.437500
7677		-15.625000
7678		-23.437500
7679		-17.578125
7680		-25.390625
7681		-21.484375
7682		-29.296875
7683		-23.437500
7684		-31.250000
7685		-25.390625
7686		-33.203125
7687		-27.343750
7688		-35.156250
7689		-31.250000
7690		-37.109375
7691		-33.203125
7692		-39.062500
7693		-35.156250
7694		-41.015625
7695		-35.156250
7696		-41.015625
7697		-39.062500
7698		-42.968750
7699		-39.062500
7700		-46.875000
7701		-41.015625
7702		-48.828125
7703		-41.015625
7704		-46.875000
7705		-42.968750
7706		-48.828125
7707		-44.921875
7708		-50.781250
7709		-44.921875
7710		-50.781250
7711		-44.921875
7712		-50.781250
7713		-46.875000
7714		-50.781250
7715		-48.828125
7716		-52.734375
7717		-46.875000
7718		-52.734375
7719		-44.921875
7720		-52.734375
7721		-46.875000
7722		-50.781250
7723		-46.875000
7724		-52.734375
7725		-44.921875
7726		-50.781250
7727		-46.875000
7728		-52.734375
7729		-42.968750
7730		-48.828125
7731		-44.921875
7732		-46.875000
7733		-42.968750
7734		-46.875000
7735		-41.015625
7736		-46.875000
7737		-41.015625
7738		-42.968750
7739		-39.062500
7740		-42.968750
7741		-37.109375
7742		-42.968750
7743		-35.156250
7744		-41.015625
7745		-33.203125
7746		-37.109375
7747		-33.203125
7748		-35.156250
7749		-31.250000
7750		-33.203125
7751		-27.343750
7752		-33.203125
7753		-23.437500
7754		-29.296875
7755		-23.437500
7756		-25.390625
7757		-21.484375
7758		-23.437500
7759		-15.625000
7760		-19.531250
7761		-15.625000
7762		-21.484375
7763		-11.718750
7764		-15.625000
7765		-9.765625
7766		-11.718750
7767		-5.859375
7768		-9.765625
7769		-1.953125
7770		-5.859375
7771		-1.953125
7772		-3.906250
7773		0.000000
7774		0.000000
7775		7.812500
7776		0.000000
7777		7.812500
7778		1.953125
7779		11.718750
7780		7.812500
7781		13.671875
7782		11.718750
7783		15.625000
7784		13.671875
7785		19.531250
7786		15.625000
7787		23.437500
7788		19.531250
7789		25.390625
7790		23.437500
7791		27.343750
7792		21.484375
7793		33.203125
7794		27.343750
7795		37.109375
7796		31.250000
7797		35.156250
7798		35.156250
7799		39.062500
7800		37.109375
7801		41.015625
7802		37.109375
7803		46.875000
7804		41.015625
7805		44.921875
7806		44.921875
7807		48.828125
7808		44.921875
7809		52.734375
7810		44.921875
7811		54.687500
7812		46.875000
7813		56.640625
7814		52.734375
7815		56.640625
7816		54.687500
7817		58.593750
7818		54.687500
7819		64.453125
7820		54.687500
7821		62.500000
7822		60.546875
7823		62.500000
7824		60.546875
7825		64.453125
7826		60.546875
7827		68.359375
7828		62.500000
7829		70.312500
7830		64.453125
7831		66.406250
7832		66.406250
7833		68.359375
7834		64.453125
7835		72.265625
7836		64.453125
7837		72.265625
7838		64.453125
7839		72.265625
7840		68.359375
7841		70.312500
7842		64.453125
7843		74.218750
7844		68.359375
7845		70.312500
7846		66.406250
7847		72.265625
7848		68.359375
7849		70.312500
7850		66.406250
7851		70.312500
7852		64.453125
7853		72.265625
7854		64.453125
7855		72.265625
7856		66.406250
7857		68.359375
7858		62.500000
7859		70.312500
7860		60.546875
7861		70.312500
7862		60.546875
7863		68.359375
7864		62.500000
7865		64.453125
7866		60.546875
7867		64.453125
7868		58.593750
7869		62.500000
7870		54.687500
7871		64.453125
7872		54.687500
7873		60.546875
7874		52.734375
7875		56.640625
7876		48.828125
7877		58.593750
7878		46.875000
7879		54.687500
7880		46.875000
7881		50.781250
7882		44.921875
7883		48.828125
7884		42.968750
7885		46.875000
7886		39.062500
7887		46.875000
7888		37.109375
7889		42.968750
7890		35.156250
7891		39.062500
7892		29.296875
7893		37.109375
7894		29.296875
7895		37.109375
7896		27.343750
7897		35.156250
7898		25.390625
7899		29.296875
7900		21.484375
7901		25.390625
7902		17.578125
7903		23.437500
7904		15.625000
7905		23.437500
7906		11.718750
7907		17.578125
7908		9.765625
7909		13.671875
7910		5.859375
7911		11.718750
7912		1.953125
7913		7.812500
7914		0.000000
7915		5.859375
7916		-1.953125
7917		1.953125
7918		-5.859375
7919		0.000000
7920		-9.765625
7921		-1.953125
7922		-11.718750
7923		-3.906250
7924		-13.671875
7925		-9.765625
7926		-17.578125
7927		-11.718750
7928		-19.531250
7929		-15.625000
7930		-21.484375
7931		-17.578125
7932		-23.437500
7933		-19.531250
7934		-27.343750
7935		-23.437500
7936		-29.296875
7937		-25.390625
7938		-33.203125
7939		-25.390625
7940		-33.203125
7941		-29.296875
7942		-37.109375
7943		-31.250000
7944		-37.109375
7945		-33.203125
7946		-39.062500
7947		-35.156250
7948		-41.015625
7949		-37.109375
7950		-42.968750
7951		-39.062500
7952		-44.921875
7953		-41.015625
7954		-44.921875
7955		-42.968750
7956		-46.875000
7957		-42.968750
7958		-46.875000
7959		-44.921875
7960		-48.828125
7961		-46.875000
7962		-48.828125
7963		-46.875000
7964		-50.781250
7965		-46.875000
7966		-50.781250
7967		-46.875000
7968		-50.781250
7969		-46.875000
7970		-50.781250
7971		-48.828125
7972		-50.781250
7973		-48.828125
7974		-50.781250
7975		-46.875000
7976		-50.781250
7977		-46.875000
7978		-48.828125
7979		-46.875000
7980		-48.828125
7981		-46.875000
7982		-48.828125
7983		-44.921875
7984		-46.875000
7985		-42.968750
7986		-46.875000
7987		-42.968750
7988		-46.875000
7989		-41.015625
7990		-44.921875
7991		-39.062500
7992		-42.968750
7993		-37.109375
7994		-41.015625
7995		-37.109375
7996		-39.062500
7997		-35.156250
7998		-37.109375
7999		-33.203125
8000		-35.156250
8001		-31.250000
8002		-33.203125
8003		-27.343750
8004		-31.250000
8005		-25.390625
8006		-29.296875
8007		-23.437500
8008		-27.343750
8009		-21.484375
8010		-23.437500
8011		-17.578125
8012		-21.484375
8013		-15.625000
8014		-19.531250
8015		-13.671875
8016		-15.625000
8017		-11.718750
8018		-13.671875
8019		-7.812500
8020		-9.765625
8021		-3.906250
8022		-7.812500
8023		-1.953125
8024		-5.859375
8025		1.953125
8026		-1.953125
8027		3.906250
8028		0.000000
8029		7.812500
8030		3.906250
8031		9.765625
8032		7.812500
8033		11.718750
8034		9.765625
8035		15.625000
8036		11.718750
8037		19.531250
8038		15.625000
8039		21.484375
8040		19.531250
8041		25.390625
8042		19.531250
8043		27.343750
8044		23.437500
8045		31.250000
8046		27.343750
8047		33.203125
8048		29.296875
8049		35.156250
8050		33.203125
8051		37.109375
8052		35.156250
8053		41.015625
8054		37.109375
8055		42.968750
8056		41.015625
8057		44.921875
8058		42.968750
8059		48.828125
8060		44.921875
8061		48.828125
8062		46.875000
8063		52.734375
8064		48.828125
8065		52.734375
8066		52.734375
8067		56.640625
8068		54.687500
8069		58.593750
8070		54.687500
8071		60.546875
8072		56.640625
8073		62.500000
8074		58.593750
8075		64.453125
8076		60.546875
8077		64.453125
8078		60.546875
8079		66.406250
8080		62.500000
8081		68.359375
8082		64.453125
8083		68.359375
8084		66.406250
8085		68.359375
8086		66.406250
8087		70.312500
8088		66.406250
8089		70.312500
8090		66.406250
8091		70.312500
8092		66.406250
8093		72.265625
8094		66.406250
8095		72.265625
8096		66.406250
8097		72.265625
8098		68.359375
8099		72.265625
8100		68.359375
8101		70.312500
8102		66.406250
8103		72.265625
8104		66.406250
8105		70.312500
8106		66.406250
8107		70.312500
8108		64.453125
8109		70.312500
8110		64.453125
8111		68.359375
8112		64.453125
8113		68.359375
8114		64.453125
8115		66.406250
8116		62.500000
8117		66.406250
8118		60.546875
8119		64.453125
8120		58.593750
8121		64.453125
8122		56.640625
8123		62.500000
8124		56.640625
8125		60.546875
8126		54.687500
8127		60.546875
8128		52.734375
8129		56.640625
8130		50.781250
8131		54.687500
8132		48.828125
8133		52.734375
8134		44.921875
8135		50.781250
8136		42.968750
8137		48.828125
8138		41.015625
8139		44.921875
8140		39.062500
8141		42.968750
8142		35.156250
8143		42.968750
8144		33.203125
8145		39.062500
8146		31.250000
8147		35.156250
8148		29.296875
8149		33.203125
8150		25.390625
8151		29.296875
8152		21.484375
8153		27.343750
8154		19.531250
8155		25.390625
8156		17.578125
8157		21.484375
8158		11.718750
8159		19.531250
8160		11.718750
8161		15.625000
8162		7.812500
8163		11.718750
8164		3.906250
8165		9.765625
8166		1.953125
8167		5.859375
8168		0.000000
8169		3.906250
8170		-3.906250
8171		0.000000
8172		-7.812500
8173		-1.953125
8174		-9.765625
8175		-5.859375
8176		-11.718750
8177		-7.812500
8178		-15.625000
8179		-9.765625
8180		-17.578125
8181		-13.671875
8182		-19.531250
8183		-15.625000
8184		-23.437500
8185		-19.531250
8186		-27.343750
8187		-21.484375
8188		-27.343750
8189		-23.437500
8190		-31.250000
8191		-25.390625
8192		-33.203125
8193		-29.296875
8194		-35.156250
8195		-31.250000
8196		-37.109375
8197		-33.203125
8198		-39.062500
8199		-35.156250
8200		-41.015625
8201		-37.109375
8202		-41.015625
8203		-39.062500
8204		-42.968750
8205		-39.062500
8206		-44.921875
8207		-41.015625
8208		-46.875000
8209		-42.968750
8210		-46.875000
8211		-42.968750
8212		-48.828125
8213		-44.921875
8214		-48.828125
8215		-44.921875
8216		-50.781250
8217		-44.921875
8218		-48.828125
8219		-46.875000
8220		-50.781250
8221		-46.875000
8222		-50.781250
8223		-46.875000
8224		-50.781250
8225		-46.875000
8226		-50.781250
8227		-46.875000
8228		-50.781250
8229		-46.875000
8230		-50.781250
8231		-46.875000
8232		-50.781250
8233		-44.921875
8234		-48.828125
8235		-44.921875
8236		-46.875000
8237		-44.921875
8238		-46.875000
8239		-42.968750
8240		-46.875000
8241		-42.968750
8242		-44.921875
8243		-41.015625
8244		-42.968750
8245		-39.062500
8246		-42.968750
8247		-37.109375
8248		-39.062500
8249		-35.156250
8250		-37.109375
8251		-33.203125
8252		-35.156250
8253		-31.250000
8254		-35.156250
8255		-29.296875
8256		-31.250000
8257		-27.343750
8258		-29.296875
8259		-23.437500
8260		-27.343750
8261		-23.437500
8262		-25.390625
8263		-19.531250
8264		-21.484375
8265		-17.578125
8266		-19.531250
8267		-15.625000
8268		-17.578125
8269		-11.718750
8270		-13.671875
8271		-7.812500
8272		-11.718750
8273		-5.859375
8274		-7.812500
8275		-3.906250
8276		-5.859375
8277		0.000000
8278		-1.953125
8279		3.906250
8280		0.000000
8281		5.859375
8282		3.906250
8283		9.765625
8284		5.859375
8285		11.718750
8286		9.765625
8287		13.671875
8288		11.718750
8289		17.578125
8290		15.625000
8291		19.531250
8292		17.578125
8293		23.437500
8294		21.484375
8295		25.390625
8296		23.437500
8297		29.296875
8298		27.343750
8299		31.250000
8300		29.296875
8301		33.203125
8302		33.203125
8303		37.109375
8304		35.156250
8305		39.062500
8306		37.109375
8307		41.015625
8308		39.062500
8309		44.921875
8310		42.968750
8311		46.875000
8312		44.921875
8313		48.828125
8314		46.875000
8315		50.781250
8316		48.828125
8317		52.734375
8318		50.781250
8319		54.687500
8320		52.734375
8321		56.640625
8322		54.687500
8323		58.593750
8324		56.640625
8325		60.546875
8326		58.593750
8327		62.500000
8328		60.546875
8329		64.453125
8330		60.546875
8331		64.453125
8332		62.500000
8333		66.406250
8334		64.453125
8335		66.406250
8336		64.453125
8337		68.359375
8338		66.406250
8339		70.312500
8340		66.406250
8341		70.312500
8342		68.359375
8343		70.312500
8344		68.359375
8345		70.312500
8346		68.359375
8347		70.312500
8348		68.359375
8349		72.265625
8350		68.359375
8351		72.265625
8352		68.359375
8353		70.312500
8354		68.359375
8355		72.265625
8356		68.359375
8357		70.312500
8358		66.406250
8359		70.312500
8360		66.406250
8361		70.312500
8362		66.406250
8363		70.312500
8364		64.453125
8365		68.359375
8366		62.500000
8367		66.406250
8368		62.500000
8369		66.406250
8370		62.500000
8371		64.453125
8372		60.546875
8373		64.453125
8374		58.593750
8375		62.500000
8376		56.640625
8377		60.546875
8378		54.687500
8379		58.593750
8380		54.687500
8381		58.593750
8382		50.781250
8383		56.640625
8384		48.828125
8385		54.687500
8386		46.875000
8387		50.781250
8388		44.921875
8389		48.828125
8390		42.968750
8391		46.875000
8392		41.015625
8393		44.921875
8394		37.109375
8395		42.968750
8396		35.156250
8397		41.015625
8398		33.203125
8399		37.109375
8400		29.296875
8401		33.203125
8402		27.343750
8403		31.250000
8404		23.437500
8405		29.296875
8406		21.484375
8407		27.343750
8408		17.578125
8409		23.437500
8410		15.625000
8411		19.531250
8412		11.718750
8413		17.578125
8414		9.765625
8415		13.671875
8416		5.859375
8417		11.718750
8418		3.906250
8419		7.812500
8420		0.000000
8421		5.859375
8422		-1.953125
8423		1.953125
8424		-5.859375
8425		0.000000
8426		-7.812500
8427		-3.906250
8428		-11.718750
8429		-5.859375
8430		-15.625000
8431		-9.765625
8432		-15.625000
8433		-11.718750
8434		-19.531250
8435		-13.671875
8436		-21.484375
8437		-17.578125
8438		-25.390625
8439		-19.531250
8440		-27.343750
8441		-23.437500
8442		-29.296875
8443		-25.390625
8444		-31.250000
8445		-27.343750
8446		-33.203125
8447		-29.296875
8448		-37.109375
8449		-31.250000
8450		-39.062500
8451		-33.203125
8452		-39.062500
8453		-35.156250
8454		-41.015625
8455		-37.109375
8456		-42.968750
8457		-39.062500
8458		-44.921875
8459		-41.015625
8460		-44.921875
8461		-41.015625
8462		-46.875000
8463		-42.968750
8464		-46.875000
8465		-44.921875
8466		-48.828125
8467		-44.921875
8468		-48.828125
8469		-44.921875
8470		-48.828125
8471		-46.875000
8472		-50.781250
8473		-46.875000
8474		-50.781250
8475		-46.875000
8476		-50.781250
8477		-46.875000
8478		-50.781250
8479		-48.828125
8480		-50.781250
8481		-46.875000
8482		-50.781250
8483		-46.875000
8484		-48.828125
8485		-46.875000
8486		-48.828125
8487		-44.921875
8488		-46.875000
8489		-44.921875
8490		-46.875000
8491		-42.968750
8492		-46.875000
8493		-42.968750
8494		-44.921875
8495		-41.015625
8496		-42.968750
8497		-39.062500
8498		-41.015625
8499		-37.109375
8500		-41.015625
8501		-35.156250
8502		-39.062500
8503		-35.156250
8504		-37.109375
8505		-33.203125
8506		-35.156250
8507		-31.250000
8508		-33.203125
8509		-27.343750
8510		-29.296875
8511		-25.390625
8512		-29.296875
8513		-23.437500
8514		-25.390625
8515		-21.484375
8516		-23.437500
8517		-17.578125
8518		-19.531250
8519		-15.625000
8520		-17.578125
8521		-13.671875
8522		-15.625000
8523		-9.765625
8524		-13.671875
8525		-7.812500
8526		-9.765625
8527		-3.906250
8528		-7.812500
8529		-1.953125
8530		-3.906250
8531		1.953125
8532		-1.953125
8533		3.906250
8534		1.953125
8535		7.812500
8536		5.859375
8537		9.765625
8538		7.812500
8539		13.671875
8540		11.718750
8541		17.578125
8542		13.671875
8543		19.531250
8544		17.578125
8545		21.484375
8546		19.531250
8547		25.390625
8548		23.437500
8549		27.343750
8550		25.390625
8551		31.250000
8552		27.343750
8553		33.203125
8554		31.250000
8555		35.156250
8556		35.156250
8557		39.062500
8558		37.109375
8559		41.015625
8560		39.062500
8561		42.968750
8562		41.015625
8563		44.921875
8564		42.968750
8565		48.828125
8566		46.875000
8567		50.781250
8568		48.828125
8569		52.734375
8570		50.781250
8571		54.687500
8572		52.734375
8573		56.640625
8574		54.687500
8575		58.593750
8576		56.640625
8577		60.546875
8578		58.593750
8579		62.500000
8580		60.546875
8581		62.500000
8582		60.546875
8583		64.453125
8584		62.500000
8585		66.406250
8586		62.500000
8587		66.406250
8588		64.453125
8589		68.359375
8590		64.453125
8591		68.359375
8592		66.406250
8593		70.312500
8594		66.406250
8595		70.312500
8596		66.406250
8597		70.312500
8598		68.359375
8599		72.265625
8600		68.359375
8601		72.265625
8602		68.359375
8603		72.265625
8604		68.359375
8605		70.312500
8606		66.406250
8607		72.265625
8608		68.359375
8609		72.265625
8610		66.406250
8611		70.312500
8612		68.359375
8613		70.312500
8614		66.406250
8615		70.312500
8616		64.453125
8617		68.359375
8618		62.500000
8619		68.359375
8620		62.500000
8621		66.406250
8622		62.500000
8623		66.406250
8624		60.546875
8625		66.406250
8626		60.546875
8627		62.500000
8628		58.593750
8629		62.500000
8630		56.640625
8631		60.546875
8632		54.687500
8633		58.593750
8634		52.734375
8635		56.640625
8636		50.781250
8637		54.687500
8638		48.828125
8639		52.734375
8640		44.921875
8641		50.781250
8642		42.968750
8643		48.828125
8644		41.015625
8645		46.875000
8646		39.062500
8647		42.968750
8648		35.156250
8649		41.015625
8650		33.203125
8651		37.109375
8652		31.250000
8653		35.156250
8654		27.343750
8655		33.203125
8656		25.390625
8657		29.296875
8658		21.484375
8659		27.343750
8660		19.531250
8661		25.390625
8662		17.578125
8663		21.484375
8664		13.671875
8665		19.531250
8666		11.718750
8667		15.625000
8668		7.812500
8669		11.718750
8670		3.906250
8671		9.765625
8672		1.953125
8673		5.859375
8674		-1.953125
8675		3.906250
8676		-5.859375
8677		0.000000
8678		-7.812500
8679		-1.953125
8680		-9.765625
8681		-5.859375
8682		-13.671875
8683		-7.812500
8684		-15.625000
8685		-9.765625
8686		-17.578125
8687		-13.671875
8688		-21.484375
8689		-17.578125
8690		-25.390625
8691		-19.531250
8692		-27.343750
8693		-21.484375
8694		-29.296875
8695		-23.437500
8696		-31.250000
8697		-27.343750
8698		-33.203125
8699		-29.296875
8700		-35.156250
8701		-31.250000
8702		-39.062500
8703		-33.203125
8704		-39.062500
8705		-35.156250
8706		-41.015625
8707		-37.109375
8708		-42.968750
8709		-39.062500
8710		-42.968750
8711		-39.062500
8712		-44.921875
8713		-41.015625
8714		-46.875000
8715		-42.968750
8716		-46.875000
8717		-42.968750
8718		-48.828125
8719		-44.921875
8720		-50.781250
8721		-46.875000
8722		-50.781250
8723		-46.875000
8724		-50.781250
8725		-46.875000
8726		-50.781250
8727		-46.875000
8728		-50.781250
8729		-46.875000
8730		-50.781250
8731		-46.875000
8732		-50.781250
8733		-46.875000
8734		-50.781250
8735		-46.875000
8736		-50.781250
8737		-46.875000
8738		-48.828125
8739		-46.875000
8740		-48.828125
8741		-44.921875
8742		-48.828125
8743		-42.968750
8744		-46.875000
8745		-42.968750
8746		-44.921875
8747		-41.015625
8748		-42.968750
8749		-39.062500
8750		-42.968750
8751		-39.062500
8752		-41.015625
8753		-37.109375
8754		-39.062500
8755		-35.156250
8756		-37.109375
8757		-33.203125
8758		-35.156250
8759		-31.250000
8760		-33.203125
8761		-29.296875
8762		-31.250000
8763		-27.343750
8764		-29.296875
8765		-23.437500
8766		-27.343750
8767		-21.484375
8768		-23.437500
8769		-19.531250
8770		-21.484375
8771		-17.578125
8772		-19.531250
8773		-13.671875
8774		-15.625000
8775		-9.765625
8776		-13.671875
8777		-7.812500
8778		-11.718750
8779		-5.859375
8780		-7.812500
8781		-3.906250
8782		-3.906250
8783		0.000000
8784		-1.953125
8785		3.906250
8786		1.953125
8787		7.812500
8788		3.906250
8789		9.765625
8790		7.812500
8791		11.718750
8792		9.765625
8793		13.671875
8794		13.671875
8795		17.578125
8796		15.625000
8797		21.484375
8798		19.531250
8799		23.437500
8800		21.484375
8801		27.343750
8802		25.390625
8803		29.296875
8804		27.343750
8805		31.250000
8806		31.250000
8807		35.156250
8808		33.203125
8809		37.109375
8810		35.156250
8811		39.062500
8812		37.109375
8813		42.968750
8814		41.015625
8815		44.921875
8816		42.968750
8817		46.875000
8818		44.921875
8819		48.828125
8820		46.875000
8821		52.734375
8822		48.828125
8823		52.734375
8824		52.734375
8825		56.640625
8826		52.734375
8827		56.640625
8828		56.640625
8829		58.593750
8830		56.640625
8831		60.546875
8832		58.593750
8833		62.500000
8834		60.546875
8835		64.453125
8836		62.500000
8837		64.453125
8838		62.500000
8839		66.406250
8840		64.453125
8841		66.406250
8842		64.453125
8843		68.359375
8844		66.406250
8845		70.312500
8846		66.406250
8847		70.312500
8848		68.359375
8849		70.312500
8850		68.359375
8851		70.312500
8852		68.359375
8853		72.265625
8854		68.359375
8855		72.265625
8856		68.359375
8857		70.312500
8858		68.359375
8859		70.312500
8860		66.406250
8861		72.265625
8862		68.359375
8863		70.312500
8864		68.359375
8865		70.312500
8866		66.406250
8867		70.312500
8868		66.406250
8869		70.312500
8870		64.453125
8871		68.359375
8872		64.453125
8873		66.406250
8874		62.500000
8875		66.406250
8876		60.546875
8877		64.453125
8878		60.546875
8879		64.453125
8880		58.593750
8881		62.500000
8882		56.640625
8883		60.546875
8884		54.687500
8885		58.593750
8886		52.734375
8887		56.640625
8888		50.781250
8889		54.687500
8890		48.828125
8891		52.734375
8892		46.875000
8893		50.781250
8894		44.921875
8895		48.828125
8896		42.968750
8897		46.875000
8898		39.062500
8899		44.921875
8900		37.109375
8901		41.015625
8902		35.156250
8903		39.062500
8904		31.250000
8905		37.109375
8906		29.296875
8907		33.203125
8908		25.390625
8909		31.250000
8910		23.437500
8911		29.296875
8912		21.484375
8913		25.390625
8914		17.578125
8915		23.437500
8916		15.625000
8917		19.531250
8918		11.718750
8919		15.625000
8920		7.812500
8921		13.671875
8922		5.859375
8923		11.718750
8924		1.953125
8925		7.812500
8926		0.000000
8927		3.906250
8928		-3.906250
8929		1.953125
8930		-5.859375
8931		-1.953125
8932		-9.765625
8933		-3.906250
8934		-11.718750
8935		-7.812500
8936		-15.625000
8937		-9.765625
8938		-17.578125
8939		-13.671875
8940		-19.531250
8941		-15.625000
8942		-23.437500
8943		-17.578125
8944		-25.390625
8945		-19.531250
8946		-27.343750
8947		-23.437500
8948		-29.296875
8949		-25.390625
8950		-33.203125
8951		-27.343750
8952		-35.156250
8953		-29.296875
8954		-37.109375
8955		-31.250000
8956		-37.109375
8957		-35.156250
8958		-39.062500
8959		-37.109375
8960		-41.015625
8961		-37.109375
8962		-42.968750
8963		-39.062500
8964		-44.921875
8965		-41.015625
8966		-46.875000
8967		-42.968750
8968		-46.875000
8969		-42.968750
8970		-46.875000
8971		-44.921875
8972		-48.828125
8973		-44.921875
8974		-48.828125
8975		-46.875000
8976		-50.781250
8977		-46.875000
8978		-50.781250
8979		-46.875000
8980		-50.781250
8981		-46.875000
8982		-50.781250
8983		-46.875000
8984		-50.781250
8985		-46.875000
8986		-50.781250
8987		-46.875000
8988		-50.781250
8989		-44.921875
8990		-48.828125
8991		-46.875000
8992		-48.828125
8993		-44.921875
8994		-48.828125
8995		-42.968750
8996		-46.875000
8997		-42.968750
8998		-44.921875
8999		-41.015625
9000		-44.921875
9001		-41.015625
9002		-42.968750
9003		-39.062500
9004		-41.015625
9005		-37.109375
9006		-41.015625
9007		-35.156250
9008		-37.109375
9009		-33.203125
9010		-35.156250
9011		-31.250000
9012		-33.203125
9013		-29.296875
9014		-33.203125
9015		-27.343750
9016		-29.296875
9017		-25.390625
9018		-27.343750
9019		-23.437500
9020		-25.390625
9021		-19.531250
9022		-21.484375
9023		-17.578125
9024		-19.531250
9025		-15.625000
9026		-17.578125
9027		-11.718750
9028		-15.625000
9029		-9.765625
9030		-11.718750
9031		-5.859375
9032		-7.812500
9033		-3.906250
9034		-5.859375
9035		0.000000
9036		-1.953125
9037		1.953125
9038		0.000000
9039		5.859375
9040		1.953125
9041		7.812500
9042		5.859375
9043		11.718750
9044		9.765625
9045		13.671875
9046		11.718750
9047		17.578125
9048		15.625000
9049		19.531250
9050		17.578125
9051		23.437500
9052		21.484375
9053		25.390625
9054		23.437500
9055		29.296875
9056		27.343750
9057		31.250000
9058		29.296875
9059		33.203125
9060		31.250000
9061		37.109375
9062		35.156250
9063		39.062500
9064		37.109375
9065		41.015625
9066		39.062500
9067		44.921875
9068		41.015625
9069		46.875000
9070		44.921875
9071		48.828125
9072		46.875000
9073		52.734375
9074		48.828125
9075		52.734375
9076		50.781250
9077		54.687500
9078		52.734375
9079		56.640625
9080		54.687500
9081		58.593750
9082		56.640625
9083		60.546875
9084		58.593750
9085		62.500000
9086		60.546875
9087		62.500000
9088		62.500000
9089		66.406250
9090		62.500000
9091		66.406250
9092		64.453125
9093		68.359375
9094		64.453125
9095		68.359375
9096		66.406250
9097		68.359375
9098		66.406250
9099		70.312500
9100		68.359375
9101		70.312500
9102		68.359375
9103		70.312500
9104		68.359375
9105		72.265625
9106		68.359375
9107		72.265625
9108		68.359375
9109		72.265625
9110		68.359375
9111		72.265625
9112		68.359375
9113		72.265625
9114		68.359375
9115		70.312500
9116		66.406250
9117		70.312500
9118		66.406250
9119		70.312500
9120		66.406250
9121		70.312500
9122		66.406250
9123		70.312500
9124		64.453125
9125		68.359375
9126		64.453125
9127		66.406250
9128		62.500000
9129		66.406250
9130		60.546875
9131		64.453125
9132		60.546875
9133		62.500000
9134		58.593750
9135		62.500000
9136		56.640625
9137		60.546875
9138		54.687500
9139		58.593750
9140		50.781250
9141		56.640625
9142		50.781250
9143		54.687500
9144		46.875000
9145		52.734375
9146		44.921875
9147		50.781250
9148		42.968750
9149		46.875000
9150		41.015625
9151		46.875000
9152		39.062500
9153		42.968750
9154		37.109375
9155		41.015625
9156		33.203125
9157		39.062500
9158		31.250000
9159		35.156250
9160		27.343750
9161		33.203125
9162		23.437500
9163		29.296875
9164		21.484375
9165		27.343750
9166		19.531250
9167		23.437500
9168		15.625000
9169		21.484375
9170		13.671875
9171		17.578125
9172		9.765625
9173		15.625000
9174		7.812500
9175		13.671875
9176		3.906250
9177		9.765625
9178		1.953125
9179		5.859375
9180		-1.953125
9181		3.906250
9182		-3.906250
9183		0.000000
9184		-7.812500
9185		-1.953125
9186		-9.765625
9187		-5.859375
9188		-11.718750
9189		-7.812500
9190		-15.625000
9191		-11.718750
9192		-17.578125
9193		-13.671875
9194		-21.484375
9195		-15.625000
9196		-23.437500
9197		-19.531250
9198		-25.390625
9199		-21.484375
9200		-27.343750
9201		-23.437500
9202		-31.250000
9203		-27.343750
9204		-33.203125
9205		-29.296875
9206		-35.156250
9207		-29.296875
9208		-37.109375
9209		-31.250000
9210		-39.062500
9211		-35.156250
9212		-41.015625
9213		-37.109375
9214		-42.968750
9215		-37.109375
9216		-42.968750
9217		-39.062500
9218		-44.921875
9219		-41.015625
9220		-46.875000
9221		-42.968750
9222		-46.875000
9223		-42.968750
9224		-46.875000
9225		-44.921875
9226		-48.828125
9227		-44.921875
9228		-48.828125
9229		-44.921875
9230		-50.781250
9231		-46.875000
9232		-50.781250
9233		-46.875000
9234		-48.828125
9235		-46.875000
9236		-48.828125
9237		-46.875000
9238		-48.828125
9239		-46.875000
9240		-50.781250
9241		-44.921875
9242		-48.828125
9243		-46.875000
9244		-48.828125
9245		-44.921875
9246		-48.828125
9247		-42.968750
9248		-46.875000
9249		-42.968750
9250		-46.875000
9251		-41.015625
9252		-44.921875
9253		-41.015625
9254		-42.968750
9255		-39.062500
9256		-41.015625
9257		-37.109375
9258		-41.015625
9259		-35.156250
9260		-39.062500
9261		-35.156250
9262		-35.156250
9263		-31.250000
9264		-35.156250
9265		-29.296875
9266		-31.250000
9267		-27.343750
9268		-29.296875
9269		-25.390625
9270		-27.343750
9271		-23.437500
9272		-25.390625
9273		-21.484375
9274		-23.437500
9275		-17.578125
9276		-19.531250
9277		-15.625000
9278		-17.578125
9279		-13.671875
9280		-15.625000
9281		-9.765625
9282		-11.718750
9283		-7.812500
9284		-9.765625
9285		-3.906250
9286		-5.859375
9287		-1.953125
9288		-3.906250
9289		1.953125
9290		0.000000
9291		5.859375
9292		1.953125
9293		7.812500
9294		5.859375
9295		9.765625
9296		7.812500
9297		13.671875
9298		11.718750
9299		17.578125
9300		13.671875
9301		19.531250
9302		17.578125
9303		21.484375
9304		21.484375
9305		25.390625
9306		23.437500
9307		27.343750
9308		25.390625
9309		31.250000
9310		29.296875
9311		33.203125
9312		31.250000
9313		37.109375
9314		35.156250
9315		39.062500
9316		37.109375
9317		41.015625
9318		39.062500
9319		42.968750
9320		41.015625
9321		46.875000
9322		44.921875
9323		48.828125
9324		46.875000
9325		52.734375
9326		48.828125
9327		52.734375
9328		50.781250
9329		54.687500
9330		52.734375
9331		56.640625
9332		54.687500
9333		58.593750
9334		56.640625
9335		60.546875
9336		58.593750
9337		62.500000
9338		60.546875
9339		62.500000
9340		62.500000
9341		64.453125
9342		62.500000
9343		66.406250
9344		64.453125
9345		66.406250
9346		64.453125
9347		68.359375
9348		66.406250
9349		70.312500
9350		66.406250
9351		70.312500
9352		68.359375
9353		70.312500
9354		68.359375
9355		72.265625
9356		68.359375
9357		72.265625
9358		68.359375
9359		72.265625
9360		70.312500
9361		72.265625
9362		70.312500
9363		72.265625
9364		68.359375
9365		72.265625
9366		68.359375
9367		72.265625
9368		68.359375
9369		72.265625
9370		68.359375
9371		72.265625
9372		66.406250
9373		70.312500
9374		66.406250
9375		70.312500
9376		66.406250
9377		68.359375
9378		64.453125
9379		68.359375
9380		62.500000
9381		66.406250
9382		62.500000
9383		64.453125
9384		60.546875
9385		64.453125
9386		58.593750
9387		62.500000
9388		56.640625
9389		60.546875
9390		54.687500
9391		58.593750
9392		52.734375
9393		56.640625
9394		52.734375
9395		54.687500
9396		48.828125
9397		52.734375
9398		46.875000
9399		50.781250
9400		44.921875
9401		48.828125
9402		42.968750
9403		46.875000
9404		39.062500
9405		44.921875
9406		37.109375
9407		41.015625
9408		35.156250
9409		39.062500
9410		33.203125
9411		37.109375
9412		29.296875
9413		33.203125
9414		27.343750
9415		31.250000
9416		23.437500
9417		29.296875
9418		19.531250
9419		25.390625
9420		17.578125
9421		21.484375
9422		15.625000
9423		19.531250
9424		11.718750
9425		15.625000
9426		9.765625
9427		13.671875
9428		5.859375
9429		9.765625
9430		1.953125
9431		7.812500
9432		0.000000
9433		5.859375
9434		-1.953125
9435		1.953125
9436		-5.859375
9437		-1.953125
9438		-9.765625
9439		-3.906250
9440		-11.718750
9441		-7.812500
9442		-15.625000
9443		-9.765625
9444		-17.578125
9445		-11.718750
9446		-19.531250
9447		-15.625000
9448		-23.437500
9449		-17.578125
9450		-25.390625
9451		-19.531250
9452		-27.343750
9453		-21.484375
9454		-29.296875
9455		-25.390625
9456		-31.250000
9457		-27.343750
9458		-35.156250
9459		-29.296875
9460		-35.156250
9461		-31.250000
9462		-37.109375
9463		-33.203125
9464		-39.062500
9465		-35.156250
9466		-41.015625
9467		-37.109375
9468		-42.968750
9469		-39.062500
9470		-44.921875
9471		-39.062500
9472		-44.921875
9473		-41.015625
9474		-44.921875
9475		-42.968750
9476		-48.828125
9477		-42.968750
9478		-46.875000
9479		-44.921875
9480		-48.828125
9481		-44.921875
9482		-48.828125
9483		-44.921875
9484		-48.828125
9485		-46.875000
9486		-48.828125
9487		-46.875000
9488		-50.781250
9489		-46.875000
9490		-48.828125
9491		-46.875000
9492		-48.828125
9493		-44.921875
9494		-48.828125
9495		-44.921875
9496		-48.828125
9497		-44.921875
9498		-48.828125
9499		-42.968750
9500		-46.875000
9501		-42.968750
9502		-46.875000
9503		-41.015625
9504		-44.921875
9505		-41.015625
9506		-42.968750
9507		-39.062500
9508		-41.015625
9509		-39.062500
9510		-41.015625
9511		-37.109375
9512		-37.109375
9513		-35.156250
9514		-37.109375
9515		-31.250000
9516		-35.156250
9517		-31.250000
9518		-33.203125
9519		-27.343750
9520		-31.250000
9521		-27.343750
9522		-27.343750
9523		-23.437500
9524		-25.390625
9525		-21.484375
9526		-23.437500
9527		-19.531250
9528		-21.484375
9529		-15.625000
9530		-17.578125
9531		-13.671875
9532		-15.625000
9533		-9.765625
9534		-13.671875
9535		-7.812500
9536		-9.765625
9537		-5.859375
9538		-5.859375
9539		-1.953125
9540		-3.906250
9541		0.000000
9542		-1.953125
9543		3.906250
9544		0.000000
9545		5.859375
9546		3.906250
9547		9.765625
9548		7.812500
9549		11.718750
9550		9.765625
9551		15.625000
9552		13.671875
9553		17.578125
9554		15.625000
9555		21.484375
9556		19.531250
9557		23.437500
9558		21.484375
9559		27.343750
9560		25.390625
9561		29.296875
9562		27.343750
9563		31.250000
9564		31.250000
9565		35.156250
9566		31.250000
9567		37.109375
9568		37.109375
9569		41.015625
9570		39.062500
9571		42.968750
9572		41.015625
9573		44.921875
9574		42.968750
9575		48.828125
9576		46.875000
9577		50.781250
9578		48.828125
9579		52.734375
9580		50.781250
9581		54.687500
9582		52.734375
9583		56.640625
9584		54.687500
9585		58.593750
9586		56.640625
9587		58.593750
9588		58.593750
9589		62.500000
9590		58.593750
9591		64.453125
9592		60.546875
9593		64.453125
9594		62.500000
9595		66.406250
9596		64.453125
9597		66.406250
9598		64.453125
9599		68.359375
9600		66.406250
9601		70.312500
9602		66.406250
9603		70.312500
9604		66.406250
9605		70.312500
9606		68.359375
9607		70.312500
9608		68.359375
9609		72.265625
9610		68.359375
9611		72.265625
9612		70.312500
9613		72.265625
9614		70.312500
9615		72.265625
9616		68.359375
9617		72.265625
9618		68.359375
9619		72.265625
9620		68.359375
9621		72.265625
9622		68.359375
9623		72.265625
9624		68.359375
9625		70.312500
9626		66.406250
9627		70.312500
9628		66.406250
9629		70.312500
9630		64.453125
9631		68.359375
9632		64.453125
9633		66.406250
9634		62.500000
9635		66.406250
9636		60.546875
9637		64.453125
9638		60.546875
9639		62.500000
9640		56.640625
9641		62.500000
9642		56.640625
9643		60.546875
9644		54.687500
9645		58.593750
9646		52.734375
9647		56.640625
9648		50.781250
9649		54.687500
9650		48.828125
9651		52.734375
9652		44.921875
9653		48.828125
9654		42.968750
9655		48.828125
9656		41.015625
9657		44.921875
9658		39.062500
9659		42.968750
9660		35.156250
9661		39.062500
9662		33.203125
9663		39.062500
9664		31.250000
9665		35.156250
9666		27.343750
9667		33.203125
9668		25.390625
9669		29.296875
9670		21.484375
9671		27.343750
9672		19.531250
9673		23.437500
9674		15.625000
9675		21.484375
9676		13.671875
9677		17.578125
9678		9.765625
9679		15.625000
9680		7.812500
9681		11.718750
9682		3.906250
9683		7.812500
9684		1.953125
9685		5.859375
9686		-1.953125
9687		1.953125
9688		-3.906250
9689		0.000000
9690		-7.812500
9691		-1.953125
9692		-9.765625
9693		-5.859375
9694		-13.671875
9695		-7.812500
9696		-15.625000
9697		-11.718750
9698		-19.531250
9699		-13.671875
9700		-21.484375
9701		-17.578125
9702		-23.437500
9703		-19.531250
9704		-27.343750
9705		-21.484375
9706		-27.343750
9707		-25.390625
9708		-31.250000
9709		-25.390625
9710		-33.203125
9711		-29.296875
9712		-35.156250
9713		-31.250000
9714		-37.109375
9715		-33.203125
9716		-39.062500
9717		-35.156250
9718		-41.015625
9719		-37.109375
9720		-41.015625
9721		-39.062500
9722		-42.968750
9723		-39.062500
9724		-44.921875
9725		-41.015625
9726		-46.875000
9727		-42.968750
9728		-48.828125
9729		-42.968750
9730		-46.875000
9731		-44.921875
9732		-48.828125
9733		-44.921875
9734		-48.828125
9735		-44.921875
9736		-48.828125
9737		-46.875000
9738		-48.828125
9739		-46.875000
9740		-50.781250
9741		-46.875000
9742		-48.828125
9743		-46.875000
9744		-48.828125
9745		-46.875000
9746		-50.781250
9747		-44.921875
9748		-48.828125
9749		-44.921875
9750		-48.828125
9751		-44.921875
9752		-46.875000
9753		-42.968750
9754		-46.875000
9755		-42.968750
9756		-44.921875
9757		-41.015625
9758		-44.921875
9759		-41.015625
9760		-42.968750
9761		-39.062500
9762		-41.015625
9763		-37.109375
9764		-39.062500
9765		-35.156250
9766		-37.109375
9767		-33.203125
9768		-35.156250
9769		-31.250000
9770		-33.203125
9771		-29.296875
9772		-31.250000
9773		-27.343750
9774		-29.296875
9775		-25.390625
9776		-27.343750
9777		-21.484375
9778		-25.390625
9779		-19.531250
9780		-21.484375
9781		-17.578125
9782		-19.531250
9783		-15.625000
9784		-17.578125
9785		-11.718750
9786		-13.671875
9787		-9.765625
9788		-11.718750
9789		-7.812500
9790		-7.812500
9791		-3.906250
9792		-5.859375
9793		0.000000
9794		-1.953125
9795		1.953125
9796		0.000000
9797		3.906250
9798		3.906250
9799		7.812500
9800		5.859375
9801		11.718750
9802		9.765625
9803		13.671875
9804		11.718750
9805		17.578125
9806		15.625000
9807		19.531250
9808		17.578125
9809		23.437500
9810		21.484375
9811		25.390625
9812		23.437500
9813		29.296875
9814		27.343750
9815		31.250000
9816		29.296875
9817		33.203125
9818		31.250000
9819		37.109375
9820		35.156250
9821		39.062500
9822		37.109375
9823		41.015625
9824		39.062500
9825		44.921875
9826		42.968750
9827		46.875000
9828		44.921875
9829		48.828125
9830		44.921875
9831		50.781250
9832		48.828125
9833		52.734375
9834		50.781250
9835		54.687500
9836		52.734375
9837		58.593750
9838		54.687500
9839		58.593750
9840		56.640625
9841		60.546875
9842		58.593750
9843		62.500000
9844		60.546875
9845		64.453125
9846		62.500000
9847		64.453125
9848		62.500000
9849		66.406250
9850		64.453125
9851		68.359375
9852		64.453125
9853		68.359375
9854		66.406250
9855		70.312500
9856		66.406250
9857		70.312500
9858		68.359375
9859		70.312500
9860		68.359375
9861		72.265625
9862		68.359375
9863		72.265625
9864		68.359375
9865		72.265625
9866		70.312500
9867		72.265625
9868		68.359375
9869		72.265625
9870		68.359375
9871		72.265625
9872		68.359375
9873		72.265625
9874		68.359375
9875		72.265625
9876		68.359375
9877		70.312500
9878		66.406250
9879		70.312500
9880		64.453125
9881		70.312500
9882		64.453125
9883		68.359375
9884		64.453125
9885		66.406250
9886		62.500000
9887		66.406250
9888		60.546875
9889		64.453125
9890		60.546875
9891		62.500000
9892		58.593750
9893		62.500000
9894		56.640625
9895		60.546875
9896		54.687500
9897		58.593750
9898		52.734375
9899		56.640625
9900		50.781250
9901		54.687500
9902		48.828125
9903		52.734375
9904		46.875000
9905		50.781250
9906		42.968750
9907		48.828125
9908		41.015625
9909		44.921875
9910		39.062500
9911		44.921875
9912		37.109375
9913		42.968750
9914		33.203125
9915		39.062500
9916		31.250000
9917		35.156250
9918		29.296875
9919		33.203125
9920		25.390625
9921		31.250000
9922		23.437500
9923		27.343750
9924		19.531250
9925		25.390625
9926		17.578125
9927		21.484375
9928		13.671875
9929		19.531250
9930		11.718750
9931		15.625000
9932		7.812500
9933		13.671875
9934		3.906250
9935		9.765625
9936		1.953125
9937		7.812500
9938		0.000000
9939		3.906250
9940		-3.906250
9941		1.953125
9942		-5.859375
9943		-1.953125
9944		-9.765625
9945		-3.906250
9946		-13.671875
9947		-7.812500
9948		-15.625000
9949		-11.718750
9950		-17.578125
9951		-13.671875
9952		-21.484375
9953		-15.625000
9954		-23.437500
9955		-19.531250
9956		-25.390625
9957		-21.484375
9958		-27.343750
9959		-23.437500
9960		-31.250000
9961		-25.390625
9962		-31.250000
9963		-27.343750
9964		-35.156250
9965		-29.296875
9966		-35.156250
9967		-33.203125
9968		-39.062500
9969		-35.156250
9970		-41.015625
9971		-35.156250
9972		-41.015625
9973		-37.109375
9974		-42.968750
9975		-39.062500
9976		-44.921875
9977		-41.015625
9978		-44.921875
9979		-42.968750
9980		-46.875000
9981		-42.968750
9982		-46.875000
9983		-44.921875
9984		-46.875000
9985		-44.921875
9986		-48.828125
9987		-44.921875
9988		-48.828125
9989		-46.875000
9990		-48.828125
9991		-46.875000
9992		-48.828125
9993		-46.875000
9994		-50.781250
9995		-44.921875
9996		-48.828125
9997		-46.875000
9998		-48.828125
9999		-46.875000
10000		-48.828125
