Channel              :		CH1
Frequency            :		1.774kHz
Period               :		0.564ms
PK-PK                :		283.2mV
Probe attenuation    :		1X
Voltage per ADC value:		0.122070mV
Time interval        :		2.00000us

index		CH1_Voltage(mV)
1		134.765625
2		134.765625
3		132.812500
4		134.765625
5		130.859375
6		134.765625
7		128.906250
8		132.812500
9		128.906250
10		130.859375
11		126.953125
12		130.859375
13		125.000000
14		128.906250
15		123.046875
16		126.953125
17		121.093750
18		125.000000
19		117.187500
20		121.093750
21		115.234375
22		119.140625
23		111.328125
24		117.187500
25		109.375000
26		113.281250
27		105.468750
28		111.328125
29		101.562500
30		107.421875
31		97.656250
32		103.515625
33		93.750000
34		99.609375
35		89.843750
36		95.703125
37		85.937500
38		91.796875
39		82.031250
40		87.890625
41		76.171875
42		82.031250
43		72.265625
44		78.125000
45		66.406250
46		72.265625
47		60.546875
48		68.359375
49		54.687500
50		62.500000
51		50.781250
52		56.640625
53		44.921875
54		50.781250
55		39.062500
56		46.875000
57		33.203125
58		41.015625
59		27.343750
60		35.156250
61		21.484375
62		27.343750
63		15.625000
64		23.437500
65		7.812500
66		15.625000
67		1.953125
68		9.765625
69		-3.906250
70		3.906250
71		-9.765625
72		-1.953125
73		-15.625000
74		-7.812500
75		-21.484375
76		-13.671875
77		-29.296875
78		-21.484375
79		-35.156250
80		-27.343750
81		-41.015625
82		-33.203125
83		-46.875000
84		-39.062500
85		-52.734375
86		-44.921875
87		-58.593750
88		-50.781250
89		-64.453125
90		-56.640625
91		-70.312500
92		-62.500000
93		-74.218750
94		-68.359375
95		-80.078125
96		-74.218750
97		-85.937500
98		-80.078125
99		-91.796875
100		-83.984375
101		-95.703125
102		-87.890625
103		-99.609375
104		-93.750000
105		-103.515625
106		-97.656250
107		-107.421875
108		-101.562500
109		-111.328125
110		-107.421875
111		-115.234375
112		-109.375000
113		-119.140625
114		-113.281250
115		-121.093750
116		-117.187500
117		-125.000000
118		-121.093750
119		-126.953125
120		-123.046875
121		-128.906250
122		-125.000000
123		-132.812500
124		-126.953125
125		-132.812500
126		-128.906250
127		-134.765625
128		-130.859375
129		-136.718750
130		-132.812500
131		-136.718750
132		-132.812500
133		-138.671875
134		-132.812500
135		-136.718750
136		-134.765625
137		-136.718750
138		-134.765625
139		-138.671875
140		-134.765625
141		-136.718750
142		-132.812500
143		-136.718750
144		-132.812500
145		-134.765625
146		-130.859375
147		-132.812500
148		-128.906250
149		-130.859375
150		-126.953125
151		-128.906250
152		-125.000000
153		-126.953125
154		-123.046875
155		-125.000000
156		-119.140625
157		-121.093750
158		-117.187500
159		-119.140625
160		-113.281250
161		-115.234375
162		-109.375000
163		-111.328125
164		-105.468750
165		-107.421875
166		-101.562500
167		-103.515625
168		-97.656250
169		-97.656250
170		-91.796875
171		-93.750000
172		-87.890625
173		-89.843750
174		-82.031250
175		-83.984375
176		-78.125000
177		-78.125000
178		-72.265625
179		-74.218750
180		-66.406250
181		-68.359375
182		-60.546875
183		-62.500000
184		-54.687500
185		-58.593750
186		-48.828125
187		-50.781250
188		-42.968750
189		-44.921875
190		-37.109375
191		-39.062500
192		-31.250000
193		-33.203125
194		-25.390625
195		-27.343750
196		-19.531250
197		-19.531250
198		-13.671875
199		-13.671875
200		-5.859375
201		-7.812500
202		0.000000
203		-1.953125
204		5.859375
205		3.906250
206		11.718750
207		9.765625
208		19.531250
209		17.578125
210		23.437500
211		23.437500
212		29.296875
213		29.296875
214		35.156250
215		33.203125
216		41.015625
217		39.062500
218		48.828125
219		46.875000
220		52.734375
221		50.781250
222		58.593750
223		56.640625
224		64.453125
225		60.546875
226		70.312500
227		64.453125
228		76.171875
229		70.312500
230		80.078125
231		76.171875
232		82.031250
233		82.031250
234		89.843750
235		83.984375
236		91.796875
237		89.843750
238		95.703125
239		95.703125
240		101.562500
241		95.703125
242		105.468750
243		99.609375
244		109.375000
245		103.515625
246		111.328125
247		109.375000
248		115.234375
249		111.328125
250		119.140625
251		113.281250
252		119.140625
253		117.187500
254		121.093750
255		119.140625
256		125.000000
257		121.093750
258		128.906250
259		121.093750
260		130.859375
261		125.000000
262		130.859375
263		125.000000
264		132.812500
265		126.953125
266		134.765625
267		128.906250
268		134.765625
269		130.859375
270		136.718750
271		132.812500
272		134.765625
273		130.859375
274		138.671875
275		130.859375
276		138.671875
277		132.812500
278		138.671875
279		130.859375
280		138.671875
281		130.859375
282		138.671875
283		130.859375
284		138.671875
285		130.859375
286		136.718750
287		130.859375
288		132.812500
289		128.906250
290		132.812500
291		126.953125
292		132.812500
293		125.000000
294		130.859375
295		123.046875
296		130.859375
297		121.093750
298		128.906250
299		119.140625
300		126.953125
301		115.234375
302		123.046875
303		115.234375
304		119.140625
305		113.281250
306		117.187500
307		107.421875
308		115.234375
309		105.468750
310		113.281250
311		101.562500
312		109.375000
313		97.656250
314		105.468750
315		91.796875
316		101.562500
317		89.843750
318		97.656250
319		85.937500
320		93.750000
321		82.031250
322		87.890625
323		74.218750
324		82.031250
325		70.312500
326		80.078125
327		64.453125
328		76.171875
329		60.546875
330		70.312500
331		54.687500
332		64.453125
333		48.828125
334		58.593750
335		44.921875
336		52.734375
337		39.062500
338		46.875000
339		33.203125
340		41.015625
341		25.390625
342		35.156250
343		21.484375
344		29.296875
345		13.671875
346		25.390625
347		7.812500
348		17.578125
349		1.953125
350		13.671875
351		-3.906250
352		5.859375
353		-9.765625
354		0.000000
355		-15.625000
356		-7.812500
357		-23.437500
358		-13.671875
359		-29.296875
360		-19.531250
361		-35.156250
362		-23.437500
363		-41.015625
364		-31.250000
365		-46.875000
366		-37.109375
367		-52.734375
368		-42.968750
369		-58.593750
370		-48.828125
371		-62.500000
372		-56.640625
373		-70.312500
374		-62.500000
375		-76.171875
376		-66.406250
377		-82.031250
378		-70.312500
379		-85.937500
380		-76.171875
381		-91.796875
382		-82.031250
383		-95.703125
384		-85.937500
385		-101.562500
386		-91.796875
387		-103.515625
388		-97.656250
389		-107.421875
390		-101.562500
391		-113.281250
392		-105.468750
393		-117.187500
394		-107.421875
395		-121.093750
396		-111.328125
397		-123.046875
398		-115.234375
399		-126.953125
400		-117.187500
401		-128.906250
402		-121.093750
403		-130.859375
404		-123.046875
405		-130.859375
406		-126.953125
407		-134.765625
408		-128.906250
409		-136.718750
410		-128.906250
411		-138.671875
412		-130.859375
413		-138.671875
414		-130.859375
415		-138.671875
416		-132.812500
417		-140.625000
418		-132.812500
419		-140.625000
420		-132.812500
421		-136.718750
422		-134.765625
423		-136.718750
424		-134.765625
425		-138.671875
426		-130.859375
427		-136.718750
428		-128.906250
429		-136.718750
430		-126.953125
431		-132.812500
432		-125.000000
433		-132.812500
434		-123.046875
435		-128.906250
436		-121.093750
437		-126.953125
438		-121.093750
439		-121.093750
440		-117.187500
441		-119.140625
442		-111.328125
443		-117.187500
444		-107.421875
445		-113.281250
446		-103.515625
447		-109.375000
448		-101.562500
449		-105.468750
450		-95.703125
451		-101.562500
452		-91.796875
453		-95.703125
454		-87.890625
455		-89.843750
456		-83.984375
457		-83.984375
458		-76.171875
459		-80.078125
460		-70.312500
461		-76.171875
462		-64.453125
463		-70.312500
464		-60.546875
465		-64.453125
466		-52.734375
467		-58.593750
468		-46.875000
469		-52.734375
470		-42.968750
471		-44.921875
472		-37.109375
473		-39.062500
474		-31.250000
475		-33.203125
476		-23.437500
477		-29.296875
478		-17.578125
479		-23.437500
480		-11.718750
481		-15.625000
482		-5.859375
483		-9.765625
484		1.953125
485		-3.906250
486		7.812500
487		1.953125
488		11.718750
489		9.765625
490		17.578125
491		15.625000
492		25.390625
493		21.484375
494		31.250000
495		25.390625
496		37.109375
497		31.250000
498		42.968750
499		37.109375
500		48.828125
501		42.968750
502		54.687500
503		48.828125
504		58.593750
505		56.640625
506		62.500000
507		62.500000
508		68.359375
509		66.406250
510		74.218750
511		70.312500
512		80.078125
513		74.218750
514		83.984375
515		80.078125
516		89.843750
517		83.984375
518		93.750000
519		87.890625
520		97.656250
521		91.796875
522		99.609375
523		97.656250
524		103.515625
525		101.562500
526		109.375000
527		103.515625
528		111.328125
529		105.468750
530		115.234375
531		109.375000
532		117.187500
533		113.281250
534		121.093750
535		115.234375
536		123.046875
537		117.187500
538		125.000000
539		123.046875
540		126.953125
541		125.000000
542		128.906250
543		125.000000
544		130.859375
545		125.000000
546		132.812500
547		126.953125
548		134.765625
549		128.906250
550		136.718750
551		130.859375
552		136.718750
553		130.859375
554		138.671875
555		132.812500
556		136.718750
557		132.812500
558		136.718750
559		130.859375
560		138.671875
561		130.859375
562		138.671875
563		130.859375
564		138.671875
565		130.859375
566		136.718750
567		128.906250
568		136.718750
569		128.906250
570		136.718750
571		128.906250
572		134.765625
573		128.906250
574		132.812500
575		125.000000
576		130.859375
577		123.046875
578		130.859375
579		121.093750
580		128.906250
581		119.140625
582		126.953125
583		117.187500
584		125.000000
585		113.281250
586		121.093750
587		111.328125
588		119.140625
589		109.375000
590		115.234375
591		107.421875
592		111.328125
593		101.562500
594		109.375000
595		97.656250
596		107.421875
597		93.750000
598		103.515625
599		89.843750
600		97.656250
601		83.984375
602		93.750000
603		80.078125
604		89.843750
605		78.125000
606		85.937500
607		72.265625
608		78.125000
609		64.453125
610		74.218750
611		58.593750
612		70.312500
613		54.687500
614		64.453125
615		48.828125
616		60.546875
617		44.921875
618		54.687500
619		39.062500
620		48.828125
621		35.156250
622		42.968750
623		29.296875
624		35.156250
625		23.437500
626		29.296875
627		15.625000
628		25.390625
629		7.812500
630		19.531250
631		1.953125
632		11.718750
633		-3.906250
634		7.812500
635		-9.765625
636		0.000000
637		-17.578125
638		-5.859375
639		-21.484375
640		-13.671875
641		-27.343750
642		-19.531250
643		-35.156250
644		-25.390625
645		-41.015625
646		-29.296875
647		-46.875000
648		-35.156250
649		-52.734375
650		-42.968750
651		-58.593750
652		-48.828125
653		-64.453125
654		-52.734375
655		-68.359375
656		-58.593750
657		-74.218750
658		-66.406250
659		-82.031250
660		-72.265625
661		-85.937500
662		-76.171875
663		-91.796875
664		-80.078125
665		-95.703125
666		-85.937500
667		-101.562500
668		-89.843750
669		-105.468750
670		-95.703125
671		-107.421875
672		-99.609375
673		-111.328125
674		-105.468750
675		-115.234375
676		-109.375000
677		-121.093750
678		-111.328125
679		-123.046875
680		-115.234375
681		-126.953125
682		-117.187500
683		-128.906250
684		-121.093750
685		-130.859375
686		-123.046875
687		-132.812500
688		-125.000000
689		-132.812500
690		-126.953125
691		-134.765625
692		-130.859375
693		-136.718750
694		-130.859375
695		-138.671875
696		-130.859375
697		-138.671875
698		-130.859375
699		-138.671875
700		-132.812500
701		-138.671875
702		-132.812500
703		-138.671875
704		-130.859375
705		-138.671875
706		-130.859375
707		-134.765625
708		-132.812500
709		-134.765625
710		-130.859375
711		-134.765625
712		-126.953125
713		-134.765625
714		-126.953125
715		-130.859375
716		-123.046875
717		-128.906250
718		-121.093750
719		-125.000000
720		-117.187500
721		-125.000000
722		-115.234375
723		-119.140625
724		-113.281250
725		-115.234375
726		-109.375000
727		-111.328125
728		-103.515625
729		-109.375000
730		-99.609375
731		-105.468750
732		-95.703125
733		-101.562500
734		-89.843750
735		-95.703125
736		-85.937500
737		-91.796875
738		-82.031250
739		-85.937500
740		-78.125000
741		-80.078125
742		-72.265625
743		-74.218750
744		-68.359375
745		-70.312500
746		-60.546875
747		-64.453125
748		-54.687500
749		-58.593750
750		-48.828125
751		-52.734375
752		-42.968750
753		-46.875000
754		-37.109375
755		-41.015625
756		-31.250000
757		-33.203125
758		-25.390625
759		-27.343750
760		-19.531250
761		-21.484375
762		-11.718750
763		-17.578125
764		-5.859375
765		-9.765625
766		1.953125
767		-3.906250
768		5.859375
769		1.953125
770		13.671875
771		7.812500
772		19.531250
773		15.625000
774		23.437500
775		21.484375
776		29.296875
777		27.343750
778		37.109375
779		31.250000
780		42.968750
781		37.109375
782		48.828125
783		42.968750
784		54.687500
785		48.828125
786		60.546875
787		54.687500
788		64.453125
789		60.546875
790		68.359375
791		66.406250
792		72.265625
793		70.312500
794		78.125000
795		74.218750
796		83.984375
797		80.078125
798		87.890625
799		83.984375
800		91.796875
801		87.890625
802		97.656250
803		91.796875
804		101.562500
805		95.703125
806		105.468750
807		99.609375
808		105.468750
809		105.468750
810		109.375000
811		107.421875
812		115.234375
813		109.375000
814		117.187500
815		111.328125
816		121.093750
817		115.234375
818		123.046875
819		119.140625
820		125.000000
821		119.140625
822		126.953125
823		123.046875
824		128.906250
825		126.953125
826		128.906250
827		128.906250
828		132.812500
829		126.953125
830		134.765625
831		128.906250
832		134.765625
833		128.906250
834		136.718750
835		130.859375
836		138.671875
837		130.859375
838		138.671875
839		130.859375
840		138.671875
841		134.765625
842		136.718750
843		134.765625
844		136.718750
845		132.812500
846		136.718750
847		132.812500
848		136.718750
849		130.859375
850		136.718750
851		130.859375
852		134.765625
853		128.906250
854		134.765625
855		126.953125
856		132.812500
857		126.953125
858		132.812500
859		125.000000
860		128.906250
861		121.093750
862		128.906250
863		119.140625
864		126.953125
865		117.187500
866		125.000000
867		113.281250
868		123.046875
869		111.328125
870		119.140625
871		107.421875
872		117.187500
873		105.468750
874		113.281250
875		103.515625
876		109.375000
877		99.609375
878		105.468750
879		93.750000
880		103.515625
881		89.843750
882		99.609375
883		85.937500
884		95.703125
885		80.078125
886		89.843750
887		76.171875
888		85.937500
889		70.312500
890		82.031250
891		68.359375
892		78.125000
893		64.453125
894		70.312500
895		56.640625
896		66.406250
897		50.781250
898		60.546875
899		44.921875
900		56.640625
901		39.062500
902		50.781250
903		33.203125
904		44.921875
905		27.343750
906		39.062500
907		23.437500
908		33.203125
909		17.578125
910		25.390625
911		9.765625
912		19.531250
913		3.906250
914		13.671875
915		-1.953125
916		7.812500
917		-9.765625
918		1.953125
919		-15.625000
920		-3.906250
921		-21.484375
922		-9.765625
923		-27.343750
924		-15.625000
925		-31.250000
926		-23.437500
927		-37.109375
928		-31.250000
929		-44.921875
930		-37.109375
931		-50.781250
932		-41.015625
933		-56.640625
934		-46.875000
935		-64.453125
936		-52.734375
937		-68.359375
938		-58.593750
939		-74.218750
940		-64.453125
941		-78.125000
942		-70.312500
943		-83.984375
944		-76.171875
945		-89.843750
946		-82.031250
947		-93.750000
948		-83.984375
949		-99.609375
950		-89.843750
951		-103.515625
952		-93.750000
953		-107.421875
954		-97.656250
955		-113.281250
956		-103.515625
957		-115.234375
958		-105.468750
959		-117.187500
960		-111.328125
961		-119.140625
962		-115.234375
963		-125.000000
964		-117.187500
965		-126.953125
966		-119.140625
967		-130.859375
968		-123.046875
969		-132.812500
970		-125.000000
971		-134.765625
972		-126.953125
973		-134.765625
974		-128.906250
975		-136.718750
976		-128.906250
977		-136.718750
978		-132.812500
979		-138.671875
980		-132.812500
981		-138.671875
982		-132.812500
983		-138.671875
984		-132.812500
985		-138.671875
986		-132.812500
987		-138.671875
988		-130.859375
989		-136.718750
990		-130.859375
991		-136.718750
992		-128.906250
993		-132.812500
994		-128.906250
995		-130.859375
996		-126.953125
997		-130.859375
998		-123.046875
999		-128.906250
1000		-121.093750
1001		-126.953125
1002		-119.140625
1003		-123.046875
1004		-115.234375
1005		-121.093750
1006		-111.328125
1007		-117.187500
1008		-109.375000
1009		-111.328125
1010		-105.468750
1011		-107.421875
1012		-101.562500
1013		-103.515625
1014		-95.703125
1015		-101.562500
1016		-91.796875
1017		-97.656250
1018		-85.937500
1019		-91.796875
1020		-82.031250
1021		-85.937500
1022		-76.171875
1023		-82.031250
1024		-72.265625
1025		-76.171875
1026		-68.359375
1027		-68.359375
1028		-62.500000
1029		-62.500000
1030		-54.687500
1031		-58.593750
1032		-48.828125
1033		-52.734375
1034		-42.968750
1035		-46.875000
1036		-37.109375
1037		-41.015625
1038		-31.250000
1039		-35.156250
1040		-23.437500
1041		-29.296875
1042		-19.531250
1043		-21.484375
1044		-13.671875
1045		-15.625000
1046		-7.812500
1047		-9.765625
1048		0.000000
1049		-5.859375
1050		5.859375
1051		1.953125
1052		11.718750
1053		5.859375
1054		17.578125
1055		13.671875
1056		25.390625
1057		19.531250
1058		31.250000
1059		25.390625
1060		35.156250
1061		33.203125
1062		41.015625
1063		39.062500
1064		48.828125
1065		42.968750
1066		52.734375
1067		48.828125
1068		60.546875
1069		54.687500
1070		64.453125
1071		58.593750
1072		70.312500
1073		64.453125
1074		74.218750
1075		70.312500
1076		78.125000
1077		76.171875
1078		82.031250
1079		80.078125
1080		87.890625
1081		83.984375
1082		91.796875
1083		87.890625
1084		97.656250
1085		91.796875
1086		101.562500
1087		95.703125
1088		103.515625
1089		99.609375
1090		107.421875
1091		101.562500
1092		111.328125
1093		107.421875
1094		113.281250
1095		111.328125
1096		117.187500
1097		113.281250
1098		121.093750
1099		115.234375
1100		123.046875
1101		117.187500
1102		126.953125
1103		119.140625
1104		126.953125
1105		123.046875
1106		130.859375
1107		125.000000
1108		130.859375
1109		126.953125
1110		132.812500
1111		128.906250
1112		132.812500
1113		130.859375
1114		136.718750
1115		128.906250
1116		136.718750
1117		130.859375
1118		138.671875
1119		130.859375
1120		138.671875
1121		130.859375
1122		138.671875
1123		132.812500
1124		138.671875
1125		130.859375
1126		138.671875
1127		134.765625
1128		136.718750
1129		132.812500
1130		136.718750
1131		130.859375
1132		138.671875
1133		130.859375
1134		136.718750
1135		128.906250
1136		134.765625
1137		126.953125
1138		134.765625
1139		126.953125
1140		132.812500
1141		123.046875
1142		130.859375
1143		125.000000
1144		128.906250
1145		123.046875
1146		125.000000
1147		117.187500
1148		123.046875
1149		115.234375
1150		123.046875
1151		113.281250
1152		121.093750
1153		109.375000
1154		117.187500
1155		105.468750
1156		115.234375
1157		103.515625
1158		111.328125
1159		99.609375
1160		107.421875
1161		97.656250
1162		101.562500
1163		91.796875
1164		97.656250
1165		85.937500
1166		95.703125
1167		82.031250
1168		91.796875
1169		78.125000
1170		87.890625
1171		72.265625
1172		82.031250
1173		68.359375
1174		78.125000
1175		62.500000
1176		72.265625
1177		58.593750
1178		66.406250
1179		54.687500
1180		60.546875
1181		44.921875
1182		54.687500
1183		41.015625
1184		50.781250
1185		35.156250
1186		46.875000
1187		29.296875
1188		39.062500
1189		23.437500
1190		33.203125
1191		15.625000
1192		27.343750
1193		11.718750
1194		21.484375
1195		5.859375
1196		13.671875
1197		0.000000
1198		7.812500
1199		-7.812500
1200		3.906250
1201		-13.671875
1202		-3.906250
1203		-21.484375
1204		-9.765625
1205		-27.343750
1206		-15.625000
1207		-33.203125
1208		-21.484375
1209		-37.109375
1210		-27.343750
1211		-42.968750
1212		-35.156250
1213		-48.828125
1214		-41.015625
1215		-56.640625
1216		-46.875000
1217		-62.500000
1218		-52.734375
1219		-68.359375
1220		-56.640625
1221		-74.218750
1222		-62.500000
1223		-78.125000
1224		-68.359375
1225		-83.984375
1226		-74.218750
1227		-87.890625
1228		-80.078125
1229		-91.796875
1230		-85.937500
1231		-99.609375
1232		-89.843750
1233		-103.515625
1234		-93.750000
1235		-107.421875
1236		-97.656250
1237		-111.328125
1238		-101.562500
1239		-115.234375
1240		-105.468750
1241		-119.140625
1242		-109.375000
1243		-121.093750
1244		-113.281250
1245		-123.046875
1246		-117.187500
1247		-125.000000
1248		-121.093750
1249		-128.906250
1250		-121.093750
1251		-130.859375
1252		-123.046875
1253		-132.812500
1254		-126.953125
1255		-134.765625
1256		-126.953125
1257		-136.718750
1258		-128.906250
1259		-136.718750
1260		-130.859375
1261		-136.718750
1262		-132.812500
1263		-136.718750
1264		-134.765625
1265		-138.671875
1266		-132.812500
1267		-138.671875
1268		-132.812500
1269		-138.671875
1270		-130.859375
1271		-136.718750
1272		-130.859375
1273		-136.718750
1274		-128.906250
1275		-134.765625
1276		-126.953125
1277		-132.812500
1278		-126.953125
1279		-128.906250
1280		-125.000000
1281		-126.953125
1282		-121.093750
1283		-126.953125
1284		-119.140625
1285		-125.000000
1286		-115.234375
1287		-119.140625
1288		-111.328125
1289		-117.187500
1290		-109.375000
1291		-113.281250
1292		-105.468750
1293		-111.328125
1294		-101.562500
1295		-103.515625
1296		-97.656250
1297		-99.609375
1298		-93.750000
1299		-95.703125
1300		-87.890625
1301		-93.750000
1302		-82.031250
1303		-87.890625
1304		-78.125000
1305		-83.984375
1306		-72.265625
1307		-76.171875
1308		-66.406250
1309		-72.265625
1310		-60.546875
1311		-66.406250
1312		-56.640625
1313		-58.593750
1314		-50.781250
1315		-52.734375
1316		-42.968750
1317		-48.828125
1318		-37.109375
1319		-42.968750
1320		-31.250000
1321		-35.156250
1322		-25.390625
1323		-31.250000
1324		-19.531250
1325		-23.437500
1326		-11.718750
1327		-17.578125
1328		-9.765625
1329		-9.765625
1330		-1.953125
1331		-3.906250
1332		3.906250
1333		1.953125
1334		11.718750
1335		5.859375
1336		17.578125
1337		11.718750
1338		23.437500
1339		17.578125
1340		29.296875
1341		25.390625
1342		35.156250
1343		31.250000
1344		41.015625
1345		37.109375
1346		44.921875
1347		44.921875
1348		50.781250
1349		48.828125
1350		58.593750
1351		52.734375
1352		62.500000
1353		58.593750
1354		68.359375
1355		62.500000
1356		74.218750
1357		68.359375
1358		78.125000
1359		72.265625
1360		83.984375
1361		78.125000
1362		85.937500
1363		83.984375
1364		89.843750
1365		89.843750
1366		97.656250
1367		91.796875
1368		101.562500
1369		95.703125
1370		103.515625
1371		99.609375
1372		107.421875
1373		101.562500
1374		111.328125
1375		105.468750
1376		115.234375
1377		109.375000
1378		117.187500
1379		115.234375
1380		119.140625
1381		117.187500
1382		121.093750
1383		117.187500
1384		125.000000
1385		119.140625
1386		126.953125
1387		123.046875
1388		130.859375
1389		123.046875
1390		132.812500
1391		126.953125
1392		132.812500
1393		126.953125
1394		134.765625
1395		128.906250
1396		134.765625
1397		132.812500
1398		134.765625
1399		132.812500
1400		138.671875
1401		130.859375
1402		138.671875
1403		132.812500
1404		138.671875
1405		132.812500
1406		138.671875
1407		132.812500
1408		138.671875
1409		132.812500
1410		138.671875
1411		132.812500
1412		138.671875
1413		132.812500
1414		136.718750
1415		132.812500
1416		134.765625
1417		128.906250
1418		136.718750
1419		126.953125
1420		134.765625
1421		126.953125
1422		134.765625
1423		125.000000
1424		132.812500
1425		123.046875
1426		130.859375
1427		121.093750
1428		128.906250
1429		121.093750
1430		125.000000
1431		117.187500
1432		121.093750
1433		113.281250
1434		119.140625
1435		109.375000
1436		117.187500
1437		107.421875
1438		115.234375
1439		101.562500
1440		111.328125
1441		99.609375
1442		109.375000
1443		95.703125
1444		105.468750
1445		93.750000
1446		101.562500
1447		89.843750
1448		95.703125
1449		83.984375
1450		91.796875
1451		78.125000
1452		87.890625
1453		74.218750
1454		83.984375
1455		68.359375
1456		80.078125
1457		62.500000
1458		74.218750
1459		58.593750
1460		68.359375
1461		52.734375
1462		62.500000
1463		48.828125
1464		56.640625
1465		42.968750
1466		50.781250
1467		37.109375
1468		44.921875
1469		29.296875
1470		41.015625
1471		25.390625
1472		35.156250
1473		17.578125
1474		29.296875
1475		13.671875
1476		23.437500
1477		5.859375
1478		17.578125
1479		1.953125
1480		11.718750
1481		-3.906250
1482		3.906250
1483		-11.718750
1484		-3.906250
1485		-19.531250
1486		-7.812500
1487		-25.390625
1488		-13.671875
1489		-31.250000
1490		-19.531250
1491		-37.109375
1492		-25.390625
1493		-44.921875
1494		-33.203125
1495		-48.828125
1496		-39.062500
1497		-52.734375
1498		-46.875000
1499		-60.546875
1500		-52.734375
1501		-66.406250
1502		-56.640625
1503		-70.312500
1504		-62.500000
1505		-78.125000
1506		-68.359375
1507		-82.031250
1508		-72.265625
1509		-87.890625
1510		-78.125000
1511		-93.750000
1512		-82.031250
1513		-95.703125
1514		-87.890625
1515		-99.609375
1516		-93.750000
1517		-105.468750
1518		-99.609375
1519		-111.328125
1520		-101.562500
1521		-113.281250
1522		-103.515625
1523		-117.187500
1524		-109.375000
1525		-121.093750
1526		-111.328125
1527		-123.046875
1528		-115.234375
1529		-125.000000
1530		-119.140625
1531		-126.953125
1532		-123.046875
1533		-130.859375
1534		-125.000000
1535		-132.812500
1536		-125.000000
1537		-134.765625
1538		-126.953125
1539		-136.718750
1540		-128.906250
1541		-136.718750
1542		-128.906250
1543		-138.671875
1544		-130.859375
1545		-138.671875
1546		-130.859375
1547		-136.718750
1548		-132.812500
1549		-136.718750
1550		-132.812500
1551		-136.718750
1552		-130.859375
1553		-136.718750
1554		-130.859375
1555		-136.718750
1556		-128.906250
1557		-134.765625
1558		-126.953125
1559		-132.812500
1560		-125.000000
1561		-130.859375
1562		-123.046875
1563		-128.906250
1564		-123.046875
1565		-125.000000
1566		-121.093750
1567		-123.046875
1568		-115.234375
1569		-121.093750
1570		-111.328125
1571		-117.187500
1572		-109.375000
1573		-113.281250
1574		-103.515625
1575		-111.328125
1576		-101.562500
1577		-105.468750
1578		-95.703125
1579		-101.562500
1580		-93.750000
1581		-95.703125
1582		-89.843750
1583		-89.843750
1584		-83.984375
1585		-87.890625
1586		-78.125000
1587		-83.984375
1588		-72.265625
1589		-76.171875
1590		-66.406250
1591		-72.265625
1592		-60.546875
1593		-66.406250
1594		-54.687500
1595		-58.593750
1596		-48.828125
1597		-54.687500
1598		-44.921875
1599		-46.875000
1600		-39.062500
1601		-41.015625
1602		-31.250000
1603		-37.109375
1604		-25.390625
1605		-29.296875
1606		-19.531250
1607		-23.437500
1608		-11.718750
1609		-19.531250
1610		-7.812500
1611		-11.718750
1612		-1.953125
1613		-5.859375
1614		3.906250
1615		1.953125
1616		9.765625
1617		7.812500
1618		17.578125
1619		13.671875
1620		23.437500
1621		17.578125
1622		29.296875
1623		25.390625
1624		35.156250
1625		29.296875
1626		41.015625
1627		37.109375
1628		46.875000
1629		41.015625
1630		50.781250
1631		48.828125
1632		56.640625
1633		54.687500
1634		60.546875
1635		60.546875
1636		68.359375
1637		62.500000
1638		72.265625
1639		68.359375
1640		78.125000
1641		72.265625
1642		83.984375
1643		78.125000
1644		87.890625
1645		82.031250
1646		91.796875
1647		85.937500
1648		93.750000
1649		93.750000
1650		97.656250
1651		97.656250
1652		103.515625
1653		97.656250
1654		107.421875
1655		103.515625
1656		111.328125
1657		105.468750
1658		115.234375
1659		109.375000
1660		117.187500
1661		113.281250
1662		121.093750
1663		113.281250
1664		123.046875
1665		119.140625
1666		123.046875
1667		121.093750
1668		126.953125
1669		121.093750
1670		128.906250
1671		125.000000
1672		132.812500
1673		126.953125
1674		132.812500
1675		126.953125
1676		134.765625
1677		128.906250
1678		134.765625
1679		128.906250
1680		136.718750
1681		132.812500
1682		136.718750
1683		132.812500
1684		136.718750
1685		134.765625
1686		138.671875
1687		132.812500
1688		138.671875
1689		132.812500
1690		138.671875
1691		132.812500
1692		138.671875
1693		132.812500
1694		138.671875
1695		132.812500
1696		136.718750
1697		130.859375
1698		136.718750
1699		130.859375
1700		134.765625
1701		130.859375
1702		132.812500
1703		126.953125
1704		134.765625
1705		125.000000
1706		132.812500
1707		123.046875
1708		130.859375
1709		121.093750
1710		128.906250
1711		119.140625
1712		126.953125
1713		115.234375
1714		125.000000
1715		115.234375
1716		119.140625
1717		113.281250
1718		117.187500
1719		107.421875
1720		115.234375
1721		103.515625
1722		113.281250
1723		99.609375
1724		109.375000
1725		95.703125
1726		105.468750
1727		91.796875
1728		101.562500
1729		87.890625
1730		97.656250
1731		85.937500
1732		93.750000
1733		82.031250
1734		87.890625
1735		74.218750
1736		82.031250
1737		68.359375
1738		80.078125
1739		64.453125
1740		74.218750
1741		58.593750
1742		68.359375
1743		52.734375
1744		64.453125
1745		48.828125
1746		58.593750
1747		44.921875
1748		52.734375
1749		39.062500
1750		44.921875
1751		33.203125
1752		39.062500
1753		25.390625
1754		33.203125
1755		19.531250
1756		29.296875
1757		13.671875
1758		23.437500
1759		5.859375
1760		17.578125
1761		0.000000
1762		11.718750
1763		-5.859375
1764		5.859375
1765		-9.765625
1766		-1.953125
1767		-15.625000
1768		-9.765625
1769		-23.437500
1770		-15.625000
1771		-31.250000
1772		-19.531250
1773		-35.156250
1774		-25.390625
1775		-42.968750
1776		-31.250000
1777		-48.828125
1778		-37.109375
1779		-54.687500
1780		-42.968750
1781		-58.593750
1782		-48.828125
1783		-64.453125
1784		-56.640625
1785		-70.312500
1786		-62.500000
1787		-76.171875
1788		-66.406250
1789		-82.031250
1790		-72.265625
1791		-87.890625
1792		-78.125000
1793		-91.796875
1794		-82.031250
1795		-95.703125
1796		-85.937500
1797		-101.562500
1798		-91.796875
1799		-103.515625
1800		-97.656250
1801		-107.421875
1802		-101.562500
1803		-113.281250
1804		-105.468750
1805		-117.187500
1806		-107.421875
1807		-119.140625
1808		-111.328125
1809		-123.046875
1810		-115.234375
1811		-125.000000
1812		-117.187500
1813		-128.906250
1814		-121.093750
1815		-128.906250
1816		-123.046875
1817		-130.859375
1818		-126.953125
1819		-132.812500
1820		-128.906250
1821		-136.718750
1822		-128.906250
1823		-136.718750
1824		-128.906250
1825		-136.718750
1826		-130.859375
1827		-138.671875
1828		-130.859375
1829		-138.671875
1830		-130.859375
1831		-138.671875
1832		-130.859375
1833		-134.765625
1834		-132.812500
1835		-134.765625
1836		-132.812500
1837		-134.765625
1838		-128.906250
1839		-134.765625
1840		-126.953125
1841		-132.812500
1842		-125.000000
1843		-130.859375
1844		-123.046875
1845		-128.906250
1846		-121.093750
1847		-126.953125
1848		-119.140625
1849		-123.046875
1850		-117.187500
1851		-119.140625
1852		-113.281250
1853		-115.234375
1854		-109.375000
1855		-113.281250
1856		-105.468750
1857		-111.328125
1858		-101.562500
1859		-105.468750
1860		-97.656250
1861		-103.515625
1862		-91.796875
1863		-97.656250
1864		-87.890625
1865		-93.750000
1866		-83.984375
1867		-85.937500
1868		-80.078125
1869		-82.031250
1870		-74.218750
1871		-78.125000
1872		-66.406250
1873		-72.265625
1874		-62.500000
1875		-66.406250
1876		-56.640625
1877		-62.500000
1878		-50.781250
1879		-54.687500
1880		-44.921875
1881		-48.828125
1882		-39.062500
1883		-42.968750
1884		-35.156250
1885		-35.156250
1886		-27.343750
1887		-29.296875
1888		-21.484375
1889		-25.390625
1890		-13.671875
1891		-19.531250
1892		-7.812500
1893		-13.671875
1894		-1.953125
1895		-7.812500
1896		3.906250
1897		0.000000
1898		11.718750
1899		5.859375
1900		15.625000
1901		13.671875
1902		21.484375
1903		19.531250
1904		29.296875
1905		23.437500
1906		35.156250
1907		29.296875
1908		41.015625
1909		35.156250
1910		46.875000
1911		41.015625
1912		50.781250
1913		46.875000
1914		56.640625
1915		50.781250
1916		60.546875
1917		58.593750
1918		66.406250
1919		64.453125
1920		70.312500
1921		68.359375
1922		78.125000
1923		72.265625
1924		82.031250
1925		78.125000
1926		87.890625
1927		82.031250
1928		91.796875
1929		85.937500
1930		95.703125
1931		89.843750
1932		99.609375
1933		93.750000
1934		101.562500
1935		99.609375
1936		105.468750
1937		103.515625
1938		109.375000
1939		105.468750
1940		115.234375
1941		109.375000
1942		117.187500
1943		111.328125
1944		121.093750
1945		115.234375
1946		123.046875
1947		117.187500
1948		125.000000
1949		119.140625
1950		126.953125
1951		123.046875
1952		126.953125
1953		126.953125
1954		128.906250
1955		126.953125
1956		132.812500
1957		126.953125
1958		134.765625
1959		128.906250
1960		136.718750
1961		128.906250
1962		136.718750
1963		130.859375
1964		136.718750
1965		130.859375
1966		138.671875
1967		132.812500
1968		136.718750
1969		134.765625
1970		136.718750
1971		132.812500
1972		138.671875
1973		132.812500
1974		138.671875
1975		132.812500
1976		138.671875
1977		130.859375
1978		138.671875
1979		130.859375
1980		138.671875
1981		128.906250
1982		136.718750
1983		128.906250
1984		136.718750
1985		128.906250
1986		132.812500
1987		125.000000
1988		130.859375
1989		123.046875
1990		130.859375
1991		121.093750
1992		128.906250
1993		119.140625
1994		126.953125
1995		115.234375
1996		125.000000
1997		113.281250
1998		123.046875
1999		111.328125
2000		119.140625
2001		109.375000
2002		113.281250
2003		107.421875
2004		111.328125
2005		101.562500
2006		109.375000
2007		97.656250
2008		105.468750
2009		93.750000
2010		101.562500
2011		89.843750
2012		97.656250
2013		83.984375
2014		93.750000
2015		80.078125
2016		89.843750
2017		78.125000
2018		83.984375
2019		72.265625
2020		78.125000
2021		66.406250
2022		74.218750
2023		60.546875
2024		70.312500
2025		54.687500
2026		66.406250
2027		50.781250
2028		60.546875
2029		42.968750
2030		54.687500
2031		39.062500
2032		48.828125
2033		33.203125
2034		42.968750
2035		27.343750
2036		35.156250
2037		19.531250
2038		29.296875
2039		13.671875
2040		23.437500
2041		7.812500
2042		17.578125
2043		1.953125
2044		11.718750
2045		-3.906250
2046		5.859375
2047		-9.765625
2048		0.000000
2049		-15.625000
2050		-5.859375
2051		-21.484375
2052		-11.718750
2053		-27.343750
2054		-19.531250
2055		-35.156250
2056		-25.390625
2057		-42.968750
2058		-31.250000
2059		-46.875000
2060		-37.109375
2061		-52.734375
2062		-42.968750
2063		-58.593750
2064		-48.828125
2065		-64.453125
2066		-54.687500
2067		-68.359375
2068		-60.546875
2069		-74.218750
2070		-68.359375
2071		-80.078125
2072		-72.265625
2073		-85.937500
2074		-76.171875
2075		-91.796875
2076		-80.078125
2077		-95.703125
2078		-85.937500
2079		-101.562500
2080		-89.843750
2081		-103.515625
2082		-95.703125
2083		-109.375000
2084		-99.609375
2085		-109.375000
2086		-105.468750
2087		-113.281250
2088		-107.421875
2089		-119.140625
2090		-111.328125
2091		-123.046875
2092		-113.281250
2093		-125.000000
2094		-117.187500
2095		-128.906250
2096		-119.140625
2097		-130.859375
2098		-121.093750
2099		-132.812500
2100		-125.000000
2101		-132.812500
2102		-126.953125
2103		-132.812500
2104		-128.906250
2105		-134.765625
2106		-130.859375
2107		-136.718750
2108		-128.906250
2109		-136.718750
2110		-130.859375
2111		-138.671875
2112		-130.859375
2113		-136.718750
2114		-130.859375
2115		-136.718750
2116		-130.859375
2117		-136.718750
2118		-128.906250
2119		-132.812500
2120		-130.859375
2121		-132.812500
2122		-128.906250
2123		-132.812500
2124		-125.000000
2125		-130.859375
2126		-123.046875
2127		-128.906250
2128		-121.093750
2129		-126.953125
2130		-119.140625
2131		-125.000000
2132		-115.234375
2133		-121.093750
2134		-111.328125
2135		-117.187500
2136		-111.328125
2137		-113.281250
2138		-107.421875
2139		-109.375000
2140		-101.562500
2141		-105.468750
2142		-97.656250
2143		-101.562500
2144		-91.796875
2145		-97.656250
2146		-87.890625
2147		-93.750000
2148		-83.984375
2149		-89.843750
2150		-78.125000
2151		-83.984375
2152		-74.218750
2153		-76.171875
2154		-70.312500
2155		-70.312500
2156		-62.500000
2157		-66.406250
2158		-56.640625
2159		-62.500000
2160		-50.781250
2161		-56.640625
2162		-44.921875
2163		-50.781250
2164		-39.062500
2165		-44.921875
2166		-33.203125
2167		-37.109375
2168		-27.343750
2169		-31.250000
2170		-23.437500
2171		-23.437500
2172		-15.625000
2173		-17.578125
2174		-7.812500
2175		-13.671875
2176		-1.953125
2177		-7.812500
2178		3.906250
2179		0.000000
2180		9.765625
2181		5.859375
2182		15.625000
2183		11.718750
2184		23.437500
2185		15.625000
2186		25.390625
2187		25.390625
2188		33.203125
2189		31.250000
2190		41.015625
2191		37.109375
2192		44.921875
2193		41.015625
2194		50.781250
2195		46.875000
2196		56.640625
2197		50.781250
2198		62.500000
2199		56.640625
2200		68.359375
2201		62.500000
2202		70.312500
2203		68.359375
2204		76.171875
2205		74.218750
2206		82.031250
2207		78.125000
2208		85.937500
2209		82.031250
2210		91.796875
2211		85.937500
2212		95.703125
2213		89.843750
2214		99.609375
2215		93.750000
2216		103.515625
2217		99.609375
2218		107.421875
2219		101.562500
2220		109.375000
2221		107.421875
2222		113.281250
2223		109.375000
2224		117.187500
2225		111.328125
2226		121.093750
2227		115.234375
2228		123.046875
2229		117.187500
2230		125.000000
2231		119.140625
2232		128.906250
2233		121.093750
2234		130.859375
2235		123.046875
2236		130.859375
2237		126.953125
2238		132.812500
2239		128.906250
2240		134.765625
2241		128.906250
2242		136.718750
2243		130.859375
2244		136.718750
2245		130.859375
2246		138.671875
2247		132.812500
2248		138.671875
2249		132.812500
2250		138.671875
2251		132.812500
2252		138.671875
2253		134.765625
2254		136.718750
2255		134.765625
2256		136.718750
2257		130.859375
2258		138.671875
2259		130.859375
2260		138.671875
2261		130.859375
2262		138.671875
2263		128.906250
2264		136.718750
2265		128.906250
2266		136.718750
2267		126.953125
2268		134.765625
2269		126.953125
2270		132.812500
2271		125.000000
2272		128.906250
2273		121.093750
2274		126.953125
2275		119.140625
2276		126.953125
2277		115.234375
2278		125.000000
2279		113.281250
2280		123.046875
2281		111.328125
2282		119.140625
2283		107.421875
2284		117.187500
2285		105.468750
2286		113.281250
2287		103.515625
2288		107.421875
2289		99.609375
2290		105.468750
2291		93.750000
2292		101.562500
2293		87.890625
2294		99.609375
2295		85.937500
2296		93.750000
2297		80.078125
2298		91.796875
2299		74.218750
2300		85.937500
2301		70.312500
2302		80.078125
2303		68.359375
2304		76.171875
2305		62.500000
2306		68.359375
2307		54.687500
2308		62.500000
2309		50.781250
2310		60.546875
2311		44.921875
2312		54.687500
2313		39.062500
2314		48.828125
2315		31.250000
2316		42.968750
2317		25.390625
2318		37.109375
2319		21.484375
2320		31.250000
2321		15.625000
2322		23.437500
2323		9.765625
2324		17.578125
2325		1.953125
2326		11.718750
2327		-3.906250
2328		5.859375
2329		-9.765625
2330		0.000000
2331		-17.578125
2332		-5.859375
2333		-23.437500
2334		-11.718750
2335		-29.296875
2336		-17.578125
2337		-33.203125
2338		-25.390625
2339		-39.062500
2340		-31.250000
2341		-46.875000
2342		-37.109375
2343		-52.734375
2344		-42.968750
2345		-58.593750
2346		-48.828125
2347		-64.453125
2348		-54.687500
2349		-70.312500
2350		-60.546875
2351		-76.171875
2352		-64.453125
2353		-80.078125
2354		-70.312500
2355		-83.984375
2356		-78.125000
2357		-91.796875
2358		-82.031250
2359		-95.703125
2360		-85.937500
2361		-99.609375
2362		-89.843750
2363		-105.468750
2364		-95.703125
2365		-109.375000
2366		-99.609375
2367		-113.281250
2368		-103.515625
2369		-115.234375
2370		-107.421875
2371		-117.187500
2372		-113.281250
2373		-121.093750
2374		-115.234375
2375		-125.000000
2376		-117.187500
2377		-128.906250
2378		-121.093750
2379		-130.859375
2380		-123.046875
2381		-132.812500
2382		-125.000000
2383		-134.765625
2384		-126.953125
2385		-134.765625
2386		-126.953125
2387		-134.765625
2388		-130.859375
2389		-134.765625
2390		-132.812500
2391		-136.718750
2392		-130.859375
2393		-138.671875
2394		-130.859375
2395		-138.671875
2396		-130.859375
2397		-136.718750
2398		-130.859375
2399		-136.718750
2400		-128.906250
2401		-136.718750
2402		-128.906250
2403		-134.765625
2404		-128.906250
2405		-130.859375
2406		-126.953125
2407		-128.906250
2408		-125.000000
2409		-130.859375
2410		-121.093750
2411		-126.953125
2412		-119.140625
2413		-125.000000
2414		-117.187500
2415		-121.093750
2416		-113.281250
2417		-119.140625
2418		-109.375000
2419		-115.234375
2420		-105.468750
2421		-109.375000
2422		-103.515625
2423		-105.468750
2424		-99.609375
2425		-101.562500
2426		-93.750000
2427		-99.609375
2428		-87.890625
2429		-93.750000
2430		-83.984375
2431		-87.890625
2432		-78.125000
2433		-83.984375
2434		-74.218750
2435		-80.078125
2436		-68.359375
2437		-74.218750
2438		-64.453125
2439		-66.406250
2440		-58.593750
2441		-60.546875
2442		-50.781250
2443		-56.640625
2444		-44.921875
2445		-50.781250
2446		-39.062500
2447		-44.921875
2448		-33.203125
2449		-39.062500
2450		-27.343750
2451		-33.203125
2452		-21.484375
2453		-25.390625
2454		-17.578125
2455		-17.578125
2456		-11.718750
2457		-13.671875
2458		-5.859375
2459		-5.859375
2460		3.906250
2461		-1.953125
2462		9.765625
2463		3.906250
2464		15.625000
2465		9.765625
2466		21.484375
2467		15.625000
2468		27.343750
2469		23.437500
2470		33.203125
2471		27.343750
2472		37.109375
2473		37.109375
2474		42.968750
2475		41.015625
2476		50.781250
2477		44.921875
2478		54.687500
2479		50.781250
2480		60.546875
2481		56.640625
2482		66.406250
2483		60.546875
2484		72.265625
2485		66.406250
2486		78.125000
2487		72.265625
2488		80.078125
2489		78.125000
2490		83.984375
2491		82.031250
2492		87.890625
2493		85.937500
2494		95.703125
2495		89.843750
2496		99.609375
2497		93.750000
2498		103.515625
2499		97.656250
2500		105.468750
2501		101.562500
2502		111.328125
2503		103.515625
2504		113.281250
2505		109.375000
2506		115.234375
2507		113.281250
2508		117.187500
2509		115.234375
2510		123.046875
2511		117.187500
2512		125.000000
2513		119.140625
2514		126.953125
2515		121.093750
2516		128.906250
2517		123.046875
2518		130.859375
2519		123.046875
2520		132.812500
2521		126.953125
2522		134.765625
2523		130.859375
2524		134.765625
2525		130.859375
2526		136.718750
2527		130.859375
2528		138.671875
2529		130.859375
2530		138.671875
2531		132.812500
2532		138.671875
2533		132.812500
2534		138.671875
2535		132.812500
2536		140.625000
2537		132.812500
2538		138.671875
2539		134.765625
2540		136.718750
2541		134.765625
2542		136.718750
2543		130.859375
2544		138.671875
2545		130.859375
2546		138.671875
2547		128.906250
2548		136.718750
2549		126.953125
2550		134.765625
2551		125.000000
2552		134.765625
2553		125.000000
2554		132.812500
2555		123.046875
2556		128.906250
2557		123.046875
2558		126.953125
2559		117.187500
2560		125.000000
2561		115.234375
2562		123.046875
2563		113.281250
2564		121.093750
2565		109.375000
2566		117.187500
2567		105.468750
2568		113.281250
2569		101.562500
2570		111.328125
2571		99.609375
2572		107.421875
2573		95.703125
2574		101.562500
2575		91.796875
2576		97.656250
2577		85.937500
2578		95.703125
2579		82.031250
2580		91.796875
2581		76.171875
2582		85.937500
2583		72.265625
2584		82.031250
2585		66.406250
2586		78.125000
2587		62.500000
2588		72.265625
2589		58.593750
2590		66.406250
2591		52.734375
2592		58.593750
2593		44.921875
2594		54.687500
2595		41.015625
2596		50.781250
2597		35.156250
2598		44.921875
2599		29.296875
2600		39.062500
2601		21.484375
2602		33.203125
2603		15.625000
2604		27.343750
2605		11.718750
2606		19.531250
2607		5.859375
2608		13.671875
2609		-3.906250
2610		5.859375
2611		-9.765625
2612		1.953125
2613		-15.625000
2614		-3.906250
2615		-21.484375
2616		-9.765625
2617		-27.343750
2618		-15.625000
2619		-33.203125
2620		-21.484375
2621		-39.062500
2622		-29.296875
2623		-42.968750
2624		-37.109375
2625		-50.781250
2626		-42.968750
2627		-56.640625
2628		-48.828125
2629		-62.500000
2630		-52.734375
2631		-68.359375
2632		-58.593750
2633		-74.218750
2634		-64.453125
2635		-78.125000
2636		-68.359375
2637		-83.984375
2638		-74.218750
2639		-87.890625
2640		-80.078125
2641		-91.796875
2642		-85.937500
2643		-97.656250
2644		-91.796875
2645		-101.562500
2646		-93.750000
2647		-107.421875
2648		-97.656250
2649		-111.328125
2650		-101.562500
2651		-115.234375
2652		-105.468750
2653		-119.140625
2654		-109.375000
2655		-119.140625
2656		-113.281250
2657		-123.046875
2658		-117.187500
2659		-125.000000
2660		-121.093750
2661		-128.906250
2662		-121.093750
2663		-130.859375
2664		-123.046875
2665		-132.812500
2666		-125.000000
2667		-134.765625
2668		-126.953125
2669		-134.765625
2670		-128.906250
2671		-136.718750
2672		-128.906250
2673		-134.765625
2674		-130.859375
2675		-134.765625
2676		-132.812500
2677		-136.718750
2678		-130.859375
2679		-136.718750
2680		-130.859375
2681		-136.718750
2682		-128.906250
2683		-134.765625
2684		-128.906250
2685		-134.765625
2686		-126.953125
2687		-132.812500
2688		-125.000000
2689		-130.859375
2690		-125.000000
2691		-126.953125
2692		-123.046875
2693		-125.000000
2694		-121.093750
2695		-125.000000
2696		-117.187500
2697		-121.093750
2698		-113.281250
2699		-119.140625
2700		-109.375000
2701		-115.234375
2702		-105.468750
2703		-111.328125
2704		-101.562500
2705		-107.421875
2706		-99.609375
2707		-101.562500
2708		-95.703125
2709		-97.656250
2710		-91.796875
2711		-91.796875
2712		-83.984375
2713		-89.843750
2714		-80.078125
2715		-83.984375
2716		-74.218750
2717		-80.078125
2718		-68.359375
2719		-74.218750
2720		-62.500000
2721		-68.359375
2722		-58.593750
2723		-62.500000
2724		-54.687500
2725		-54.687500
2726		-48.828125
2727		-48.828125
2728		-39.062500
2729		-46.875000
2730		-33.203125
2731		-39.062500
2732		-27.343750
2733		-33.203125
2734		-23.437500
2735		-27.343750
2736		-15.625000
2737		-21.484375
2738		-9.765625
2739		-13.671875
2740		-5.859375
2741		-5.859375
2742		0.000000
2743		0.000000
2744		7.812500
2745		5.859375
2746		13.671875
2747		9.765625
2748		21.484375
2749		15.625000
2750		27.343750
2751		21.484375
2752		33.203125
2753		29.296875
2754		39.062500
2755		33.203125
2756		44.921875
2757		41.015625
2758		48.828125
2759		46.875000
2760		52.734375
2761		52.734375
2762		62.500000
2763		56.640625
2764		66.406250
2765		62.500000
2766		72.265625
2767		66.406250
2768		76.171875
2769		72.265625
2770		82.031250
2771		76.171875
2772		85.937500
2773		80.078125
2774		87.890625
2775		87.890625
2776		93.750000
2777		91.796875
2778		97.656250
2779		93.750000
2780		103.515625
2781		97.656250
2782		105.468750
2783		101.562500
2784		109.375000
2785		105.468750
2786		113.281250
2787		107.421875
2788		117.187500
2789		111.328125
2790		119.140625
2791		115.234375
2792		121.093750
2793		119.140625
2794		123.046875
2795		121.093750
2796		126.953125
2797		121.093750
2798		128.906250
2799		123.046875
2800		130.859375
2801		125.000000
2802		132.812500
2803		126.953125
2804		134.765625
2805		128.906250
2806		134.765625
2807		128.906250
2808		136.718750
2809		132.812500
2810		136.718750
2811		132.812500
2812		138.671875
2813		132.812500
2814		138.671875
2815		132.812500
2816		140.625000
2817		132.812500
2818		140.625000
2819		132.812500
2820		140.625000
2821		132.812500
2822		138.671875
2823		132.812500
2824		138.671875
2825		134.765625
2826		136.718750
2827		132.812500
2828		134.765625
2829		128.906250
2830		136.718750
2831		128.906250
2832		134.765625
2833		126.953125
2834		134.765625
2835		125.000000
2836		132.812500
2837		123.046875
2838		130.859375
2839		121.093750
2840		128.906250
2841		119.140625
2842		125.000000
2843		117.187500
2844		121.093750
2845		113.281250
2846		119.140625
2847		109.375000
2848		117.187500
2849		105.468750
2850		115.234375
2851		101.562500
2852		111.328125
2853		97.656250
2854		107.421875
2855		93.750000
2856		103.515625
2857		93.750000
2858		101.562500
2859		87.890625
2860		93.750000
2861		83.984375
2862		89.843750
2863		76.171875
2864		87.890625
2865		72.265625
2866		82.031250
2867		68.359375
2868		78.125000
2869		62.500000
2870		74.218750
2871		56.640625
2872		68.359375
2873		52.734375
2874		62.500000
2875		46.875000
2876		54.687500
2877		42.968750
2878		48.828125
2879		35.156250
2880		42.968750
2881		29.296875
2882		39.062500
2883		23.437500
2884		35.156250
2885		15.625000
2886		29.296875
2887		11.718750
2888		21.484375
2889		3.906250
2890		15.625000
2891		0.000000
2892		7.812500
2893		-5.859375
2894		1.953125
2895		-13.671875
2896		-5.859375
2897		-21.484375
2898		-9.765625
2899		-27.343750
2900		-15.625000
2901		-33.203125
2902		-21.484375
2903		-39.062500
2904		-29.296875
2905		-44.921875
2906		-35.156250
2907		-48.828125
2908		-41.015625
2909		-54.687500
2910		-46.875000
2911		-60.546875
2912		-52.734375
2913		-68.359375
2914		-58.593750
2915		-74.218750
2916		-62.500000
2917		-80.078125
2918		-68.359375
2919		-83.984375
2920		-74.218750
2921		-89.843750
2922		-78.125000
2923		-93.750000
2924		-83.984375
2925		-97.656250
2926		-87.890625
2927		-101.562500
2928		-95.703125
2929		-107.421875
2930		-99.609375
2931		-111.328125
2932		-101.562500
2933		-113.281250
2934		-105.468750
2935		-119.140625
2936		-109.375000
2937		-121.093750
2938		-113.281250
2939		-125.000000
2940		-115.234375
2941		-125.000000
2942		-119.140625
2943		-126.953125
2944		-123.046875
2945		-130.859375
2946		-125.000000
2947		-132.812500
2948		-125.000000
2949		-134.765625
2950		-126.953125
2951		-134.765625
2952		-128.906250
2953		-136.718750
2954		-128.906250
2955		-136.718750
2956		-128.906250
2957		-136.718750
2958		-130.859375
2959		-134.765625
2960		-132.812500
2961		-134.765625
2962		-132.812500
2963		-136.718750
2964		-128.906250
2965		-134.765625
2966		-128.906250
2967		-134.765625
2968		-126.953125
2969		-132.812500
2970		-125.000000
2971		-130.859375
2972		-125.000000
2973		-128.906250
2974		-121.093750
2975		-126.953125
2976		-121.093750
2977		-123.046875
2978		-119.140625
2979		-119.140625
2980		-113.281250
2981		-119.140625
2982		-109.375000
2983		-115.234375
2984		-107.421875
2985		-111.328125
2986		-101.562500
2987		-107.421875
2988		-97.656250
2989		-103.515625
2990		-93.750000
2991		-99.609375
2992		-91.796875
2993		-91.796875
2994		-85.937500
2995		-87.890625
2996		-82.031250
2997		-83.984375
2998		-74.218750
2999		-80.078125
3000		-68.359375
3001		-74.218750
3002		-64.453125
3003		-68.359375
3004		-58.593750
3005		-62.500000
3006		-52.734375
3007		-56.640625
3008		-46.875000
3009		-52.734375
3010		-42.968750
3011		-42.968750
3012		-37.109375
3013		-37.109375
3014		-29.296875
3015		-33.203125
3016		-23.437500
3017		-27.343750
3018		-17.578125
3019		-21.484375
3020		-9.765625
3021		-15.625000
3022		-3.906250
3023		-7.812500
3024		1.953125
3025		-3.906250
3026		5.859375
3027		5.859375
3028		11.718750
3029		11.718750
3030		19.531250
3031		15.625000
3032		27.343750
3033		21.484375
3034		31.250000
3035		27.343750
3036		39.062500
3037		33.203125
3038		42.968750
3039		39.062500
3040		48.828125
3041		42.968750
3042		54.687500
3043		52.734375
3044		58.593750
3045		56.640625
3046		64.453125
3047		62.500000
3048		72.265625
3049		66.406250
3050		76.171875
3051		70.312500
3052		80.078125
3053		76.171875
3054		85.937500
3055		80.078125
3056		89.843750
3057		85.937500
3058		95.703125
3059		89.843750
3060		95.703125
3061		95.703125
3062		99.609375
3063		99.609375
3064		107.421875
3065		101.562500
3066		109.375000
3067		103.515625
3068		113.281250
3069		107.421875
3070		115.234375
3071		111.328125
3072		119.140625
3073		113.281250
3074		123.046875
3075		117.187500
3076		123.046875
3077		121.093750
3078		125.000000
3079		123.046875
3080		126.953125
3081		125.000000
3082		130.859375
3083		125.000000
3084		132.812500
3085		126.953125
3086		134.765625
3087		128.906250
3088		136.718750
3089		128.906250
3090		138.671875
3091		130.859375
3092		138.671875
3093		132.812500
3094		136.718750
3095		134.765625
3096		136.718750
3097		132.812500
3098		138.671875
3099		132.812500
3100		140.625000
3101		132.812500
3102		140.625000
3103		132.812500
3104		140.625000
3105		132.812500
3106		138.671875
3107		130.859375
3108		138.671875
3109		130.859375
3110		136.718750
3111		130.859375
3112		134.765625
3113		128.906250
3114		134.765625
3115		126.953125
3116		134.765625
3117		125.000000
3118		132.812500
3119		123.046875
3120		130.859375
3121		121.093750
3122		128.906250
3123		119.140625
3124		126.953125
3125		115.234375
3126		125.000000
3127		115.234375
3128		119.140625
3129		111.328125
3130		117.187500
3131		105.468750
3132		113.281250
3133		103.515625
3134		111.328125
3135		99.609375
3136		109.375000
3137		95.703125
3138		105.468750
3139		91.796875
3140		99.609375
3141		87.890625
3142		97.656250
3143		83.984375
3144		91.796875
3145		80.078125
3146		85.937500
3147		74.218750
3148		82.031250
3149		68.359375
3150		78.125000
3151		64.453125
3152		72.265625
3153		58.593750
3154		68.359375
3155		52.734375
3156		62.500000
3157		46.875000
3158		56.640625
3159		42.968750
3160		52.734375
3161		37.109375
3162		44.921875
3163		31.250000
3164		39.062500
3165		23.437500
3166		33.203125
3167		17.578125
3168		29.296875
3169		11.718750
3170		21.484375
3171		5.859375
3172		15.625000
3173		0.000000
3174		9.765625
3175		-7.812500
3176		3.906250
3177		-11.718750
3178		-1.953125
3179		-17.578125
3180		-9.765625
3181		-25.390625
3182		-15.625000
3183		-33.203125
3184		-21.484375
3185		-37.109375
3186		-27.343750
3187		-42.968750
3188		-33.203125
3189		-50.781250
3190		-39.062500
3191		-54.687500
3192		-44.921875
3193		-60.546875
3194		-50.781250
3195		-64.453125
3196		-58.593750
3197		-72.265625
3198		-64.453125
3199		-78.125000
3200		-68.359375
3201		-82.031250
3202		-72.265625
3203		-87.890625
3204		-78.125000
3205		-91.796875
3206		-83.984375
3207		-97.656250
3208		-87.890625
3209		-101.562500
3210		-91.796875
3211		-103.515625
3212		-97.656250
3213		-107.421875
3214		-103.515625
3215		-113.281250
3216		-107.421875
3217		-117.187500
3218		-109.375000
3219		-121.093750
3220		-111.328125
3221		-123.046875
3222		-115.234375
3223		-125.000000
3224		-117.187500
3225		-128.906250
3226		-121.093750
3227		-128.906250
3228		-123.046875
3229		-130.859375
3230		-126.953125
3231		-132.812500
3232		-126.953125
3233		-134.765625
3234		-126.953125
3235		-134.765625
3236		-128.906250
3237		-136.718750
3238		-128.906250
3239		-136.718750
3240		-130.859375
3241		-136.718750
3242		-130.859375
3243		-136.718750
3244		-128.906250
3245		-134.765625
3246		-130.859375
3247		-132.812500
3248		-130.859375
3249		-132.812500
3250		-126.953125
3251		-132.812500
3252		-125.000000
3253		-130.859375
3254		-123.046875
3255		-128.906250
3256		-121.093750
3257		-126.953125
3258		-119.140625
3259		-125.000000
3260		-115.234375
3261		-121.093750
3262		-115.234375
3263		-117.187500
3264		-111.328125
3265		-113.281250
3266		-107.421875
3267		-111.328125
3268		-101.562500
3269		-109.375000
3270		-99.609375
3271		-103.515625
3272		-93.750000
3273		-99.609375
3274		-89.843750
3275		-93.750000
3276		-85.937500
3277		-89.843750
3278		-82.031250
3279		-83.984375
3280		-76.171875
3281		-78.125000
3282		-72.265625
3283		-74.218750
3284		-64.453125
3285		-70.312500
3286		-58.593750
3287		-64.453125
3288		-52.734375
3289		-58.593750
3290		-46.875000
3291		-52.734375
3292		-41.015625
3293		-46.875000
3294		-35.156250
3295		-39.062500
3296		-31.250000
3297		-33.203125
3298		-25.390625
3299		-25.390625
3300		-15.625000
3301		-23.437500
3302		-11.718750
3303		-15.625000
3304		-3.906250
3305		-9.765625
3306		1.953125
3307		-3.906250
3308		7.812500
3309		1.953125
3310		13.671875
3311		7.812500
3312		17.578125
3313		17.578125
3314		23.437500
3315		23.437500
3316		31.250000
3317		25.390625
3318		37.109375
3319		31.250000
3320		42.968750
3321		37.109375
3322		48.828125
3323		42.968750
3324		54.687500
3325		50.781250
3326		60.546875
3327		54.687500
3328		64.453125
3329		62.500000
3330		68.359375
3331		68.359375
3332		74.218750
3333		72.265625
3334		80.078125
3335		74.218750
3336		83.984375
3337		80.078125
3338		89.843750
3339		83.984375
3340		93.750000
3341		87.890625
3342		97.656250
3343		91.796875
3344		101.562500
3345		97.656250
3346		103.515625
3347		103.515625
3348		107.421875
3349		105.468750
3350		113.281250
3351		107.421875
3352		115.234375
3353		111.328125
3354		119.140625
3355		113.281250
3356		121.093750
3357		115.234375
3358		125.000000
3359		119.140625
3360		126.953125
3361		121.093750
3362		128.906250
3363		125.000000
3364		128.906250
3365		126.953125
3366		130.859375
3367		128.906250
3368		134.765625
3369		128.906250
3370		134.765625
3371		130.859375
3372		136.718750
3373		132.812500
3374		136.718750
3375		132.812500
3376		138.671875
3377		132.812500
3378		138.671875
3379		134.765625
3380		138.671875
3381		136.718750
3382		138.671875
3383		132.812500
3384		140.625000
3385		132.812500
3386		140.625000
3387		132.812500
3388		140.625000
3389		132.812500
3390		138.671875
3391		130.859375
3392		138.671875
3393		130.859375
3394		136.718750
3395		128.906250
3396		136.718750
3397		128.906250
3398		132.812500
3399		126.953125
3400		130.859375
3401		123.046875
3402		130.859375
3403		121.093750
3404		128.906250
3405		119.140625
3406		126.953125
3407		117.187500
3408		125.000000
3409		113.281250
3410		121.093750
3411		111.328125
3412		119.140625
3413		109.375000
3414		113.281250
3415		107.421875
3416		111.328125
3417		101.562500
3418		109.375000
3419		95.703125
3420		105.468750
3421		93.750000
3422		101.562500
3423		87.890625
3424		99.609375
3425		83.984375
3426		93.750000
3427		80.078125
3428		87.890625
3429		76.171875
3430		83.984375
3431		72.265625
3432		78.125000
3433		64.453125
3434		72.265625
3435		58.593750
3436		70.312500
3437		52.734375
3438		64.453125
3439		46.875000
3440		58.593750
3441		42.968750
3442		52.734375
3443		37.109375
3444		48.828125
3445		33.203125
3446		42.968750
3447		27.343750
3448		33.203125
3449		21.484375
3450		27.343750
3451		13.671875
3452		25.390625
3453		7.812500
3454		17.578125
3455		1.953125
3456		11.718750
3457		-5.859375
3458		5.859375
3459		-9.765625
3460		0.000000
3461		-17.578125
3462		-5.859375
3463		-21.484375
3464		-13.671875
3465		-27.343750
3466		-21.484375
3467		-35.156250
3468		-27.343750
3469		-42.968750
3470		-31.250000
3471		-46.875000
3472		-37.109375
3473		-54.687500
3474		-42.968750
3475		-60.546875
3476		-48.828125
3477		-66.406250
3478		-54.687500
3479		-68.359375
3480		-60.546875
3481		-74.218750
3482		-68.359375
3483		-82.031250
3484		-72.265625
3485		-87.890625
3486		-76.171875
3487		-91.796875
3488		-82.031250
3489		-95.703125
3490		-85.937500
3491		-101.562500
3492		-91.796875
3493		-103.515625
3494		-95.703125
3495		-107.421875
3496		-99.609375
3497		-111.328125
3498		-105.468750
3499		-113.281250
3500		-109.375000
3501		-119.140625
3502		-111.328125
3503		-123.046875
3504		-113.281250
3505		-125.000000
3506		-117.187500
3507		-126.953125
3508		-119.140625
3509		-128.906250
3510		-121.093750
3511		-130.859375
3512		-123.046875
3513		-130.859375
3514		-125.000000
3515		-132.812500
3516		-128.906250
3517		-134.765625
3518		-128.906250
3519		-136.718750
3520		-128.906250
3521		-136.718750
3522		-128.906250
3523		-136.718750
3524		-128.906250
3525		-136.718750
3526		-128.906250
3527		-136.718750
3528		-128.906250
3529		-134.765625
3530		-126.953125
3531		-132.812500
3532		-128.906250
3533		-130.859375
3534		-126.953125
3535		-130.859375
3536		-123.046875
3537		-128.906250
3538		-121.093750
3539		-126.953125
3540		-119.140625
3541		-125.000000
3542		-117.187500
3543		-123.046875
3544		-113.281250
3545		-119.140625
3546		-109.375000
3547		-117.187500
3548		-107.421875
3549		-109.375000
3550		-105.468750
3551		-105.468750
3552		-99.609375
3553		-103.515625
3554		-93.750000
3555		-99.609375
3556		-89.843750
3557		-95.703125
3558		-85.937500
3559		-91.796875
3560		-80.078125
3561		-85.937500
3562		-76.171875
3563		-80.078125
3564		-72.265625
3565		-74.218750
3566		-66.406250
3567		-68.359375
3568		-58.593750
3569		-64.453125
3570		-52.734375
3571		-58.593750
3572		-46.875000
3573		-52.734375
3574		-41.015625
3575		-44.921875
3576		-35.156250
3577		-41.015625
3578		-31.250000
3579		-33.203125
3580		-25.390625
3581		-27.343750
3582		-19.531250
3583		-21.484375
3584		-13.671875
3585		-13.671875
3586		-5.859375
3587		-9.765625
3588		1.953125
3589		-3.906250
3590		7.812500
3591		3.906250
3592		11.718750
3593		7.812500
3594		19.531250
3595		15.625000
3596		25.390625
3597		19.531250
3598		29.296875
3599		27.343750
3600		35.156250
3601		33.203125
3602		42.968750
3603		39.062500
3604		48.828125
3605		42.968750
3606		54.687500
3607		48.828125
3608		58.593750
3609		54.687500
3610		64.453125
3611		60.546875
3612		70.312500
3613		64.453125
3614		74.218750
3615		72.265625
3616		78.125000
3617		76.171875
3618		83.984375
3619		80.078125
3620		89.843750
3621		83.984375
3622		93.750000
3623		89.843750
3624		97.656250
3625		93.750000
3626		101.562500
3627		97.656250
3628		107.421875
3629		99.609375
3630		109.375000
3631		103.515625
3632		111.328125
3633		109.375000
3634		113.281250
3635		113.281250
3636		119.140625
3637		113.281250
3638		121.093750
3639		117.187500
3640		125.000000
3641		119.140625
3642		126.953125
3643		121.093750
3644		128.906250
3645		123.046875
3646		130.859375
3647		125.000000
3648		132.812500
3649		128.906250
3650		132.812500
3651		130.859375
3652		134.765625
3653		128.906250
3654		136.718750
3655		130.859375
3656		138.671875
3657		132.812500
3658		138.671875
3659		132.812500
3660		138.671875
3661		132.812500
3662		140.625000
3663		132.812500
3664		140.625000
3665		134.765625
3666		138.671875
3667		134.765625
3668		138.671875
3669		132.812500
3670		140.625000
3671		132.812500
3672		138.671875
3673		130.859375
3674		138.671875
3675		130.859375
3676		136.718750
3677		128.906250
3678		136.718750
3679		126.953125
3680		134.765625
3681		126.953125
3682		134.765625
3683		126.953125
3684		130.859375
3685		121.093750
3686		128.906250
3687		121.093750
3688		126.953125
3689		117.187500
3690		125.000000
3691		115.234375
3692		123.046875
3693		111.328125
3694		119.140625
3695		107.421875
3696		117.187500
3697		105.468750
3698		113.281250
3699		103.515625
3700		107.421875
3701		99.609375
3702		103.515625
3703		93.750000
3704		101.562500
3705		89.843750
3706		99.609375
3707		83.984375
3708		93.750000
3709		80.078125
3710		89.843750
3711		74.218750
3712		85.937500
3713		70.312500
3714		80.078125
3715		66.406250
3716		76.171875
3717		62.500000
3718		68.359375
3719		54.687500
3720		62.500000
3721		48.828125
3722		58.593750
3723		42.968750
3724		54.687500
3725		37.109375
3726		48.828125
3727		31.250000
3728		42.968750
3729		27.343750
3730		37.109375
3731		21.484375
3732		31.250000
3733		15.625000
3734		23.437500
3735		9.765625
3736		17.578125
3737		1.953125
3738		13.671875
3739		-5.859375
3740		5.859375
3741		-9.765625
3742		0.000000
3743		-17.578125
3744		-5.859375
3745		-23.437500
3746		-11.718750
3747		-29.296875
3748		-17.578125
3749		-33.203125
3750		-25.390625
3751		-41.015625
3752		-33.203125
3753		-46.875000
3754		-39.062500
3755		-54.687500
3756		-42.968750
3757		-60.546875
3758		-46.875000
3759		-64.453125
3760		-54.687500
3761		-70.312500
3762		-58.593750
3763		-76.171875
3764		-64.453125
3765		-78.125000
3766		-70.312500
3767		-83.984375
3768		-78.125000
3769		-89.843750
3770		-82.031250
3771		-95.703125
3772		-85.937500
3773		-99.609375
3774		-89.843750
3775		-103.515625
3776		-95.703125
3777		-107.421875
3778		-99.609375
3779		-111.328125
3780		-103.515625
3781		-115.234375
3782		-105.468750
3783		-117.187500
3784		-111.328125
3785		-119.140625
3786		-115.234375
3787		-125.000000
3788		-117.187500
3789		-126.953125
3790		-119.140625
3791		-128.906250
3792		-121.093750
3793		-130.859375
3794		-123.046875
3795		-132.812500
3796		-125.000000
3797		-134.765625
3798		-126.953125
3799		-134.765625
3800		-128.906250
3801		-134.765625
3802		-130.859375
3803		-136.718750
3804		-128.906250
3805		-136.718750
3806		-128.906250
3807		-136.718750
3808		-128.906250
3809		-136.718750
3810		-128.906250
3811		-134.765625
3812		-128.906250
3813		-134.765625
3814		-126.953125
3815		-132.812500
3816		-125.000000
3817		-128.906250
3818		-125.000000
3819		-126.953125
3820		-123.046875
3821		-126.953125
3822		-119.140625
3823		-125.000000
3824		-115.234375
3825		-123.046875
3826		-113.281250
3827		-119.140625
3828		-111.328125
3829		-117.187500
3830		-107.421875
3831		-111.328125
3832		-103.515625
3833		-107.421875
3834		-101.562500
3835		-103.515625
3836		-97.656250
3837		-97.656250
3838		-89.843750
3839		-95.703125
3840		-85.937500
3841		-91.796875
3842		-82.031250
3843		-85.937500
3844		-76.171875
3845		-82.031250
3846		-70.312500
3847		-76.171875
3848		-66.406250
3849		-70.312500
3850		-62.500000
3851		-62.500000
3852		-56.640625
3853		-58.593750
3854		-48.828125
3855		-52.734375
3856		-42.968750
3857		-48.828125
3858		-37.109375
3859		-41.015625
3860		-29.296875
3861		-37.109375
3862		-25.390625
3863		-29.296875
3864		-17.578125
3865		-23.437500
3866		-13.671875
3867		-17.578125
3868		-7.812500
3869		-9.765625
3870		-1.953125
3871		-3.906250
3872		5.859375
3873		1.953125
3874		13.671875
3875		7.812500
3876		17.578125
3877		13.671875
3878		25.390625
3879		19.531250
3880		29.296875
3881		25.390625
3882		37.109375
3883		31.250000
3884		41.015625
3885		39.062500
3886		44.921875
3887		44.921875
3888		52.734375
3889		48.828125
3890		58.593750
3891		52.734375
3892		64.453125
3893		58.593750
3894		68.359375
3895		64.453125
3896		74.218750
3897		70.312500
3898		78.125000
3899		72.265625
3900		82.031250
3901		80.078125
3902		85.937500
3903		85.937500
3904		91.796875
3905		87.890625
3906		97.656250
3907		91.796875
3908		101.562500
3909		95.703125
3910		103.515625
3911		99.609375
3912		109.375000
3913		103.515625
3914		111.328125
3915		107.421875
3916		115.234375
3917		109.375000
3918		117.187500
3919		115.234375
3920		119.140625
3921		117.187500
3922		123.046875
3923		117.187500
3924		126.953125
3925		119.140625
3926		128.906250
3927		123.046875
3928		130.859375
3929		125.000000
3930		132.812500
3931		126.953125
3932		134.765625
3933		128.906250
3934		134.765625
3935		130.859375
3936		134.765625
3937		130.859375
3938		136.718750
3939		130.859375
3940		138.671875
3941		132.812500
3942		138.671875
3943		132.812500
3944		140.625000
3945		132.812500
3946		140.625000
3947		132.812500
3948		140.625000
3949		132.812500
3950		140.625000
3951		134.765625
3952		136.718750
3953		134.765625
3954		136.718750
3955		130.859375
3956		138.671875
3957		130.859375
3958		136.718750
3959		128.906250
3960		136.718750
3961		126.953125
3962		134.765625
3963		125.000000
3964		132.812500
3965		125.000000
3966		130.859375
3967		123.046875
3968		128.906250
3969		121.093750
3970		125.000000
3971		117.187500
3972		123.046875
3973		113.281250
3974		123.046875
3975		111.328125
3976		119.140625
3977		109.375000
3978		117.187500
3979		105.468750
3980		113.281250
3981		101.562500
3982		109.375000
3983		97.656250
3984		105.468750
3985		95.703125
3986		101.562500
3987		91.796875
3988		97.656250
3989		85.937500
3990		93.750000
3991		80.078125
3992		89.843750
3993		76.171875
3994		85.937500
3995		70.312500
3996		80.078125
3997		66.406250
3998		74.218750
3999		60.546875
4000		70.312500
4001		56.640625
4002		64.453125
4003		50.781250
4004		58.593750
4005		44.921875
4006		52.734375
4007		37.109375
4008		48.828125
4009		31.250000
4010		42.968750
4011		25.390625
4012		37.109375
4013		19.531250
4014		31.250000
4015		15.625000
4016		25.390625
4017		9.765625
4018		19.531250
4019		3.906250
4020		11.718750
4021		-3.906250
4022		5.859375
4023		-9.765625
4024		0.000000
4025		-17.578125
4026		-5.859375
4027		-23.437500
4028		-11.718750
4029		-29.296875
4030		-17.578125
4031		-35.156250
4032		-23.437500
4033		-41.015625
4034		-29.296875
4035		-44.921875
4036		-39.062500
4037		-50.781250
4038		-44.921875
4039		-58.593750
4040		-50.781250
4041		-64.453125
4042		-54.687500
4043		-68.359375
4044		-60.546875
4045		-76.171875
4046		-64.453125
4047		-80.078125
4048		-70.312500
4049		-85.937500
4050		-74.218750
4051		-89.843750
4052		-82.031250
4053		-93.750000
4054		-87.890625
4055		-99.609375
4056		-91.796875
4057		-105.468750
4058		-95.703125
4059		-109.375000
4060		-99.609375
4061		-111.328125
4062		-103.515625
4063		-115.234375
4064		-107.421875
4065		-119.140625
4066		-111.328125
4067		-121.093750
4068		-113.281250
4069		-123.046875
4070		-119.140625
4071		-125.000000
4072		-121.093750
4073		-128.906250
4074		-123.046875
4075		-132.812500
4076		-123.046875
4077		-132.812500
4078		-125.000000
4079		-134.765625
4080		-126.953125
4081		-134.765625
4082		-128.906250
4083		-136.718750
4084		-128.906250
4085		-134.765625
4086		-130.859375
4087		-134.765625
4088		-132.812500
4089		-136.718750
4090		-130.859375
4091		-136.718750
4092		-128.906250
4093		-136.718750
4094		-128.906250
4095		-134.765625
4096		-128.906250
4097		-132.812500
4098		-126.953125
4099		-132.812500
4100		-125.000000
4101		-130.859375
4102		-123.046875
4103		-126.953125
4104		-123.046875
4105		-123.046875
4106		-119.140625
4107		-123.046875
4108		-115.234375
4109		-121.093750
4110		-111.328125
4111		-117.187500
4112		-107.421875
4113		-113.281250
4114		-103.515625
4115		-109.375000
4116		-99.609375
4117		-105.468750
4118		-97.656250
4119		-99.609375
4120		-93.750000
4121		-95.703125
4122		-89.843750
4123		-89.843750
4124		-82.031250
4125		-85.937500
4126		-76.171875
4127		-82.031250
4128		-72.265625
4129		-76.171875
4130		-66.406250
4131		-72.265625
4132		-62.500000
4133		-66.406250
4134		-54.687500
4135		-60.546875
4136		-52.734375
4137		-52.734375
4138		-46.875000
4139		-46.875000
4140		-39.062500
4141		-42.968750
4142		-31.250000
4143		-37.109375
4144		-25.390625
4145		-31.250000
4146		-19.531250
4147		-25.390625
4148		-13.671875
4149		-19.531250
4150		-7.812500
4151		-11.718750
4152		-1.953125
4153		-3.906250
4154		3.906250
4155		1.953125
4156		9.765625
4157		7.812500
4158		17.578125
4159		13.671875
4160		23.437500
4161		17.578125
4162		29.296875
4163		25.390625
4164		35.156250
4165		29.296875
4166		41.015625
4167		35.156250
4168		46.875000
4169		41.015625
4170		50.781250
4171		48.828125
4172		56.640625
4173		54.687500
4174		62.500000
4175		58.593750
4176		68.359375
4177		62.500000
4178		74.218750
4179		68.359375
4180		78.125000
4181		74.218750
4182		82.031250
4183		78.125000
4184		87.890625
4185		82.031250
4186		89.843750
4187		87.890625
4188		93.750000
4189		93.750000
4190		99.609375
4191		95.703125
4192		103.515625
4193		99.609375
4194		107.421875
4195		101.562500
4196		111.328125
4197		105.468750
4198		115.234375
4199		109.375000
4200		117.187500
4201		111.328125
4202		121.093750
4203		117.187500
4204		121.093750
4205		119.140625
4206		123.046875
4207		121.093750
4208		126.953125
4209		123.046875
4210		128.906250
4211		125.000000
4212		130.859375
4213		126.953125
4214		132.812500
4215		128.906250
4216		134.765625
4217		130.859375
4218		134.765625
4219		130.859375
4220		136.718750
4221		132.812500
4222		136.718750
4223		132.812500
4224		138.671875
4225		132.812500
4226		140.625000
4227		132.812500
4228		140.625000
4229		132.812500
4230		140.625000
4231		132.812500
4232		140.625000
4233		132.812500
4234		138.671875
4235		132.812500
4236		138.671875
4237		132.812500
4238		136.718750
4239		132.812500
4240		134.765625
4241		128.906250
4242		136.718750
4243		128.906250
4244		134.765625
4245		125.000000
4246		132.812500
4247		123.046875
4248		130.859375
4249		121.093750
4250		130.859375
4251		119.140625
4252		126.953125
4253		119.140625
4254		125.000000
4255		117.187500
4256		121.093750
4257		111.328125
4258		119.140625
4259		109.375000
4260		117.187500
4261		105.468750
4262		113.281250
4263		101.562500
4264		109.375000
4265		97.656250
4266		107.421875
4267		93.750000
4268		103.515625
4269		91.796875
4270		99.609375
4271		87.890625
4272		93.750000
4273		82.031250
4274		87.890625
4275		74.218750
4276		85.937500
4277		72.265625
4278		80.078125
4279		66.406250
4280		76.171875
4281		60.546875
4282		70.312500
4283		54.687500
4284		66.406250
4285		48.828125
4286		60.546875
4287		46.875000
4288		52.734375
4289		41.015625
4290		46.875000
4291		33.203125
4292		41.015625
4293		27.343750
4294		37.109375
4295		19.531250
4296		31.250000
4297		15.625000
4298		25.390625
4299		7.812500
4300		19.531250
4301		1.953125
4302		13.671875
4303		-1.953125
4304		7.812500
4305		-7.812500
4306		0.000000
4307		-17.578125
4308		-7.812500
4309		-21.484375
4310		-11.718750
4311		-27.343750
4312		-17.578125
4313		-33.203125
4314		-23.437500
4315		-41.015625
4316		-29.296875
4317		-46.875000
4318		-35.156250
4319		-50.781250
4320		-42.968750
4321		-56.640625
4322		-48.828125
4323		-62.500000
4324		-54.687500
4325		-70.312500
4326		-60.546875
4327		-74.218750
4328		-64.453125
4329		-82.031250
4330		-70.312500
4331		-83.984375
4332		-76.171875
4333		-91.796875
4334		-80.078125
4335		-93.750000
4336		-85.937500
4337		-97.656250
4338		-89.843750
4339		-101.562500
4340		-95.703125
4341		-109.375000
4342		-101.562500
4343		-111.328125
4344		-103.515625
4345		-115.234375
4346		-105.468750
4347		-119.140625
4348		-109.375000
4349		-123.046875
4350		-113.281250
4351		-125.000000
4352		-117.187500
4353		-126.953125
4354		-119.140625
4355		-126.953125
4356		-123.046875
4357		-128.906250
4358		-126.953125
4359		-132.812500
4360		-126.953125
4361		-134.765625
4362		-126.953125
4363		-136.718750
4364		-128.906250
4365		-136.718750
4366		-130.859375
4367		-138.671875
4368		-130.859375
4369		-136.718750
4370		-130.859375
4371		-134.765625
4372		-132.812500
4373		-134.765625
4374		-132.812500
4375		-136.718750
4376		-128.906250
4377		-134.765625
4378		-128.906250
4379		-134.765625
4380		-126.953125
4381		-132.812500
4382		-125.000000
4383		-130.859375
4384		-123.046875
4385		-128.906250
4386		-121.093750
4387		-126.953125
4388		-119.140625
4389		-123.046875
4390		-117.187500
4391		-119.140625
4392		-111.328125
4393		-117.187500
4394		-109.375000
4395		-115.234375
4396		-105.468750
4397		-111.328125
4398		-101.562500
4399		-107.421875
4400		-97.656250
4401		-103.515625
4402		-93.750000
4403		-99.609375
4404		-89.843750
4405		-91.796875
4406		-85.937500
4407		-85.937500
4408		-80.078125
4409		-82.031250
4410		-74.218750
4411		-78.125000
4412		-68.359375
4413		-74.218750
4414		-62.500000
4415		-68.359375
4416		-56.640625
4417		-62.500000
4418		-50.781250
4419		-56.640625
4420		-44.921875
4421		-50.781250
4422		-41.015625
4423		-42.968750
4424		-35.156250
4425		-37.109375
4426		-27.343750
4427		-31.250000
4428		-21.484375
4429		-25.390625
4430		-13.671875
4431		-19.531250
4432		-9.765625
4433		-13.671875
4434		-1.953125
4435		-7.812500
4436		3.906250
4437		-1.953125
4438		7.812500
4439		5.859375
4440		13.671875
4441		13.671875
4442		19.531250
4443		15.625000
4444		29.296875
4445		23.437500
4446		33.203125
4447		29.296875
4448		39.062500
4449		35.156250
4450		44.921875
4451		41.015625
4452		50.781250
4453		44.921875
4454		56.640625
4455		52.734375
4456		60.546875
4457		58.593750
4458		64.453125
4459		64.453125
4460		72.265625
4461		66.406250
4462		78.125000
4463		72.265625
4464		82.031250
4465		76.171875
4466		85.937500
4467		82.031250
4468		91.796875
4469		85.937500
4470		95.703125
4471		89.843750
4472		97.656250
4473		95.703125
4474		101.562500
4475		99.609375
4476		107.421875
4477		101.562500
4478		109.375000
4479		105.468750
4480		115.234375
4481		107.421875
4482		117.187500
4483		111.328125
4484		119.140625
4485		113.281250
4486		123.046875
4487		117.187500
4488		125.000000
4489		121.093750
4490		125.000000
4491		123.046875
4492		126.953125
4493		125.000000
4494		130.859375
4495		125.000000
4496		132.812500
4497		126.953125
4498		134.765625
4499		128.906250
4500		134.765625
4501		128.906250
4502		136.718750
4503		130.859375
4504		138.671875
4505		130.859375
4506		138.671875
4507		134.765625
4508		136.718750
4509		132.812500
4510		138.671875
4511		132.812500
4512		140.625000
4513		132.812500
4514		138.671875
4515		130.859375
4516		138.671875
4517		130.859375
4518		138.671875
4519		130.859375
4520		138.671875
4521		130.859375
4522		138.671875
4523		130.859375
4524		134.765625
4525		128.906250
4526		132.812500
4527		126.953125
4528		132.812500
4529		125.000000
4530		132.812500
4531		121.093750
4532		128.906250
4533		119.140625
4534		128.906250
4535		117.187500
4536		125.000000
4537		113.281250
4538		123.046875
4539		113.281250
4540		119.140625
4541		111.328125
4542		115.234375
4543		105.468750
4544		113.281250
4545		101.562500
4546		109.375000
4547		97.656250
4548		105.468750
4549		93.750000
4550		103.515625
4551		89.843750
4552		99.609375
4553		85.937500
4554		95.703125
4555		82.031250
4556		89.843750
4557		78.125000
4558		83.984375
4559		70.312500
4560		80.078125
4561		66.406250
4562		78.125000
4563		60.546875
4564		70.312500
4565		54.687500
4566		64.453125
4567		50.781250
4568		60.546875
4569		44.921875
4570		54.687500
4571		41.015625
4572		50.781250
4573		35.156250
4574		41.015625
4575		29.296875
4576		37.109375
4577		21.484375
4578		31.250000
4579		15.625000
4580		27.343750
4581		9.765625
4582		19.531250
4583		1.953125
4584		13.671875
4585		-3.906250
4586		7.812500
4587		-9.765625
4588		1.953125
4589		-13.671875
4590		-5.859375
4591		-19.531250
4592		-13.671875
4593		-29.296875
4594		-19.531250
4595		-35.156250
4596		-23.437500
4597		-41.015625
4598		-29.296875
4599		-46.875000
4600		-35.156250
4601		-52.734375
4602		-42.968750
4603		-58.593750
4604		-48.828125
4605		-62.500000
4606		-52.734375
4607		-68.359375
4608		-60.546875
4609		-72.265625
4610		-66.406250
4611		-80.078125
4612		-70.312500
4613		-85.937500
4614		-74.218750
4615		-89.843750
4616		-80.078125
4617		-95.703125
4618		-83.984375
4619		-99.609375
4620		-89.843750
4621		-103.515625
4622		-93.750000
4623		-105.468750
4624		-99.609375
4625		-109.375000
4626		-105.468750
4627		-117.187500
4628		-107.421875
4629		-119.140625
4630		-109.375000
4631		-123.046875
4632		-113.281250
4633		-125.000000
4634		-117.187500
4635		-126.953125
4636		-119.140625
4637		-128.906250
4638		-121.093750
4639		-130.859375
4640		-123.046875
4641		-130.859375
4642		-128.906250
4643		-134.765625
4644		-128.906250
4645		-136.718750
4646		-128.906250
4647		-136.718750
4648		-130.859375
4649		-138.671875
4650		-130.859375
4651		-138.671875
4652		-130.859375
4653		-138.671875
4654		-130.859375
4655		-138.671875
4656		-130.859375
4657		-134.765625
4658		-132.812500
4659		-134.765625
4660		-130.859375
4661		-134.765625
4662		-126.953125
4663		-132.812500
4664		-126.953125
4665		-132.812500
4666		-125.000000
4667		-130.859375
4668		-123.046875
4669		-126.953125
4670		-119.140625
4671		-125.000000
4672		-115.234375
4673		-121.093750
4674		-115.234375
4675		-117.187500
4676		-113.281250
4677		-113.281250
4678		-107.421875
4679		-111.328125
4680		-101.562500
4681		-109.375000
4682		-97.656250
4683		-103.515625
4684		-93.750000
4685		-99.609375
4686		-89.843750
4687		-95.703125
4688		-83.984375
4689		-89.843750
4690		-82.031250
4691		-83.984375
4692		-76.171875
4693		-78.125000
4694		-72.265625
4695		-74.218750
4696		-64.453125
4697		-68.359375
4698		-58.593750
4699		-62.500000
4700		-52.734375
4701		-58.593750
4702		-46.875000
4703		-52.734375
4704		-41.015625
4705		-46.875000
4706		-35.156250
4707		-39.062500
4708		-31.250000
4709		-31.250000
4710		-23.437500
4711		-25.390625
4712		-15.625000
4713		-21.484375
4714		-9.765625
4715		-15.625000
4716		-3.906250
4717		-9.765625
4718		1.953125
4719		-3.906250
4720		7.812500
4721		3.906250
4722		13.671875
4723		9.765625
4724		17.578125
4725		17.578125
4726		25.390625
4727		23.437500
4728		31.250000
4729		27.343750
4730		37.109375
4731		33.203125
4732		42.968750
4733		39.062500
4734		50.781250
4735		42.968750
4736		54.687500
4737		48.828125
4738		60.546875
4739		54.687500
4740		64.453125
4741		62.500000
4742		68.359375
4743		68.359375
4744		74.218750
4745		72.265625
4746		80.078125
4747		74.218750
4748		85.937500
4749		80.078125
4750		89.843750
4751		83.984375
4752		93.750000
4753		89.843750
4754		97.656250
4755		91.796875
4756		101.562500
4757		97.656250
4758		103.515625
4759		101.562500
4760		107.421875
4761		105.468750
4762		111.328125
4763		107.421875
4764		115.234375
4765		111.328125
4766		119.140625
4767		113.281250
4768		123.046875
4769		115.234375
4770		123.046875
4771		117.187500
4772		126.953125
4773		121.093750
4774		128.906250
4775		125.000000
4776		128.906250
4777		126.953125
4778		130.859375
4779		126.953125
4780		134.765625
4781		128.906250
4782		134.765625
4783		128.906250
4784		136.718750
4785		128.906250
4786		136.718750
4787		130.859375
4788		138.671875
4789		130.859375
4790		138.671875
4791		134.765625
4792		136.718750
4793		134.765625
4794		136.718750
4795		132.812500
4796		138.671875
4797		132.812500
4798		138.671875
4799		130.859375
4800		138.671875
4801		130.859375
4802		138.671875
4803		130.859375
4804		136.718750
4805		128.906250
4806		136.718750
4807		128.906250
4808		134.765625
4809		126.953125
4810		130.859375
4811		125.000000
4812		128.906250
4813		123.046875
4814		128.906250
4815		119.140625
4816		126.953125
4817		117.187500
4818		125.000000
4819		115.234375
4820		123.046875
4821		113.281250
4822		119.140625
4823		109.375000
4824		117.187500
4825		107.421875
4826		111.328125
4827		103.515625
4828		109.375000
4829		97.656250
4830		105.468750
4831		93.750000
4832		103.515625
4833		89.843750
4834		99.609375
4835		85.937500
4836		93.750000
4837		82.031250
4838		91.796875
4839		76.171875
4840		85.937500
4841		74.218750
4842		80.078125
4843		68.359375
4844		74.218750
4845		62.500000
4846		70.312500
4847		54.687500
4848		66.406250
4849		50.781250
4850		60.546875
4851		44.921875
4852		54.687500
4853		39.062500
4854		48.828125
4855		35.156250
4856		44.921875
4857		29.296875
4858		37.109375
4859		23.437500
4860		31.250000
4861		17.578125
4862		25.390625
4863		9.765625
4864		19.531250
4865		3.906250
4866		13.671875
4867		-1.953125
4868		7.812500
4869		-7.812500
4870		1.953125
4871		-13.671875
4872		-3.906250
4873		-19.531250
4874		-11.718750
4875		-25.390625
4876		-17.578125
4877		-31.250000
4878		-25.390625
4879		-39.062500
4880		-31.250000
4881		-46.875000
4882		-35.156250
4883		-50.781250
4884		-41.015625
4885		-58.593750
4886		-48.828125
4887		-62.500000
4888		-52.734375
4889		-68.359375
4890		-58.593750
4891		-72.265625
4892		-66.406250
4893		-78.125000
4894		-70.312500
4895		-83.984375
4896		-76.171875
4897		-89.843750
4898		-80.078125
4899		-93.750000
4900		-85.937500
4901		-99.609375
4902		-89.843750
4903		-103.515625
4904		-95.703125
4905		-107.421875
4906		-99.609375
4907		-111.328125
4908		-105.468750
4909		-113.281250
4910		-107.421875
4911		-117.187500
4912		-111.328125
4913		-123.046875
4914		-115.234375
4915		-125.000000
4916		-117.187500
4917		-126.953125
4918		-119.140625
4919		-130.859375
4920		-123.046875
4921		-130.859375
4922		-125.000000
4923		-132.812500
4924		-128.906250
4925		-134.765625
4926		-130.859375
4927		-134.765625
4928		-130.859375
4929		-136.718750
4930		-132.812500
4931		-136.718750
4932		-132.812500
4933		-138.671875
4934		-132.812500
4935		-138.671875
4936		-132.812500
4937		-138.671875
4938		-132.812500
4939		-136.718750
4940		-132.812500
4941		-134.765625
4942		-130.859375
4943		-134.765625
4944		-130.859375
4945		-132.812500
4946		-128.906250
4947		-130.859375
4948		-126.953125
4949		-128.906250
4950		-125.000000
4951		-128.906250
4952		-121.093750
4953		-123.046875
4954		-119.140625
4955		-125.000000
4956		-117.187500
4957		-117.187500
4958		-113.281250
4959		-115.234375
4960		-109.375000
4961		-111.328125
4962		-105.468750
4963		-107.421875
4964		-101.562500
4965		-103.515625
4966		-97.656250
4967		-99.609375
4968		-91.796875
4969		-93.750000
4970		-87.890625
4971		-89.843750
4972		-83.984375
4973		-83.984375
4974		-78.125000
4975		-80.078125
4976		-72.265625
4977		-74.218750
4978		-66.406250
4979		-68.359375
4980		-62.500000
4981		-64.453125
4982		-56.640625
4983		-58.593750
4984		-50.781250
4985		-50.781250
4986		-44.921875
4987		-44.921875
4988		-37.109375
4989		-39.062500
4990		-31.250000
4991		-33.203125
4992		-25.390625
4993		-27.343750
4994		-19.531250
4995		-21.484375
4996		-13.671875
4997		-15.625000
4998		-7.812500
4999		-7.812500
5000		0.000000
5001		-1.953125
5002		5.859375
5003		3.906250
5004		11.718750
5005		9.765625
5006		17.578125
5007		15.625000
5008		23.437500
5009		21.484375
5010		29.296875
5011		27.343750
5012		35.156250
5013		33.203125
5014		41.015625
5015		39.062500
5016		46.875000
5017		44.921875
5018		52.734375
5019		50.781250
5020		56.640625
5021		56.640625
5022		62.500000
5023		60.546875
5024		68.359375
5025		66.406250
5026		72.265625
5027		72.265625
5028		78.125000
5029		76.171875
5030		82.031250
5031		80.078125
5032		87.890625
5033		85.937500
5034		91.796875
5035		89.843750
5036		95.703125
5037		93.750000
5038		99.609375
5039		97.656250
5040		103.515625
5041		101.562500
5042		107.421875
5043		105.468750
5044		109.375000
5045		109.375000
5046		113.281250
5047		111.328125
5048		115.234375
5049		115.234375
5050		119.140625
5051		117.187500
5052		121.093750
5053		119.140625
5054		123.046875
5055		123.046875
5056		126.953125
5057		125.000000
5058		128.906250
5059		126.953125
5060		130.859375
5061		126.953125
5062		130.859375
5063		128.906250
5064		132.812500
5065		128.906250
5066		134.765625
5067		130.859375
5068		136.718750
5069		132.812500
5070		136.718750
5071		132.812500
5072		136.718750
5073		132.812500
5074		136.718750
5075		134.765625
5076		136.718750
5077		132.812500
5078		136.718750
5079		132.812500
5080		136.718750
5081		132.812500
5082		138.671875
5083		132.812500
5084		136.718750
5085		132.812500
5086		134.765625
5087		130.859375
5088		134.765625
5089		128.906250
5090		132.812500
5091		126.953125
5092		130.859375
5093		125.000000
5094		128.906250
5095		125.000000
5096		128.906250
5097		121.093750
5098		125.000000
5099		119.140625
5100		123.046875
5101		117.187500
5102		121.093750
5103		113.281250
5104		119.140625
5105		111.328125
5106		115.234375
5107		107.421875
5108		113.281250
5109		103.515625
5110		109.375000
5111		99.609375
5112		105.468750
5113		95.703125
5114		101.562500
5115		91.796875
5116		97.656250
5117		87.890625
5118		93.750000
5119		82.031250
5120		89.843750
5121		78.125000
5122		83.984375
5123		74.218750
5124		80.078125
5125		68.359375
5126		76.171875
5127		64.453125
5128		70.312500
5129		58.593750
5130		64.453125
5131		52.734375
5132		60.546875
5133		46.875000
5134		54.687500
5135		41.015625
5136		48.828125
5137		35.156250
5138		42.968750
5139		29.296875
5140		37.109375
5141		23.437500
5142		31.250000
5143		17.578125
5144		27.343750
5145		11.718750
5146		19.531250
5147		5.859375
5148		13.671875
5149		0.000000
5150		7.812500
5151		-7.812500
5152		0.000000
5153		-13.671875
5154		-5.859375
5155		-19.531250
5156		-11.718750
5157		-25.390625
5158		-17.578125
5159		-31.250000
5160		-23.437500
5161		-37.109375
5162		-29.296875
5163		-42.968750
5164		-37.109375
5165		-48.828125
5166		-42.968750
5167		-54.687500
5168		-48.828125
5169		-60.546875
5170		-54.687500
5171		-66.406250
5172		-60.546875
5173		-72.265625
5174		-66.406250
5175		-78.125000
5176		-70.312500
5177		-82.031250
5178		-76.171875
5179		-87.890625
5180		-82.031250
5181		-93.750000
5182		-85.937500
5183		-97.656250
5184		-91.796875
5185		-101.562500
5186		-95.703125
5187		-105.468750
5188		-99.609375
5189		-109.375000
5190		-103.515625
5191		-113.281250
5192		-107.421875
5193		-117.187500
5194		-111.328125
5195		-119.140625
5196		-115.234375
5197		-123.046875
5198		-119.140625
5199		-125.000000
5200		-121.093750
5201		-126.953125
5202		-123.046875
5203		-130.859375
5204		-125.000000
5205		-130.859375
5206		-128.906250
5207		-132.812500
5208		-128.906250
5209		-134.765625
5210		-130.859375
5211		-134.765625
5212		-132.812500
5213		-134.765625
5214		-132.812500
5215		-136.718750
5216		-132.812500
5217		-136.718750
5218		-132.812500
5219		-136.718750
5220		-132.812500
5221		-136.718750
5222		-130.859375
5223		-134.765625
5224		-130.859375
5225		-134.765625
5226		-130.859375
5227		-132.812500
5228		-128.906250
5229		-130.859375
5230		-126.953125
5231		-128.906250
5232		-125.000000
5233		-126.953125
5234		-123.046875
5235		-123.046875
5236		-119.140625
5237		-121.093750
5238		-117.187500
5239		-119.140625
5240		-113.281250
5241		-115.234375
5242		-109.375000
5243		-111.328125
5244		-105.468750
5245		-109.375000
5246		-101.562500
5247		-103.515625
5248		-97.656250
5249		-99.609375
5250		-93.750000
5251		-93.750000
5252		-87.890625
5253		-89.843750
5254		-83.984375
5255		-83.984375
5256		-78.125000
5257		-80.078125
5258		-72.265625
5259		-74.218750
5260		-68.359375
5261		-68.359375
5262		-62.500000
5263		-62.500000
5264		-56.640625
5265		-56.640625
5266		-48.828125
5267		-50.781250
5268		-42.968750
5269		-44.921875
5270		-39.062500
5271		-39.062500
5272		-33.203125
5273		-33.203125
5274		-25.390625
5275		-27.343750
5276		-19.531250
5277		-21.484375
5278		-13.671875
5279		-15.625000
5280		-7.812500
5281		-9.765625
5282		-1.953125
5283		-1.953125
5284		5.859375
5285		3.906250
5286		11.718750
5287		9.765625
5288		17.578125
5289		15.625000
5290		23.437500
5291		21.484375
5292		29.296875
5293		27.343750
5294		35.156250
5295		33.203125
5296		41.015625
5297		39.062500
5298		46.875000
5299		44.921875
5300		52.734375
5301		50.781250
5302		56.640625
5303		56.640625
5304		62.500000
5305		60.546875
5306		68.359375
5307		66.406250
5308		72.265625
5309		72.265625
5310		78.125000
5311		76.171875
5312		82.031250
5313		80.078125
5314		87.890625
5315		85.937500
5316		91.796875
5317		89.843750
5318		95.703125
5319		93.750000
5320		99.609375
5321		97.656250
5322		103.515625
5323		101.562500
5324		107.421875
5325		105.468750
5326		109.375000
5327		107.421875
5328		113.281250
5329		111.328125
5330		115.234375
5331		115.234375
5332		119.140625
5333		117.187500
5334		123.046875
5335		119.140625
5336		125.000000
5337		123.046875
5338		126.953125
5339		123.046875
5340		128.906250
5341		126.953125
5342		130.859375
5343		126.953125
5344		130.859375
5345		128.906250
5346		132.812500
5347		130.859375
5348		134.765625
5349		132.812500
5350		134.765625
5351		132.812500
5352		136.718750
5353		132.812500
5354		136.718750
5355		134.765625
5356		136.718750
5357		134.765625
5358		136.718750
5359		134.765625
5360		136.718750
5361		132.812500
5362		136.718750
5363		132.812500
5364		136.718750
5365		132.812500
5366		134.765625
5367		132.812500
5368		134.765625
5369		130.859375
5370		134.765625
5371		128.906250
5372		132.812500
5373		126.953125
5374		130.859375
5375		125.000000
5376		130.859375
5377		125.000000
5378		126.953125
5379		123.046875
5380		126.953125
5381		119.140625
5382		123.046875
5383		115.234375
5384		121.093750
5385		113.281250
5386		119.140625
5387		109.375000
5388		115.234375
5389		107.421875
5390		113.281250
5391		103.515625
5392		109.375000
5393		101.562500
5394		105.468750
5395		95.703125
5396		101.562500
5397		93.750000
5398		97.656250
5399		87.890625
5400		93.750000
5401		83.984375
5402		89.843750
5403		80.078125
5404		85.937500
5405		74.218750
5406		82.031250
5407		68.359375
5408		76.171875
5409		64.453125
5410		70.312500
5411		58.593750
5412		66.406250
5413		52.734375
5414		60.546875
5415		48.828125
5416		54.687500
5417		42.968750
5418		48.828125
5419		37.109375
5420		44.921875
5421		29.296875
5422		39.062500
5423		23.437500
5424		31.250000
5425		19.531250
5426		25.390625
5427		11.718750
5428		19.531250
5429		5.859375
5430		13.671875
5431		0.000000
5432		7.812500
5433		-5.859375
5434		1.953125
5435		-11.718750
5436		-3.906250
5437		-19.531250
5438		-9.765625
5439		-25.390625
5440		-17.578125
5441		-31.250000
5442		-23.437500
5443		-37.109375
5444		-29.296875
5445		-44.921875
5446		-35.156250
5447		-48.828125
5448		-41.015625
5449		-54.687500
5450		-48.828125
5451		-60.546875
5452		-54.687500
5453		-66.406250
5454		-58.593750
5455		-72.265625
5456		-64.453125
5457		-76.171875
5458		-68.359375
5459		-82.031250
5460		-76.171875
5461		-87.890625
5462		-82.031250
5463		-91.796875
5464		-85.937500
5465		-97.656250
5466		-89.843750
5467		-101.562500
5468		-95.703125
5469		-105.468750
5470		-99.609375
5471		-109.375000
5472		-103.515625
5473		-113.281250
5474		-107.421875
5475		-117.187500
5476		-111.328125
5477		-119.140625
5478		-115.234375
5479		-123.046875
5480		-117.187500
5481		-125.000000
5482		-121.093750
5483		-128.906250
5484		-125.000000
5485		-130.859375
5486		-125.000000
5487		-132.812500
5488		-128.906250
5489		-132.812500
5490		-128.906250
5491		-134.765625
5492		-130.859375
5493		-136.718750
5494		-132.812500
5495		-136.718750
5496		-132.812500
5497		-136.718750
5498		-132.812500
5499		-136.718750
5500		-134.765625
5501		-136.718750
5502		-132.812500
5503		-136.718750
5504		-132.812500
5505		-136.718750
5506		-132.812500
5507		-134.765625
5508		-130.859375
5509		-134.765625
5510		-128.906250
5511		-132.812500
5512		-126.953125
5513		-130.859375
5514		-125.000000
5515		-126.953125
5516		-123.046875
5517		-125.000000
5518		-121.093750
5519		-123.046875
5520		-117.187500
5521		-119.140625
5522		-113.281250
5523		-115.234375
5524		-111.328125
5525		-113.281250
5526		-107.421875
5527		-109.375000
5528		-103.515625
5529		-103.515625
5530		-97.656250
5531		-99.609375
5532		-93.750000
5533		-95.703125
5534		-89.843750
5535		-89.843750
5536		-83.984375
5537		-85.937500
5538		-80.078125
5539		-80.078125
5540		-74.218750
5541		-76.171875
5542		-68.359375
5543		-70.312500
5544		-62.500000
5545		-64.453125
5546		-58.593750
5547		-58.593750
5548		-50.781250
5549		-52.734375
5550		-44.921875
5551		-46.875000
5552		-39.062500
5553		-41.015625
5554		-33.203125
5555		-35.156250
5556		-27.343750
5557		-29.296875
5558		-21.484375
5559		-23.437500
5560		-15.625000
5561		-17.578125
5562		-9.765625
5563		-9.765625
5564		-1.953125
5565		-3.906250
5566		3.906250
5567		1.953125
5568		9.765625
5569		7.812500
5570		15.625000
5571		13.671875
5572		21.484375
5573		19.531250
5574		27.343750
5575		25.390625
5576		33.203125
5577		31.250000
5578		39.062500
5579		37.109375
5580		44.921875
5581		42.968750
5582		50.781250
5583		48.828125
5584		56.640625
5585		54.687500
5586		60.546875
5587		60.546875
5588		66.406250
5589		64.453125
5590		72.265625
5591		70.312500
5592		76.171875
5593		74.218750
5594		82.031250
5595		80.078125
5596		85.937500
5597		83.984375
5598		89.843750
5599		87.890625
5600		93.750000
5601		91.796875
5602		97.656250
5603		95.703125
5604		101.562500
5605		99.609375
5606		105.468750
5607		103.515625
5608		109.375000
5609		107.421875
5610		113.281250
5611		111.328125
5612		115.234375
5613		113.281250
5614		117.187500
5615		115.234375
5616		121.093750
5617		119.140625
5618		123.046875
5619		121.093750
5620		125.000000
5621		123.046875
5622		126.953125
5623		125.000000
5624		128.906250
5625		126.953125
5626		130.859375
5627		128.906250
5628		132.812500
5629		128.906250
5630		134.765625
5631		130.859375
5632		134.765625
5633		132.812500
5634		134.765625
5635		132.812500
5636		136.718750
5637		132.812500
5638		136.718750
5639		132.812500
5640		136.718750
5641		132.812500
5642		136.718750
5643		132.812500
5644		136.718750
5645		132.812500
5646		136.718750
5647		130.859375
5648		136.718750
5649		130.859375
5650		134.765625
5651		130.859375
5652		132.812500
5653		128.906250
5654		132.812500
5655		126.953125
5656		130.859375
5657		125.000000
5658		130.859375
5659		123.046875
5660		128.906250
5661		121.093750
5662		126.953125
5663		119.140625
5664		123.046875
5665		117.187500
5666		121.093750
5667		113.281250
5668		119.140625
5669		109.375000
5670		115.234375
5671		107.421875
5672		113.281250
5673		103.515625
5674		109.375000
5675		101.562500
5676		105.468750
5677		97.656250
5678		101.562500
5679		91.796875
5680		97.656250
5681		87.890625
5682		93.750000
5683		83.984375
5684		89.843750
5685		78.125000
5686		85.937500
5687		74.218750
5688		80.078125
5689		70.312500
5690		76.171875
5691		64.453125
5692		70.312500
5693		58.593750
5694		66.406250
5695		54.687500
5696		60.546875
5697		48.828125
5698		56.640625
5699		42.968750
5700		50.781250
5701		37.109375
5702		42.968750
5703		31.250000
5704		37.109375
5705		25.390625
5706		31.250000
5707		19.531250
5708		25.390625
5709		11.718750
5710		19.531250
5711		5.859375
5712		13.671875
5713		0.000000
5714		7.812500
5715		-5.859375
5716		1.953125
5717		-11.718750
5718		-3.906250
5719		-19.531250
5720		-11.718750
5721		-25.390625
5722		-17.578125
5723		-31.250000
5724		-23.437500
5725		-37.109375
5726		-29.296875
5727		-42.968750
5728		-35.156250
5729		-48.828125
5730		-41.015625
5731		-54.687500
5732		-46.875000
5733		-60.546875
5734		-52.734375
5735		-66.406250
5736		-58.593750
5737		-72.265625
5738		-64.453125
5739		-76.171875
5740		-70.312500
5741		-82.031250
5742		-76.171875
5743		-87.890625
5744		-80.078125
5745		-91.796875
5746		-85.937500
5747		-97.656250
5748		-91.796875
5749		-101.562500
5750		-95.703125
5751		-105.468750
5752		-99.609375
5753		-109.375000
5754		-103.515625
5755		-113.281250
5756		-107.421875
5757		-117.187500
5758		-111.328125
5759		-119.140625
5760		-115.234375
5761		-123.046875
5762		-119.140625
5763		-126.953125
5764		-121.093750
5765		-128.906250
5766		-123.046875
5767		-130.859375
5768		-126.953125
5769		-132.812500
5770		-128.906250
5771		-134.765625
5772		-130.859375
5773		-136.718750
5774		-130.859375
5775		-136.718750
5776		-132.812500
5777		-138.671875
5778		-132.812500
5779		-138.671875
5780		-134.765625
5781		-138.671875
5782		-132.812500
5783		-138.671875
5784		-134.765625
5785		-136.718750
5786		-134.765625
5787		-136.718750
5788		-132.812500
5789		-136.718750
5790		-130.859375
5791		-134.765625
5792		-130.859375
5793		-132.812500
5794		-128.906250
5795		-130.859375
5796		-126.953125
5797		-130.859375
5798		-123.046875
5799		-126.953125
5800		-121.093750
5801		-123.046875
5802		-119.140625
5803		-119.140625
5804		-115.234375
5805		-117.187500
5806		-111.328125
5807		-113.281250
5808		-107.421875
5809		-111.328125
5810		-103.515625
5811		-105.468750
5812		-99.609375
5813		-103.515625
5814		-95.703125
5815		-97.656250
5816		-89.843750
5817		-91.796875
5818		-85.937500
5819		-87.890625
5820		-82.031250
5821		-82.031250
5822		-74.218750
5823		-78.125000
5824		-68.359375
5825		-72.265625
5826		-62.500000
5827		-66.406250
5828		-58.593750
5829		-62.500000
5830		-52.734375
5831		-54.687500
5832		-46.875000
5833		-50.781250
5834		-41.015625
5835		-42.968750
5836		-35.156250
5837		-37.109375
5838		-27.343750
5839		-31.250000
5840		-21.484375
5841		-25.390625
5842		-15.625000
5843		-19.531250
5844		-9.765625
5845		-13.671875
5846		-3.906250
5847		-5.859375
5848		1.953125
5849		0.000000
5850		7.812500
5851		5.859375
5852		13.671875
5853		11.718750
5854		19.531250
5855		19.531250
5856		27.343750
5857		23.437500
5858		33.203125
5859		29.296875
5860		39.062500
5861		35.156250
5862		44.921875
5863		41.015625
5864		48.828125
5865		46.875000
5866		56.640625
5867		52.734375
5868		60.546875
5869		58.593750
5870		64.453125
5871		64.453125
5872		70.312500
5873		68.359375
5874		76.171875
5875		74.218750
5876		82.031250
5877		78.125000
5878		85.937500
5879		82.031250
5880		89.843750
5881		85.937500
5882		93.750000
5883		91.796875
5884		97.656250
5885		95.703125
5886		101.562500
5887		99.609375
5888		105.468750
5889		103.515625
5890		107.421875
5891		107.421875
5892		111.328125
5893		109.375000
5894		113.281250
5895		113.281250
5896		117.187500
5897		115.234375
5898		119.140625
5899		119.140625
5900		123.046875
5901		121.093750
5902		125.000000
5903		123.046875
5904		126.953125
5905		125.000000
5906		128.906250
5907		126.953125
5908		130.859375
5909		128.906250
5910		130.859375
5911		128.906250
5912		132.812500
5913		130.859375
5914		134.765625
5915		130.859375
5916		134.765625
5917		130.859375
5918		134.765625
5919		132.812500
5920		134.765625
5921		132.812500
5922		136.718750
5923		132.812500
5924		134.765625
5925		132.812500
5926		136.718750
5927		132.812500
5928		134.765625
5929		132.812500
5930		134.765625
5931		130.859375
5932		134.765625
5933		130.859375
5934		132.812500
5935		128.906250
5936		132.812500
5937		126.953125
5938		130.859375
5939		125.000000
5940		128.906250
5941		123.046875
5942		126.953125
5943		121.093750
5944		125.000000
5945		119.140625
5946		123.046875
5947		117.187500
5948		121.093750
5949		113.281250
5950		117.187500
5951		111.328125
5952		115.234375
5953		107.421875
5954		111.328125
5955		103.515625
5956		109.375000
5957		99.609375
5958		105.468750
5959		95.703125
5960		101.562500
5961		91.796875
5962		97.656250
5963		87.890625
5964		93.750000
5965		83.984375
5966		89.843750
5967		80.078125
5968		85.937500
5969		74.218750
5970		80.078125
5971		70.312500
5972		76.171875
5973		62.500000
5974		70.312500
5975		58.593750
5976		66.406250
5977		54.687500
5978		60.546875
5979		48.828125
5980		54.687500
5981		42.968750
5982		48.828125
5983		37.109375
5984		42.968750
5985		31.250000
5986		37.109375
5987		25.390625
5988		31.250000
5989		17.578125
5990		25.390625
5991		9.765625
5992		21.484375
5993		5.859375
5994		15.625000
5995		0.000000
5996		7.812500
5997		-5.859375
5998		1.953125
5999		-11.718750
6000		-3.906250
6001		-17.578125
6002		-9.765625
6003		-25.390625
6004		-17.578125
6005		-35.156250
6006		-23.437500
6007		-39.062500
6008		-27.343750
6009		-44.921875
6010		-33.203125
6011		-48.828125
6012		-39.062500
6013		-54.687500
6014		-46.875000
6015		-60.546875
6016		-52.734375
6017		-66.406250
6018		-58.593750
6019		-72.265625
6020		-64.453125
6021		-78.125000
6022		-70.312500
6023		-83.984375
6024		-74.218750
6025		-87.890625
6026		-78.125000
6027		-93.750000
6028		-82.031250
6029		-97.656250
6030		-91.796875
6031		-101.562500
6032		-95.703125
6033		-105.468750
6034		-99.609375
6035		-109.375000
6036		-105.468750
6037		-113.281250
6038		-109.375000
6039		-121.093750
6040		-109.375000
6041		-123.046875
6042		-113.281250
6043		-126.953125
6044		-115.234375
6045		-126.953125
6046		-117.187500
6047		-128.906250
6048		-125.000000
6049		-130.859375
6050		-126.953125
6051		-132.812500
6052		-128.906250
6053		-134.765625
6054		-130.859375
6055		-136.718750
6056		-132.812500
6057		-140.625000
6058		-130.859375
6059		-140.625000
6060		-130.859375
6061		-140.625000
6062		-130.859375
6063		-138.671875
6064		-136.718750
6065		-138.671875
6066		-136.718750
6067		-138.671875
6068		-134.765625
6069		-136.718750
6070		-134.765625
6071		-136.718750
6072		-132.812500
6073		-138.671875
6074		-128.906250
6075		-136.718750
6076		-126.953125
6077		-134.765625
6078		-125.000000
6079		-128.906250
6080		-125.000000
6081		-126.953125
6082		-123.046875
6083		-125.000000
6084		-119.140625
6085		-121.093750
6086		-117.187500
6087		-117.187500
6088		-113.281250
6089		-115.234375
6090		-105.468750
6091		-113.281250
6092		-101.562500
6093		-109.375000
6094		-97.656250
6095		-105.468750
6096		-95.703125
6097		-97.656250
6098		-91.796875
6099		-93.750000
6100		-87.890625
6101		-87.890625
6102		-82.031250
6103		-83.984375
6104		-78.125000
6105		-78.125000
6106		-72.265625
6107		-76.171875
6108		-64.453125
6109		-68.359375
6110		-58.593750
6111		-64.453125
6112		-52.734375
6113		-56.640625
6114		-48.828125
6115		-50.781250
6116		-42.968750
6117		-44.921875
6118		-37.109375
6119		-37.109375
6120		-31.250000
6121		-31.250000
6122		-23.437500
6123		-25.390625
6124		-15.625000
6125		-21.484375
6126		-9.765625
6127		-17.578125
6128		-1.953125
6129		-9.765625
6130		0.000000
6131		0.000000
6132		5.859375
6133		5.859375
6134		11.718750
6135		11.718750
6136		19.531250
6137		17.578125
6138		25.390625
6139		23.437500
6140		31.250000
6141		27.343750
6142		39.062500
6143		33.203125
6144		44.921875
6145		37.109375
6146		48.828125
6147		46.875000
6148		52.734375
6149		52.734375
6150		58.593750
6151		56.640625
6152		64.453125
6153		62.500000
6154		68.359375
6155		68.359375
6156		74.218750
6157		72.265625
6158		82.031250
6159		76.171875
6160		85.937500
6161		80.078125
6162		89.843750
6163		85.937500
6164		91.796875
6165		89.843750
6166		95.703125
6167		93.750000
6168		99.609375
6169		97.656250
6170		103.515625
6171		101.562500
6172		107.421875
6173		105.468750
6174		109.375000
6175		109.375000
6176		115.234375
6177		109.375000
6178		117.187500
6179		115.234375
6180		119.140625
6181		117.187500
6182		121.093750
6183		119.140625
6184		123.046875
6185		123.046875
6186		126.953125
6187		125.000000
6188		128.906250
6189		125.000000
6190		128.906250
6191		126.953125
6192		130.859375
6193		126.953125
6194		134.765625
6195		126.953125
6196		134.765625
6197		130.859375
6198		134.765625
6199		132.812500
6200		134.765625
6201		132.812500
6202		134.765625
6203		132.812500
6204		134.765625
6205		132.812500
6206		136.718750
6207		132.812500
6208		136.718750
6209		130.859375
6210		136.718750
6211		130.859375
6212		136.718750
6213		130.859375
6214		134.765625
6215		128.906250
6216		132.812500
6217		128.906250
6218		130.859375
6219		126.953125
6220		130.859375
6221		125.000000
6222		128.906250
6223		123.046875
6224		126.953125
6225		121.093750
6226		125.000000
6227		119.140625
6228		123.046875
6229		117.187500
6230		121.093750
6231		113.281250
6232		117.187500
6233		111.328125
6234		115.234375
6235		107.421875
6236		113.281250
6237		103.515625
6238		109.375000
6239		101.562500
6240		105.468750
6241		97.656250
6242		101.562500
6243		91.796875
6244		97.656250
6245		87.890625
6246		93.750000
6247		83.984375
6248		89.843750
6249		80.078125
6250		85.937500
6251		74.218750
6252		80.078125
6253		70.312500
6254		76.171875
6255		64.453125
6256		70.312500
6257		60.546875
6258		66.406250
6259		54.687500
6260		60.546875
6261		48.828125
6262		54.687500
6263		42.968750
6264		48.828125
6265		37.109375
6266		44.921875
6267		31.250000
6268		39.062500
6269		25.390625
6270		33.203125
6271		19.531250
6272		27.343750
6273		13.671875
6274		19.531250
6275		5.859375
6276		13.671875
6277		0.000000
6278		7.812500
6279		-5.859375
6280		1.953125
6281		-11.718750
6282		-3.906250
6283		-17.578125
6284		-9.765625
6285		-23.437500
6286		-15.625000
6287		-31.250000
6288		-23.437500
6289		-37.109375
6290		-29.296875
6291		-42.968750
6292		-35.156250
6293		-48.828125
6294		-41.015625
6295		-54.687500
6296		-46.875000
6297		-60.546875
6298		-52.734375
6299		-66.406250
6300		-58.593750
6301		-72.265625
6302		-64.453125
6303		-76.171875
6304		-70.312500
6305		-82.031250
6306		-76.171875
6307		-87.890625
6308		-80.078125
6309		-91.796875
6310		-83.984375
6311		-97.656250
6312		-89.843750
6313		-101.562500
6314		-95.703125
6315		-105.468750
6316		-99.609375
6317		-109.375000
6318		-103.515625
6319		-113.281250
6320		-109.375000
6321		-117.187500
6322		-113.281250
6323		-121.093750
6324		-115.234375
6325		-123.046875
6326		-117.187500
6327		-126.953125
6328		-123.046875
6329		-128.906250
6330		-125.000000
6331		-130.859375
6332		-126.953125
6333		-132.812500
6334		-128.906250
6335		-134.765625
6336		-130.859375
6337		-136.718750
6338		-132.812500
6339		-136.718750
6340		-134.765625
6341		-140.625000
6342		-134.765625
6343		-138.671875
6344		-134.765625
6345		-138.671875
6346		-134.765625
6347		-138.671875
6348		-136.718750
6349		-138.671875
6350		-134.765625
6351		-138.671875
6352		-134.765625
6353		-136.718750
6354		-134.765625
6355		-134.765625
6356		-132.812500
6357		-134.765625
6358		-130.859375
6359		-132.812500
6360		-128.906250
6361		-130.859375
6362		-126.953125
6363		-126.953125
6364		-123.046875
6365		-125.000000
6366		-119.140625
6367		-123.046875
6368		-117.187500
6369		-119.140625
6370		-113.281250
6371		-115.234375
6372		-109.375000
6373		-111.328125
6374		-105.468750
6375		-107.421875
6376		-101.562500
6377		-103.515625
6378		-97.656250
6379		-99.609375
6380		-93.750000
6381		-93.750000
6382		-87.890625
6383		-89.843750
6384		-82.031250
6385		-83.984375
6386		-78.125000
6387		-78.125000
6388		-72.265625
6389		-74.218750
6390		-66.406250
6391		-68.359375
6392		-60.546875
6393		-64.453125
6394		-54.687500
6395		-56.640625
6396		-48.828125
6397		-50.781250
6398		-44.921875
6399		-44.921875
6400		-37.109375
6401		-39.062500
6402		-31.250000
6403		-33.203125
6404		-25.390625
6405		-27.343750
6406		-19.531250
6407		-21.484375
6408		-13.671875
6409		-13.671875
6410		-5.859375
6411		-7.812500
6412		0.000000
6413		-1.953125
6414		5.859375
6415		3.906250
6416		11.718750
6417		9.765625
6418		17.578125
6419		15.625000
6420		23.437500
6421		21.484375
6422		29.296875
6423		29.296875
6424		35.156250
6425		35.156250
6426		41.015625
6427		39.062500
6428		48.828125
6429		44.921875
6430		52.734375
6431		50.781250
6432		58.593750
6433		56.640625
6434		64.453125
6435		60.546875
6436		68.359375
6437		66.406250
6438		72.265625
6439		72.265625
6440		78.125000
6441		76.171875
6442		82.031250
6443		82.031250
6444		87.890625
6445		85.937500
6446		91.796875
6447		89.843750
6448		95.703125
6449		93.750000
6450		99.609375
6451		97.656250
6452		103.515625
6453		99.609375
6454		107.421875
6455		105.468750
6456		109.375000
6457		107.421875
6458		113.281250
6459		111.328125
6460		115.234375
6461		115.234375
6462		119.140625
6463		117.187500
6464		121.093750
6465		119.140625
6466		123.046875
6467		121.093750
6468		125.000000
6469		123.046875
6470		126.953125
6471		125.000000
6472		128.906250
6473		126.953125
6474		130.859375
6475		128.906250
6476		132.812500
6477		128.906250
6478		132.812500
6479		130.859375
6480		132.812500
6481		130.859375
6482		134.765625
6483		132.812500
6484		134.765625
6485		130.859375
6486		134.765625
6487		132.812500
6488		134.765625
6489		132.812500
6490		134.765625
6491		132.812500
6492		134.765625
6493		130.859375
6494		134.765625
6495		130.859375
6496		132.812500
6497		128.906250
6498		132.812500
6499		128.906250
6500		132.812500
6501		126.953125
6502		130.859375
6503		125.000000
6504		128.906250
6505		123.046875
6506		126.953125
6507		121.093750
6508		125.000000
6509		119.140625
6510		123.046875
6511		117.187500
6512		121.093750
6513		113.281250
6514		119.140625
6515		111.328125
6516		115.234375
6517		107.421875
6518		113.281250
6519		103.515625
6520		109.375000
6521		101.562500
6522		105.468750
6523		97.656250
6524		101.562500
6525		93.750000
6526		97.656250
6527		87.890625
6528		93.750000
6529		83.984375
6530		89.843750
6531		80.078125
6532		85.937500
6533		74.218750
6534		80.078125
6535		70.312500
6536		76.171875
6537		64.453125
6538		72.265625
6539		60.546875
6540		66.406250
6541		54.687500
6542		60.546875
6543		48.828125
6544		54.687500
6545		42.968750
6546		50.781250
6547		37.109375
6548		44.921875
6549		31.250000
6550		39.062500
6551		25.390625
6552		33.203125
6553		19.531250
6554		27.343750
6555		13.671875
6556		21.484375
6557		7.812500
6558		15.625000
6559		1.953125
6560		7.812500
6561		-5.859375
6562		1.953125
6563		-11.718750
6564		-3.906250
6565		-17.578125
6566		-9.765625
6567		-23.437500
6568		-15.625000
6569		-29.296875
6570		-23.437500
6571		-37.109375
6572		-29.296875
6573		-42.968750
6574		-35.156250
6575		-48.828125
6576		-41.015625
6577		-54.687500
6578		-46.875000
6579		-60.546875
6580		-52.734375
6581		-66.406250
6582		-58.593750
6583		-72.265625
6584		-64.453125
6585		-76.171875
6586		-70.312500
6587		-82.031250
6588		-76.171875
6589		-87.890625
6590		-80.078125
6591		-91.796875
6592		-85.937500
6593		-97.656250
6594		-89.843750
6595		-101.562500
6596		-95.703125
6597		-105.468750
6598		-99.609375
6599		-109.375000
6600		-103.515625
6601		-113.281250
6602		-107.421875
6603		-117.187500
6604		-111.328125
6605		-119.140625
6606		-115.234375
6607		-123.046875
6608		-119.140625
6609		-126.953125
6610		-121.093750
6611		-128.906250
6612		-123.046875
6613		-130.859375
6614		-125.000000
6615		-132.812500
6616		-128.906250
6617		-134.765625
6618		-130.859375
6619		-136.718750
6620		-132.812500
6621		-136.718750
6622		-134.765625
6623		-138.671875
6624		-134.765625
6625		-138.671875
6626		-134.765625
6627		-140.625000
6628		-134.765625
6629		-140.625000
6630		-134.765625
6631		-138.671875
6632		-134.765625
6633		-136.718750
6634		-134.765625
6635		-136.718750
6636		-132.812500
6637		-134.765625
6638		-132.812500
6639		-132.812500
6640		-130.859375
6641		-132.812500
6642		-128.906250
6643		-130.859375
6644		-126.953125
6645		-128.906250
6646		-123.046875
6647		-126.953125
6648		-121.093750
6649		-123.046875
6650		-117.187500
6651		-119.140625
6652		-113.281250
6653		-115.234375
6654		-109.375000
6655		-111.328125
6656		-105.468750
6657		-107.421875
6658		-101.562500
6659		-103.515625
6660		-97.656250
6661		-99.609375
6662		-91.796875
6663		-95.703125
6664		-87.890625
6665		-89.843750
6666		-82.031250
6667		-85.937500
6668		-78.125000
6669		-80.078125
6670		-72.265625
6671		-74.218750
6672		-66.406250
6673		-68.359375
6674		-60.546875
6675		-62.500000
6676		-56.640625
6677		-56.640625
6678		-48.828125
6679		-52.734375
6680		-42.968750
6681		-46.875000
6682		-37.109375
6683		-39.062500
6684		-31.250000
6685		-33.203125
6686		-25.390625
6687		-27.343750
6688		-19.531250
6689		-21.484375
6690		-13.671875
6691		-13.671875
6692		-7.812500
6693		-7.812500
6694		0.000000
6695		-1.953125
6696		5.859375
6697		3.906250
6698		11.718750
6699		9.765625
6700		17.578125
6701		15.625000
6702		23.437500
6703		21.484375
6704		29.296875
6705		27.343750
6706		35.156250
6707		33.203125
6708		41.015625
6709		39.062500
6710		46.875000
6711		44.921875
6712		54.687500
6713		48.828125
6714		58.593750
6715		56.640625
6716		62.500000
6717		62.500000
6718		68.359375
6719		66.406250
6720		74.218750
6721		72.265625
6722		78.125000
6723		76.171875
6724		82.031250
6725		80.078125
6726		85.937500
6727		85.937500
6728		91.796875
6729		87.890625
6730		95.703125
6731		91.796875
6732		99.609375
6733		97.656250
6734		103.515625
6735		101.562500
6736		105.468750
6737		103.515625
6738		109.375000
6739		107.421875
6740		113.281250
6741		111.328125
6742		115.234375
6743		113.281250
6744		119.140625
6745		115.234375
6746		123.046875
6747		119.140625
6748		125.000000
6749		121.093750
6750		125.000000
6751		123.046875
6752		126.953125
6753		125.000000
6754		128.906250
6755		126.953125
6756		130.859375
6757		128.906250
6758		132.812500
6759		130.859375
6760		132.812500
6761		130.859375
6762		134.765625
6763		130.859375
6764		136.718750
6765		130.859375
6766		136.718750
6767		132.812500
6768		134.765625
6769		132.812500
6770		134.765625
6771		132.812500
6772		136.718750
6773		132.812500
6774		134.765625
6775		132.812500
6776		134.765625
6777		130.859375
6778		134.765625
6779		128.906250
6780		134.765625
6781		128.906250
6782		134.765625
6783		126.953125
6784		130.859375
6785		126.953125
6786		128.906250
6787		125.000000
6788		126.953125
6789		123.046875
6790		126.953125
6791		119.140625
6792		125.000000
6793		117.187500
6794		121.093750
6795		113.281250
6796		119.140625
6797		111.328125
6798		115.234375
6799		109.375000
6800		113.281250
6801		105.468750
6802		109.375000
6803		101.562500
6804		107.421875
6805		97.656250
6806		103.515625
6807		93.750000
6808		99.609375
6809		89.843750
6810		95.703125
6811		85.937500
6812		91.796875
6813		80.078125
6814		87.890625
6815		76.171875
6816		82.031250
6817		70.312500
6818		78.125000
6819		66.406250
6820		72.265625
6821		60.546875
6822		68.359375
6823		56.640625
6824		62.500000
6825		48.828125
6826		56.640625
6827		44.921875
6828		50.781250
6829		39.062500
6830		46.875000
6831		33.203125
6832		41.015625
6833		27.343750
6834		33.203125
6835		21.484375
6836		27.343750
6837		15.625000
6838		21.484375
6839		9.765625
6840		15.625000
6841		1.953125
6842		9.765625
6843		-3.906250
6844		3.906250
6845		-9.765625
6846		-1.953125
6847		-15.625000
6848		-9.765625
6849		-21.484375
6850		-15.625000
6851		-29.296875
6852		-21.484375
6853		-35.156250
6854		-27.343750
6855		-41.015625
6856		-33.203125
6857		-46.875000
6858		-39.062500
6859		-52.734375
6860		-44.921875
6861		-58.593750
6862		-50.781250
6863		-64.453125
6864		-56.640625
6865		-70.312500
6866		-62.500000
6867		-76.171875
6868		-68.359375
6869		-80.078125
6870		-74.218750
6871		-85.937500
6872		-80.078125
6873		-89.843750
6874		-83.984375
6875		-95.703125
6876		-89.843750
6877		-99.609375
6878		-93.750000
6879		-103.515625
6880		-97.656250
6881		-109.375000
6882		-103.515625
6883		-113.281250
6884		-107.421875
6885		-115.234375
6886		-111.328125
6887		-119.140625
6888		-115.234375
6889		-123.046875
6890		-117.187500
6891		-125.000000
6892		-121.093750
6893		-126.953125
6894		-123.046875
6895		-130.859375
6896		-126.953125
6897		-132.812500
6898		-128.906250
6899		-134.765625
6900		-130.859375
6901		-134.765625
6902		-130.859375
6903		-136.718750
6904		-132.812500
6905		-136.718750
6906		-134.765625
6907		-138.671875
6908		-134.765625
6909		-138.671875
6910		-134.765625
6911		-138.671875
6912		-136.718750
6913		-138.671875
6914		-134.765625
6915		-138.671875
6916		-134.765625
6917		-136.718750
6918		-132.812500
6919		-134.765625
6920		-132.812500
6921		-134.765625
6922		-130.859375
6923		-132.812500
6924		-128.906250
6925		-130.859375
6926		-126.953125
6927		-126.953125
6928		-123.046875
6929		-125.000000
6930		-121.093750
6931		-123.046875
6932		-117.187500
6933		-119.140625
6934		-113.281250
6935		-115.234375
6936		-111.328125
6937		-113.281250
6938		-107.421875
6939		-109.375000
6940		-103.515625
6941		-105.468750
6942		-97.656250
6943		-99.609375
6944		-93.750000
6945		-95.703125
6946		-87.890625
6947		-89.843750
6948		-83.984375
6949		-85.937500
6950		-78.125000
6951		-80.078125
6952		-74.218750
6953		-74.218750
6954		-68.359375
6955		-68.359375
6956		-62.500000
6957		-64.453125
6958		-56.640625
6959		-58.593750
6960		-50.781250
6961		-52.734375
6962		-44.921875
6963		-46.875000
6964		-39.062500
6965		-39.062500
6966		-33.203125
6967		-33.203125
6968		-27.343750
6969		-27.343750
6970		-19.531250
6971		-21.484375
6972		-13.671875
6973		-15.625000
6974		-7.812500
6975		-9.765625
6976		-1.953125
6977		-1.953125
6978		3.906250
6979		3.906250
6980		9.765625
6981		9.765625
6982		15.625000
6983		15.625000
6984		23.437500
6985		21.484375
6986		29.296875
6987		27.343750
6988		35.156250
6989		33.203125
6990		41.015625
6991		39.062500
6992		44.921875
6993		44.921875
6994		50.781250
6995		50.781250
6996		56.640625
6997		54.687500
6998		62.500000
6999		60.546875
7000		66.406250
7001		66.406250
7002		72.265625
7003		70.312500
7004		76.171875
7005		76.171875
7006		82.031250
7007		80.078125
7008		85.937500
7009		83.984375
7010		89.843750
7011		87.890625
7012		93.750000
7013		93.750000
7014		97.656250
7015		97.656250
7016		101.562500
7017		101.562500
7018		105.468750
7019		103.515625
7020		109.375000
7021		107.421875
7022		113.281250
7023		111.328125
7024		115.234375
7025		113.281250
7026		117.187500
7027		117.187500
7028		121.093750
7029		119.140625
7030		123.046875
7031		121.093750
7032		125.000000
7033		123.046875
7034		128.906250
7035		125.000000
7036		128.906250
7037		126.953125
7038		130.859375
7039		128.906250
7040		130.859375
7041		130.859375
7042		132.812500
7043		130.859375
7044		134.765625
7045		130.859375
7046		134.765625
7047		132.812500
7048		134.765625
7049		132.812500
7050		134.765625
7051		132.812500
7052		134.765625
7053		132.812500
7054		134.765625
7055		132.812500
7056		134.765625
7057		132.812500
7058		134.765625
7059		130.859375
7060		134.765625
7061		130.859375
7062		132.812500
7063		128.906250
7064		132.812500
7065		128.906250
7066		130.859375
7067		126.953125
7068		128.906250
7069		125.000000
7070		128.906250
7071		123.046875
7072		126.953125
7073		121.093750
7074		125.000000
7075		117.187500
7076		121.093750
7077		115.234375
7078		119.140625
7079		113.281250
7080		117.187500
7081		109.375000
7082		113.281250
7083		105.468750
7084		111.328125
7085		101.562500
7086		107.421875
7087		97.656250
7088		103.515625
7089		93.750000
7090		101.562500
7091		89.843750
7092		95.703125
7093		85.937500
7094		91.796875
7095		82.031250
7096		87.890625
7097		76.171875
7098		82.031250
7099		72.265625
7100		78.125000
7101		66.406250
7102		72.265625
7103		62.500000
7104		68.359375
7105		56.640625
7106		62.500000
7107		50.781250
7108		58.593750
7109		44.921875
7110		52.734375
7111		39.062500
7112		46.875000
7113		33.203125
7114		41.015625
7115		27.343750
7116		35.156250
7117		21.484375
7118		29.296875
7119		15.625000
7120		23.437500
7121		9.765625
7122		17.578125
7123		3.906250
7124		9.765625
7125		-1.953125
7126		3.906250
7127		-9.765625
7128		-1.953125
7129		-15.625000
7130		-7.812500
7131		-21.484375
7132		-13.671875
7133		-27.343750
7134		-19.531250
7135		-33.203125
7136		-27.343750
7137		-39.062500
7138		-33.203125
7139		-44.921875
7140		-39.062500
7141		-52.734375
7142		-44.921875
7143		-58.593750
7144		-50.781250
7145		-62.500000
7146		-56.640625
7147		-68.359375
7148		-60.546875
7149		-74.218750
7150		-68.359375
7151		-80.078125
7152		-74.218750
7153		-85.937500
7154		-78.125000
7155		-89.843750
7156		-83.984375
7157		-95.703125
7158		-87.890625
7159		-99.609375
7160		-93.750000
7161		-103.515625
7162		-97.656250
7163		-107.421875
7164		-101.562500
7165		-111.328125
7166		-107.421875
7167		-115.234375
7168		-111.328125
7169		-119.140625
7170		-115.234375
7171		-121.093750
7172		-117.187500
7173		-125.000000
7174		-121.093750
7175		-126.953125
7176		-123.046875
7177		-130.859375
7178		-126.953125
7179		-132.812500
7180		-128.906250
7181		-132.812500
7182		-130.859375
7183		-134.765625
7184		-132.812500
7185		-136.718750
7186		-132.812500
7187		-136.718750
7188		-134.765625
7189		-138.671875
7190		-134.765625
7191		-138.671875
7192		-136.718750
7193		-138.671875
7194		-136.718750
7195		-138.671875
7196		-134.765625
7197		-136.718750
7198		-134.765625
7199		-136.718750
7200		-134.765625
7201		-134.765625
7202		-132.812500
7203		-134.765625
7204		-130.859375
7205		-132.812500
7206		-128.906250
7207		-130.859375
7208		-126.953125
7209		-128.906250
7210		-125.000000
7211		-125.000000
7212		-121.093750
7213		-123.046875
7214		-119.140625
7215		-119.140625
7216		-115.234375
7217		-117.187500
7218		-111.328125
7219		-113.281250
7220		-107.421875
7221		-109.375000
7222		-103.515625
7223		-105.468750
7224		-99.609375
7225		-101.562500
7226		-93.750000
7227		-95.703125
7228		-89.843750
7229		-91.796875
7230		-85.937500
7231		-85.937500
7232		-80.078125
7233		-82.031250
7234		-74.218750
7235		-76.171875
7236		-68.359375
7237		-70.312500
7238		-62.500000
7239		-64.453125
7240		-56.640625
7241		-58.593750
7242		-52.734375
7243		-52.734375
7244		-44.921875
7245		-46.875000
7246		-39.062500
7247		-41.015625
7248		-33.203125
7249		-35.156250
7250		-27.343750
7251		-29.296875
7252		-21.484375
7253		-23.437500
7254		-15.625000
7255		-15.625000
7256		-7.812500
7257		-9.765625
7258		-1.953125
7259		-3.906250
7260		3.906250
7261		1.953125
7262		9.765625
7263		7.812500
7264		15.625000
7265		15.625000
7266		21.484375
7267		21.484375
7268		27.343750
7269		27.343750
7270		33.203125
7271		33.203125
7272		39.062500
7273		39.062500
7274		44.921875
7275		44.921875
7276		50.781250
7277		48.828125
7278		56.640625
7279		54.687500
7280		60.546875
7281		60.546875
7282		66.406250
7283		64.453125
7284		72.265625
7285		70.312500
7286		76.171875
7287		74.218750
7288		80.078125
7289		80.078125
7290		85.937500
7291		83.984375
7292		89.843750
7293		87.890625
7294		93.750000
7295		93.750000
7296		97.656250
7297		95.703125
7298		101.562500
7299		99.609375
7300		105.468750
7301		103.515625
7302		109.375000
7303		107.421875
7304		111.328125
7305		109.375000
7306		115.234375
7307		113.281250
7308		117.187500
7309		115.234375
7310		119.140625
7311		119.140625
7312		123.046875
7313		121.093750
7314		125.000000
7315		123.046875
7316		126.953125
7317		125.000000
7318		128.906250
7319		126.953125
7320		130.859375
7321		128.906250
7322		130.859375
7323		128.906250
7324		132.812500
7325		130.859375
7326		132.812500
7327		130.859375
7328		134.765625
7329		132.812500
7330		134.765625
7331		132.812500
7332		134.765625
7333		132.812500
7334		134.765625
7335		132.812500
7336		134.765625
7337		132.812500
7338		134.765625
7339		132.812500
7340		134.765625
7341		130.859375
7342		134.765625
7343		130.859375
7344		132.812500
7345		128.906250
7346		132.812500
7347		128.906250
7348		130.859375
7349		126.953125
7350		128.906250
7351		125.000000
7352		128.906250
7353		123.046875
7354		126.953125
7355		121.093750
7356		125.000000
7357		117.187500
7358		121.093750
7359		115.234375
7360		119.140625
7361		113.281250
7362		117.187500
7363		109.375000
7364		113.281250
7365		105.468750
7366		111.328125
7367		103.515625
7368		107.421875
7369		99.609375
7370		103.515625
7371		95.703125
7372		99.609375
7373		91.796875
7374		95.703125
7375		85.937500
7376		91.796875
7377		82.031250
7378		87.890625
7379		78.125000
7380		83.984375
7381		72.265625
7382		78.125000
7383		68.359375
7384		74.218750
7385		62.500000
7386		68.359375
7387		56.640625
7388		64.453125
7389		50.781250
7390		58.593750
7391		44.921875
7392		52.734375
7393		39.062500
7394		46.875000
7395		35.156250
7396		41.015625
7397		29.296875
7398		35.156250
7399		21.484375
7400		29.296875
7401		15.625000
7402		23.437500
7403		9.765625
7404		17.578125
7405		3.906250
7406		11.718750
7407		-1.953125
7408		5.859375
7409		-7.812500
7410		0.000000
7411		-13.671875
7412		-7.812500
7413		-21.484375
7414		-13.671875
7415		-27.343750
7416		-19.531250
7417		-33.203125
7418		-25.390625
7419		-39.062500
7420		-31.250000
7421		-44.921875
7422		-39.062500
7423		-50.781250
7424		-44.921875
7425		-56.640625
7426		-50.781250
7427		-62.500000
7428		-56.640625
7429		-68.359375
7430		-62.500000
7431		-74.218750
7432		-68.359375
7433		-80.078125
7434		-72.265625
7435		-83.984375
7436		-78.125000
7437		-89.843750
7438		-83.984375
7439		-95.703125
7440		-87.890625
7441		-99.609375
7442		-91.796875
7443		-103.515625
7444		-97.656250
7445		-107.421875
7446		-101.562500
7447		-111.328125
7448		-107.421875
7449		-115.234375
7450		-109.375000
7451		-119.140625
7452		-113.281250
7453		-121.093750
7454		-117.187500
7455		-125.000000
7456		-119.140625
7457		-126.953125
7458		-123.046875
7459		-128.906250
7460		-126.953125
7461		-132.812500
7462		-128.906250
7463		-134.765625
7464		-130.859375
7465		-134.765625
7466		-132.812500
7467		-136.718750
7468		-132.812500
7469		-138.671875
7470		-134.765625
7471		-138.671875
7472		-134.765625
7473		-138.671875
7474		-134.765625
7475		-138.671875
7476		-136.718750
7477		-138.671875
7478		-136.718750
7479		-138.671875
7480		-134.765625
7481		-136.718750
7482		-132.812500
7483		-136.718750
7484		-132.812500
7485		-134.765625
7486		-130.859375
7487		-132.812500
7488		-128.906250
7489		-130.859375
7490		-126.953125
7491		-128.906250
7492		-125.000000
7493		-126.953125
7494		-121.093750
7495		-123.046875
7496		-119.140625
7497		-121.093750
7498		-115.234375
7499		-117.187500
7500		-111.328125
7501		-113.281250
7502		-107.421875
7503		-109.375000
7504		-103.515625
7505		-105.468750
7506		-99.609375
7507		-101.562500
7508		-95.703125
7509		-95.703125
7510		-89.843750
7511		-91.796875
7512		-85.937500
7513		-87.890625
7514		-80.078125
7515		-82.031250
7516		-76.171875
7517		-76.171875
7518		-70.312500
7519		-70.312500
7520		-64.453125
7521		-66.406250
7522		-58.593750
7523		-60.546875
7524		-52.734375
7525		-54.687500
7526		-46.875000
7527		-48.828125
7528		-41.015625
7529		-42.968750
7530		-35.156250
7531		-35.156250
7532		-29.296875
7533		-29.296875
7534		-21.484375
7535		-23.437500
7536		-15.625000
7537		-17.578125
7538		-9.765625
7539		-11.718750
7540		-3.906250
7541		-3.906250
7542		1.953125
7543		1.953125
7544		7.812500
7545		7.812500
7546		13.671875
7547		13.671875
7548		21.484375
7549		19.531250
7550		27.343750
7551		25.390625
7552		33.203125
7553		31.250000
7554		39.062500
7555		37.109375
7556		42.968750
7557		42.968750
7558		48.828125
7559		48.828125
7560		54.687500
7561		54.687500
7562		60.546875
7563		58.593750
7564		66.406250
7565		64.453125
7566		70.312500
7567		70.312500
7568		76.171875
7569		74.218750
7570		80.078125
7571		78.125000
7572		83.984375
7573		83.984375
7574		89.843750
7575		87.890625
7576		93.750000
7577		91.796875
7578		97.656250
7579		95.703125
7580		101.562500
7581		99.609375
7582		103.515625
7583		103.515625
7584		107.421875
7585		107.421875
7586		111.328125
7587		109.375000
7588		115.234375
7589		113.281250
7590		117.187500
7591		115.234375
7592		119.140625
7593		119.140625
7594		121.093750
7595		121.093750
7596		125.000000
7597		123.046875
7598		126.953125
7599		125.000000
7600		128.906250
7601		126.953125
7602		130.859375
7603		126.953125
7604		130.859375
7605		128.906250
7606		132.812500
7607		130.859375
7608		132.812500
7609		130.859375
7610		134.765625
7611		132.812500
7612		134.765625
7613		132.812500
7614		134.765625
7615		132.812500
7616		134.765625
7617		132.812500
7618		134.765625
7619		132.812500
7620		134.765625
7621		132.812500
7622		134.765625
7623		130.859375
7624		134.765625
7625		130.859375
7626		132.812500
7627		128.906250
7628		132.812500
7629		126.953125
7630		130.859375
7631		126.953125
7632		130.859375
7633		125.000000
7634		128.906250
7635		121.093750
7636		126.953125
7637		121.093750
7638		125.000000
7639		115.234375
7640		121.093750
7641		115.234375
7642		121.093750
7643		111.328125
7644		117.187500
7645		109.375000
7646		115.234375
7647		105.468750
7648		111.328125
7649		103.515625
7650		107.421875
7651		99.609375
7652		103.515625
7653		95.703125
7654		99.609375
7655		89.843750
7656		95.703125
7657		85.937500
7658		93.750000
7659		82.031250
7660		87.890625
7661		76.171875
7662		83.984375
7663		72.265625
7664		78.125000
7665		68.359375
7666		76.171875
7667		62.500000
7668		68.359375
7669		56.640625
7670		64.453125
7671		50.781250
7672		58.593750
7673		46.875000
7674		52.734375
7675		41.015625
7676		48.828125
7677		35.156250
7678		41.015625
7679		29.296875
7680		37.109375
7681		21.484375
7682		31.250000
7683		17.578125
7684		23.437500
7685		9.765625
7686		17.578125
7687		3.906250
7688		11.718750
7689		-1.953125
7690		7.812500
7691		-7.812500
7692		0.000000
7693		-13.671875
7694		-7.812500
7695		-19.531250
7696		-13.671875
7697		-27.343750
7698		-19.531250
7699		-33.203125
7700		-23.437500
7701		-39.062500
7702		-31.250000
7703		-46.875000
7704		-37.109375
7705		-52.734375
7706		-42.968750
7707		-56.640625
7708		-50.781250
7709		-62.500000
7710		-56.640625
7711		-70.312500
7712		-60.546875
7713		-74.218750
7714		-66.406250
7715		-80.078125
7716		-72.265625
7717		-83.984375
7718		-78.125000
7719		-89.843750
7720		-83.984375
7721		-95.703125
7722		-87.890625
7723		-101.562500
7724		-91.796875
7725		-103.515625
7726		-97.656250
7727		-107.421875
7728		-101.562500
7729		-113.281250
7730		-103.515625
7731		-119.140625
7732		-109.375000
7733		-119.140625
7734		-113.281250
7735		-121.093750
7736		-117.187500
7737		-125.000000
7738		-121.093750
7739		-128.906250
7740		-121.093750
7741		-130.859375
7742		-125.000000
7743		-132.812500
7744		-128.906250
7745		-136.718750
7746		-128.906250
7747		-136.718750
7748		-128.906250
7749		-138.671875
7750		-132.812500
7751		-138.671875
7752		-134.765625
7753		-138.671875
7754		-134.765625
7755		-140.625000
7756		-132.812500
7757		-142.578125
7758		-132.812500
7759		-138.671875
7760		-136.718750
7761		-138.671875
7762		-134.765625
7763		-140.625000
7764		-132.812500
7765		-138.671875
7766		-130.859375
7767		-134.765625
7768		-132.812500
7769		-132.812500
7770		-130.859375
7771		-132.812500
7772		-126.953125
7773		-132.812500
7774		-123.046875
7775		-128.906250
7776		-123.046875
7777		-125.000000
7778		-119.140625
7779		-123.046875
7780		-113.281250
7781		-123.046875
7782		-113.281250
7783		-117.187500
7784		-107.421875
7785		-111.328125
7786		-105.468750
7787		-105.468750
7788		-99.609375
7789		-103.515625
7790		-91.796875
7791		-97.656250
7792		-91.796875
7793		-93.750000
7794		-85.937500
7795		-87.890625
7796		-80.078125
7797		-85.937500
7798		-74.218750
7799		-78.125000
7800		-70.312500
7801		-72.265625
7802		-64.453125
7803		-66.406250
7804		-58.593750
7805		-60.546875
7806		-52.734375
7807		-56.640625
7808		-44.921875
7809		-50.781250
7810		-41.015625
7811		-42.968750
7812		-35.156250
7813		-37.109375
7814		-25.390625
7815		-31.250000
7816		-19.531250
7817		-25.390625
7818		-17.578125
7819		-17.578125
7820		-11.718750
7821		-11.718750
7822		-3.906250
7823		-7.812500
7824		3.906250
7825		0.000000
7826		7.812500
7827		5.859375
7828		13.671875
7829		11.718750
7830		21.484375
7831		15.625000
7832		25.390625
7833		25.390625
7834		31.250000
7835		29.296875
7836		37.109375
7837		37.109375
7838		42.968750
7839		41.015625
7840		48.828125
7841		44.921875
7842		54.687500
7843		52.734375
7844		60.546875
7845		58.593750
7846		64.453125
7847		62.500000
7848		72.265625
7849		68.359375
7850		76.171875
7851		74.218750
7852		80.078125
7853		78.125000
7854		83.984375
7855		82.031250
7856		89.843750
7857		85.937500
7858		93.750000
7859		89.843750
7860		95.703125
7861		95.703125
7862		99.609375
7863		97.656250
7864		107.421875
7865		99.609375
7866		107.421875
7867		103.515625
7868		111.328125
7869		109.375000
7870		113.281250
7871		111.328125
7872		117.187500
7873		113.281250
7874		123.046875
7875		117.187500
7876		123.046875
7877		121.093750
7878		123.046875
7879		123.046875
7880		128.906250
7881		121.093750
7882		130.859375
7883		125.000000
7884		132.812500
7885		126.953125
7886		130.859375
7887		128.906250
7888		132.812500
7889		128.906250
7890		134.765625
7891		128.906250
7892		136.718750
7893		130.859375
7894		134.765625
7895		132.812500
7896		134.765625
7897		128.906250
7898		138.671875
7899		132.812500
7900		134.765625
7901		130.859375
7902		136.718750
7903		132.812500
7904		134.765625
7905		130.859375
7906		134.765625
7907		126.953125
7908		136.718750
7909		126.953125
7910		132.812500
7911		128.906250
7912		130.859375
7913		125.000000
7914		130.859375
7915		125.000000
7916		128.906250
7917		121.093750
7918		128.906250
7919		121.093750
7920		125.000000
7921		119.140625
7922		123.046875
7923		115.234375
7924		119.140625
7925		111.328125
7926		119.140625
7927		109.375000
7928		115.234375
7929		105.468750
7930		111.328125
7931		103.515625
7932		109.375000
7933		99.609375
7934		105.468750
7935		95.703125
7936		101.562500
7937		91.796875
7938		97.656250
7939		85.937500
7940		93.750000
7941		82.031250
7942		89.843750
7943		78.125000
7944		85.937500
7945		74.218750
7946		80.078125
7947		68.359375
7948		74.218750
7949		62.500000
7950		70.312500
7951		58.593750
7952		64.453125
7953		52.734375
7954		58.593750
7955		46.875000
7956		54.687500
7957		41.015625
7958		46.875000
7959		35.156250
7960		42.968750
7961		29.296875
7962		37.109375
7963		23.437500
7964		31.250000
7965		17.578125
7966		25.390625
7967		11.718750
7968		19.531250
7969		5.859375
7970		11.718750
7971		-1.953125
7972		5.859375
7973		-7.812500
7974		0.000000
7975		-13.671875
7976		-5.859375
7977		-19.531250
7978		-11.718750
7979		-25.390625
7980		-17.578125
7981		-33.203125
7982		-25.390625
7983		-39.062500
7984		-31.250000
7985		-44.921875
7986		-37.109375
7987		-50.781250
7988		-42.968750
7989		-58.593750
7990		-48.828125
7991		-62.500000
7992		-54.687500
7993		-68.359375
7994		-60.546875
7995		-74.218750
7996		-64.453125
7997		-80.078125
7998		-70.312500
7999		-83.984375
8000		-76.171875
8001		-89.843750
8002		-82.031250
8003		-93.750000
8004		-87.890625
8005		-97.656250
8006		-91.796875
8007		-103.515625
8008		-95.703125
8009		-109.375000
8010		-99.609375
8011		-111.328125
8012		-103.515625
8013		-115.234375
8014		-107.421875
8015		-119.140625
8016		-113.281250
8017		-123.046875
8018		-115.234375
8019		-125.000000
8020		-119.140625
8021		-126.953125
8022		-123.046875
8023		-130.859375
8024		-125.000000
8025		-132.812500
8026		-126.953125
8027		-134.765625
8028		-128.906250
8029		-136.718750
8030		-130.859375
8031		-136.718750
8032		-132.812500
8033		-138.671875
8034		-132.812500
8035		-138.671875
8036		-134.765625
8037		-138.671875
8038		-136.718750
8039		-138.671875
8040		-134.765625
8041		-138.671875
8042		-134.765625
8043		-140.625000
8044		-134.765625
8045		-138.671875
8046		-132.812500
8047		-138.671875
8048		-132.812500
8049		-136.718750
8050		-130.859375
8051		-134.765625
8052		-130.859375
8053		-132.812500
8054		-128.906250
8055		-130.859375
8056		-126.953125
8057		-126.953125
8058		-123.046875
8059		-125.000000
8060		-119.140625
8061		-123.046875
8062		-117.187500
8063		-119.140625
8064		-113.281250
8065		-115.234375
8066		-109.375000
8067		-111.328125
8068		-103.515625
8069		-107.421875
8070		-101.562500
8071		-103.515625
8072		-97.656250
8073		-97.656250
8074		-91.796875
8075		-93.750000
8076		-87.890625
8077		-87.890625
8078		-82.031250
8079		-83.984375
8080		-76.171875
8081		-80.078125
8082		-72.265625
8083		-74.218750
8084		-66.406250
8085		-68.359375
8086		-60.546875
8087		-62.500000
8088		-54.687500
8089		-56.640625
8090		-48.828125
8091		-50.781250
8092		-42.968750
8093		-44.921875
8094		-37.109375
8095		-37.109375
8096		-29.296875
8097		-33.203125
8098		-23.437500
8099		-25.390625
8100		-17.578125
8101		-21.484375
8102		-11.718750
8103		-13.671875
8104		-5.859375
8105		-7.812500
8106		0.000000
8107		0.000000
8108		5.859375
8109		5.859375
8110		13.671875
8111		11.718750
8112		19.531250
8113		17.578125
8114		25.390625
8115		23.437500
8116		31.250000
8117		29.296875
8118		37.109375
8119		35.156250
8120		42.968750
8121		41.015625
8122		48.828125
8123		46.875000
8124		54.687500
8125		52.734375
8126		58.593750
8127		56.640625
8128		64.453125
8129		62.500000
8130		70.312500
8131		68.359375
8132		74.218750
8133		72.265625
8134		78.125000
8135		78.125000
8136		83.984375
8137		82.031250
8138		87.890625
8139		85.937500
8140		91.796875
8141		89.843750
8142		97.656250
8143		93.750000
8144		99.609375
8145		97.656250
8146		103.515625
8147		99.609375
8148		107.421875
8149		103.515625
8150		111.328125
8151		109.375000
8152		113.281250
8153		111.328125
8154		115.234375
8155		115.234375
8156		119.140625
8157		117.187500
8158		123.046875
8159		119.140625
8160		123.046875
8161		121.093750
8162		126.953125
8163		123.046875
8164		128.906250
8165		125.000000
8166		128.906250
8167		126.953125
8168		130.859375
8169		128.906250
8170		132.812500
8171		130.859375
8172		132.812500
8173		130.859375
8174		132.812500
8175		130.859375
8176		136.718750
8177		132.812500
8178		134.765625
8179		132.812500
8180		134.765625
8181		132.812500
8182		136.718750
8183		132.812500
8184		134.765625
8185		132.812500
8186		134.765625
8187		130.859375
8188		134.765625
8189		130.859375
8190		132.812500
8191		128.906250
8192		132.812500
8193		126.953125
8194		130.859375
8195		126.953125
8196		130.859375
8197		123.046875
8198		130.859375
8199		123.046875
8200		126.953125
8201		121.093750
8202		125.000000
8203		119.140625
8204		123.046875
8205		115.234375
8206		121.093750
8207		113.281250
8208		117.187500
8209		109.375000
8210		115.234375
8211		107.421875
8212		111.328125
8213		103.515625
8214		109.375000
8215		99.609375
8216		105.468750
8217		95.703125
8218		101.562500
8219		91.796875
8220		97.656250
8221		87.890625
8222		93.750000
8223		83.984375
8224		89.843750
8225		78.125000
8226		85.937500
8227		74.218750
8228		80.078125
8229		68.359375
8230		76.171875
8231		64.453125
8232		70.312500
8233		58.593750
8234		66.406250
8235		52.734375
8236		60.546875
8237		46.875000
8238		54.687500
8239		41.015625
8240		48.828125
8241		35.156250
8242		42.968750
8243		31.250000
8244		39.062500
8245		25.390625
8246		31.250000
8247		17.578125
8248		25.390625
8249		11.718750
8250		19.531250
8251		5.859375
8252		13.671875
8253		0.000000
8254		7.812500
8255		-5.859375
8256		1.953125
8257		-11.718750
8258		-5.859375
8259		-19.531250
8260		-9.765625
8261		-25.390625
8262		-17.578125
8263		-31.250000
8264		-23.437500
8265		-37.109375
8266		-29.296875
8267		-42.968750
8268		-35.156250
8269		-48.828125
8270		-41.015625
8271		-54.687500
8272		-46.875000
8273		-60.546875
8274		-54.687500
8275		-66.406250
8276		-58.593750
8277		-72.265625
8278		-64.453125
8279		-78.125000
8280		-70.312500
8281		-82.031250
8282		-76.171875
8283		-87.890625
8284		-82.031250
8285		-93.750000
8286		-85.937500
8287		-97.656250
8288		-91.796875
8289		-101.562500
8290		-95.703125
8291		-105.468750
8292		-99.609375
8293		-111.328125
8294		-105.468750
8295		-115.234375
8296		-109.375000
8297		-117.187500
8298		-111.328125
8299		-121.093750
8300		-115.234375
8301		-125.000000
8302		-119.140625
8303		-126.953125
8304		-123.046875
8305		-128.906250
8306		-125.000000
8307		-130.859375
8308		-126.953125
8309		-132.812500
8310		-128.906250
8311		-134.765625
8312		-130.859375
8313		-136.718750
8314		-132.812500
8315		-136.718750
8316		-134.765625
8317		-138.671875
8318		-134.765625
8319		-138.671875
8320		-134.765625
8321		-138.671875
8322		-134.765625
8323		-138.671875
8324		-134.765625
8325		-138.671875
8326		-134.765625
8327		-138.671875
8328		-134.765625
8329		-136.718750
8330		-132.812500
8331		-134.765625
8332		-132.812500
8333		-134.765625
8334		-128.906250
8335		-132.812500
8336		-128.906250
8337		-130.859375
8338		-125.000000
8339		-128.906250
8340		-123.046875
8341		-125.000000
8342		-121.093750
8343		-123.046875
8344		-117.187500
8345		-119.140625
8346		-113.281250
8347		-115.234375
8348		-109.375000
8349		-111.328125
8350		-105.468750
8351		-107.421875
8352		-101.562500
8353		-103.515625
8354		-97.656250
8355		-99.609375
8356		-93.750000
8357		-93.750000
8358		-87.890625
8359		-89.843750
8360		-82.031250
8361		-83.984375
8362		-78.125000
8363		-78.125000
8364		-72.265625
8365		-74.218750
8366		-66.406250
8367		-68.359375
8368		-60.546875
8369		-62.500000
8370		-54.687500
8371		-56.640625
8372		-48.828125
8373		-50.781250
8374		-42.968750
8375		-44.921875
8376		-37.109375
8377		-39.062500
8378		-31.250000
8379		-33.203125
8380		-25.390625
8381		-27.343750
8382		-19.531250
8383		-19.531250
8384		-11.718750
8385		-13.671875
8386		-5.859375
8387		-7.812500
8388		0.000000
8389		-1.953125
8390		5.859375
8391		3.906250
8392		11.718750
8393		9.765625
8394		17.578125
8395		15.625000
8396		23.437500
8397		23.437500
8398		31.250000
8399		29.296875
8400		35.156250
8401		35.156250
8402		42.968750
8403		41.015625
8404		46.875000
8405		44.921875
8406		52.734375
8407		50.781250
8408		58.593750
8409		56.640625
8410		62.500000
8411		62.500000
8412		68.359375
8413		66.406250
8414		74.218750
8415		72.265625
8416		78.125000
8417		76.171875
8418		83.984375
8419		82.031250
8420		87.890625
8421		85.937500
8422		91.796875
8423		89.843750
8424		95.703125
8425		93.750000
8426		99.609375
8427		97.656250
8428		103.515625
8429		101.562500
8430		107.421875
8431		105.468750
8432		109.375000
8433		109.375000
8434		113.281250
8435		111.328125
8436		115.234375
8437		113.281250
8438		119.140625
8439		115.234375
8440		121.093750
8441		119.140625
8442		123.046875
8443		121.093750
8444		126.953125
8445		123.046875
8446		126.953125
8447		125.000000
8448		128.906250
8449		126.953125
8450		130.859375
8451		128.906250
8452		132.812500
8453		128.906250
8454		132.812500
8455		130.859375
8456		134.765625
8457		130.859375
8458		134.765625
8459		130.859375
8460		136.718750
8461		132.812500
8462		134.765625
8463		130.859375
8464		134.765625
8465		132.812500
8466		134.765625
8467		132.812500
8468		134.765625
8469		130.859375
8470		134.765625
8471		128.906250
8472		134.765625
8473		128.906250
8474		132.812500
8475		128.906250
8476		130.859375
8477		126.953125
8478		130.859375
8479		125.000000
8480		128.906250
8481		123.046875
8482		126.953125
8483		121.093750
8484		125.000000
8485		119.140625
8486		123.046875
8487		117.187500
8488		121.093750
8489		113.281250
8490		119.140625
8491		111.328125
8492		115.234375
8493		107.421875
8494		111.328125
8495		103.515625
8496		109.375000
8497		99.609375
8498		105.468750
8499		95.703125
8500		103.515625
8501		91.796875
8502		97.656250
8503		87.890625
8504		93.750000
8505		83.984375
8506		89.843750
8507		80.078125
8508		85.937500
8509		74.218750
8510		80.078125
8511		70.312500
8512		76.171875
8513		64.453125
8514		70.312500
8515		58.593750
8516		66.406250
8517		52.734375
8518		60.546875
8519		48.828125
8520		54.687500
8521		42.968750
8522		50.781250
8523		37.109375
8524		44.921875
8525		31.250000
8526		39.062500
8527		25.390625
8528		33.203125
8529		19.531250
8530		27.343750
8531		13.671875
8532		21.484375
8533		5.859375
8534		13.671875
8535		0.000000
8536		7.812500
8537		-5.859375
8538		1.953125
8539		-11.718750
8540		-3.906250
8541		-17.578125
8542		-9.765625
8543		-23.437500
8544		-17.578125
8545		-31.250000
8546		-21.484375
8547		-37.109375
8548		-29.296875
8549		-42.968750
8550		-35.156250
8551		-48.828125
8552		-41.015625
8553		-54.687500
8554		-46.875000
8555		-62.500000
8556		-52.734375
8557		-66.406250
8558		-58.593750
8559		-72.265625
8560		-64.453125
8561		-76.171875
8562		-70.312500
8563		-82.031250
8564		-76.171875
8565		-87.890625
8566		-80.078125
8567		-91.796875
8568		-85.937500
8569		-97.656250
8570		-91.796875
8571		-101.562500
8572		-95.703125
8573		-105.468750
8574		-99.609375
8575		-109.375000
8576		-103.515625
8577		-113.281250
8578		-107.421875
8579		-117.187500
8580		-111.328125
8581		-121.093750
8582		-115.234375
8583		-123.046875
8584		-117.187500
8585		-126.953125
8586		-123.046875
8587		-128.906250
8588		-125.000000
8589		-130.859375
8590		-126.953125
8591		-132.812500
8592		-128.906250
8593		-134.765625
8594		-130.859375
8595		-136.718750
8596		-132.812500
8597		-136.718750
8598		-134.765625
8599		-138.671875
8600		-134.765625
8601		-138.671875
8602		-134.765625
8603		-138.671875
8604		-134.765625
8605		-138.671875
8606		-134.765625
8607		-138.671875
8608		-134.765625
8609		-138.671875
8610		-134.765625
8611		-136.718750
8612		-132.812500
8613		-136.718750
8614		-132.812500
8615		-134.765625
8616		-130.859375
8617		-132.812500
8618		-128.906250
8619		-130.859375
8620		-126.953125
8621		-126.953125
8622		-123.046875
8623		-125.000000
8624		-121.093750
8625		-123.046875
8626		-117.187500
8627		-119.140625
8628		-115.234375
8629		-115.234375
8630		-111.328125
8631		-111.328125
8632		-105.468750
8633		-107.421875
8634		-103.515625
8635		-103.515625
8636		-97.656250
8637		-99.609375
8638		-91.796875
8639		-95.703125
8640		-87.890625
8641		-91.796875
8642		-83.984375
8643		-85.937500
8644		-78.125000
8645		-80.078125
8646		-72.265625
8647		-74.218750
8648		-66.406250
8649		-68.359375
8650		-62.500000
8651		-64.453125
8652		-56.640625
8653		-56.640625
8654		-50.781250
8655		-52.734375
8656		-44.921875
8657		-46.875000
8658		-37.109375
8659		-39.062500
8660		-31.250000
8661		-33.203125
8662		-25.390625
8663		-27.343750
8664		-19.531250
8665		-21.484375
8666		-13.671875
8667		-15.625000
8668		-7.812500
8669		-9.765625
8670		0.000000
8671		-3.906250
8672		5.859375
8673		3.906250
8674		11.718750
8675		9.765625
8676		17.578125
8677		15.625000
8678		23.437500
8679		21.484375
8680		29.296875
8681		27.343750
8682		35.156250
8683		33.203125
8684		41.015625
8685		39.062500
8686		46.875000
8687		44.921875
8688		52.734375
8689		50.781250
8690		58.593750
8691		56.640625
8692		62.500000
8693		62.500000
8694		68.359375
8695		66.406250
8696		72.265625
8697		72.265625
8698		78.125000
8699		76.171875
8700		83.984375
8701		82.031250
8702		85.937500
8703		83.984375
8704		91.796875
8705		89.843750
8706		95.703125
8707		93.750000
8708		99.609375
8709		97.656250
8710		103.515625
8711		101.562500
8712		107.421875
8713		103.515625
8714		109.375000
8715		107.421875
8716		113.281250
8717		111.328125
8718		115.234375
8719		113.281250
8720		119.140625
8721		117.187500
8722		121.093750
8723		119.140625
8724		123.046875
8725		121.093750
8726		125.000000
8727		123.046875
8728		126.953125
8729		125.000000
8730		128.906250
8731		126.953125
8732		130.859375
8733		128.906250
8734		132.812500
8735		128.906250
8736		132.812500
8737		130.859375
8738		134.765625
8739		130.859375
8740		134.765625
8741		132.812500
8742		134.765625
8743		132.812500
8744		134.765625
8745		132.812500
8746		136.718750
8747		132.812500
8748		134.765625
8749		130.859375
8750		134.765625
8751		132.812500
8752		134.765625
8753		130.859375
8754		134.765625
8755		130.859375
8756		132.812500
8757		126.953125
8758		132.812500
8759		126.953125
8760		130.859375
8761		125.000000
8762		128.906250
8763		123.046875
8764		128.906250
8765		121.093750
8766		125.000000
8767		119.140625
8768		123.046875
8769		117.187500
8770		121.093750
8771		113.281250
8772		119.140625
8773		111.328125
8774		115.234375
8775		107.421875
8776		113.281250
8777		105.468750
8778		109.375000
8779		101.562500
8780		107.421875
8781		97.656250
8782		103.515625
8783		93.750000
8784		99.609375
8785		89.843750
8786		95.703125
8787		83.984375
8788		91.796875
8789		80.078125
8790		85.937500
8791		76.171875
8792		82.031250
8793		70.312500
8794		76.171875
8795		66.406250
8796		72.265625
8797		60.546875
8798		68.359375
8799		54.687500
8800		62.500000
8801		48.828125
8802		56.640625
8803		42.968750
8804		50.781250
8805		39.062500
8806		44.921875
8807		33.203125
8808		39.062500
8809		25.390625
8810		33.203125
8811		19.531250
8812		27.343750
8813		13.671875
8814		21.484375
8815		7.812500
8816		15.625000
8817		1.953125
8818		9.765625
8819		-3.906250
8820		3.906250
8821		-11.718750
8822		-3.906250
8823		-15.625000
8824		-9.765625
8825		-23.437500
8826		-15.625000
8827		-29.296875
8828		-21.484375
8829		-35.156250
8830		-27.343750
8831		-41.015625
8832		-35.156250
8833		-48.828125
8834		-41.015625
8835		-52.734375
8836		-46.875000
8837		-58.593750
8838		-52.734375
8839		-64.453125
8840		-58.593750
8841		-72.265625
8842		-64.453125
8843		-76.171875
8844		-70.312500
8845		-82.031250
8846		-74.218750
8847		-87.890625
8848		-80.078125
8849		-91.796875
8850		-85.937500
8851		-95.703125
8852		-89.843750
8853		-101.562500
8854		-93.750000
8855		-105.468750
8856		-99.609375
8857		-109.375000
8858		-103.515625
8859		-113.281250
8860		-107.421875
8861		-117.187500
8862		-111.328125
8863		-121.093750
8864		-115.234375
8865		-123.046875
8866		-119.140625
8867		-126.953125
8868		-121.093750
8869		-128.906250
8870		-123.046875
8871		-130.859375
8872		-126.953125
8873		-132.812500
8874		-128.906250
8875		-134.765625
8876		-130.859375
8877		-136.718750
8878		-132.812500
8879		-136.718750
8880		-134.765625
8881		-138.671875
8882		-134.765625
8883		-138.671875
8884		-134.765625
8885		-138.671875
8886		-134.765625
8887		-138.671875
8888		-134.765625
8889		-138.671875
8890		-136.718750
8891		-138.671875
8892		-134.765625
8893		-138.671875
8894		-134.765625
8895		-136.718750
8896		-132.812500
8897		-134.765625
8898		-130.859375
8899		-132.812500
8900		-128.906250
8901		-130.859375
8902		-126.953125
8903		-128.906250
8904		-125.000000
8905		-126.953125
8906		-121.093750
8907		-123.046875
8908		-119.140625
8909		-119.140625
8910		-115.234375
8911		-117.187500
8912		-111.328125
8913		-113.281250
8914		-107.421875
8915		-109.375000
8916		-103.515625
8917		-105.468750
8918		-99.609375
8919		-101.562500
8920		-93.750000
8921		-95.703125
8922		-89.843750
8923		-91.796875
8924		-83.984375
8925		-85.937500
8926		-78.125000
8927		-80.078125
8928		-74.218750
8929		-76.171875
8930		-68.359375
8931		-70.312500
8932		-62.500000
8933		-64.453125
8934		-56.640625
8935		-58.593750
8936		-50.781250
8937		-52.734375
8938		-44.921875
8939		-46.875000
8940		-39.062500
8941		-41.015625
8942		-33.203125
8943		-35.156250
8944		-27.343750
8945		-27.343750
8946		-21.484375
8947		-21.484375
8948		-13.671875
8949		-17.578125
8950		-7.812500
8951		-9.765625
8952		-1.953125
8953		-3.906250
8954		3.906250
8955		1.953125
8956		9.765625
8957		9.765625
8958		15.625000
8959		13.671875
8960		21.484375
8961		19.531250
8962		27.343750
8963		27.343750
8964		33.203125
8965		33.203125
8966		39.062500
8967		39.062500
8968		46.875000
8969		44.921875
8970		50.781250
8971		48.828125
8972		56.640625
8973		54.687500
8974		62.500000
8975		60.546875
8976		66.406250
8977		64.453125
8978		72.265625
8979		70.312500
8980		76.171875
8981		76.171875
8982		80.078125
8983		80.078125
8984		85.937500
8985		83.984375
8986		89.843750
8987		87.890625
8988		93.750000
8989		91.796875
8990		97.656250
8991		95.703125
8992		101.562500
8993		99.609375
8994		105.468750
8995		103.515625
8996		109.375000
8997		107.421875
8998		113.281250
8999		109.375000
9000		115.234375
9001		113.281250
9002		117.187500
9003		115.234375
9004		121.093750
9005		119.140625
9006		123.046875
9007		119.140625
9008		125.000000
9009		123.046875
9010		126.953125
9011		125.000000
9012		128.906250
9013		126.953125
9014		130.859375
9015		126.953125
9016		130.859375
9017		128.906250
9018		132.812500
9019		130.859375
9020		134.765625
9021		130.859375
9022		134.765625
9023		130.859375
9024		134.765625
9025		130.859375
9026		136.718750
9027		132.812500
9028		136.718750
9029		132.812500
9030		134.765625
9031		132.812500
9032		134.765625
9033		130.859375
9034		134.765625
9035		130.859375
9036		134.765625
9037		130.859375
9038		132.812500
9039		128.906250
9040		132.812500
9041		126.953125
9042		130.859375
9043		125.000000
9044		130.859375
9045		123.046875
9046		126.953125
9047		121.093750
9048		125.000000
9049		117.187500
9050		125.000000
9051		115.234375
9052		123.046875
9053		113.281250
9054		121.093750
9055		111.328125
9056		117.187500
9057		107.421875
9058		115.234375
9059		103.515625
9060		111.328125
9061		101.562500
9062		107.421875
9063		97.656250
9064		103.515625
9065		91.796875
9066		99.609375
9067		87.890625
9068		95.703125
9069		83.984375
9070		91.796875
9071		80.078125
9072		87.890625
9073		74.218750
9074		82.031250
9075		70.312500
9076		78.125000
9077		66.406250
9078		74.218750
9079		60.546875
9080		68.359375
9081		52.734375
9082		62.500000
9083		48.828125
9084		56.640625
9085		41.015625
9086		52.734375
9087		37.109375
9088		46.875000
9089		31.250000
9090		41.015625
9091		25.390625
9092		35.156250
9093		19.531250
9094		29.296875
9095		13.671875
9096		21.484375
9097		7.812500
9098		15.625000
9099		0.000000
9100		9.765625
9101		-5.859375
9102		5.859375
9103		-11.718750
9104		-1.953125
9105		-19.531250
9106		-7.812500
9107		-25.390625
9108		-13.671875
9109		-29.296875
9110		-21.484375
9111		-35.156250
9112		-25.390625
9113		-41.015625
9114		-33.203125
9115		-48.828125
9116		-41.015625
9117		-54.687500
9118		-44.921875
9119		-60.546875
9120		-50.781250
9121		-66.406250
9122		-56.640625
9123		-72.265625
9124		-62.500000
9125		-78.125000
9126		-68.359375
9127		-82.031250
9128		-72.265625
9129		-85.937500
9130		-80.078125
9131		-91.796875
9132		-83.984375
9133		-97.656250
9134		-89.843750
9135		-103.515625
9136		-91.796875
9137		-107.421875
9138		-97.656250
9139		-111.328125
9140		-101.562500
9141		-113.281250
9142		-105.468750
9143		-119.140625
9144		-109.375000
9145		-121.093750
9146		-113.281250
9147		-123.046875
9148		-119.140625
9149		-128.906250
9150		-121.093750
9151		-130.859375
9152		-123.046875
9153		-132.812500
9154		-125.000000
9155		-134.765625
9156		-126.953125
9157		-136.718750
9158		-128.906250
9159		-138.671875
9160		-130.859375
9161		-138.671875
9162		-132.812500
9163		-138.671875
9164		-134.765625
9165		-138.671875
9166		-136.718750
9167		-140.625000
9168		-134.765625
9169		-140.625000
9170		-134.765625
9171		-140.625000
9172		-134.765625
9173		-140.625000
9174		-132.812500
9175		-140.625000
9176		-132.812500
9177		-138.671875
9178		-130.859375
9179		-134.765625
9180		-132.812500
9181		-132.812500
9182		-130.859375
9183		-132.812500
9184		-126.953125
9185		-130.859375
9186		-123.046875
9187		-128.906250
9188		-121.093750
9189		-125.000000
9190		-117.187500
9191		-123.046875
9192		-113.281250
9193		-119.140625
9194		-111.328125
9195		-115.234375
9196		-107.421875
9197		-109.375000
9198		-105.468750
9199		-105.468750
9200		-97.656250
9201		-103.515625
9202		-95.703125
9203		-99.609375
9204		-89.843750
9205		-93.750000
9206		-83.984375
9207		-89.843750
9208		-78.125000
9209		-83.984375
9210		-74.218750
9211		-78.125000
9212		-68.359375
9213		-72.265625
9214		-64.453125
9215		-66.406250
9216		-58.593750
9217		-60.546875
9218		-50.781250
9219		-56.640625
9220		-44.921875
9221		-50.781250
9222		-41.015625
9223		-44.921875
9224		-33.203125
9225		-37.109375
9226		-27.343750
9227		-31.250000
9228		-19.531250
9229		-25.390625
9230		-15.625000
9231		-17.578125
9232		-9.765625
9233		-11.718750
9234		-1.953125
9235		-7.812500
9236		3.906250
9237		0.000000
9238		9.765625
9239		5.859375
9240		17.578125
9241		11.718750
9242		23.437500
9243		17.578125
9244		27.343750
9245		23.437500
9246		33.203125
9247		31.250000
9248		39.062500
9249		37.109375
9250		44.921875
9251		41.015625
9252		50.781250
9253		46.875000
9254		58.593750
9255		50.781250
9256		62.500000
9257		56.640625
9258		68.359375
9259		62.500000
9260		72.265625
9261		68.359375
9262		78.125000
9263		72.265625
9264		80.078125
9265		78.125000
9266		83.984375
9267		83.984375
9268		91.796875
9269		85.937500
9270		95.703125
9271		89.843750
9272		99.609375
9273		93.750000
9274		103.515625
9275		97.656250
9276		105.468750
9277		101.562500
9278		109.375000
9279		105.468750
9280		111.328125
9281		109.375000
9282		113.281250
9283		113.281250
9284		117.187500
9285		113.281250
9286		121.093750
9287		115.234375
9288		123.046875
9289		117.187500
9290		126.953125
9291		121.093750
9292		128.906250
9293		123.046875
9294		128.906250
9295		123.046875
9296		130.859375
9297		126.953125
9298		130.859375
9299		128.906250
9300		132.812500
9301		128.906250
9302		134.765625
9303		128.906250
9304		136.718750
9305		128.906250
9306		136.718750
9307		128.906250
9308		136.718750
9309		128.906250
9310		136.718750
9311		130.859375
9312		136.718750
9313		130.859375
9314		136.718750
9315		130.859375
9316		134.765625
9317		128.906250
9318		134.765625
9319		126.953125
9320		134.765625
9321		126.953125
9322		132.812500
9323		125.000000
9324		132.812500
9325		123.046875
9326		130.859375
9327		123.046875
9328		128.906250
9329		121.093750
9330		126.953125
9331		119.140625
9332		123.046875
9333		117.187500
9334		121.093750
9335		113.281250
9336		121.093750
9337		109.375000
9338		117.187500
9339		107.421875
9340		115.234375
9341		103.515625
9342		111.328125
9343		99.609375
9344		109.375000
9345		95.703125
9346		105.468750
9347		93.750000
9348		99.609375
9349		89.843750
9350		95.703125
9351		83.984375
9352		91.796875
9353		78.125000
9354		89.843750
9355		74.218750
9356		83.984375
9357		70.312500
9358		80.078125
9359		64.453125
9360		74.218750
9361		58.593750
9362		70.312500
9363		56.640625
9364		64.453125
9365		50.781250
9366		56.640625
9367		44.921875
9368		50.781250
9369		37.109375
9370		48.828125
9371		31.250000
9372		41.015625
9373		25.390625
9374		35.156250
9375		19.531250
9376		31.250000
9377		13.671875
9378		25.390625
9379		7.812500
9380		17.578125
9381		1.953125
9382		9.765625
9383		-3.906250
9384		3.906250
9385		-11.718750
9386		-1.953125
9387		-17.578125
9388		-7.812500
9389		-23.437500
9390		-11.718750
9391		-31.250000
9392		-19.531250
9393		-37.109375
9394		-25.390625
9395		-42.968750
9396		-31.250000
9397		-46.875000
9398		-37.109375
9399		-52.734375
9400		-44.921875
9401		-60.546875
9402		-50.781250
9403		-66.406250
9404		-54.687500
9405		-70.312500
9406		-60.546875
9407		-78.125000
9408		-66.406250
9409		-82.031250
9410		-72.265625
9411		-87.890625
9412		-78.125000
9413		-91.796875
9414		-83.984375
9415		-95.703125
9416		-89.843750
9417		-99.609375
9418		-93.750000
9419		-107.421875
9420		-97.656250
9421		-109.375000
9422		-101.562500
9423		-115.234375
9424		-105.468750
9425		-117.187500
9426		-109.375000
9427		-121.093750
9428		-113.281250
9429		-125.000000
9430		-115.234375
9431		-125.000000
9432		-119.140625
9433		-128.906250
9434		-125.000000
9435		-132.812500
9436		-126.953125
9437		-134.765625
9438		-126.953125
9439		-136.718750
9440		-128.906250
9441		-138.671875
9442		-130.859375
9443		-140.625000
9444		-132.812500
9445		-140.625000
9446		-132.812500
9447		-140.625000
9448		-134.765625
9449		-138.671875
9450		-136.718750
9451		-140.625000
9452		-136.718750
9453		-140.625000
9454		-134.765625
9455		-140.625000
9456		-132.812500
9457		-140.625000
9458		-132.812500
9459		-138.671875
9460		-130.859375
9461		-136.718750
9462		-128.906250
9463		-136.718750
9464		-128.906250
9465		-130.859375
9466		-126.953125
9467		-128.906250
9468		-125.000000
9469		-126.953125
9470		-119.140625
9471		-126.953125
9472		-117.187500
9473		-123.046875
9474		-113.281250
9475		-119.140625
9476		-111.328125
9477		-115.234375
9478		-107.421875
9479		-113.281250
9480		-103.515625
9481		-109.375000
9482		-99.609375
9483		-101.562500
9484		-95.703125
9485		-97.656250
9486		-87.890625
9487		-95.703125
9488		-83.984375
9489		-89.843750
9490		-78.125000
9491		-83.984375
9492		-74.218750
9493		-80.078125
9494		-68.359375
9495		-74.218750
9496		-62.500000
9497		-68.359375
9498		-58.593750
9499		-60.546875
9500		-52.734375
9501		-54.687500
9502		-46.875000
9503		-48.828125
9504		-39.062500
9505		-42.968750
9506		-33.203125
9507		-39.062500
9508		-27.343750
9509		-31.250000
9510		-21.484375
9511		-25.390625
9512		-13.671875
9513		-19.531250
9514		-9.765625
9515		-13.671875
9516		-3.906250
9517		-5.859375
9518		1.953125
9519		1.953125
9520		11.718750
9521		5.859375
9522		15.625000
9523		9.765625
9524		23.437500
9525		17.578125
9526		29.296875
9527		23.437500
9528		35.156250
9529		29.296875
9530		41.015625
9531		35.156250
9532		44.921875
9533		42.968750
9534		48.828125
9535		48.828125
9536		54.687500
9537		52.734375
9538		62.500000
9539		58.593750
9540		66.406250
9541		62.500000
9542		72.265625
9543		68.359375
9544		78.125000
9545		72.265625
9546		82.031250
9547		78.125000
9548		85.937500
9549		83.984375
9550		89.843750
9551		87.890625
9552		93.750000
9553		91.796875
9554		99.609375
9555		93.750000
9556		103.515625
9557		97.656250
9558		107.421875
9559		101.562500
9560		109.375000
9561		103.515625
9562		113.281250
9563		107.421875
9564		115.234375
9565		109.375000
9566		117.187500
9567		115.234375
9568		119.140625
9569		117.187500
9570		125.000000
9571		119.140625
9572		126.953125
9573		121.093750
9574		128.906250
9575		123.046875
9576		130.859375
9577		123.046875
9578		130.859375
9579		125.000000
9580		132.812500
9581		126.953125
9582		132.812500
9583		130.859375
9584		132.812500
9585		130.859375
9586		134.765625
9587		128.906250
9588		136.718750
9589		130.859375
9590		136.718750
9591		130.859375
9592		138.671875
9593		130.859375
9594		136.718750
9595		130.859375
9596		136.718750
9597		130.859375
9598		136.718750
9599		130.859375
9600		136.718750
9601		130.859375
9602		132.812500
9603		126.953125
9604		132.812500
9605		125.000000
9606		132.812500
9607		123.046875
9608		130.859375
9609		123.046875
9610		130.859375
9611		121.093750
9612		128.906250
9613		117.187500
9614		126.953125
9615		117.187500
9616		123.046875
9617		115.234375
9618		119.140625
9619		111.328125
9620		117.187500
9621		107.421875
9622		115.234375
9623		103.515625
9624		113.281250
9625		99.609375
9626		109.375000
9627		97.656250
9628		105.468750
9629		91.796875
9630		101.562500
9631		89.843750
9632		97.656250
9633		85.937500
9634		91.796875
9635		82.031250
9636		87.890625
9637		74.218750
9638		83.984375
9639		70.312500
9640		80.078125
9641		64.453125
9642		76.171875
9643		60.546875
9644		70.312500
9645		54.687500
9646		66.406250
9647		50.781250
9648		60.546875
9649		46.875000
9650		54.687500
9651		41.015625
9652		46.875000
9653		33.203125
9654		41.015625
9655		27.343750
9656		37.109375
9657		21.484375
9658		31.250000
9659		15.625000
9660		25.390625
9661		7.812500
9662		19.531250
9663		1.953125
9664		13.671875
9665		-1.953125
9666		7.812500
9667		-7.812500
9668		0.000000
9669		-13.671875
9670		-7.812500
9671		-21.484375
9672		-13.671875
9673		-27.343750
9674		-17.578125
9675		-35.156250
9676		-25.390625
9677		-39.062500
9678		-31.250000
9679		-46.875000
9680		-37.109375
9681		-52.734375
9682		-42.968750
9683		-58.593750
9684		-48.828125
9685		-62.500000
9686		-56.640625
9687		-70.312500
9688		-62.500000
9689		-76.171875
9690		-64.453125
9691		-82.031250
9692		-70.312500
9693		-85.937500
9694		-76.171875
9695		-91.796875
9696		-82.031250
9697		-95.703125
9698		-87.890625
9699		-99.609375
9700		-89.843750
9701		-103.515625
9702		-97.656250
9703		-107.421875
9704		-101.562500
9705		-113.281250
9706		-103.515625
9707		-117.187500
9708		-107.421875
9709		-121.093750
9710		-111.328125
9711		-123.046875
9712		-115.234375
9713		-126.953125
9714		-119.140625
9715		-128.906250
9716		-121.093750
9717		-128.906250
9718		-126.953125
9719		-132.812500
9720		-128.906250
9721		-136.718750
9722		-128.906250
9723		-136.718750
9724		-130.859375
9725		-138.671875
9726		-130.859375
9727		-140.625000
9728		-132.812500
9729		-140.625000
9730		-132.812500
9731		-140.625000
9732		-134.765625
9733		-140.625000
9734		-134.765625
9735		-138.671875
9736		-136.718750
9737		-140.625000
9738		-132.812500
9739		-140.625000
9740		-132.812500
9741		-138.671875
9742		-130.859375
9743		-136.718750
9744		-130.859375
9745		-134.765625
9746		-126.953125
9747		-132.812500
9748		-125.000000
9749		-130.859375
9750		-125.000000
9751		-126.953125
9752		-123.046875
9753		-125.000000
9754		-119.140625
9755		-123.046875
9756		-115.234375
9757		-119.140625
9758		-111.328125
9759		-115.234375
9760		-107.421875
9761		-111.328125
9762		-103.515625
9763		-107.421875
9764		-99.609375
9765		-105.468750
9766		-93.750000
9767		-99.609375
9768		-91.796875
9769		-91.796875
9770		-85.937500
9771		-87.890625
9772		-80.078125
9773		-85.937500
9774		-74.218750
9775		-80.078125
9776		-68.359375
9777		-74.218750
9778		-62.500000
9779		-68.359375
9780		-56.640625
9781		-62.500000
9782		-52.734375
9783		-56.640625
9784		-46.875000
9785		-48.828125
9786		-41.015625
9787		-42.968750
9788		-35.156250
9789		-39.062500
9790		-27.343750
9791		-33.203125
9792		-21.484375
9793		-25.390625
9794		-15.625000
9795		-19.531250
9796		-7.812500
9797		-13.671875
9798		-3.906250
9799		-7.812500
9800		3.906250
9801		0.000000
9802		7.812500
9803		5.859375
9804		13.671875
9805		11.718750
9806		21.484375
9807		17.578125
9808		27.343750
9809		23.437500
9810		35.156250
9811		29.296875
9812		39.062500
9813		35.156250
9814		44.921875
9815		39.062500
9816		50.781250
9817		46.875000
9818		54.687500
9819		52.734375
9820		60.546875
9821		58.593750
9822		66.406250
9823		60.546875
9824		72.265625
9825		66.406250
9826		76.171875
9827		70.312500
9828		82.031250
9829		76.171875
9830		85.937500
9831		80.078125
9832		89.843750
9833		85.937500
9834		93.750000
9835		91.796875
9836		95.703125
9837		95.703125
9838		99.609375
9839		99.609375
9840		105.468750
9841		101.562500
9842		109.375000
9843		103.515625
9844		113.281250
9845		107.421875
9846		117.187500
9847		111.328125
9848		119.140625
9849		113.281250
9850		121.093750
9851		117.187500
9852		123.046875
9853		121.093750
9854		125.000000
9855		121.093750
9856		128.906250
9857		123.046875
9858		130.859375
9859		125.000000
9860		132.812500
9861		125.000000
9862		132.812500
9863		126.953125
9864		134.765625
9865		128.906250
9866		134.765625
9867		128.906250
9868		136.718750
9869		132.812500
9870		134.765625
9871		132.812500
9872		134.765625
9873		130.859375
9874		138.671875
9875		130.859375
9876		138.671875
9877		130.859375
9878		136.718750
9879		130.859375
9880		136.718750
9881		128.906250
9882		136.718750
9883		128.906250
9884		136.718750
9885		128.906250
9886		134.765625
9887		128.906250
9888		130.859375
9889		125.000000
9890		130.859375
9891		123.046875
9892		130.859375
9893		121.093750
9894		128.906250
9895		117.187500
9896		126.953125
9897		117.187500
9898		125.000000
9899		113.281250
9900		123.046875
9901		113.281250
9902		119.140625
9903		109.375000
9904		115.234375
9905		105.468750
9906		111.328125
9907		101.562500
9908		111.328125
9909		97.656250
9910		107.421875
9911		93.750000
9912		103.515625
9913		89.843750
9914		99.609375
9915		83.984375
9916		95.703125
9917		82.031250
9918		91.796875
9919		78.125000
9920		83.984375
9921		74.218750
9922		80.078125
9923		66.406250
9924		74.218750
9925		60.546875
9926		72.265625
9927		56.640625
9928		66.406250
9929		50.781250
9930		60.546875
9931		44.921875
9932		56.640625
9933		39.062500
9934		50.781250
9935		35.156250
9936		44.921875
9937		29.296875
9938		37.109375
9939		21.484375
9940		31.250000
9941		15.625000
9942		27.343750
9943		9.765625
9944		19.531250
9945		3.906250
9946		15.625000
9947		-1.953125
9948		7.812500
9949		-9.765625
9950		1.953125
9951		-13.671875
9952		-3.906250
9953		-19.531250
9954		-11.718750
9955		-25.390625
9956		-17.578125
9957		-33.203125
9958		-23.437500
9959		-39.062500
9960		-29.296875
9961		-46.875000
9962		-35.156250
9963		-52.734375
9964		-41.015625
9965		-58.593750
9966		-46.875000
9967		-64.453125
9968		-52.734375
9969		-66.406250
9970		-58.593750
9971		-72.265625
9972		-66.406250
9973		-80.078125
9974		-72.265625
9975		-83.984375
9976		-76.171875
9977		-89.843750
9978		-80.078125
9979		-95.703125
9980		-85.937500
9981		-99.609375
9982		-89.843750
9983		-105.468750
9984		-95.703125
9985		-105.468750
9986		-99.609375
9987		-111.328125
9988		-105.468750
9989		-115.234375
9990		-109.375000
9991		-121.093750
9992		-111.328125
9993		-123.046875
9994		-115.234375
9995		-126.953125
9996		-117.187500
9997		-128.906250
9998		-121.093750
9999		-130.859375
10000		-123.046875
