Channel              :		CH1
Frequency            :		1.975kHz
Period               :		0.506ms
PK-PK                :		193.4mV
Probe attenuation    :		1X
Voltage per ADC value:		0.122070mV
Time interval        :		2.00000us

index		CH1_Voltage(mV)
1		89.843750
2		89.843750
3		91.796875
4		87.890625
5		95.703125
6		87.890625
7		95.703125
8		87.890625
9		93.750000
10		87.890625
11		95.703125
12		85.937500
13		93.750000
14		85.937500
15		93.750000
16		85.937500
17		93.750000
18		85.937500
19		89.843750
20		85.937500
21		87.890625
22		82.031250
23		87.890625
24		80.078125
25		87.890625
26		78.125000
27		85.937500
28		76.171875
29		83.984375
30		72.265625
31		82.031250
32		70.312500
33		78.125000
34		70.312500
35		76.171875
36		68.359375
37		72.265625
38		62.500000
39		70.312500
40		58.593750
41		68.359375
42		54.687500
43		64.453125
44		52.734375
45		60.546875
46		48.828125
47		58.593750
48		44.921875
49		54.687500
50		42.968750
51		50.781250
52		39.062500
53		44.921875
54		33.203125
55		41.015625
56		29.296875
57		37.109375
58		25.390625
59		33.203125
60		21.484375
61		29.296875
62		15.625000
63		25.390625
64		11.718750
65		21.484375
66		7.812500
67		15.625000
68		3.906250
69		9.765625
70		0.000000
71		5.859375
72		-5.859375
73		1.953125
74		-11.718750
75		-1.953125
76		-15.625000
77		-5.859375
78		-21.484375
79		-9.765625
80		-25.390625
81		-15.625000
82		-29.296875
83		-19.531250
84		-31.250000
85		-23.437500
86		-37.109375
87		-31.250000
88		-42.968750
89		-33.203125
90		-46.875000
91		-37.109375
92		-50.781250
93		-41.015625
94		-54.687500
95		-44.921875
96		-58.593750
97		-48.828125
98		-62.500000
99		-52.734375
100		-66.406250
101		-56.640625
102		-66.406250
103		-62.500000
104		-70.312500
105		-66.406250
106		-76.171875
107		-68.359375
108		-78.125000
109		-70.312500
110		-82.031250
111		-72.265625
112		-83.984375
113		-74.218750
114		-85.937500
115		-78.125000
116		-87.890625
117		-80.078125
118		-87.890625
119		-82.031250
120		-87.890625
121		-83.984375
122		-91.796875
123		-85.937500
124		-93.750000
125		-85.937500
126		-93.750000
127		-85.937500
128		-93.750000
129		-87.890625
130		-95.703125
131		-87.890625
132		-95.703125
133		-87.890625
134		-95.703125
135		-87.890625
136		-91.796875
137		-89.843750
138		-91.796875
139		-89.843750
140		-93.750000
141		-85.937500
142		-91.796875
143		-83.984375
144		-91.796875
145		-82.031250
146		-89.843750
147		-82.031250
148		-87.890625
149		-80.078125
150		-85.937500
151		-76.171875
152		-82.031250
153		-78.125000
154		-78.125000
155		-74.218750
156		-78.125000
157		-70.312500
158		-76.171875
159		-66.406250
160		-72.265625
161		-64.453125
162		-70.312500
163		-60.546875
164		-66.406250
165		-56.640625
166		-62.500000
167		-52.734375
168		-58.593750
169		-50.781250
170		-52.734375
171		-46.875000
172		-48.828125
173		-41.015625
174		-46.875000
175		-37.109375
176		-42.968750
177		-33.203125
178		-39.062500
179		-29.296875
180		-35.156250
181		-25.390625
182		-31.250000
183		-19.531250
184		-25.390625
185		-17.578125
186		-19.531250
187		-13.671875
188		-13.671875
189		-7.812500
190		-11.718750
191		-1.953125
192		-7.812500
193		1.953125
194		-3.906250
195		7.812500
196		1.953125
197		11.718750
198		7.812500
199		15.625000
200		11.718750
201		21.484375
202		15.625000
203		23.437500
204		21.484375
205		27.343750
206		27.343750
207		33.203125
208		29.296875
209		37.109375
210		33.203125
211		42.968750
212		37.109375
213		46.875000
214		41.015625
215		48.828125
216		42.968750
217		52.734375
218		46.875000
219		56.640625
220		54.687500
221		58.593750
222		56.640625
223		62.500000
224		58.593750
225		66.406250
226		62.500000
227		70.312500
228		64.453125
229		72.265625
230		66.406250
231		76.171875
232		70.312500
233		78.125000
234		72.265625
235		80.078125
236		76.171875
237		82.031250
238		80.078125
239		82.031250
240		80.078125
241		85.937500
242		80.078125
243		87.890625
244		82.031250
245		89.843750
246		83.984375
247		91.796875
248		83.984375
249		91.796875
250		85.937500
251		93.750000
252		85.937500
253		93.750000
254		89.843750
255		91.796875
256		87.890625
257		93.750000
258		87.890625
259		95.703125
260		87.890625
261		95.703125
262		87.890625
263		93.750000
264		87.890625
265		93.750000
266		85.937500
267		93.750000
268		85.937500
269		93.750000
270		85.937500
271		89.843750
272		85.937500
273		87.890625
274		82.031250
275		89.843750
276		80.078125
277		87.890625
278		78.125000
279		85.937500
280		76.171875
281		83.984375
282		74.218750
283		82.031250
284		72.265625
285		80.078125
286		72.265625
287		78.125000
288		68.359375
289		72.265625
290		62.500000
291		70.312500
292		60.546875
293		70.312500
294		56.640625
295		66.406250
296		54.687500
297		62.500000
298		50.781250
299		60.546875
300		46.875000
301		56.640625
302		44.921875
303		52.734375
304		41.015625
305		46.875000
306		37.109375
307		42.968750
308		31.250000
309		41.015625
310		27.343750
311		37.109375
312		21.484375
313		31.250000
314		17.578125
315		27.343750
316		13.671875
317		23.437500
318		7.812500
319		19.531250
320		5.859375
321		13.671875
322		1.953125
323		7.812500
324		-5.859375
325		3.906250
326		-9.765625
327		0.000000
328		-13.671875
329		-3.906250
330		-19.531250
331		-7.812500
332		-23.437500
333		-13.671875
334		-27.343750
335		-17.578125
336		-29.296875
337		-21.484375
338		-35.156250
339		-29.296875
340		-39.062500
341		-33.203125
342		-44.921875
343		-35.156250
344		-48.828125
345		-39.062500
346		-52.734375
347		-42.968750
348		-56.640625
349		-46.875000
350		-60.546875
351		-50.781250
352		-62.500000
353		-54.687500
354		-66.406250
355		-60.546875
356		-68.359375
357		-64.453125
358		-74.218750
359		-66.406250
360		-78.125000
361		-68.359375
362		-80.078125
363		-70.312500
364		-82.031250
365		-74.218750
366		-83.984375
367		-76.171875
368		-85.937500
369		-78.125000
370		-87.890625
371		-80.078125
372		-87.890625
373		-83.984375
374		-91.796875
375		-83.984375
376		-91.796875
377		-85.937500
378		-93.750000
379		-85.937500
380		-93.750000
381		-85.937500
382		-95.703125
383		-87.890625
384		-95.703125
385		-87.890625
386		-95.703125
387		-87.890625
388		-91.796875
389		-89.843750
390		-91.796875
391		-87.890625
392		-93.750000
393		-85.937500
394		-93.750000
395		-85.937500
396		-91.796875
397		-83.984375
398		-89.843750
399		-82.031250
400		-87.890625
401		-80.078125
402		-85.937500
403		-78.125000
404		-82.031250
405		-78.125000
406		-80.078125
407		-76.171875
408		-78.125000
409		-72.265625
410		-78.125000
411		-68.359375
412		-74.218750
413		-66.406250
414		-70.312500
415		-62.500000
416		-68.359375
417		-58.593750
418		-64.453125
419		-54.687500
420		-62.500000
421		-54.687500
422		-54.687500
423		-50.781250
424		-50.781250
425		-42.968750
426		-48.828125
427		-41.015625
428		-44.921875
429		-35.156250
430		-41.015625
431		-31.250000
432		-35.156250
433		-27.343750
434		-31.250000
435		-21.484375
436		-27.343750
437		-17.578125
438		-21.484375
439		-15.625000
440		-15.625000
441		-9.765625
442		-13.671875
443		-3.906250
444		-9.765625
445		0.000000
446		-5.859375
447		5.859375
448		0.000000
449		9.765625
450		3.906250
451		13.671875
452		7.812500
453		17.578125
454		13.671875
455		21.484375
456		19.531250
457		25.390625
458		23.437500
459		31.250000
460		27.343750
461		35.156250
462		31.250000
463		41.015625
464		35.156250
465		44.921875
466		39.062500
467		48.828125
468		42.968750
469		52.734375
470		46.875000
471		54.687500
472		52.734375
473		56.640625
474		56.640625
475		60.546875
476		56.640625
477		66.406250
478		60.546875
479		68.359375
480		62.500000
481		72.265625
482		66.406250
483		74.218750
484		68.359375
485		76.171875
486		72.265625
487		80.078125
488		74.218750
489		80.078125
490		78.125000
491		82.031250
492		80.078125
493		85.937500
494		80.078125
495		87.890625
496		82.031250
497		89.843750
498		83.984375
499		89.843750
500		83.984375
501		91.796875
502		85.937500
503		93.750000
504		85.937500
505		93.750000
506		89.843750
507		91.796875
508		87.890625
509		93.750000
510		87.890625
511		95.703125
512		87.890625
513		95.703125
514		87.890625
515		93.750000
516		87.890625
517		93.750000
518		87.890625
519		93.750000
520		85.937500
521		93.750000
522		87.890625
523		91.796875
524		85.937500
525		89.843750
526		82.031250
527		89.843750
528		80.078125
529		89.843750
530		80.078125
531		87.890625
532		78.125000
533		85.937500
534		74.218750
535		83.984375
536		72.265625
537		82.031250
538		72.265625
539		78.125000
540		70.312500
541		74.218750
542		64.453125
543		72.265625
544		62.500000
545		70.312500
546		58.593750
547		68.359375
548		56.640625
549		64.453125
550		52.734375
551		62.500000
552		48.828125
553		58.593750
554		46.875000
555		54.687500
556		42.968750
557		48.828125
558		39.062500
559		44.921875
560		33.203125
561		41.015625
562		29.296875
563		39.062500
564		25.390625
565		35.156250
566		21.484375
567		31.250000
568		17.578125
569		25.390625
570		11.718750
571		21.484375
572		9.765625
573		17.578125
574		3.906250
575		9.765625
576		-1.953125
577		5.859375
578		-5.859375
579		3.906250
580		-11.718750
581		-1.953125
582		-15.625000
583		-5.859375
584		-21.484375
585		-9.765625
586		-25.390625
587		-13.671875
588		-27.343750
589		-19.531250
590		-31.250000
591		-25.390625
592		-39.062500
593		-31.250000
594		-42.968750
595		-33.203125
596		-46.875000
597		-37.109375
598		-50.781250
599		-41.015625
600		-54.687500
601		-44.921875
602		-58.593750
603		-48.828125
604		-62.500000
605		-52.734375
606		-64.453125
607		-58.593750
608		-66.406250
609		-62.500000
610		-72.265625
611		-64.453125
612		-74.218750
613		-66.406250
614		-78.125000
615		-68.359375
616		-80.078125
617		-72.265625
618		-83.984375
619		-74.218750
620		-85.937500
621		-76.171875
622		-85.937500
623		-78.125000
624		-85.937500
625		-83.984375
626		-91.796875
627		-83.984375
628		-91.796875
629		-83.984375
630		-91.796875
631		-85.937500
632		-93.750000
633		-85.937500
634		-93.750000
635		-87.890625
636		-93.750000
637		-87.890625
638		-93.750000
639		-87.890625
640		-91.796875
641		-89.843750
642		-91.796875
643		-89.843750
644		-93.750000
645		-85.937500
646		-91.796875
647		-85.937500
648		-91.796875
649		-83.984375
650		-89.843750
651		-83.984375
652		-87.890625
653		-82.031250
654		-87.890625
655		-80.078125
656		-85.937500
657		-78.125000
658		-80.078125
659		-76.171875
660		-80.078125
661		-72.265625
662		-78.125000
663		-70.312500
664		-74.218750
665		-66.406250
666		-72.265625
667		-64.453125
668		-68.359375
669		-60.546875
670		-66.406250
671		-56.640625
672		-60.546875
673		-54.687500
674		-56.640625
675		-50.781250
676		-52.734375
677		-46.875000
678		-50.781250
679		-41.015625
680		-46.875000
681		-37.109375
682		-42.968750
683		-33.203125
684		-37.109375
685		-29.296875
686		-33.203125
687		-23.437500
688		-29.296875
689		-19.531250
690		-23.437500
691		-17.578125
692		-17.578125
693		-11.718750
694		-13.671875
695		-5.859375
696		-11.718750
697		-1.953125
698		-5.859375
699		3.906250
700		-1.953125
701		7.812500
702		3.906250
703		11.718750
704		7.812500
705		17.578125
706		11.718750
707		19.531250
708		17.578125
709		23.437500
710		21.484375
711		31.250000
712		23.437500
713		35.156250
714		29.296875
715		39.062500
716		33.203125
717		42.968750
718		37.109375
719		46.875000
720		41.015625
721		50.781250
722		44.921875
723		54.687500
724		50.781250
725		56.640625
726		54.687500
727		58.593750
728		56.640625
729		64.453125
730		58.593750
731		68.359375
732		62.500000
733		70.312500
734		64.453125
735		74.218750
736		68.359375
737		76.171875
738		70.312500
739		78.125000
740		72.265625
741		80.078125
742		78.125000
743		82.031250
744		78.125000
745		85.937500
746		78.125000
747		87.890625
748		82.031250
749		89.843750
750		82.031250
751		89.843750
752		83.984375
753		91.796875
754		83.984375
755		91.796875
756		85.937500
757		93.750000
758		89.843750
759		91.796875
760		89.843750
761		91.796875
762		87.890625
763		95.703125
764		87.890625
765		95.703125
766		87.890625
767		95.703125
768		87.890625
769		95.703125
770		85.937500
771		93.750000
772		85.937500
773		93.750000
774		87.890625
775		91.796875
776		87.890625
777		89.843750
778		83.984375
779		89.843750
780		82.031250
781		89.843750
782		82.031250
783		87.890625
784		80.078125
785		85.937500
786		76.171875
787		83.984375
788		74.218750
789		82.031250
790		74.218750
791		80.078125
792		72.265625
793		76.171875
794		66.406250
795		74.218750
796		64.453125
797		72.265625
798		60.546875
799		70.312500
800		58.593750
801		66.406250
802		54.687500
803		62.500000
804		50.781250
805		60.546875
806		46.875000
807		56.640625
808		44.921875
809		50.781250
810		41.015625
811		46.875000
812		35.156250
813		42.968750
814		31.250000
815		41.015625
816		25.390625
817		37.109375
818		21.484375
819		31.250000
820		17.578125
821		27.343750
822		13.671875
823		23.437500
824		11.718750
825		19.531250
826		5.859375
827		11.718750
828		0.000000
829		7.812500
830		-3.906250
831		5.859375
832		-9.765625
833		1.953125
834		-13.671875
835		-3.906250
836		-17.578125
837		-7.812500
838		-23.437500
839		-13.671875
840		-25.390625
841		-17.578125
842		-29.296875
843		-23.437500
844		-33.203125
845		-29.296875
846		-41.015625
847		-31.250000
848		-44.921875
849		-35.156250
850		-48.828125
851		-39.062500
852		-52.734375
853		-42.968750
854		-58.593750
855		-46.875000
856		-60.546875
857		-50.781250
858		-62.500000
859		-56.640625
860		-64.453125
861		-60.546875
862		-70.312500
863		-62.500000
864		-74.218750
865		-64.453125
866		-76.171875
867		-68.359375
868		-80.078125
869		-70.312500
870		-82.031250
871		-74.218750
872		-83.984375
873		-76.171875
874		-85.937500
875		-78.125000
876		-85.937500
877		-82.031250
878		-89.843750
879		-82.031250
880		-91.796875
881		-82.031250
882		-91.796875
883		-85.937500
884		-93.750000
885		-85.937500
886		-93.750000
887		-85.937500
888		-93.750000
889		-87.890625
890		-93.750000
891		-87.890625
892		-91.796875
893		-89.843750
894		-91.796875
895		-89.843750
896		-93.750000
897		-85.937500
898		-91.796875
899		-85.937500
900		-93.750000
901		-83.984375
902		-91.796875
903		-83.984375
904		-89.843750
905		-82.031250
906		-87.890625
907		-80.078125
908		-85.937500
909		-80.078125
910		-82.031250
911		-78.125000
912		-80.078125
913		-72.265625
914		-80.078125
915		-70.312500
916		-76.171875
917		-68.359375
918		-74.218750
919		-64.453125
920		-70.312500
921		-62.500000
922		-68.359375
923		-58.593750
924		-64.453125
925		-56.640625
926		-58.593750
927		-52.734375
928		-54.687500
929		-48.828125
930		-52.734375
931		-42.968750
932		-48.828125
933		-39.062500
934		-42.968750
935		-35.156250
936		-39.062500
937		-31.250000
938		-35.156250
939		-25.390625
940		-31.250000
941		-21.484375
942		-27.343750
943		-19.531250
944		-19.531250
945		-13.671875
946		-15.625000
947		-7.812500
948		-13.671875
949		-3.906250
950		-9.765625
951		1.953125
952		-3.906250
953		5.859375
954		0.000000
955		9.765625
956		5.859375
957		15.625000
958		9.765625
959		17.578125
960		15.625000
961		21.484375
962		21.484375
963		27.343750
964		23.437500
965		33.203125
966		27.343750
967		37.109375
968		31.250000
969		41.015625
970		35.156250
971		44.921875
972		39.062500
973		48.828125
974		42.968750
975		50.781250
976		48.828125
977		54.687500
978		52.734375
979		58.593750
980		54.687500
981		62.500000
982		56.640625
983		66.406250
984		60.546875
985		68.359375
986		62.500000
987		72.265625
988		66.406250
989		74.218750
990		68.359375
991		78.125000
992		72.265625
993		78.125000
994		76.171875
995		80.078125
996		78.125000
997		83.984375
998		78.125000
999		85.937500
1000		80.078125
1001		87.890625
1002		82.031250
1003		89.843750
1004		83.984375
1005		89.843750
1006		83.984375
1007		91.796875
1008		83.984375
1009		93.750000
1010		89.843750
1011		91.796875
1012		89.843750
1013		91.796875
1014		87.890625
1015		95.703125
1016		87.890625
1017		95.703125
1018		87.890625
1019		95.703125
1020		87.890625
1021		95.703125
1022		87.890625
1023		93.750000
1024		85.937500
1025		93.750000
1026		87.890625
1027		93.750000
1028		87.890625
1029		89.843750
1030		83.984375
1031		91.796875
1032		82.031250
1033		91.796875
1034		80.078125
1035		89.843750
1036		80.078125
1037		87.890625
1038		78.125000
1039		85.937500
1040		76.171875
1041		83.984375
1042		74.218750
1043		82.031250
1044		72.265625
1045		76.171875
1046		70.312500
1047		74.218750
1048		66.406250
1049		74.218750
1050		62.500000
1051		72.265625
1052		60.546875
1053		68.359375
1054		56.640625
1055		64.453125
1056		52.734375
1057		60.546875
1058		48.828125
1059		58.593750
1060		46.875000
1061		52.734375
1062		42.968750
1063		48.828125
1064		37.109375
1065		44.921875
1066		33.203125
1067		42.968750
1068		29.296875
1069		39.062500
1070		23.437500
1071		35.156250
1072		19.531250
1073		29.296875
1074		15.625000
1075		25.390625
1076		13.671875
1077		21.484375
1078		9.765625
1079		15.625000
1080		1.953125
1081		9.765625
1082		-1.953125
1083		7.812500
1084		-5.859375
1085		3.906250
1086		-11.718750
1087		0.000000
1088		-15.625000
1089		-5.859375
1090		-21.484375
1091		-9.765625
1092		-23.437500
1093		-15.625000
1094		-27.343750
1095		-21.484375
1096		-31.250000
1097		-25.390625
1098		-37.109375
1099		-29.296875
1100		-42.968750
1101		-33.203125
1102		-46.875000
1103		-37.109375
1104		-50.781250
1105		-41.015625
1106		-54.687500
1107		-44.921875
1108		-58.593750
1109		-48.828125
1110		-60.546875
1111		-54.687500
1112		-62.500000
1113		-58.593750
1114		-68.359375
1115		-62.500000
1116		-72.265625
1117		-64.453125
1118		-74.218750
1119		-66.406250
1120		-78.125000
1121		-68.359375
1122		-80.078125
1123		-72.265625
1124		-82.031250
1125		-74.218750
1126		-83.984375
1127		-78.125000
1128		-83.984375
1129		-80.078125
1130		-87.890625
1131		-82.031250
1132		-89.843750
1133		-82.031250
1134		-91.796875
1135		-83.984375
1136		-91.796875
1137		-85.937500
1138		-93.750000
1139		-85.937500
1140		-93.750000
1141		-87.890625
1142		-93.750000
1143		-87.890625
1144		-91.796875
1145		-89.843750
1146		-91.796875
1147		-89.843750
1148		-93.750000
1149		-87.890625
1150		-93.750000
1151		-85.937500
1152		-91.796875
1153		-85.937500
1154		-91.796875
1155		-83.984375
1156		-89.843750
1157		-82.031250
1158		-89.843750
1159		-82.031250
1160		-87.890625
1161		-80.078125
1162		-82.031250
1163		-80.078125
1164		-82.031250
1165		-74.218750
1166		-80.078125
1167		-72.265625
1168		-78.125000
1169		-68.359375
1170		-74.218750
1171		-66.406250
1172		-72.265625
1173		-64.453125
1174		-68.359375
1175		-60.546875
1176		-64.453125
1177		-58.593750
1178		-60.546875
1179		-54.687500
1180		-56.640625
1181		-50.781250
1182		-54.687500
1183		-44.921875
1184		-50.781250
1185		-41.015625
1186		-46.875000
1187		-37.109375
1188		-42.968750
1189		-33.203125
1190		-39.062500
1191		-27.343750
1192		-35.156250
1193		-23.437500
1194		-29.296875
1195		-21.484375
1196		-23.437500
1197		-17.578125
1198		-17.578125
1199		-9.765625
1200		-15.625000
1201		-5.859375
1202		-9.765625
1203		-1.953125
1204		-5.859375
1205		3.906250
1206		-1.953125
1207		7.812500
1208		1.953125
1209		11.718750
1210		5.859375
1211		15.625000
1212		13.671875
1213		19.531250
1214		17.578125
1215		25.390625
1216		21.484375
1217		31.250000
1218		25.390625
1219		35.156250
1220		27.343750
1221		39.062500
1222		33.203125
1223		42.968750
1224		37.109375
1225		46.875000
1226		41.015625
1227		50.781250
1228		46.875000
1229		52.734375
1230		50.781250
1231		56.640625
1232		54.687500
1233		60.546875
1234		56.640625
1235		64.453125
1236		58.593750
1237		68.359375
1238		62.500000
1239		70.312500
1240		64.453125
1241		74.218750
1242		66.406250
1243		76.171875
1244		70.312500
1245		76.171875
1246		76.171875
1247		80.078125
1248		78.125000
1249		83.984375
1250		78.125000
1251		85.937500
1252		80.078125
1253		87.890625
1254		82.031250
1255		89.843750
1256		82.031250
1257		89.843750
1258		83.984375
1259		91.796875
1260		85.937500
1261		91.796875
1262		87.890625
1263		91.796875
1264		89.843750
1265		91.796875
1266		87.890625
1267		95.703125
1268		87.890625
1269		95.703125
1270		87.890625
1271		95.703125
1272		87.890625
1273		95.703125
1274		87.890625
1275		95.703125
1276		87.890625
1277		93.750000
1278		87.890625
1279		93.750000
1280		87.890625
1281		91.796875
1282		85.937500
1283		91.796875
1284		83.984375
1285		91.796875
1286		82.031250
1287		89.843750
1288		80.078125
1289		87.890625
1290		78.125000
1291		85.937500
1292		76.171875
1293		83.984375
1294		74.218750
1295		83.984375
1296		74.218750
1297		78.125000
1298		70.312500
1299		76.171875
1300		66.406250
1301		74.218750
1302		62.500000
1303		72.265625
1304		60.546875
1305		70.312500
1306		58.593750
1307		66.406250
1308		54.687500
1309		62.500000
1310		50.781250
1311		60.546875
1312		48.828125
1313		54.687500
1314		44.921875
1315		50.781250
1316		39.062500
1317		46.875000
1318		35.156250
1319		44.921875
1320		31.250000
1321		41.015625
1322		27.343750
1323		35.156250
1324		21.484375
1325		33.203125
1326		17.578125
1327		27.343750
1328		15.625000
1329		23.437500
1330		11.718750
1331		17.578125
1332		3.906250
1333		11.718750
1334		0.000000
1335		9.765625
1336		-5.859375
1337		5.859375
1338		-7.812500
1339		1.953125
1340		-13.671875
1341		-3.906250
1342		-17.578125
1343		-7.812500
1344		-23.437500
1345		-13.671875
1346		-25.390625
1347		-19.531250
1348		-29.296875
1349		-23.437500
1350		-35.156250
1351		-27.343750
1352		-41.015625
1353		-31.250000
1354		-44.921875
1355		-35.156250
1356		-48.828125
1357		-39.062500
1358		-54.687500
1359		-42.968750
1360		-56.640625
1361		-46.875000
1362		-58.593750
1363		-50.781250
1364		-62.500000
1365		-56.640625
1366		-68.359375
1367		-60.546875
1368		-70.312500
1369		-62.500000
1370		-72.265625
1371		-64.453125
1372		-76.171875
1373		-68.359375
1374		-80.078125
1375		-70.312500
1376		-82.031250
1377		-74.218750
1378		-83.984375
1379		-76.171875
1380		-83.984375
1381		-80.078125
1382		-85.937500
1383		-82.031250
1384		-89.843750
1385		-82.031250
1386		-91.796875
1387		-83.984375
1388		-91.796875
1389		-83.984375
1390		-93.750000
1391		-85.937500
1392		-93.750000
1393		-85.937500
1394		-93.750000
1395		-87.890625
1396		-91.796875
1397		-89.843750
1398		-91.796875
1399		-89.843750
1400		-93.750000
1401		-87.890625
1402		-93.750000
1403		-87.890625
1404		-93.750000
1405		-85.937500
1406		-91.796875
1407		-83.984375
1408		-91.796875
1409		-83.984375
1410		-89.843750
1411		-82.031250
1412		-87.890625
1413		-82.031250
1414		-83.984375
1415		-80.078125
1416		-82.031250
1417		-76.171875
1418		-82.031250
1419		-74.218750
1420		-80.078125
1421		-70.312500
1422		-76.171875
1423		-68.359375
1424		-74.218750
1425		-64.453125
1426		-70.312500
1427		-60.546875
1428		-66.406250
1429		-58.593750
1430		-62.500000
1431		-56.640625
1432		-58.593750
1433		-52.734375
1434		-54.687500
1435		-46.875000
1436		-52.734375
1437		-42.968750
1438		-48.828125
1439		-39.062500
1440		-44.921875
1441		-35.156250
1442		-41.015625
1443		-31.250000
1444		-35.156250
1445		-25.390625
1446		-29.296875
1447		-23.437500
1448		-25.390625
1449		-19.531250
1450		-19.531250
1451		-11.718750
1452		-17.578125
1453		-7.812500
1454		-13.671875
1455		-1.953125
1456		-9.765625
1457		1.953125
1458		-3.906250
1459		5.859375
1460		0.000000
1461		9.765625
1462		3.906250
1463		13.671875
1464		11.718750
1465		17.578125
1466		15.625000
1467		23.437500
1468		17.578125
1469		29.296875
1470		23.437500
1471		33.203125
1472		27.343750
1473		37.109375
1474		31.250000
1475		41.015625
1476		35.156250
1477		44.921875
1478		39.062500
1479		48.828125
1480		42.968750
1481		50.781250
1482		48.828125
1483		54.687500
1484		52.734375
1485		58.593750
1486		54.687500
1487		64.453125
1488		58.593750
1489		66.406250
1490		60.546875
1491		70.312500
1492		64.453125
1493		72.265625
1494		66.406250
1495		74.218750
1496		68.359375
1497		76.171875
1498		74.218750
1499		78.125000
1500		76.171875
1501		82.031250
1502		76.171875
1503		83.984375
1504		78.125000
1505		85.937500
1506		80.078125
1507		87.890625
1508		82.031250
1509		89.843750
1510		83.984375
1511		91.796875
1512		85.937500
1513		91.796875
1514		87.890625
1515		91.796875
1516		89.843750
1517		91.796875
1518		87.890625
1519		93.750000
1520		87.890625
1521		95.703125
1522		87.890625
1523		95.703125
1524		87.890625
1525		95.703125
1526		87.890625
1527		95.703125
1528		87.890625
1529		95.703125
1530		87.890625
1531		93.750000
1532		89.843750
1533		91.796875
1534		85.937500
1535		91.796875
1536		83.984375
1537		91.796875
1538		82.031250
1539		89.843750
1540		82.031250
1541		89.843750
1542		80.078125
1543		87.890625
1544		78.125000
1545		85.937500
1546		76.171875
1547		83.984375
1548		76.171875
1549		80.078125
1550		72.265625
1551		78.125000
1552		68.359375
1553		76.171875
1554		66.406250
1555		74.218750
1556		62.500000
1557		70.312500
1558		60.546875
1559		68.359375
1560		54.687500
1561		64.453125
1562		52.734375
1563		62.500000
1564		50.781250
1565		58.593750
1566		46.875000
1567		52.734375
1568		42.968750
1569		48.828125
1570		37.109375
1571		46.875000
1572		33.203125
1573		42.968750
1574		29.296875
1575		39.062500
1576		25.390625
1577		33.203125
1578		21.484375
1579		29.296875
1580		17.578125
1581		25.390625
1582		13.671875
1583		19.531250
1584		7.812500
1585		15.625000
1586		1.953125
1587		11.718750
1588		-1.953125
1589		7.812500
1590		-7.812500
1591		1.953125
1592		-11.718750
1593		-1.953125
1594		-15.625000
1595		-5.859375
1596		-19.531250
1597		-9.765625
1598		-23.437500
1599		-17.578125
1600		-27.343750
1601		-21.484375
1602		-33.203125
1603		-25.390625
1604		-37.109375
1605		-27.343750
1606		-42.968750
1607		-31.250000
1608		-46.875000
1609		-37.109375
1610		-50.781250
1611		-41.015625
1612		-54.687500
1613		-44.921875
1614		-56.640625
1615		-48.828125
1616		-60.546875
1617		-54.687500
1618		-64.453125
1619		-58.593750
1620		-68.359375
1621		-60.546875
1622		-72.265625
1623		-62.500000
1624		-74.218750
1625		-66.406250
1626		-78.125000
1627		-68.359375
1628		-80.078125
1629		-72.265625
1630		-82.031250
1631		-74.218750
1632		-82.031250
1633		-80.078125
1634		-83.984375
1635		-82.031250
1636		-87.890625
1637		-80.078125
1638		-89.843750
1639		-82.031250
1640		-91.796875
1641		-83.984375
1642		-91.796875
1643		-85.937500
1644		-93.750000
1645		-85.937500
1646		-93.750000
1647		-85.937500
1648		-93.750000
1649		-87.890625
1650		-91.796875
1651		-89.843750
1652		-93.750000
1653		-87.890625
1654		-93.750000
1655		-85.937500
1656		-93.750000
1657		-85.937500
1658		-91.796875
1659		-85.937500
1660		-91.796875
1661		-83.984375
1662		-89.843750
1663		-82.031250
1664		-87.890625
1665		-82.031250
1666		-83.984375
1667		-80.078125
1668		-82.031250
1669		-78.125000
1670		-82.031250
1671		-74.218750
1672		-80.078125
1673		-72.265625
1674		-78.125000
1675		-68.359375
1676		-74.218750
1677		-66.406250
1678		-72.265625
1679		-62.500000
1680		-68.359375
1681		-60.546875
1682		-62.500000
1683		-58.593750
1684		-58.593750
1685		-54.687500
1686		-56.640625
1687		-48.828125
1688		-54.687500
1689		-44.921875
1690		-50.781250
1691		-41.015625
1692		-46.875000
1693		-37.109375
1694		-42.968750
1695		-31.250000
1696		-37.109375
1697		-27.343750
1698		-33.203125
1699		-25.390625
1700		-27.343750
1701		-21.484375
1702		-21.484375
1703		-13.671875
1704		-19.531250
1705		-9.765625
1706		-15.625000
1707		-5.859375
1708		-9.765625
1709		0.000000
1710		-5.859375
1711		3.906250
1712		-1.953125
1713		7.812500
1714		1.953125
1715		11.718750
1716		9.765625
1717		15.625000
1718		13.671875
1719		19.531250
1720		17.578125
1721		25.390625
1722		21.484375
1723		31.250000
1724		25.390625
1725		35.156250
1726		29.296875
1727		39.062500
1728		33.203125
1729		42.968750
1730		37.109375
1731		46.875000
1732		42.968750
1733		48.828125
1734		46.875000
1735		52.734375
1736		50.781250
1737		56.640625
1738		54.687500
1739		60.546875
1740		56.640625
1741		64.453125
1742		60.546875
1743		68.359375
1744		62.500000
1745		70.312500
1746		66.406250
1747		72.265625
1748		68.359375
1749		74.218750
1750		74.218750
1751		78.125000
1752		76.171875
1753		80.078125
1754		76.171875
1755		83.984375
1756		78.125000
1757		85.937500
1758		80.078125
1759		87.890625
1760		82.031250
1761		89.843750
1762		83.984375
1763		89.843750
1764		83.984375
1765		91.796875
1766		87.890625
1767		89.843750
1768		89.843750
1769		91.796875
1770		87.890625
1771		93.750000
1772		87.890625
1773		95.703125
1774		87.890625
1775		95.703125
1776		87.890625
1777		95.703125
1778		87.890625
1779		95.703125
1780		87.890625
1781		95.703125
1782		87.890625
1783		95.703125
1784		89.843750
1785		91.796875
1786		87.890625
1787		93.750000
1788		85.937500
1789		91.796875
1790		83.984375
1791		91.796875
1792		82.031250
1793		89.843750
1794		80.078125
1795		87.890625
1796		78.125000
1797		87.890625
1798		78.125000
1799		85.937500
1800		76.171875
1801		80.078125
1802		74.218750
1803		78.125000
1804		70.312500
1805		78.125000
1806		66.406250
1807		76.171875
1808		64.453125
1809		72.265625
1810		62.500000
1811		70.312500
1812		58.593750
1813		66.406250
1814		54.687500
1815		62.500000
1816		52.734375
1817		60.546875
1818		48.828125
1819		54.687500
1820		42.968750
1821		50.781250
1822		39.062500
1823		48.828125
1824		35.156250
1825		44.921875
1826		31.250000
1827		41.015625
1828		27.343750
1829		37.109375
1830		21.484375
1831		31.250000
1832		19.531250
1833		29.296875
1834		15.625000
1835		21.484375
1836		9.765625
1837		17.578125
1838		3.906250
1839		15.625000
1840		0.000000
1841		9.765625
1842		-3.906250
1843		5.859375
1844		-9.765625
1845		1.953125
1846		-13.671875
1847		-3.906250
1848		-17.578125
1849		-7.812500
1850		-21.484375
1851		-15.625000
1852		-25.390625
1853		-19.531250
1854		-31.250000
1855		-23.437500
1856		-37.109375
1857		-27.343750
1858		-41.015625
1859		-31.250000
1860		-44.921875
1861		-35.156250
1862		-48.828125
1863		-39.062500
1864		-52.734375
1865		-42.968750
1866		-54.687500
1867		-46.875000
1868		-58.593750
1869		-52.734375
1870		-64.453125
1871		-56.640625
1872		-66.406250
1873		-58.593750
1874		-70.312500
1875		-62.500000
1876		-74.218750
1877		-64.453125
1878		-76.171875
1879		-66.406250
1880		-78.125000
1881		-70.312500
1882		-80.078125
1883		-72.265625
1884		-82.031250
1885		-78.125000
1886		-83.984375
1887		-80.078125
1888		-87.890625
1889		-80.078125
1890		-89.843750
1891		-82.031250
1892		-89.843750
1893		-83.984375
1894		-91.796875
1895		-83.984375
1896		-91.796875
1897		-85.937500
1898		-93.750000
1899		-85.937500
1900		-93.750000
1901		-87.890625
1902		-91.796875
1903		-89.843750
1904		-93.750000
1905		-87.890625
1906		-93.750000
1907		-85.937500
1908		-93.750000
1909		-85.937500
1910		-91.796875
1911		-85.937500
1912		-91.796875
1913		-83.984375
1914		-89.843750
1915		-82.031250
1916		-87.890625
1917		-82.031250
1918		-83.984375
1919		-82.031250
1920		-83.984375
1921		-78.125000
1922		-82.031250
1923		-74.218750
1924		-80.078125
1925		-72.265625
1926		-78.125000
1927		-70.312500
1928		-76.171875
1929		-68.359375
1930		-72.265625
1931		-64.453125
1932		-70.312500
1933		-60.546875
1934		-64.453125
1935		-58.593750
1936		-60.546875
1937		-56.640625
1938		-56.640625
1939		-48.828125
1940		-56.640625
1941		-44.921875
1942		-50.781250
1943		-41.015625
1944		-46.875000
1945		-37.109375
1946		-42.968750
1947		-33.203125
1948		-39.062500
1949		-29.296875
1950		-35.156250
1951		-27.343750
1952		-29.296875
1953		-23.437500
1954		-23.437500
1955		-15.625000
1956		-21.484375
1957		-11.718750
1958		-17.578125
1959		-5.859375
1960		-11.718750
1961		-1.953125
1962		-7.812500
1963		1.953125
1964		-3.906250
1965		5.859375
1966		1.953125
1967		11.718750
1968		7.812500
1969		13.671875
1970		13.671875
1971		17.578125
1972		15.625000
1973		25.390625
1974		19.531250
1975		29.296875
1976		23.437500
1977		33.203125
1978		29.296875
1979		37.109375
1980		31.250000
1981		41.015625
1982		37.109375
1983		44.921875
1984		39.062500
1985		46.875000
1986		46.875000
1987		50.781250
1988		50.781250
1989		56.640625
1990		50.781250
1991		60.546875
1992		54.687500
1993		64.453125
1994		58.593750
1995		68.359375
1996		60.546875
1997		70.312500
1998		64.453125
1999		74.218750
2000		68.359375
2001		74.218750
2002		72.265625
2003		76.171875
2004		74.218750
2005		78.125000
2006		76.171875
2007		83.984375
2008		76.171875
2009		83.984375
2010		80.078125
2011		87.890625
2012		80.078125
2013		89.843750
2014		82.031250
2015		89.843750
2016		83.984375
2017		91.796875
2018		87.890625
2019		89.843750
2020		87.890625
2021		91.796875
2022		87.890625
2023		95.703125
2024		87.890625
2025		95.703125
2026		87.890625
2027		95.703125
2028		87.890625
2029		95.703125
2030		89.843750
2031		95.703125
2032		87.890625
2033		95.703125
2034		87.890625
2035		95.703125
2036		89.843750
2037		91.796875
2038		87.890625
2039		93.750000
2040		85.937500
2041		93.750000
2042		83.984375
2043		91.796875
2044		83.984375
2045		91.796875
2046		82.031250
2047		89.843750
2048		80.078125
2049		87.890625
2050		78.125000
2051		85.937500
2052		78.125000
2053		82.031250
2054		76.171875
2055		80.078125
2056		70.312500
2057		78.125000
2058		68.359375
2059		78.125000
2060		64.453125
2061		74.218750
2062		62.500000
2063		72.265625
2064		58.593750
2065		68.359375
2066		56.640625
2067		64.453125
2068		54.687500
2069		62.500000
2070		50.781250
2071		56.640625
2072		44.921875
2073		52.734375
2074		41.015625
2075		50.781250
2076		37.109375
2077		46.875000
2078		33.203125
2079		42.968750
2080		29.296875
2081		39.062500
2082		25.390625
2083		35.156250
2084		23.437500
2085		31.250000
2086		17.578125
2087		25.390625
2088		13.671875
2089		19.531250
2090		7.812500
2091		15.625000
2092		3.906250
2093		13.671875
2094		-1.953125
2095		9.765625
2096		-5.859375
2097		3.906250
2098		-11.718750
2099		0.000000
2100		-15.625000
2101		-5.859375
2102		-17.578125
2103		-11.718750
2104		-21.484375
2105		-15.625000
2106		-29.296875
2107		-21.484375
2108		-33.203125
2109		-23.437500
2110		-37.109375
2111		-27.343750
2112		-42.968750
2113		-31.250000
2114		-46.875000
2115		-37.109375
2116		-50.781250
2117		-41.015625
2118		-52.734375
2119		-44.921875
2120		-54.687500
2121		-50.781250
2122		-60.546875
2123		-54.687500
2124		-64.453125
2125		-54.687500
2126		-68.359375
2127		-58.593750
2128		-70.312500
2129		-62.500000
2130		-74.218750
2131		-66.406250
2132		-76.171875
2133		-68.359375
2134		-80.078125
2135		-72.265625
2136		-80.078125
2137		-76.171875
2138		-82.031250
2139		-78.125000
2140		-85.937500
2141		-80.078125
2142		-87.890625
2143		-80.078125
2144		-89.843750
2145		-82.031250
2146		-91.796875
2147		-83.984375
2148		-91.796875
2149		-83.984375
2150		-91.796875
2151		-85.937500
2152		-93.750000
2153		-85.937500
2154		-91.796875
2155		-87.890625
2156		-93.750000
2157		-85.937500
2158		-93.750000
2159		-85.937500
2160		-93.750000
2161		-85.937500
2162		-93.750000
2163		-85.937500
2164		-91.796875
2165		-83.984375
2166		-89.843750
2167		-82.031250
2168		-89.843750
2169		-82.031250
2170		-85.937500
2171		-82.031250
2172		-83.984375
2173		-80.078125
2174		-83.984375
2175		-76.171875
2176		-82.031250
2177		-74.218750
2178		-78.125000
2179		-70.312500
2180		-76.171875
2181		-68.359375
2182		-74.218750
2183		-64.453125
2184		-70.312500
2185		-62.500000
2186		-66.406250
2187		-60.546875
2188		-62.500000
2189		-56.640625
2190		-58.593750
2191		-52.734375
2192		-56.640625
2193		-46.875000
2194		-52.734375
2195		-42.968750
2196		-50.781250
2197		-39.062500
2198		-44.921875
2199		-35.156250
2200		-41.015625
2201		-31.250000
2202		-37.109375
2203		-29.296875
2204		-29.296875
2205		-23.437500
2206		-25.390625
2207		-19.531250
2208		-23.437500
2209		-13.671875
2210		-19.531250
2211		-7.812500
2212		-13.671875
2213		-3.906250
2214		-9.765625
2215		0.000000
2216		-5.859375
2217		5.859375
2218		0.000000
2219		9.765625
2220		5.859375
2221		11.718750
2222		9.765625
2223		15.625000
2224		15.625000
2225		23.437500
2226		17.578125
2227		27.343750
2228		21.484375
2229		31.250000
2230		27.343750
2231		35.156250
2232		29.296875
2233		41.015625
2234		35.156250
2235		44.921875
2236		39.062500
2237		46.875000
2238		44.921875
2239		50.781250
2240		48.828125
2241		54.687500
2242		50.781250
2243		58.593750
2244		54.687500
2245		62.500000
2246		56.640625
2247		66.406250
2248		60.546875
2249		70.312500
2250		64.453125
2251		72.265625
2252		66.406250
2253		74.218750
2254		70.312500
2255		76.171875
2256		74.218750
2257		78.125000
2258		74.218750
2259		82.031250
2260		76.171875
2261		83.984375
2262		78.125000
2263		85.937500
2264		80.078125
2265		87.890625
2266		82.031250
2267		89.843750
2268		83.984375
2269		91.796875
2270		85.937500
2271		91.796875
2272		87.890625
2273		91.796875
2274		85.937500
2275		95.703125
2276		87.890625
2277		95.703125
2278		87.890625
2279		95.703125
2280		89.843750
2281		97.656250
2282		89.843750
2283		95.703125
2284		89.843750
2285		97.656250
2286		87.890625
2287		95.703125
2288		91.796875
2289		93.750000
2290		89.843750
2291		93.750000
2292		87.890625
2293		93.750000
2294		85.937500
2295		93.750000
2296		83.984375
2297		91.796875
2298		83.984375
2299		89.843750
2300		82.031250
2301		89.843750
2302		80.078125
2303		87.890625
2304		80.078125
2305		83.984375
2306		78.125000
2307		82.031250
2308		74.218750
2309		80.078125
2310		70.312500
2311		78.125000
2312		68.359375
2313		76.171875
2314		64.453125
2315		74.218750
2316		62.500000
2317		70.312500
2318		58.593750
2319		68.359375
2320		56.640625
2321		64.453125
2322		54.687500
2323		58.593750
2324		46.875000
2325		54.687500
2326		44.921875
2327		52.734375
2328		41.015625
2329		48.828125
2330		37.109375
2331		44.921875
2332		33.203125
2333		41.015625
2334		27.343750
2335		37.109375
2336		25.390625
2337		33.203125
2338		21.484375
2339		27.343750
2340		15.625000
2341		23.437500
2342		9.765625
2343		19.531250
2344		5.859375
2345		15.625000
2346		0.000000
2347		11.718750
2348		-3.906250
2349		5.859375
2350		-7.812500
2351		1.953125
2352		-11.718750
2353		-1.953125
2354		-15.625000
2355		-7.812500
2356		-19.531250
2357		-13.671875
2358		-25.390625
2359		-19.531250
2360		-29.296875
2361		-21.484375
2362		-33.203125
2363		-25.390625
2364		-39.062500
2365		-29.296875
2366		-44.921875
2367		-33.203125
2368		-46.875000
2369		-39.062500
2370		-50.781250
2371		-41.015625
2372		-52.734375
2373		-48.828125
2374		-56.640625
2375		-52.734375
2376		-62.500000
2377		-54.687500
2378		-66.406250
2379		-56.640625
2380		-68.359375
2381		-60.546875
2382		-72.265625
2383		-64.453125
2384		-74.218750
2385		-66.406250
2386		-78.125000
2387		-70.312500
2388		-78.125000
2389		-74.218750
2390		-80.078125
2391		-76.171875
2392		-83.984375
2393		-78.125000
2394		-85.937500
2395		-78.125000
2396		-87.890625
2397		-82.031250
2398		-89.843750
2399		-82.031250
2400		-89.843750
2401		-83.984375
2402		-91.796875
2403		-83.984375
2404		-91.796875
2405		-85.937500
2406		-89.843750
2407		-87.890625
2408		-91.796875
2409		-85.937500
2410		-93.750000
2411		-85.937500
2412		-91.796875
2413		-85.937500
2414		-91.796875
2415		-85.937500
2416		-91.796875
2417		-83.984375
2418		-89.843750
2419		-83.984375
2420		-87.890625
2421		-83.984375
2422		-85.937500
2423		-82.031250
2424		-83.984375
2425		-80.078125
2426		-83.984375
2427		-76.171875
2428		-82.031250
2429		-74.218750
2430		-80.078125
2431		-72.265625
2432		-76.171875
2433		-68.359375
2434		-74.218750
2435		-68.359375
2436		-70.312500
2437		-64.453125
2438		-68.359375
2439		-62.500000
2440		-64.453125
2441		-58.593750
2442		-60.546875
2443		-54.687500
2444		-56.640625
2445		-50.781250
2446		-54.687500
2447		-46.875000
2448		-48.828125
2449		-42.968750
2450		-44.921875
2451		-39.062500
2452		-41.015625
2453		-35.156250
2454		-37.109375
2455		-31.250000
2456		-31.250000
2457		-25.390625
2458		-27.343750
2459		-21.484375
2460		-23.437500
2461		-17.578125
2462		-19.531250
2463		-9.765625
2464		-15.625000
2465		-7.812500
2466		-9.765625
2467		-3.906250
2468		-5.859375
2469		1.953125
2470		0.000000
2471		5.859375
2472		3.906250
2473		9.765625
2474		7.812500
2475		13.671875
2476		13.671875
2477		19.531250
2478		17.578125
2479		23.437500
2480		21.484375
2481		27.343750
2482		27.343750
2483		31.250000
2484		31.250000
2485		37.109375
2486		35.156250
2487		41.015625
2488		39.062500
2489		44.921875
2490		42.968750
2491		48.828125
2492		46.875000
2493		52.734375
2494		50.781250
2495		56.640625
2496		54.687500
2497		60.546875
2498		58.593750
2499		62.500000
2500		60.546875
2501		66.406250
2502		64.453125
2503		68.359375
2504		66.406250
2505		72.265625
2506		70.312500
2507		74.218750
2508		72.265625
2509		76.171875
2510		76.171875
2511		80.078125
2512		78.125000
2513		82.031250
2514		80.078125
2515		83.984375
2516		82.031250
2517		85.937500
2518		83.984375
2519		87.890625
2520		83.984375
2521		89.843750
2522		85.937500
2523		91.796875
2524		87.890625
2525		91.796875
2526		87.890625
2527		93.750000
2528		89.843750
2529		93.750000
2530		89.843750
2531		93.750000
2532		91.796875
2533		93.750000
2534		91.796875
2535		93.750000
2536		91.796875
2537		95.703125
2538		91.796875
2539		93.750000
2540		91.796875
2541		93.750000
2542		91.796875
2543		93.750000
2544		89.843750
2545		93.750000
2546		87.890625
2547		91.796875
2548		87.890625
2549		91.796875
2550		85.937500
2551		89.843750
2552		83.984375
2553		87.890625
2554		82.031250
2555		85.937500
2556		82.031250
2557		83.984375
2558		80.078125
2559		82.031250
2560		76.171875
2561		80.078125
2562		74.218750
2563		78.125000
2564		72.265625
2565		76.171875
2566		68.359375
2567		74.218750
2568		64.453125
2569		70.312500
2570		62.500000
2571		68.359375
2572		58.593750
2573		64.453125
2574		56.640625
2575		60.546875
2576		52.734375
2577		56.640625
2578		48.828125
2579		52.734375
2580		44.921875
2581		48.828125
2582		41.015625
2583		44.921875
2584		37.109375
2585		42.968750
2586		31.250000
2587		37.109375
2588		27.343750
2589		33.203125
2590		23.437500
2591		29.296875
2592		19.531250
2593		25.390625
2594		13.671875
2595		19.531250
2596		9.765625
2597		15.625000
2598		5.859375
2599		11.718750
2600		0.000000
2601		7.812500
2602		-3.906250
2603		1.953125
2604		-7.812500
2605		-1.953125
2606		-11.718750
2607		-5.859375
2608		-17.578125
2609		-11.718750
2610		-21.484375
2611		-15.625000
2612		-25.390625
2613		-21.484375
2614		-31.250000
2615		-23.437500
2616		-35.156250
2617		-29.296875
2618		-39.062500
2619		-33.203125
2620		-42.968750
2621		-37.109375
2622		-46.875000
2623		-41.015625
2624		-50.781250
2625		-46.875000
2626		-54.687500
2627		-48.828125
2628		-58.593750
2629		-52.734375
2630		-62.500000
2631		-56.640625
2632		-64.453125
2633		-60.546875
2634		-68.359375
2635		-64.453125
2636		-72.265625
2637		-66.406250
2638		-76.171875
2639		-70.312500
2640		-76.171875
2641		-72.265625
2642		-78.125000
2643		-76.171875
2644		-82.031250
2645		-78.125000
2646		-83.984375
2647		-80.078125
2648		-83.984375
2649		-80.078125
2650		-87.890625
2651		-83.984375
2652		-87.890625
2653		-83.984375
2654		-87.890625
2655		-85.937500
2656		-89.843750
2657		-85.937500
2658		-89.843750
2659		-87.890625
2660		-91.796875
2661		-87.890625
2662		-89.843750
2663		-87.890625
2664		-91.796875
2665		-87.890625
2666		-89.843750
2667		-85.937500
2668		-89.843750
2669		-85.937500
2670		-87.890625
2671		-85.937500
2672		-87.890625
2673		-83.984375
2674		-85.937500
2675		-82.031250
2676		-83.984375
2677		-82.031250
2678		-83.984375
2679		-78.125000
2680		-80.078125
2681		-76.171875
2682		-80.078125
2683		-74.218750
2684		-76.171875
2685		-72.265625
2686		-74.218750
2687		-68.359375
2688		-70.312500
2689		-66.406250
2690		-68.359375
2691		-62.500000
2692		-64.453125
2693		-60.546875
2694		-60.546875
2695		-56.640625
2696		-58.593750
2697		-52.734375
2698		-54.687500
2699		-48.828125
2700		-50.781250
2701		-44.921875
2702		-46.875000
2703		-41.015625
2704		-42.968750
2705		-35.156250
2706		-37.109375
2707		-31.250000
2708		-33.203125
2709		-27.343750
2710		-29.296875
2711		-23.437500
2712		-25.390625
2713		-19.531250
2714		-21.484375
2715		-13.671875
2716		-15.625000
2717		-9.765625
2718		-11.718750
2719		-5.859375
2720		-5.859375
2721		0.000000
2722		-1.953125
2723		3.906250
2724		0.000000
2725		7.812500
2726		7.812500
2727		11.718750
2728		11.718750
2729		17.578125
2730		15.625000
2731		21.484375
2732		19.531250
2733		25.390625
2734		23.437500
2735		31.250000
2736		29.296875
2737		35.156250
2738		33.203125
2739		39.062500
2740		37.109375
2741		42.968750
2742		41.015625
2743		46.875000
2744		44.921875
2745		50.781250
2746		48.828125
2747		54.687500
2748		52.734375
2749		56.640625
2750		56.640625
2751		62.500000
2752		60.546875
2753		64.453125
2754		62.500000
2755		68.359375
2756		66.406250
2757		70.312500
2758		68.359375
2759		74.218750
2760		72.265625
2761		76.171875
2762		74.218750
2763		78.125000
2764		76.171875
2765		80.078125
2766		78.125000
2767		83.984375
2768		82.031250
2769		85.937500
2770		83.984375
2771		87.890625
2772		85.937500
2773		89.843750
2774		85.937500
2775		89.843750
2776		87.890625
2777		91.796875
2778		87.890625
2779		93.750000
2780		89.843750
2781		93.750000
2782		89.843750
2783		93.750000
2784		91.796875
2785		93.750000
2786		91.796875
2787		93.750000
2788		91.796875
2789		95.703125
2790		91.796875
2791		95.703125
2792		91.796875
2793		93.750000
2794		91.796875
2795		93.750000
2796		89.843750
2797		93.750000
2798		89.843750
2799		93.750000
2800		87.890625
2801		91.796875
2802		85.937500
2803		89.843750
2804		85.937500
2805		89.843750
2806		83.984375
2807		87.890625
2808		82.031250
2809		87.890625
2810		80.078125
2811		83.984375
2812		78.125000
2813		82.031250
2814		76.171875
2815		80.078125
2816		72.265625
2817		78.125000
2818		70.312500
2819		76.171875
2820		68.359375
2821		72.265625
2822		64.453125
2823		70.312500
2824		60.546875
2825		66.406250
2826		58.593750
2827		62.500000
2828		52.734375
2829		58.593750
2830		50.781250
2831		56.640625
2832		46.875000
2833		52.734375
2834		42.968750
2835		48.828125
2836		39.062500
2837		44.921875
2838		35.156250
2839		41.015625
2840		29.296875
2841		37.109375
2842		25.390625
2843		31.250000
2844		21.484375
2845		27.343750
2846		17.578125
2847		23.437500
2848		13.671875
2849		19.531250
2850		7.812500
2851		15.625000
2852		3.906250
2853		9.765625
2854		-1.953125
2855		5.859375
2856		-5.859375
2857		0.000000
2858		-9.765625
2859		-3.906250
2860		-15.625000
2861		-7.812500
2862		-19.531250
2863		-13.671875
2864		-23.437500
2865		-17.578125
2866		-29.296875
2867		-21.484375
2868		-33.203125
2869		-25.390625
2870		-37.109375
2871		-31.250000
2872		-41.015625
2873		-35.156250
2874		-44.921875
2875		-39.062500
2876		-48.828125
2877		-42.968750
2878		-52.734375
2879		-46.875000
2880		-56.640625
2881		-50.781250
2882		-60.546875
2883		-54.687500
2884		-62.500000
2885		-58.593750
2886		-66.406250
2887		-62.500000
2888		-70.312500
2889		-64.453125
2890		-72.265625
2891		-68.359375
2892		-76.171875
2893		-70.312500
2894		-78.125000
2895		-74.218750
2896		-80.078125
2897		-76.171875
2898		-82.031250
2899		-78.125000
2900		-83.984375
2901		-80.078125
2902		-85.937500
2903		-82.031250
2904		-85.937500
2905		-83.984375
2906		-87.890625
2907		-83.984375
2908		-89.843750
2909		-85.937500
2910		-89.843750
2911		-85.937500
2912		-89.843750
2913		-85.937500
2914		-89.843750
2915		-85.937500
2916		-89.843750
2917		-85.937500
2918		-89.843750
2919		-85.937500
2920		-89.843750
2921		-85.937500
2922		-89.843750
2923		-85.937500
2924		-87.890625
2925		-83.984375
2926		-85.937500
2927		-83.984375
2928		-83.984375
2929		-82.031250
2930		-83.984375
2931		-78.125000
2932		-82.031250
2933		-78.125000
2934		-80.078125
2935		-74.218750
2936		-76.171875
2937		-72.265625
2938		-74.218750
2939		-70.312500
2940		-72.265625
2941		-68.359375
2942		-70.312500
2943		-64.453125
2944		-66.406250
2945		-60.546875
2946		-62.500000
2947		-56.640625
2948		-58.593750
2949		-54.687500
2950		-56.640625
2951		-50.781250
2952		-50.781250
2953		-46.875000
2954		-48.828125
2955		-41.015625
2956		-42.968750
2957		-39.062500
2958		-41.015625
2959		-33.203125
2960		-35.156250
2961		-29.296875
2962		-31.250000
2963		-25.390625
2964		-27.343750
2965		-21.484375
2966		-21.484375
2967		-15.625000
2968		-17.578125
2969		-11.718750
2970		-13.671875
2971		-5.859375
2972		-7.812500
2973		-1.953125
2974		-3.906250
2975		1.953125
2976		0.000000
2977		5.859375
2978		5.859375
2979		11.718750
2980		9.765625
2981		15.625000
2982		13.671875
2983		21.484375
2984		19.531250
2985		23.437500
2986		23.437500
2987		29.296875
2988		27.343750
2989		33.203125
2990		31.250000
2991		37.109375
2992		35.156250
2993		41.015625
2994		39.062500
2995		44.921875
2996		44.921875
2997		50.781250
2998		46.875000
2999		52.734375
3000		50.781250
3001		56.640625
3002		54.687500
3003		60.546875
3004		58.593750
3005		62.500000
3006		60.546875
3007		66.406250
3008		64.453125
3009		70.312500
3010		68.359375
3011		72.265625
3012		70.312500
3013		74.218750
3014		72.265625
3015		78.125000
3016		76.171875
3017		80.078125
3018		78.125000
3019		82.031250
3020		80.078125
3021		83.984375
3022		82.031250
3023		85.937500
3024		83.984375
3025		87.890625
3026		85.937500
3027		89.843750
3028		87.890625
3029		89.843750
3030		87.890625
3031		93.750000
3032		89.843750
3033		93.750000
3034		89.843750
3035		93.750000
3036		91.796875
3037		93.750000
3038		91.796875
3039		95.703125
3040		91.796875
3041		95.703125
3042		91.796875
3043		95.703125
3044		91.796875
3045		93.750000
3046		91.796875
3047		93.750000
3048		89.843750
3049		93.750000
3050		89.843750
3051		93.750000
3052		89.843750
3053		91.796875
3054		87.890625
3055		91.796875
3056		85.937500
3057		89.843750
3058		85.937500
3059		87.890625
3060		83.984375
3061		87.890625
3062		82.031250
3063		85.937500
3064		80.078125
3065		82.031250
3066		76.171875
3067		82.031250
3068		74.218750
3069		80.078125
3070		70.312500
3071		76.171875
3072		68.359375
3073		74.218750
3074		66.406250
3075		70.312500
3076		62.500000
3077		66.406250
3078		58.593750
3079		64.453125
3080		54.687500
3081		60.546875
3082		52.734375
3083		58.593750
3084		48.828125
3085		54.687500
3086		44.921875
3087		50.781250
3088		41.015625
3089		46.875000
3090		35.156250
3091		42.968750
3092		31.250000
3093		37.109375
3094		27.343750
3095		33.203125
3096		23.437500
3097		29.296875
3098		19.531250
3099		25.390625
3100		15.625000
3101		21.484375
3102		9.765625
3103		15.625000
3104		5.859375
3105		11.718750
3106		0.000000
3107		7.812500
3108		-3.906250
3109		1.953125
3110		-7.812500
3111		-1.953125
3112		-11.718750
3113		-5.859375
3114		-17.578125
3115		-11.718750
3116		-21.484375
3117		-15.625000
3118		-27.343750
3119		-19.531250
3120		-29.296875
3121		-23.437500
3122		-35.156250
3123		-29.296875
3124		-39.062500
3125		-33.203125
3126		-42.968750
3127		-37.109375
3128		-46.875000
3129		-41.015625
3130		-50.781250
3131		-44.921875
3132		-54.687500
3133		-48.828125
3134		-58.593750
3135		-52.734375
3136		-62.500000
3137		-56.640625
3138		-66.406250
3139		-60.546875
3140		-68.359375
3141		-64.453125
3142		-72.265625
3143		-66.406250
3144		-74.218750
3145		-68.359375
3146		-76.171875
3147		-72.265625
3148		-80.078125
3149		-74.218750
3150		-80.078125
3151		-76.171875
3152		-82.031250
3153		-78.125000
3154		-83.984375
3155		-80.078125
3156		-85.937500
3157		-82.031250
3158		-87.890625
3159		-83.984375
3160		-87.890625
3161		-83.984375
3162		-87.890625
3163		-85.937500
3164		-89.843750
3165		-87.890625
3166		-89.843750
3167		-85.937500
3168		-89.843750
3169		-85.937500
3170		-89.843750
3171		-85.937500
3172		-89.843750
3173		-85.937500
3174		-89.843750
3175		-85.937500
3176		-87.890625
3177		-83.984375
3178		-85.937500
3179		-83.984375
3180		-85.937500
3181		-82.031250
3182		-83.984375
3183		-80.078125
3184		-82.031250
3185		-78.125000
3186		-80.078125
3187		-76.171875
3188		-78.125000
3189		-74.218750
3190		-76.171875
3191		-70.312500
3192		-72.265625
3193		-68.359375
3194		-70.312500
3195		-66.406250
3196		-66.406250
3197		-62.500000
3198		-64.453125
3199		-58.593750
3200		-60.546875
3201		-54.687500
3202		-56.640625
3203		-52.734375
3204		-54.687500
3205		-48.828125
3206		-48.828125
3207		-42.968750
3208		-44.921875
3209		-41.015625
3210		-41.015625
3211		-35.156250
3212		-37.109375
3213		-31.250000
3214		-33.203125
3215		-27.343750
3216		-29.296875
3217		-23.437500
3218		-25.390625
3219		-17.578125
3220		-19.531250
3221		-13.671875
3222		-15.625000
3223		-7.812500
3224		-11.718750
3225		-3.906250
3226		-5.859375
3227		0.000000
3228		-1.953125
3229		3.906250
3230		3.906250
3231		9.765625
3232		7.812500
3233		13.671875
3234		11.718750
3235		17.578125
3236		15.625000
3237		23.437500
3238		21.484375
3239		27.343750
3240		25.390625
3241		31.250000
3242		29.296875
3243		35.156250
3244		33.203125
3245		39.062500
3246		39.062500
3247		42.968750
3248		41.015625
3249		46.875000
3250		44.921875
3251		50.781250
3252		48.828125
3253		54.687500
3254		52.734375
3255		58.593750
3256		54.687500
3257		62.500000
3258		60.546875
3259		66.406250
3260		62.500000
3261		68.359375
3262		64.453125
3263		70.312500
3264		70.312500
3265		74.218750
3266		72.265625
3267		76.171875
3268		74.218750
3269		80.078125
3270		78.125000
3271		82.031250
3272		80.078125
3273		83.984375
3274		82.031250
3275		85.937500
3276		83.984375
3277		87.890625
3278		85.937500
3279		89.843750
3280		87.890625
3281		89.843750
3282		87.890625
3283		91.796875
3284		89.843750
3285		93.750000
3286		89.843750
3287		93.750000
3288		91.796875
3289		93.750000
3290		91.796875
3291		95.703125
3292		91.796875
3293		95.703125
3294		91.796875
3295		95.703125
3296		93.750000
3297		95.703125
3298		91.796875
3299		93.750000
3300		91.796875
3301		95.703125
3302		89.843750
3303		93.750000
3304		89.843750
3305		93.750000
3306		89.843750
3307		91.796875
3308		87.890625
3309		91.796875
3310		85.937500
3311		89.843750
3312		83.984375
3313		87.890625
3314		82.031250
3315		85.937500
3316		80.078125
3317		83.984375
3318		78.125000
3319		82.031250
3320		76.171875
3321		80.078125
3322		74.218750
3323		78.125000
3324		70.312500
3325		76.171875
3326		68.359375
3327		72.265625
3328		64.453125
3329		68.359375
3330		62.500000
3331		66.406250
3332		58.593750
3333		62.500000
3334		54.687500
3335		60.546875
3336		50.781250
3337		56.640625
3338		46.875000
3339		52.734375
3340		42.968750
3341		48.828125
3342		39.062500
3343		44.921875
3344		35.156250
3345		41.015625
3346		31.250000
3347		37.109375
3348		27.343750
3349		33.203125
3350		21.484375
3351		27.343750
3352		17.578125
3353		23.437500
3354		13.671875
3355		19.531250
3356		7.812500
3357		15.625000
3358		3.906250
3359		9.765625
3360		0.000000
3361		5.859375
3362		-3.906250
3363		0.000000
3364		-9.765625
3365		-3.906250
3366		-15.625000
3367		-7.812500
3368		-19.531250
3369		-11.718750
3370		-23.437500
3371		-17.578125
3372		-27.343750
3373		-21.484375
3374		-31.250000
3375		-25.390625
3376		-37.109375
3377		-29.296875
3378		-41.015625
3379		-35.156250
3380		-44.921875
3381		-39.062500
3382		-48.828125
3383		-42.968750
3384		-52.734375
3385		-46.875000
3386		-56.640625
3387		-50.781250
3388		-60.546875
3389		-54.687500
3390		-62.500000
3391		-58.593750
3392		-66.406250
3393		-60.546875
3394		-70.312500
3395		-64.453125
3396		-72.265625
3397		-66.406250
3398		-74.218750
3399		-70.312500
3400		-78.125000
3401		-72.265625
3402		-80.078125
3403		-76.171875
3404		-82.031250
3405		-78.125000
3406		-82.031250
3407		-80.078125
3408		-83.984375
3409		-80.078125
3410		-85.937500
3411		-82.031250
3412		-87.890625
3413		-83.984375
3414		-87.890625
3415		-85.937500
3416		-87.890625
3417		-85.937500
3418		-87.890625
3419		-85.937500
3420		-89.843750
3421		-87.890625
3422		-89.843750
3423		-87.890625
3424		-89.843750
3425		-85.937500
3426		-87.890625
3427		-85.937500
3428		-87.890625
3429		-85.937500
3430		-87.890625
3431		-83.984375
3432		-85.937500
3433		-82.031250
3434		-83.984375
3435		-80.078125
3436		-82.031250
3437		-78.125000
3438		-80.078125
3439		-76.171875
3440		-80.078125
3441		-74.218750
3442		-76.171875
3443		-72.265625
3444		-74.218750
3445		-68.359375
3446		-70.312500
3447		-66.406250
3448		-68.359375
3449		-62.500000
3450		-64.453125
3451		-58.593750
3452		-62.500000
3453		-56.640625
3454		-58.593750
3455		-52.734375
3456		-54.687500
3457		-48.828125
3458		-50.781250
3459		-44.921875
3460		-46.875000
3461		-41.015625
3462		-42.968750
3463		-37.109375
3464		-39.062500
3465		-33.203125
3466		-35.156250
3467		-29.296875
3468		-31.250000
3469		-23.437500
3470		-25.390625
3471		-19.531250
3472		-21.484375
3473		-15.625000
3474		-17.578125
3475		-11.718750
3476		-11.718750
3477		-5.859375
3478		-7.812500
3479		-1.953125
3480		-3.906250
3481		1.953125
3482		1.953125
3483		7.812500
3484		5.859375
3485		11.718750
3486		9.765625
3487		15.625000
3488		15.625000
3489		21.484375
3490		19.531250
3491		25.390625
3492		23.437500
3493		29.296875
3494		27.343750
3495		33.203125
3496		31.250000
3497		37.109375
3498		37.109375
3499		41.015625
3500		41.015625
3501		46.875000
3502		42.968750
3503		48.828125
3504		48.828125
3505		54.687500
3506		52.734375
3507		56.640625
3508		56.640625
3509		60.546875
3510		58.593750
3511		64.453125
3512		62.500000
3513		66.406250
3514		66.406250
3515		70.312500
3516		68.359375
3517		72.265625
3518		72.265625
3519		76.171875
3520		74.218750
3521		78.125000
3522		76.171875
3523		80.078125
3524		78.125000
3525		82.031250
3526		82.031250
3527		83.984375
3528		82.031250
3529		87.890625
3530		83.984375
3531		87.890625
3532		85.937500
3533		89.843750
3534		87.890625
3535		91.796875
3536		89.843750
3537		93.750000
3538		89.843750
3539		93.750000
3540		89.843750
3541		93.750000
3542		91.796875
3543		95.703125
3544		91.796875
3545		95.703125
3546		91.796875
3547		95.703125
3548		93.750000
3549		95.703125
3550		93.750000
3551		95.703125
3552		91.796875
3553		95.703125
3554		91.796875
3555		93.750000
3556		89.843750
3557		93.750000
3558		89.843750
3559		91.796875
3560		87.890625
3561		91.796875
3562		87.890625
3563		89.843750
3564		85.937500
3565		89.843750
3566		83.984375
3567		87.890625
3568		80.078125
3569		85.937500
3570		80.078125
3571		83.984375
3572		76.171875
3573		82.031250
3574		74.218750
3575		78.125000
3576		72.265625
3577		76.171875
3578		68.359375
3579		74.218750
3580		66.406250
3581		70.312500
3582		62.500000
3583		68.359375
3584		60.546875
3585		64.453125
3586		56.640625
3587		62.500000
3588		52.734375
3589		58.593750
3590		48.828125
3591		54.687500
3592		44.921875
3593		50.781250
3594		41.015625
3595		46.875000
3596		37.109375
3597		42.968750
3598		33.203125
3599		39.062500
3600		27.343750
3601		33.203125
3602		23.437500
3603		29.296875
3604		19.531250
3605		25.390625
3606		15.625000
3607		21.484375
3608		9.765625
3609		15.625000
3610		5.859375
3611		11.718750
3612		1.953125
3613		7.812500
3614		-3.906250
3615		1.953125
3616		-7.812500
3617		-1.953125
3618		-13.671875
3619		-5.859375
3620		-17.578125
3621		-11.718750
3622		-21.484375
3623		-15.625000
3624		-25.390625
3625		-19.531250
3626		-29.296875
3627		-23.437500
3628		-35.156250
3629		-29.296875
3630		-39.062500
3631		-33.203125
3632		-42.968750
3633		-37.109375
3634		-46.875000
3635		-41.015625
3636		-50.781250
3637		-44.921875
3638		-54.687500
3639		-48.828125
3640		-58.593750
3641		-52.734375
3642		-62.500000
3643		-56.640625
3644		-64.453125
3645		-60.546875
3646		-68.359375
3647		-62.500000
3648		-72.265625
3649		-66.406250
3650		-74.218750
3651		-68.359375
3652		-78.125000
3653		-72.265625
3654		-78.125000
3655		-74.218750
3656		-80.078125
3657		-76.171875
3658		-82.031250
3659		-78.125000
3660		-83.984375
3661		-80.078125
3662		-85.937500
3663		-82.031250
3664		-87.890625
3665		-83.984375
3666		-87.890625
3667		-85.937500
3668		-87.890625
3669		-85.937500
3670		-89.843750
3671		-85.937500
3672		-89.843750
3673		-85.937500
3674		-89.843750
3675		-85.937500
3676		-89.843750
3677		-85.937500
3678		-89.843750
3679		-85.937500
3680		-87.890625
3681		-85.937500
3682		-87.890625
3683		-83.984375
3684		-85.937500
3685		-83.984375
3686		-85.937500
3687		-82.031250
3688		-83.984375
3689		-80.078125
3690		-82.031250
3691		-78.125000
3692		-80.078125
3693		-76.171875
3694		-78.125000
3695		-74.218750
3696		-76.171875
3697		-70.312500
3698		-72.265625
3699		-68.359375
3700		-70.312500
3701		-64.453125
3702		-66.406250
3703		-60.546875
3704		-64.453125
3705		-58.593750
3706		-60.546875
3707		-54.687500
3708		-56.640625
3709		-50.781250
3710		-52.734375
3711		-46.875000
3712		-48.828125
3713		-42.968750
3714		-44.921875
3715		-39.062500
3716		-41.015625
3717		-35.156250
3718		-37.109375
3719		-31.250000
3720		-33.203125
3721		-27.343750
3722		-29.296875
3723		-23.437500
3724		-23.437500
3725		-17.578125
3726		-19.531250
3727		-13.671875
3728		-15.625000
3729		-7.812500
3730		-9.765625
3731		-3.906250
3732		-5.859375
3733		0.000000
3734		-1.953125
3735		3.906250
3736		3.906250
3737		9.765625
3738		7.812500
3739		13.671875
3740		11.718750
3741		17.578125
3742		17.578125
3743		23.437500
3744		21.484375
3745		27.343750
3746		25.390625
3747		31.250000
3748		29.296875
3749		35.156250
3750		33.203125
3751		39.062500
3752		39.062500
3753		42.968750
3754		41.015625
3755		46.875000
3756		46.875000
3757		50.781250
3758		48.828125
3759		54.687500
3760		52.734375
3761		58.593750
3762		56.640625
3763		62.500000
3764		58.593750
3765		66.406250
3766		62.500000
3767		68.359375
3768		66.406250
3769		70.312500
3770		70.312500
3771		74.218750
3772		72.265625
3773		76.171875
3774		74.218750
3775		80.078125
3776		78.125000
3777		82.031250
3778		80.078125
3779		83.984375
3780		82.031250
3781		85.937500
3782		83.984375
3783		87.890625
3784		85.937500
3785		89.843750
3786		87.890625
3787		89.843750
3788		87.890625
3789		91.796875
3790		89.843750
3791		93.750000
3792		89.843750
3793		93.750000
3794		91.796875
3795		95.703125
3796		91.796875
3797		95.703125
3798		91.796875
3799		95.703125
3800		93.750000
3801		93.750000
3802		91.796875
3803		95.703125
3804		91.796875
3805		95.703125
3806		91.796875
3807		93.750000
3808		89.843750
3809		93.750000
3810		89.843750
3811		93.750000
3812		87.890625
3813		91.796875
3814		87.890625
3815		89.843750
3816		85.937500
3817		89.843750
3818		83.984375
3819		87.890625
3820		82.031250
3821		85.937500
3822		80.078125
3823		83.984375
3824		78.125000
3825		82.031250
3826		76.171875
3827		80.078125
3828		72.265625
3829		78.125000
3830		70.312500
3831		74.218750
3832		66.406250
3833		72.265625
3834		64.453125
3835		68.359375
3836		60.546875
3837		66.406250
3838		58.593750
3839		62.500000
3840		54.687500
3841		58.593750
3842		50.781250
3843		56.640625
3844		44.921875
3845		50.781250
3846		42.968750
3847		48.828125
3848		39.062500
3849		44.921875
3850		33.203125
3851		41.015625
3852		29.296875
3853		35.156250
3854		25.390625
3855		31.250000
3856		21.484375
3857		27.343750
3858		17.578125
3859		23.437500
3860		11.718750
3861		17.578125
3862		7.812500
3863		13.671875
3864		1.953125
3865		9.765625
3866		-1.953125
3867		3.906250
3868		-5.859375
3869		0.000000
3870		-9.765625
3871		-3.906250
3872		-15.625000
3873		-7.812500
3874		-19.531250
3875		-13.671875
3876		-23.437500
3877		-17.578125
3878		-29.296875
3879		-23.437500
3880		-33.203125
3881		-27.343750
3882		-37.109375
3883		-31.250000
3884		-41.015625
3885		-35.156250
3886		-44.921875
3887		-39.062500
3888		-48.828125
3889		-42.968750
3890		-52.734375
3891		-46.875000
3892		-56.640625
3893		-50.781250
3894		-60.546875
3895		-54.687500
3896		-64.453125
3897		-58.593750
3898		-66.406250
3899		-62.500000
3900		-70.312500
3901		-64.453125
3902		-72.265625
3903		-68.359375
3904		-76.171875
3905		-70.312500
3906		-78.125000
3907		-74.218750
3908		-80.078125
3909		-76.171875
3910		-82.031250
3911		-78.125000
3912		-83.984375
3913		-80.078125
3914		-85.937500
3915		-82.031250
3916		-85.937500
3917		-83.984375
3918		-87.890625
3919		-83.984375
3920		-87.890625
3921		-85.937500
3922		-89.843750
3923		-85.937500
3924		-89.843750
3925		-85.937500
3926		-89.843750
3927		-87.890625
3928		-89.843750
3929		-87.890625
3930		-89.843750
3931		-85.937500
3932		-89.843750
3933		-85.937500
3934		-87.890625
3935		-85.937500
3936		-87.890625
3937		-83.984375
3938		-85.937500
3939		-82.031250
3940		-83.984375
3941		-82.031250
3942		-83.984375
3943		-80.078125
3944		-82.031250
3945		-78.125000
3946		-78.125000
3947		-74.218750
3948		-76.171875
3949		-72.265625
3950		-74.218750
3951		-70.312500
3952		-72.265625
3953		-66.406250
3954		-68.359375
3955		-64.453125
3956		-66.406250
3957		-60.546875
3958		-62.500000
3959		-56.640625
3960		-58.593750
3961		-52.734375
3962		-54.687500
3963		-48.828125
3964		-50.781250
3965		-44.921875
3966		-48.828125
3967		-41.015625
3968		-44.921875
3969		-37.109375
3970		-39.062500
3971		-33.203125
3972		-35.156250
3973		-29.296875
3974		-31.250000
3975		-25.390625
3976		-27.343750
3977		-19.531250
3978		-21.484375
3979		-15.625000
3980		-17.578125
3981		-11.718750
3982		-13.671875
3983		-5.859375
3984		-7.812500
3985		-1.953125
3986		-3.906250
3987		1.953125
3988		0.000000
3989		7.812500
3990		5.859375
3991		11.718750
3992		9.765625
3993		15.625000
3994		13.671875
3995		21.484375
3996		19.531250
3997		25.390625
3998		23.437500
3999		29.296875
4000		27.343750
4001		33.203125
4002		33.203125
4003		37.109375
4004		37.109375
4005		41.015625
4006		39.062500
4007		46.875000
4008		44.921875
4009		48.828125
4010		46.875000
4011		52.734375
4012		52.734375
4013		56.640625
4014		54.687500
4015		60.546875
4016		58.593750
4017		64.453125
4018		60.546875
4019		66.406250
4020		64.453125
4021		70.312500
4022		68.359375
4023		72.265625
4024		70.312500
4025		76.171875
4026		74.218750
4027		78.125000
4028		76.171875
4029		80.078125
4030		78.125000
4031		82.031250
4032		80.078125
4033		83.984375
4034		82.031250
4035		87.890625
4036		85.937500
4037		87.890625
4038		85.937500
4039		89.843750
4040		87.890625
4041		91.796875
4042		87.890625
4043		93.750000
4044		89.843750
4045		93.750000
4046		89.843750
4047		93.750000
4048		91.796875
4049		95.703125
4050		91.796875
4051		95.703125
4052		91.796875
4053		95.703125
4054		91.796875
4055		95.703125
4056		91.796875
4057		95.703125
4058		91.796875
4059		95.703125
4060		91.796875
4061		93.750000
4062		89.843750
4063		93.750000
4064		89.843750
4065		93.750000
4066		87.890625
4067		91.796875
4068		87.890625
4069		89.843750
4070		85.937500
4071		87.890625
4072		82.031250
4073		87.890625
4074		80.078125
4075		85.937500
4076		80.078125
4077		83.984375
4078		76.171875
4079		82.031250
4080		74.218750
4081		78.125000
4082		72.265625
4083		76.171875
4084		68.359375
4085		74.218750
4086		66.406250
4087		70.312500
4088		62.500000
4089		68.359375
4090		58.593750
4091		64.453125
4092		56.640625
4093		60.546875
4094		52.734375
4095		56.640625
4096		48.828125
4097		54.687500
4098		44.921875
4099		50.781250
4100		41.015625
4101		46.875000
4102		37.109375
4103		42.968750
4104		33.203125
4105		39.062500
4106		27.343750
4107		33.203125
4108		23.437500
4109		29.296875
4110		19.531250
4111		25.390625
4112		15.625000
4113		21.484375
4114		9.765625
4115		15.625000
4116		5.859375
4117		11.718750
4118		0.000000
4119		7.812500
4120		-3.906250
4121		1.953125
4122		-7.812500
4123		-1.953125
4124		-11.718750
4125		-5.859375
4126		-17.578125
4127		-11.718750
4128		-21.484375
4129		-15.625000
4130		-25.390625
4131		-21.484375
4132		-31.250000
4133		-25.390625
4134		-35.156250
4135		-29.296875
4136		-39.062500
4137		-33.203125
4138		-42.968750
4139		-37.109375
4140		-46.875000
4141		-41.015625
4142		-52.734375
4143		-44.921875
4144		-54.687500
4145		-48.828125
4146		-58.593750
4147		-52.734375
4148		-62.500000
4149		-56.640625
4150		-66.406250
4151		-58.593750
4152		-68.359375
4153		-62.500000
4154		-70.312500
4155		-66.406250
4156		-74.218750
4157		-70.312500
4158		-76.171875
4159		-70.312500
4160		-80.078125
4161		-74.218750
4162		-82.031250
4163		-76.171875
4164		-82.031250
4165		-78.125000
4166		-85.937500
4167		-80.078125
4168		-85.937500
4169		-82.031250
4170		-85.937500
4171		-83.984375
4172		-87.890625
4173		-85.937500
4174		-89.843750
4175		-85.937500
4176		-89.843750
4177		-85.937500
4178		-89.843750
4179		-85.937500
4180		-89.843750
4181		-85.937500
4182		-89.843750
4183		-85.937500
4184		-89.843750
4185		-85.937500
4186		-87.890625
4187		-85.937500
4188		-87.890625
4189		-83.984375
4190		-87.890625
4191		-82.031250
4192		-85.937500
4193		-80.078125
4194		-83.984375
4195		-78.125000
4196		-82.031250
4197		-76.171875
4198		-80.078125
4199		-74.218750
4200		-78.125000
4201		-72.265625
4202		-76.171875
4203		-70.312500
4204		-72.265625
4205		-68.359375
4206		-68.359375
4207		-64.453125
4208		-68.359375
4209		-60.546875
4210		-62.500000
4211		-56.640625
4212		-60.546875
4213		-52.734375
4214		-56.640625
4215		-50.781250
4216		-54.687500
4217		-46.875000
4218		-48.828125
4219		-42.968750
4220		-44.921875
4221		-39.062500
4222		-41.015625
4223		-35.156250
4224		-37.109375
4225		-29.296875
4226		-33.203125
4227		-25.390625
4228		-29.296875
4229		-21.484375
4230		-23.437500
4231		-15.625000
4232		-19.531250
4233		-11.718750
4234		-15.625000
4235		-7.812500
4236		-9.765625
4237		-3.906250
4238		-5.859375
4239		0.000000
4240		0.000000
4241		5.859375
4242		3.906250
4243		11.718750
4244		7.812500
4245		15.625000
4246		11.718750
4247		19.531250
4248		15.625000
4249		25.390625
4250		21.484375
4251		29.296875
4252		25.390625
4253		33.203125
4254		31.250000
4255		35.156250
4256		35.156250
4257		41.015625
4258		39.062500
4259		44.921875
4260		42.968750
4261		48.828125
4262		46.875000
4263		52.734375
4264		50.781250
4265		54.687500
4266		54.687500
4267		58.593750
4268		58.593750
4269		62.500000
4270		60.546875
4271		66.406250
4272		64.453125
4273		68.359375
4274		68.359375
4275		72.265625
4276		70.312500
4277		74.218750
4278		74.218750
4279		78.125000
4280		76.171875
4281		80.078125
4282		78.125000
4283		82.031250
4284		80.078125
4285		83.984375
4286		82.031250
4287		87.890625
4288		83.984375
4289		87.890625
4290		85.937500
4291		89.843750
4292		87.890625
4293		89.843750
4294		89.843750
4295		91.796875
4296		89.843750
4297		91.796875
4298		91.796875
4299		93.750000
4300		91.796875
4301		93.750000
4302		91.796875
4303		93.750000
4304		93.750000
4305		95.703125
4306		91.796875
4307		95.703125
4308		91.796875
4309		95.703125
4310		91.796875
4311		95.703125
4312		89.843750
4313		93.750000
4314		91.796875
4315		93.750000
4316		89.843750
4317		93.750000
4318		89.843750
4319		91.796875
4320		87.890625
4321		89.843750
4322		85.937500
4323		89.843750
4324		83.984375
4325		87.890625
4326		82.031250
4327		85.937500
4328		80.078125
4329		83.984375
4330		78.125000
4331		82.031250
4332		76.171875
4333		80.078125
4334		74.218750
4335		78.125000
4336		70.312500
4337		74.218750
4338		68.359375
4339		72.265625
4340		64.453125
4341		68.359375
4342		60.546875
4343		66.406250
4344		58.593750
4345		62.500000
4346		54.687500
4347		58.593750
4348		50.781250
4349		56.640625
4350		46.875000
4351		52.734375
4352		42.968750
4353		48.828125
4354		39.062500
4355		44.921875
4356		35.156250
4357		41.015625
4358		27.343750
4359		35.156250
4360		23.437500
4361		35.156250
4362		19.531250
4363		29.296875
4364		17.578125
4365		25.390625
4366		13.671875
4367		17.578125
4368		7.812500
4369		13.671875
4370		3.906250
4371		9.765625
4372		-1.953125
4373		3.906250
4374		-5.859375
4375		0.000000
4376		-11.718750
4377		-1.953125
4378		-15.625000
4379		-5.859375
4380		-19.531250
4381		-9.765625
4382		-23.437500
4383		-17.578125
4384		-29.296875
4385		-21.484375
4386		-33.203125
4387		-27.343750
4388		-37.109375
4389		-31.250000
4390		-41.015625
4391		-35.156250
4392		-46.875000
4393		-39.062500
4394		-52.734375
4395		-42.968750
4396		-56.640625
4397		-44.921875
4398		-56.640625
4399		-50.781250
4400		-60.546875
4401		-54.687500
4402		-62.500000
4403		-58.593750
4404		-66.406250
4405		-62.500000
4406		-70.312500
4407		-64.453125
4408		-72.265625
4409		-68.359375
4410		-78.125000
4411		-66.406250
4412		-80.078125
4413		-70.312500
4414		-82.031250
4415		-72.265625
4416		-82.031250
4417		-78.125000
4418		-83.984375
4419		-80.078125
4420		-83.984375
4421		-82.031250
4422		-85.937500
4423		-82.031250
4424		-87.890625
4425		-83.984375
4426		-91.796875
4427		-82.031250
4428		-91.796875
4429		-82.031250
4430		-93.750000
4431		-83.984375
4432		-87.890625
4433		-85.937500
4434		-87.890625
4435		-85.937500
4436		-87.890625
4437		-85.937500
4438		-87.890625
4439		-85.937500
4440		-87.890625
4441		-83.984375
4442		-87.890625
4443		-82.031250
4444		-89.843750
4445		-78.125000
4446		-87.890625
4447		-76.171875
4448		-85.937500
4449		-76.171875
4450		-80.078125
4451		-76.171875
4452		-78.125000
4453		-74.218750
4454		-76.171875
4455		-72.265625
4456		-74.218750
4457		-68.359375
4458		-70.312500
4459		-66.406250
4460		-70.312500
4461		-60.546875
4462		-68.359375
4463		-58.593750
4464		-64.453125
4465		-54.687500
4466		-58.593750
4467		-52.734375
4468		-54.687500
4469		-48.828125
4470		-50.781250
4471		-44.921875
4472		-46.875000
4473		-41.015625
4474		-42.968750
4475		-37.109375
4476		-39.062500
4477		-29.296875
4478		-37.109375
4479		-25.390625
4480		-33.203125
4481		-19.531250
4482		-29.296875
4483		-19.531250
4484		-21.484375
4485		-15.625000
4486		-15.625000
4487		-9.765625
4488		-11.718750
4489		-5.859375
4490		-7.812500
4491		-1.953125
4492		-1.953125
4493		3.906250
4494		-1.953125
4495		11.718750
4496		3.906250
4497		15.625000
4498		7.812500
4499		17.578125
4500		15.625000
4501		21.484375
4502		19.531250
4503		25.390625
4504		25.390625
4505		29.296875
4506		29.296875
4507		35.156250
4508		33.203125
4509		39.062500
4510		35.156250
4511		46.875000
4512		39.062500
4513		50.781250
4514		42.968750
4515		52.734375
4516		48.828125
4517		54.687500
4518		52.734375
4519		56.640625
4520		56.640625
4521		60.546875
4522		60.546875
4523		64.453125
4524		62.500000
4525		68.359375
4526		66.406250
4527		74.218750
4528		66.406250
4529		76.171875
4530		68.359375
4531		80.078125
4532		70.312500
4533		80.078125
4534		78.125000
4535		80.078125
4536		80.078125
4537		83.984375
4538		82.031250
4539		85.937500
4540		83.984375
4541		87.890625
4542		85.937500
4543		87.890625
4544		87.890625
4545		89.843750
4546		85.937500
4547		93.750000
4548		87.890625
4549		95.703125
4550		89.843750
4551		93.750000
4552		91.796875
4553		93.750000
4554		91.796875
4555		93.750000
4556		91.796875
4557		95.703125
4558		91.796875
4559		95.703125
4560		93.750000
4561		95.703125
4562		91.796875
4563		97.656250
4564		89.843750
4565		97.656250
4566		91.796875
4567		93.750000
4568		89.843750
4569		93.750000
4570		89.843750
4571		91.796875
4572		87.890625
4573		91.796875
4574		87.890625
4575		89.843750
4576		85.937500
4577		89.843750
4578		83.984375
4579		87.890625
4580		80.078125
4581		87.890625
4582		78.125000
4583		85.937500
4584		78.125000
4585		82.031250
4586		74.218750
4587		78.125000
4588		72.265625
4589		76.171875
4590		70.312500
4591		74.218750
4592		66.406250
4593		70.312500
4594		62.500000
4595		66.406250
4596		58.593750
4597		64.453125
4598		56.640625
4599		60.546875
4600		52.734375
4601		56.640625
4602		48.828125
4603		54.687500
4604		44.921875
4605		50.781250
4606		41.015625
4607		46.875000
4608		37.109375
4609		42.968750
4610		33.203125
4611		39.062500
4612		27.343750
4613		33.203125
4614		23.437500
4615		29.296875
4616		19.531250
4617		25.390625
4618		15.625000
4619		21.484375
4620		9.765625
4621		17.578125
4622		5.859375
4623		11.718750
4624		1.953125
4625		7.812500
4626		-3.906250
4627		1.953125
4628		-7.812500
4629		-1.953125
4630		-11.718750
4631		-5.859375
4632		-17.578125
4633		-11.718750
4634		-21.484375
4635		-15.625000
4636		-25.390625
4637		-19.531250
4638		-31.250000
4639		-25.390625
4640		-35.156250
4641		-29.296875
4642		-39.062500
4643		-33.203125
4644		-42.968750
4645		-37.109375
4646		-46.875000
4647		-41.015625
4648		-50.781250
4649		-44.921875
4650		-56.640625
4651		-48.828125
4652		-58.593750
4653		-52.734375
4654		-62.500000
4655		-56.640625
4656		-64.453125
4657		-60.546875
4658		-68.359375
4659		-64.453125
4660		-70.312500
4661		-66.406250
4662		-74.218750
4663		-68.359375
4664		-76.171875
4665		-70.312500
4666		-78.125000
4667		-74.218750
4668		-82.031250
4669		-76.171875
4670		-82.031250
4671		-78.125000
4672		-83.984375
4673		-80.078125
4674		-85.937500
4675		-82.031250
4676		-85.937500
4677		-83.984375
4678		-87.890625
4679		-83.984375
4680		-87.890625
4681		-85.937500
4682		-89.843750
4683		-85.937500
4684		-89.843750
4685		-85.937500
4686		-89.843750
4687		-85.937500
4688		-89.843750
4689		-85.937500
4690		-87.890625
4691		-85.937500
4692		-87.890625
4693		-85.937500
4694		-87.890625
4695		-82.031250
4696		-87.890625
4697		-82.031250
4698		-85.937500
4699		-82.031250
4700		-83.984375
4701		-80.078125
4702		-82.031250
4703		-78.125000
4704		-80.078125
4705		-76.171875
4706		-78.125000
4707		-74.218750
4708		-74.218750
4709		-70.312500
4710		-72.265625
4711		-68.359375
4712		-72.265625
4713		-64.453125
4714		-66.406250
4715		-62.500000
4716		-62.500000
4717		-58.593750
4718		-60.546875
4719		-54.687500
4720		-56.640625
4721		-50.781250
4722		-52.734375
4723		-46.875000
4724		-48.828125
4725		-42.968750
4726		-44.921875
4727		-39.062500
4728		-41.015625
4729		-35.156250
4730		-37.109375
4731		-31.250000
4732		-33.203125
4733		-27.343750
4734		-27.343750
4735		-21.484375
4736		-23.437500
4737		-17.578125
4738		-19.531250
4739		-13.671875
4740		-15.625000
4741		-7.812500
4742		-9.765625
4743		-3.906250
4744		-5.859375
4745		0.000000
4746		-1.953125
4747		5.859375
4748		3.906250
4749		9.765625
4750		7.812500
4751		13.671875
4752		13.671875
4753		19.531250
4754		17.578125
4755		23.437500
4756		21.484375
4757		27.343750
4758		25.390625
4759		31.250000
4760		29.296875
4761		35.156250
4762		35.156250
4763		41.015625
4764		39.062500
4765		44.921875
4766		42.968750
4767		48.828125
4768		46.875000
4769		52.734375
4770		50.781250
4771		54.687500
4772		54.687500
4773		58.593750
4774		56.640625
4775		62.500000
4776		60.546875
4777		66.406250
4778		64.453125
4779		70.312500
4780		66.406250
4781		72.265625
4782		70.312500
4783		74.218750
4784		72.265625
4785		76.171875
4786		74.218750
4787		80.078125
4788		78.125000
4789		82.031250
4790		80.078125
4791		83.984375
4792		82.031250
4793		85.937500
4794		83.984375
4795		87.890625
4796		83.984375
4797		89.843750
4798		85.937500
4799		89.843750
4800		89.843750
4801		91.796875
4802		89.843750
4803		93.750000
4804		89.843750
4805		93.750000
4806		91.796875
4807		93.750000
4808		91.796875
4809		93.750000
4810		91.796875
4811		95.703125
4812		91.796875
4813		95.703125
4814		91.796875
4815		95.703125
4816		91.796875
4817		93.750000
4818		91.796875
4819		93.750000
4820		89.843750
4821		93.750000
4822		89.843750
4823		91.796875
4824		89.843750
4825		91.796875
4826		87.890625
4827		89.843750
4828		85.937500
4829		89.843750
4830		83.984375
4831		87.890625
4832		82.031250
4833		85.937500
4834		80.078125
4835		83.984375
4836		78.125000
4837		82.031250
4838		76.171875
4839		80.078125
4840		72.265625
4841		78.125000
4842		70.312500
4843		74.218750
4844		66.406250
4845		72.265625
4846		64.453125
4847		68.359375
4848		60.546875
4849		66.406250
4850		58.593750
4851		62.500000
4852		54.687500
4853		58.593750
4854		50.781250
4855		56.640625
4856		46.875000
4857		50.781250
4858		42.968750
4859		46.875000
4860		37.109375
4861		44.921875
4862		33.203125
4863		39.062500
4864		29.296875
4865		35.156250
4866		25.390625
4867		31.250000
4868		21.484375
4869		27.343750
4870		17.578125
4871		23.437500
4872		11.718750
4873		17.578125
4874		7.812500
4875		13.671875
4876		3.906250
4877		9.765625
4878		-1.953125
4879		3.906250
4880		-5.859375
4881		0.000000
4882		-9.765625
4883		-3.906250
4884		-15.625000
4885		-9.765625
4886		-19.531250
4887		-13.671875
4888		-23.437500
4889		-17.578125
4890		-29.296875
4891		-23.437500
4892		-33.203125
4893		-27.343750
4894		-37.109375
4895		-31.250000
4896		-41.015625
4897		-35.156250
4898		-44.921875
4899		-41.015625
4900		-48.828125
4901		-44.921875
4902		-52.734375
4903		-48.828125
4904		-56.640625
4905		-50.781250
4906		-60.546875
4907		-54.687500
4908		-64.453125
4909		-58.593750
4910		-66.406250
4911		-62.500000
4912		-70.312500
4913		-64.453125
4914		-72.265625
4915		-68.359375
4916		-74.218750
4917		-72.265625
4918		-78.125000
4919		-74.218750
4920		-80.078125
4921		-76.171875
4922		-82.031250
4923		-78.125000
4924		-83.984375
4925		-80.078125
4926		-85.937500
4927		-82.031250
4928		-85.937500
4929		-83.984375
4930		-87.890625
4931		-83.984375
4932		-87.890625
4933		-85.937500
4934		-87.890625
4935		-85.937500
4936		-89.843750
4937		-87.890625
4938		-89.843750
4939		-87.890625
4940		-89.843750
4941		-87.890625
4942		-87.890625
4943		-85.937500
4944		-87.890625
4945		-85.937500
4946		-87.890625
4947		-83.984375
4948		-85.937500
4949		-83.984375
4950		-85.937500
4951		-82.031250
4952		-83.984375
4953		-80.078125
4954		-82.031250
4955		-78.125000
4956		-80.078125
4957		-76.171875
4958		-78.125000
4959		-74.218750
4960		-76.171875
4961		-72.265625
4962		-74.218750
4963		-68.359375
4964		-72.265625
4965		-66.406250
4966		-68.359375
4967		-62.500000
4968		-64.453125
4969		-58.593750
4970		-60.546875
4971		-56.640625
4972		-58.593750
4973		-52.734375
4974		-54.687500
4975		-48.828125
4976		-50.781250
4977		-44.921875
4978		-46.875000
4979		-41.015625
4980		-42.968750
4981		-35.156250
4982		-39.062500
4983		-33.203125
4984		-35.156250
4985		-29.296875
4986		-29.296875
4987		-25.390625
4988		-25.390625
4989		-19.531250
4990		-21.484375
4991		-13.671875
4992		-15.625000
4993		-11.718750
4994		-11.718750
4995		-5.859375
4996		-7.812500
4997		-1.953125
4998		-5.859375
4999		3.906250
5000		0.000000
5001		7.812500
5002		5.859375
5003		11.718750
5004		11.718750
5005		17.578125
5006		15.625000
5007		21.484375
5008		19.531250
5009		25.390625
5010		23.437500
5011		29.296875
5012		29.296875
5013		33.203125
5014		31.250000
5015		39.062500
5016		37.109375
5017		42.968750
5018		41.015625
5019		46.875000
5020		44.921875
5021		50.781250
5022		48.828125
5023		54.687500
5024		52.734375
5025		56.640625
5026		56.640625
5027		60.546875
5028		58.593750
5029		64.453125
5030		62.500000
5031		70.312500
5032		64.453125
5033		72.265625
5034		66.406250
5035		72.265625
5036		72.265625
5037		76.171875
5038		74.218750
5039		78.125000
5040		76.171875
5041		80.078125
5042		80.078125
5043		82.031250
5044		82.031250
5045		83.984375
5046		83.984375
5047		85.937500
5048		83.984375
5049		89.843750
5050		85.937500
5051		91.796875
5052		87.890625
5053		91.796875
5054		89.843750
5055		91.796875
5056		89.843750
5057		93.750000
5058		91.796875
5059		93.750000
5060		91.796875
5061		93.750000
5062		91.796875
5063		93.750000
5064		89.843750
5065		95.703125
5066		91.796875
5067		97.656250
5068		91.796875
5069		93.750000
5070		91.796875
5071		93.750000
5072		91.796875
5073		93.750000
5074		89.843750
5075		93.750000
5076		89.843750
5077		91.796875
5078		87.890625
5079		91.796875
5080		85.937500
5081		89.843750
5082		83.984375
5083		89.843750
5084		82.031250
5085		87.890625
5086		82.031250
5087		83.984375
5088		80.078125
5089		83.984375
5090		76.171875
5091		80.078125
5092		74.218750
5093		78.125000
5094		72.265625
5095		76.171875
5096		68.359375
5097		72.265625
5098		64.453125
5099		70.312500
5100		62.500000
5101		68.359375
5102		58.593750
5103		64.453125
5104		56.640625
5105		60.546875
5106		52.734375
5107		56.640625
5108		48.828125
5109		52.734375
5110		44.921875
5111		48.828125
5112		41.015625
5113		46.875000
5114		35.156250
5115		41.015625
5116		29.296875
5117		39.062500
5118		27.343750
5119		35.156250
5120		23.437500
5121		29.296875
5122		19.531250
5123		25.390625
5124		15.625000
5125		21.484375
5126		9.765625
5127		15.625000
5128		5.859375
5129		11.718750
5130		0.000000
5131		7.812500
5132		-3.906250
5133		1.953125
5134		-7.812500
5135		-1.953125
5136		-13.671875
5137		-7.812500
5138		-17.578125
5139		-11.718750
5140		-21.484375
5141		-15.625000
5142		-25.390625
5143		-19.531250
5144		-31.250000
5145		-25.390625
5146		-35.156250
5147		-29.296875
5148		-41.015625
5149		-33.203125
5150		-44.921875
5151		-37.109375
5152		-46.875000
5153		-41.015625
5154		-50.781250
5155		-46.875000
5156		-54.687500
5157		-50.781250
5158		-58.593750
5159		-54.687500
5160		-62.500000
5161		-56.640625
5162		-66.406250
5163		-60.546875
5164		-68.359375
5165		-64.453125
5166		-72.265625
5167		-66.406250
5168		-74.218750
5169		-70.312500
5170		-76.171875
5171		-72.265625
5172		-78.125000
5173		-76.171875
5174		-82.031250
5175		-78.125000
5176		-82.031250
5177		-80.078125
5178		-83.984375
5179		-82.031250
5180		-85.937500
5181		-82.031250
5182		-87.890625
5183		-83.984375
5184		-87.890625
5185		-85.937500
5186		-87.890625
5187		-85.937500
5188		-89.843750
5189		-85.937500
5190		-89.843750
5191		-87.890625
5192		-89.843750
5193		-87.890625
5194		-89.843750
5195		-87.890625
5196		-89.843750
5197		-85.937500
5198		-87.890625
5199		-85.937500
5200		-89.843750
5201		-83.984375
5202		-85.937500
5203		-83.984375
5204		-85.937500
5205		-82.031250
5206		-83.984375
5207		-80.078125
5208		-82.031250
5209		-78.125000
5210		-80.078125
5211		-76.171875
5212		-78.125000
5213		-74.218750
5214		-74.218750
5215		-70.312500
5216		-72.265625
5217		-68.359375
5218		-70.312500
5219		-64.453125
5220		-66.406250
5221		-62.500000
5222		-64.453125
5223		-58.593750
5224		-60.546875
5225		-54.687500
5226		-56.640625
5227		-50.781250
5228		-52.734375
5229		-46.875000
5230		-48.828125
5231		-42.968750
5232		-44.921875
5233		-39.062500
5234		-41.015625
5235		-35.156250
5236		-37.109375
5237		-31.250000
5238		-33.203125
5239		-25.390625
5240		-27.343750
5241		-23.437500
5242		-23.437500
5243		-17.578125
5244		-19.531250
5245		-13.671875
5246		-15.625000
5247		-9.765625
5248		-9.765625
5249		-3.906250
5250		-5.859375
5251		0.000000
5252		-1.953125
5253		3.906250
5254		3.906250
5255		9.765625
5256		7.812500
5257		13.671875
5258		13.671875
5259		19.531250
5260		17.578125
5261		23.437500
5262		21.484375
5263		27.343750
5264		25.390625
5265		31.250000
5266		29.296875
5267		35.156250
5268		33.203125
5269		39.062500
5270		39.062500
5271		44.921875
5272		42.968750
5273		48.828125
5274		46.875000
5275		50.781250
5276		50.781250
5277		54.687500
5278		54.687500
5279		58.593750
5280		56.640625
5281		62.500000
5282		60.546875
5283		66.406250
5284		64.453125
5285		68.359375
5286		66.406250
5287		72.265625
5288		70.312500
5289		74.218750
5290		72.265625
5291		76.171875
5292		76.171875
5293		80.078125
5294		78.125000
5295		82.031250
5296		80.078125
5297		83.984375
5298		82.031250
5299		85.937500
5300		83.984375
5301		87.890625
5302		85.937500
5303		87.890625
5304		87.890625
5305		89.843750
5306		87.890625
5307		91.796875
5308		89.843750
5309		91.796875
5310		91.796875
5311		93.750000
5312		91.796875
5313		93.750000
5314		91.796875
5315		93.750000
5316		91.796875
5317		93.750000
5318		91.796875
5319		95.703125
5320		91.796875
5321		95.703125
5322		91.796875
5323		93.750000
5324		91.796875
5325		93.750000
5326		89.843750
5327		93.750000
5328		89.843750
5329		91.796875
5330		87.890625
5331		91.796875
5332		87.890625
5333		89.843750
5334		85.937500
5335		89.843750
5336		83.984375
5337		87.890625
5338		82.031250
5339		85.937500
5340		80.078125
5341		83.984375
5342		78.125000
5343		82.031250
5344		76.171875
5345		80.078125
5346		72.265625
5347		76.171875
5348		70.312500
5349		74.218750
5350		66.406250
5351		72.265625
5352		64.453125
5353		68.359375
5354		60.546875
5355		64.453125
5356		56.640625
5357		62.500000
5358		54.687500
5359		58.593750
5360		50.781250
5361		54.687500
5362		46.875000
5363		50.781250
5364		42.968750
5365		46.875000
5366		39.062500
5367		42.968750
5368		33.203125
5369		41.015625
5370		29.296875
5371		35.156250
5372		25.390625
5373		31.250000
5374		21.484375
5375		27.343750
5376		17.578125
5377		21.484375
5378		11.718750
5379		17.578125
5380		7.812500
5381		13.671875
5382		3.906250
5383		9.765625
5384		-1.953125
5385		3.906250
5386		-5.859375
5387		0.000000
5388		-9.765625
5389		-3.906250
5390		-15.625000
5391		-9.765625
5392		-19.531250
5393		-13.671875
5394		-23.437500
5395		-17.578125
5396		-29.296875
5397		-21.484375
5398		-33.203125
5399		-27.343750
5400		-37.109375
5401		-31.250000
5402		-41.015625
5403		-35.156250
5404		-44.921875
5405		-41.015625
5406		-48.828125
5407		-44.921875
5408		-52.734375
5409		-48.828125
5410		-56.640625
5411		-52.734375
5412		-60.546875
5413		-54.687500
5414		-64.453125
5415		-58.593750
5416		-66.406250
5417		-62.500000
5418		-70.312500
5419		-66.406250
5420		-72.265625
5421		-68.359375
5422		-76.171875
5423		-72.265625
5424		-78.125000
5425		-74.218750
5426		-80.078125
5427		-76.171875
5428		-82.031250
5429		-78.125000
5430		-83.984375
5431		-80.078125
5432		-85.937500
5433		-82.031250
5434		-85.937500
5435		-83.984375
5436		-87.890625
5437		-85.937500
5438		-87.890625
5439		-85.937500
5440		-89.843750
5441		-85.937500
5442		-89.843750
5443		-87.890625
5444		-89.843750
5445		-87.890625
5446		-89.843750
5447		-87.890625
5448		-89.843750
5449		-85.937500
5450		-87.890625
5451		-85.937500
5452		-87.890625
5453		-85.937500
5454		-87.890625
5455		-83.984375
5456		-85.937500
5457		-82.031250
5458		-83.984375
5459		-82.031250
5460		-82.031250
5461		-80.078125
5462		-82.031250
5463		-78.125000
5464		-78.125000
5465		-76.171875
5466		-76.171875
5467		-72.265625
5468		-74.218750
5469		-70.312500
5470		-70.312500
5471		-66.406250
5472		-68.359375
5473		-64.453125
5474		-64.453125
5475		-60.546875
5476		-62.500000
5477		-56.640625
5478		-58.593750
5479		-52.734375
5480		-54.687500
5481		-48.828125
5482		-50.781250
5483		-44.921875
5484		-46.875000
5485		-41.015625
5486		-42.968750
5487		-37.109375
5488		-39.062500
5489		-33.203125
5490		-35.156250
5491		-29.296875
5492		-29.296875
5493		-25.390625
5494		-27.343750
5495		-19.531250
5496		-21.484375
5497		-15.625000
5498		-17.578125
5499		-11.718750
5500		-11.718750
5501		-5.859375
5502		-7.812500
5503		-1.953125
5504		-3.906250
5505		1.953125
5506		1.953125
5507		7.812500
5508		5.859375
5509		11.718750
5510		9.765625
5511		15.625000
5512		15.625000
5513		19.531250
5514		19.531250
5515		25.390625
5516		23.437500
5517		29.296875
5518		27.343750
5519		33.203125
5520		33.203125
5521		37.109375
5522		37.109375
5523		41.015625
5524		41.015625
5525		44.921875
5526		44.921875
5527		48.828125
5528		48.828125
5529		52.734375
5530		52.734375
5531		56.640625
5532		56.640625
5533		60.546875
5534		58.593750
5535		64.453125
5536		62.500000
5537		66.406250
5538		64.453125
5539		70.312500
5540		68.359375
5541		72.265625
5542		72.265625
5543		76.171875
5544		74.218750
5545		78.125000
5546		76.171875
5547		80.078125
5548		78.125000
5549		82.031250
5550		80.078125
5551		83.984375
5552		83.984375
5553		85.937500
5554		83.984375
5555		87.890625
5556		85.937500
5557		89.843750
5558		87.890625
5559		89.843750
5560		89.843750
5561		91.796875
5562		89.843750
5563		93.750000
5564		91.796875
5565		93.750000
5566		91.796875
5567		93.750000
5568		91.796875
5569		93.750000
5570		91.796875
5571		93.750000
5572		91.796875
5573		93.750000
5574		91.796875
5575		93.750000
5576		91.796875
5577		93.750000
5578		91.796875
5579		93.750000
5580		89.843750
5581		91.796875
5582		89.843750
5583		91.796875
5584		87.890625
5585		89.843750
5586		85.937500
5587		89.843750
5588		83.984375
5589		87.890625
5590		83.984375
5591		85.937500
5592		82.031250
5593		83.984375
5594		80.078125
5595		82.031250
5596		76.171875
5597		80.078125
5598		74.218750
5599		78.125000
5600		70.312500
5601		76.171875
5602		68.359375
5603		72.265625
5604		64.453125
5605		70.312500
5606		62.500000
5607		66.406250
5608		58.593750
5609		64.453125
5610		54.687500
5611		60.546875
5612		50.781250
5613		56.640625
5614		46.875000
5615		52.734375
5616		44.921875
5617		48.828125
5618		41.015625
5619		44.921875
5620		35.156250
5621		41.015625
5622		31.250000
5623		37.109375
5624		27.343750
5625		33.203125
5626		23.437500
5627		29.296875
5628		19.531250
5629		25.390625
5630		13.671875
5631		19.531250
5632		9.765625
5633		15.625000
5634		5.859375
5635		11.718750
5636		0.000000
5637		5.859375
5638		-3.906250
5639		1.953125
5640		-7.812500
5641		-1.953125
5642		-13.671875
5643		-7.812500
5644		-17.578125
5645		-11.718750
5646		-21.484375
5647		-15.625000
5648		-27.343750
5649		-21.484375
5650		-31.250000
5651		-25.390625
5652		-35.156250
5653		-29.296875
5654		-39.062500
5655		-33.203125
5656		-42.968750
5657		-39.062500
5658		-46.875000
5659		-42.968750
5660		-50.781250
5661		-46.875000
5662		-54.687500
5663		-50.781250
5664		-58.593750
5665		-54.687500
5666		-62.500000
5667		-58.593750
5668		-66.406250
5669		-60.546875
5670		-68.359375
5671		-64.453125
5672		-72.265625
5673		-66.406250
5674		-74.218750
5675		-70.312500
5676		-76.171875
5677		-72.265625
5678		-80.078125
5679		-76.171875
5680		-82.031250
5681		-78.125000
5682		-83.984375
5683		-80.078125
5684		-85.937500
5685		-82.031250
5686		-85.937500
5687		-83.984375
5688		-87.890625
5689		-83.984375
5690		-87.890625
5691		-85.937500
5692		-89.843750
5693		-85.937500
5694		-89.843750
5695		-87.890625
5696		-89.843750
5697		-87.890625
5698		-89.843750
5699		-87.890625
5700		-89.843750
5701		-87.890625
5702		-89.843750
5703		-87.890625
5704		-87.890625
5705		-85.937500
5706		-87.890625
5707		-85.937500
5708		-85.937500
5709		-83.984375
5710		-85.937500
5711		-82.031250
5712		-83.984375
5713		-80.078125
5714		-82.031250
5715		-78.125000
5716		-80.078125
5717		-76.171875
5718		-78.125000
5719		-74.218750
5720		-76.171875
5721		-72.265625
5722		-72.265625
5723		-68.359375
5724		-70.312500
5725		-66.406250
5726		-66.406250
5727		-62.500000
5728		-64.453125
5729		-58.593750
5730		-60.546875
5731		-56.640625
5732		-56.640625
5733		-52.734375
5734		-52.734375
5735		-48.828125
5736		-48.828125
5737		-44.921875
5738		-44.921875
5739		-41.015625
5740		-41.015625
5741		-35.156250
5742		-37.109375
5743		-31.250000
5744		-33.203125
5745		-27.343750
5746		-29.296875
5747		-23.437500
5748		-23.437500
5749		-17.578125
5750		-19.531250
5751		-13.671875
5752		-15.625000
5753		-9.765625
5754		-9.765625
5755		-5.859375
5756		-5.859375
5757		0.000000
5758		-1.953125
5759		3.906250
5760		3.906250
5761		9.765625
5762		7.812500
5763		13.671875
5764		11.718750
5765		19.531250
5766		17.578125
5767		23.437500
5768		21.484375
5769		27.343750
5770		25.390625
5771		31.250000
5772		29.296875
5773		35.156250
5774		35.156250
5775		39.062500
5776		39.062500
5777		42.968750
5778		42.968750
5779		46.875000
5780		46.875000
5781		50.781250
5782		48.828125
5783		54.687500
5784		52.734375
5785		58.593750
5786		56.640625
5787		62.500000
5788		60.546875
5789		64.453125
5790		64.453125
5791		68.359375
5792		66.406250
5793		70.312500
5794		70.312500
5795		74.218750
5796		72.265625
5797		76.171875
5798		74.218750
5799		78.125000
5800		78.125000
5801		80.078125
5802		80.078125
5803		82.031250
5804		82.031250
5805		85.937500
5806		83.984375
5807		87.890625
5808		85.937500
5809		87.890625
5810		85.937500
5811		89.843750
5812		87.890625
5813		89.843750
5814		89.843750
5815		91.796875
5816		89.843750
5817		93.750000
5818		91.796875
5819		93.750000
5820		91.796875
5821		93.750000
5822		91.796875
5823		93.750000
5824		91.796875
5825		93.750000
5826		91.796875
5827		93.750000
5828		91.796875
5829		93.750000
5830		91.796875
5831		93.750000
5832		89.843750
5833		93.750000
5834		89.843750
5835		91.796875
5836		87.890625
5837		91.796875
5838		87.890625
5839		89.843750
5840		85.937500
5841		87.890625
5842		83.984375
5843		85.937500
5844		82.031250
5845		85.937500
5846		80.078125
5847		83.984375
5848		78.125000
5849		82.031250
5850		74.218750
5851		80.078125
5852		72.265625
5853		76.171875
5854		68.359375
5855		74.218750
5856		66.406250
5857		70.312500
5858		64.453125
5859		68.359375
5860		60.546875
5861		64.453125
5862		56.640625
5863		62.500000
5864		52.734375
5865		58.593750
5866		48.828125
5867		54.687500
5868		44.921875
5869		50.781250
5870		41.015625
5871		46.875000
5872		37.109375
5873		42.968750
5874		33.203125
5875		39.062500
5876		29.296875
5877		35.156250
5878		25.390625
5879		31.250000
5880		21.484375
5881		25.390625
5882		15.625000
5883		21.484375
5884		11.718750
5885		17.578125
5886		5.859375
5887		13.671875
5888		1.953125
5889		7.812500
5890		-1.953125
5891		3.906250
5892		-7.812500
5893		-1.953125
5894		-11.718750
5895		-5.859375
5896		-15.625000
5897		-9.765625
5898		-19.531250
5899		-15.625000
5900		-25.390625
5901		-19.531250
5902		-29.296875
5903		-23.437500
5904		-33.203125
5905		-27.343750
5906		-39.062500
5907		-33.203125
5908		-41.015625
5909		-37.109375
5910		-46.875000
5911		-41.015625
5912		-50.781250
5913		-44.921875
5914		-54.687500
5915		-48.828125
5916		-56.640625
5917		-52.734375
5918		-60.546875
5919		-56.640625
5920		-64.453125
5921		-60.546875
5922		-68.359375
5923		-62.500000
5924		-70.312500
5925		-66.406250
5926		-74.218750
5927		-70.312500
5928		-76.171875
5929		-72.265625
5930		-78.125000
5931		-74.218750
5932		-80.078125
5933		-78.125000
5934		-82.031250
5935		-80.078125
5936		-83.984375
5937		-80.078125
5938		-85.937500
5939		-83.984375
5940		-87.890625
5941		-83.984375
5942		-87.890625
5943		-85.937500
5944		-89.843750
5945		-85.937500
5946		-89.843750
5947		-87.890625
5948		-89.843750
5949		-87.890625
5950		-89.843750
5951		-87.890625
5952		-89.843750
5953		-87.890625
5954		-89.843750
5955		-87.890625
5956		-89.843750
5957		-87.890625
5958		-87.890625
5959		-85.937500
5960		-87.890625
5961		-83.984375
5962		-85.937500
5963		-83.984375
5964		-83.984375
5965		-82.031250
5966		-83.984375
5967		-80.078125
5968		-82.031250
5969		-78.125000
5970		-80.078125
5971		-74.218750
5972		-78.125000
5973		-72.265625
5974		-74.218750
5975		-70.312500
5976		-72.265625
5977		-68.359375
5978		-68.359375
5979		-64.453125
5980		-66.406250
5981		-60.546875
5982		-62.500000
5983		-56.640625
5984		-58.593750
5985		-54.687500
5986		-54.687500
5987		-50.781250
5988		-50.781250
5989		-46.875000
5990		-46.875000
5991		-42.968750
5992		-42.968750
5993		-37.109375
5994		-39.062500
5995		-33.203125
5996		-35.156250
5997		-29.296875
5998		-31.250000
5999		-25.390625
6000		-25.390625
6001		-19.531250
6002		-21.484375
6003		-15.625000
6004		-17.578125
6005		-11.718750
6006		-13.671875
6007		-7.812500
6008		-7.812500
6009		-1.953125
6010		-3.906250
6011		1.953125
6012		1.953125
6013		7.812500
6014		5.859375
6015		11.718750
6016		9.765625
6017		15.625000
6018		15.625000
6019		19.531250
6020		19.531250
6021		25.390625
6022		23.437500
6023		29.296875
6024		27.343750
6025		33.203125
6026		33.203125
6027		39.062500
6028		35.156250
6029		41.015625
6030		41.015625
6031		46.875000
6032		42.968750
6033		48.828125
6034		46.875000
6035		56.640625
6036		50.781250
6037		56.640625
6038		54.687500
6039		60.546875
6040		58.593750
6041		64.453125
6042		62.500000
6043		66.406250
6044		62.500000
6045		70.312500
6046		68.359375
6047		72.265625
6048		70.312500
6049		76.171875
6050		74.218750
6051		78.125000
6052		74.218750
6053		80.078125
6054		78.125000
6055		82.031250
6056		80.078125
6057		85.937500
6058		82.031250
6059		87.890625
6060		83.984375
6061		89.843750
6062		85.937500
6063		89.843750
6064		85.937500
6065		91.796875
6066		87.890625
6067		91.796875
6068		87.890625
6069		93.750000
6070		91.796875
6071		93.750000
6072		91.796875
6073		93.750000
6074		91.796875
6075		95.703125
6076		89.843750
6077		97.656250
6078		91.796875
6079		95.703125
6080		91.796875
6081		95.703125
6082		89.843750
6083		95.703125
6084		87.890625
6085		93.750000
6086		89.843750
6087		91.796875
6088		87.890625
6089		91.796875
6090		85.937500
6091		89.843750
6092		83.984375
6093		91.796875
6094		82.031250
6095		89.843750
6096		82.031250
6097		85.937500
6098		78.125000
6099		85.937500
6100		78.125000
6101		85.937500
6102		72.265625
6103		82.031250
6104		74.218750
6105		78.125000
6106		70.312500
6107		74.218750
6108		66.406250
6109		74.218750
6110		62.500000
6111		70.312500
6112		60.546875
6113		66.406250
6114		58.593750
6115		62.500000
6116		52.734375
6117		62.500000
6118		48.828125
6119		56.640625
6120		46.875000
6121		52.734375
6122		42.968750
6123		48.828125
6124		39.062500
6125		44.921875
6126		33.203125
6127		42.968750
6128		31.250000
6129		37.109375
6130		27.343750
6131		33.203125
6132		19.531250
6133		29.296875
6134		17.578125
6135		25.390625
6136		13.671875
6137		21.484375
6138		9.765625
6139		13.671875
6140		3.906250
6141		9.765625
6142		-3.906250
6143		5.859375
6144		-5.859375
6145		1.953125
6146		-9.765625
6147		-3.906250
6148		-17.578125
6149		-7.812500
6150		-19.531250
6151		-7.812500
6152		-25.390625
6153		-15.625000
6154		-27.343750
6155		-21.484375
6156		-31.250000
6157		-25.390625
6158		-37.109375
6159		-29.296875
6160		-41.015625
6161		-31.250000
6162		-44.921875
6163		-37.109375
6164		-48.828125
6165		-42.968750
6166		-56.640625
6167		-44.921875
6168		-60.546875
6169		-50.781250
6170		-60.546875
6171		-50.781250
6172		-62.500000
6173		-58.593750
6174		-68.359375
6175		-62.500000
6176		-72.265625
6177		-64.453125
6178		-74.218750
6179		-66.406250
6180		-76.171875
6181		-70.312500
6182		-80.078125
6183		-72.265625
6184		-82.031250
6185		-72.265625
6186		-85.937500
6187		-76.171875
6188		-83.984375
6189		-80.078125
6190		-85.937500
6191		-82.031250
6192		-87.890625
6193		-83.984375
6194		-91.796875
6195		-82.031250
6196		-89.843750
6197		-85.937500
6198		-91.796875
6199		-87.890625
6200		-93.750000
6201		-83.984375
6202		-93.750000
6203		-85.937500
6204		-91.796875
6205		-87.890625
6206		-89.843750
6207		-87.890625
6208		-91.796875
6209		-85.937500
6210		-91.796875
6211		-83.984375
6212		-89.843750
6213		-83.984375
6214		-87.890625
6215		-83.984375
6216		-87.890625
6217		-80.078125
6218		-87.890625
6219		-80.078125
6220		-83.984375
6221		-78.125000
6222		-80.078125
6223		-76.171875
6224		-78.125000
6225		-74.218750
6226		-76.171875
6227		-70.312500
6228		-76.171875
6229		-68.359375
6230		-70.312500
6231		-66.406250
6232		-68.359375
6233		-60.546875
6234		-66.406250
6235		-56.640625
6236		-62.500000
6237		-54.687500
6238		-56.640625
6239		-52.734375
6240		-52.734375
6241		-48.828125
6242		-48.828125
6243		-42.968750
6244		-46.875000
6245		-39.062500
6246		-42.968750
6247		-35.156250
6248		-37.109375
6249		-31.250000
6250		-33.203125
6251		-23.437500
6252		-29.296875
6253		-23.437500
6254		-27.343750
6255		-17.578125
6256		-19.531250
6257		-13.671875
6258		-15.625000
6259		-7.812500
6260		-11.718750
6261		-3.906250
6262		-5.859375
6263		0.000000
6264		-1.953125
6265		3.906250
6266		3.906250
6267		11.718750
6268		3.906250
6269		13.671875
6270		11.718750
6271		19.531250
6272		15.625000
6273		23.437500
6274		21.484375
6275		27.343750
6276		23.437500
6277		31.250000
6278		27.343750
6279		37.109375
6280		33.203125
6281		39.062500
6282		39.062500
6283		42.968750
6284		41.015625
6285		46.875000
6286		44.921875
6287		54.687500
6288		50.781250
6289		54.687500
6290		52.734375
6291		58.593750
6292		56.640625
6293		62.500000
6294		58.593750
6295		66.406250
6296		62.500000
6297		68.359375
6298		66.406250
6299		70.312500
6300		68.359375
6301		74.218750
6302		72.265625
6303		76.171875
6304		74.218750
6305		78.125000
6306		76.171875
6307		82.031250
6308		80.078125
6309		83.984375
6310		82.031250
6311		85.937500
6312		82.031250
6313		87.890625
6314		83.984375
6315		87.890625
6316		85.937500
6317		89.843750
6318		87.890625
6319		89.843750
6320		87.890625
6321		91.796875
6322		89.843750
6323		93.750000
6324		89.843750
6325		93.750000
6326		91.796875
6327		93.750000
6328		91.796875
6329		93.750000
6330		91.796875
6331		93.750000
6332		91.796875
6333		93.750000
6334		91.796875
6335		93.750000
6336		89.843750
6337		93.750000
6338		89.843750
6339		91.796875
6340		89.843750
6341		91.796875
6342		87.890625
6343		89.843750
6344		85.937500
6345		89.843750
6346		85.937500
6347		87.890625
6348		82.031250
6349		85.937500
6350		82.031250
6351		83.984375
6352		80.078125
6353		82.031250
6354		76.171875
6355		80.078125
6356		74.218750
6357		78.125000
6358		72.265625
6359		76.171875
6360		68.359375
6361		74.218750
6362		64.453125
6363		72.265625
6364		62.500000
6365		68.359375
6366		58.593750
6367		66.406250
6368		54.687500
6369		62.500000
6370		50.781250
6371		58.593750
6372		48.828125
6373		54.687500
6374		44.921875
6375		50.781250
6376		39.062500
6377		46.875000
6378		35.156250
6379		42.968750
6380		33.203125
6381		39.062500
6382		27.343750
6383		35.156250
6384		23.437500
6385		29.296875
6386		19.531250
6387		27.343750
6388		15.625000
6389		21.484375
6390		9.765625
6391		17.578125
6392		5.859375
6393		11.718750
6394		0.000000
6395		7.812500
6396		-3.906250
6397		3.906250
6398		-9.765625
6399		0.000000
6400		-11.718750
6401		-3.906250
6402		-17.578125
6403		-9.765625
6404		-21.484375
6405		-13.671875
6406		-25.390625
6407		-19.531250
6408		-29.296875
6409		-25.390625
6410		-35.156250
6411		-29.296875
6412		-39.062500
6413		-31.250000
6414		-44.921875
6415		-37.109375
6416		-48.828125
6417		-41.015625
6418		-52.734375
6419		-44.921875
6420		-54.687500
6421		-48.828125
6422		-58.593750
6423		-52.734375
6424		-62.500000
6425		-56.640625
6426		-66.406250
6427		-60.546875
6428		-68.359375
6429		-64.453125
6430		-72.265625
6431		-66.406250
6432		-76.171875
6433		-68.359375
6434		-78.125000
6435		-72.265625
6436		-80.078125
6437		-74.218750
6438		-82.031250
6439		-76.171875
6440		-83.984375
6441		-80.078125
6442		-85.937500
6443		-82.031250
6444		-87.890625
6445		-82.031250
6446		-87.890625
6447		-83.984375
6448		-89.843750
6449		-85.937500
6450		-91.796875
6451		-85.937500
6452		-91.796875
6453		-87.890625
6454		-91.796875
6455		-87.890625
6456		-91.796875
6457		-87.890625
6458		-89.843750
6459		-87.890625
6460		-89.843750
6461		-85.937500
6462		-91.796875
6463		-85.937500
6464		-89.843750
6465		-85.937500
6466		-89.843750
6467		-83.984375
6468		-87.890625
6469		-83.984375
6470		-87.890625
6471		-82.031250
6472		-83.984375
6473		-80.078125
6474		-82.031250
6475		-78.125000
6476		-80.078125
6477		-76.171875
6478		-78.125000
6479		-72.265625
6480		-74.218750
6481		-70.312500
6482		-72.265625
6483		-66.406250
6484		-68.359375
6485		-64.453125
6486		-66.406250
6487		-60.546875
6488		-62.500000
6489		-56.640625
6490		-58.593750
6491		-54.687500
6492		-54.687500
6493		-50.781250
6494		-52.734375
6495		-44.921875
6496		-46.875000
6497		-42.968750
6498		-42.968750
6499		-39.062500
6500		-41.015625
6501		-35.156250
6502		-35.156250
6503		-29.296875
6504		-31.250000
6505		-25.390625
6506		-27.343750
6507		-21.484375
6508		-21.484375
6509		-15.625000
6510		-17.578125
6511		-11.718750
6512		-13.671875
6513		-7.812500
6514		-7.812500
6515		-1.953125
6516		-3.906250
6517		3.906250
6518		0.000000
6519		7.812500
6520		5.859375
6521		11.718750
6522		7.812500
6523		15.625000
6524		13.671875
6525		19.531250
6526		19.531250
6527		25.390625
6528		21.484375
6529		29.296875
6530		27.343750
6531		33.203125
6532		31.250000
6533		37.109375
6534		33.203125
6535		41.015625
6536		39.062500
6537		44.921875
6538		42.968750
6539		50.781250
6540		46.875000
6541		52.734375
6542		50.781250
6543		56.640625
6544		54.687500
6545		60.546875
6546		58.593750
6547		64.453125
6548		62.500000
6549		66.406250
6550		64.453125
6551		70.312500
6552		68.359375
6553		72.265625
6554		70.312500
6555		74.218750
6556		72.265625
6557		78.125000
6558		76.171875
6559		80.078125
6560		78.125000
6561		83.984375
6562		80.078125
6563		83.984375
6564		82.031250
6565		85.937500
6566		83.984375
6567		89.843750
6568		85.937500
6569		89.843750
6570		87.890625
6571		89.843750
6572		87.890625
6573		91.796875
6574		89.843750
6575		91.796875
6576		89.843750
6577		93.750000
6578		89.843750
6579		93.750000
6580		91.796875
6581		93.750000
6582		91.796875
6583		93.750000
6584		91.796875
6585		93.750000
6586		91.796875
6587		93.750000
6588		89.843750
6589		93.750000
6590		89.843750
6591		93.750000
6592		89.843750
6593		91.796875
6594		87.890625
6595		91.796875
6596		87.890625
6597		89.843750
6598		83.984375
6599		89.843750
6600		83.984375
6601		87.890625
6602		82.031250
6603		85.937500
6604		80.078125
6605		83.984375
6606		78.125000
6607		82.031250
6608		76.171875
6609		80.078125
6610		72.265625
6611		78.125000
6612		70.312500
6613		74.218750
6614		66.406250
6615		72.265625
6616		64.453125
6617		68.359375
6618		60.546875
6619		66.406250
6620		58.593750
6621		62.500000
6622		54.687500
6623		60.546875
6624		50.781250
6625		56.640625
6626		46.875000
6627		52.734375
6628		42.968750
6629		48.828125
6630		39.062500
6631		44.921875
6632		35.156250
6633		41.015625
6634		31.250000
6635		37.109375
6636		25.390625
6637		31.250000
6638		21.484375
6639		27.343750
6640		17.578125
6641		23.437500
6642		13.671875
6643		19.531250
6644		5.859375
6645		13.671875
6646		3.906250
6647		9.765625
6648		0.000000
6649		5.859375
6650		-5.859375
6651		0.000000
6652		-9.765625
6653		-3.906250
6654		-13.671875
6655		-7.812500
6656		-21.484375
6657		-13.671875
6658		-23.437500
6659		-17.578125
6660		-27.343750
6661		-21.484375
6662		-33.203125
6663		-27.343750
6664		-37.109375
6665		-31.250000
6666		-41.015625
6667		-35.156250
6668		-44.921875
6669		-39.062500
6670		-48.828125
6671		-42.968750
6672		-52.734375
6673		-46.875000
6674		-56.640625
6675		-50.781250
6676		-60.546875
6677		-54.687500
6678		-64.453125
6679		-58.593750
6680		-66.406250
6681		-62.500000
6682		-70.312500
6683		-64.453125
6684		-72.265625
6685		-68.359375
6686		-76.171875
6687		-70.312500
6688		-78.125000
6689		-74.218750
6690		-80.078125
6691		-76.171875
6692		-82.031250
6693		-78.125000
6694		-83.984375
6695		-80.078125
6696		-85.937500
6697		-82.031250
6698		-87.890625
6699		-83.984375
6700		-89.843750
6701		-85.937500
6702		-89.843750
6703		-85.937500
6704		-89.843750
6705		-87.890625
6706		-91.796875
6707		-87.890625
6708		-91.796875
6709		-87.890625
6710		-89.843750
6711		-87.890625
6712		-91.796875
6713		-87.890625
6714		-89.843750
6715		-87.890625
6716		-89.843750
6717		-87.890625
6718		-89.843750
6719		-85.937500
6720		-87.890625
6721		-83.984375
6722		-87.890625
6723		-82.031250
6724		-83.984375
6725		-80.078125
6726		-82.031250
6727		-80.078125
6728		-80.078125
6729		-76.171875
6730		-78.125000
6731		-74.218750
6732		-76.171875
6733		-72.265625
6734		-74.218750
6735		-68.359375
6736		-70.312500
6737		-66.406250
6738		-68.359375
6739		-62.500000
6740		-64.453125
6741		-58.593750
6742		-60.546875
6743		-56.640625
6744		-56.640625
6745		-52.734375
6746		-54.687500
6747		-48.828125
6748		-50.781250
6749		-44.921875
6750		-44.921875
6751		-39.062500
6752		-41.015625
6753		-37.109375
6754		-37.109375
6755		-31.250000
6756		-33.203125
6757		-27.343750
6758		-29.296875
6759		-23.437500
6760		-23.437500
6761		-17.578125
6762		-19.531250
6763		-13.671875
6764		-15.625000
6765		-9.765625
6766		-11.718750
6767		-3.906250
6768		-5.859375
6769		0.000000
6770		-1.953125
6771		3.906250
6772		3.906250
6773		9.765625
6774		7.812500
6775		13.671875
6776		11.718750
6777		17.578125
6778		15.625000
6779		23.437500
6780		19.531250
6781		27.343750
6782		25.390625
6783		31.250000
6784		29.296875
6785		35.156250
6786		33.203125
6787		39.062500
6788		37.109375
6789		42.968750
6790		41.015625
6791		46.875000
6792		44.921875
6793		50.781250
6794		48.828125
6795		54.687500
6796		52.734375
6797		58.593750
6798		56.640625
6799		62.500000
6800		60.546875
6801		64.453125
6802		62.500000
6803		68.359375
6804		66.406250
6805		72.265625
6806		68.359375
6807		74.218750
6808		72.265625
6809		76.171875
6810		74.218750
6811		78.125000
6812		76.171875
6813		80.078125
6814		78.125000
6815		83.984375
6816		80.078125
6817		85.937500
6818		83.984375
6819		87.890625
6820		83.984375
6821		87.890625
6822		85.937500
6823		89.843750
6824		87.890625
6825		91.796875
6826		87.890625
6827		91.796875
6828		89.843750
6829		93.750000
6830		89.843750
6831		93.750000
6832		89.843750
6833		93.750000
6834		91.796875
6835		93.750000
6836		91.796875
6837		93.750000
6838		91.796875
6839		93.750000
6840		89.843750
6841		93.750000
6842		89.843750
6843		93.750000
6844		89.843750
6845		91.796875
6846		87.890625
6847		91.796875
6848		87.890625
6849		91.796875
6850		85.937500
6851		89.843750
6852		83.984375
6853		87.890625
6854		82.031250
6855		85.937500
6856		82.031250
6857		83.984375
6858		78.125000
6859		82.031250
6860		76.171875
6861		80.078125
6862		74.218750
6863		78.125000
6864		72.265625
6865		76.171875
6866		68.359375
6867		72.265625
6868		66.406250
6869		70.312500
6870		62.500000
6871		68.359375
6872		58.593750
6873		64.453125
6874		56.640625
6875		60.546875
6876		52.734375
6877		56.640625
6878		48.828125
6879		54.687500
6880		44.921875
6881		50.781250
6882		41.015625
6883		46.875000
6884		37.109375
6885		42.968750
6886		31.250000
6887		39.062500
6888		27.343750
6889		35.156250
6890		23.437500
6891		29.296875
6892		19.531250
6893		25.390625
6894		15.625000
6895		21.484375
6896		9.765625
6897		15.625000
6898		5.859375
6899		11.718750
6900		1.953125
6901		7.812500
6902		-3.906250
6903		1.953125
6904		-7.812500
6905		-1.953125
6906		-11.718750
6907		-5.859375
6908		-17.578125
6909		-11.718750
6910		-21.484375
6911		-15.625000
6912		-25.390625
6913		-19.531250
6914		-29.296875
6915		-25.390625
6916		-35.156250
6917		-29.296875
6918		-39.062500
6919		-33.203125
6920		-42.968750
6921		-37.109375
6922		-48.828125
6923		-41.015625
6924		-50.781250
6925		-44.921875
6926		-54.687500
6927		-48.828125
6928		-58.593750
6929		-52.734375
6930		-62.500000
6931		-56.640625
6932		-66.406250
6933		-60.546875
6934		-68.359375
6935		-64.453125
6936		-72.265625
6937		-66.406250
6938		-74.218750
6939		-70.312500
6940		-76.171875
6941		-72.265625
6942		-80.078125
6943		-74.218750
6944		-82.031250
6945		-76.171875
6946		-83.984375
6947		-80.078125
6948		-85.937500
6949		-82.031250
6950		-85.937500
6951		-83.984375
6952		-87.890625
6953		-83.984375
6954		-89.843750
6955		-85.937500
6956		-89.843750
6957		-85.937500
6958		-89.843750
6959		-87.890625
6960		-91.796875
6961		-87.890625
6962		-91.796875
6963		-87.890625
6964		-91.796875
6965		-87.890625
6966		-89.843750
6967		-87.890625
6968		-89.843750
6969		-85.937500
6970		-89.843750
6971		-85.937500
6972		-87.890625
6973		-85.937500
6974		-87.890625
6975		-83.984375
6976		-85.937500
6977		-82.031250
6978		-83.984375
6979		-80.078125
6980		-82.031250
6981		-78.125000
6982		-82.031250
6983		-76.171875
6984		-78.125000
6985		-72.265625
6986		-74.218750
6987		-70.312500
6988		-72.265625
6989		-66.406250
6990		-70.312500
6991		-64.453125
6992		-66.406250
6993		-60.546875
6994		-62.500000
6995		-58.593750
6996		-58.593750
6997		-54.687500
6998		-54.687500
6999		-50.781250
7000		-52.734375
7001		-44.921875
7002		-46.875000
7003		-42.968750
7004		-42.968750
7005		-37.109375
7006		-39.062500
7007		-33.203125
7008		-35.156250
7009		-29.296875
7010		-31.250000
7011		-25.390625
7012		-27.343750
7013		-21.484375
7014		-21.484375
7015		-15.625000
7016		-17.578125
7017		-11.718750
7018		-13.671875
7019		-7.812500
7020		-7.812500
7021		-1.953125
7022		-3.906250
7023		1.953125
7024		0.000000
7025		7.812500
7026		5.859375
7027		11.718750
7028		9.765625
7029		15.625000
7030		13.671875
7031		19.531250
7032		17.578125
7033		25.390625
7034		23.437500
7035		29.296875
7036		27.343750
7037		33.203125
7038		31.250000
7039		37.109375
7040		35.156250
7041		41.015625
7042		39.062500
7043		44.921875
7044		42.968750
7045		48.828125
7046		48.828125
7047		52.734375
7048		50.781250
7049		56.640625
7050		54.687500
7051		60.546875
7052		58.593750
7053		62.500000
7054		62.500000
7055		66.406250
7056		64.453125
7057		70.312500
7058		68.359375
7059		72.265625
7060		70.312500
7061		74.218750
7062		72.265625
7063		78.125000
7064		76.171875
7065		80.078125
7066		78.125000
7067		82.031250
7068		80.078125
7069		83.984375
7070		82.031250
7071		85.937500
7072		83.984375
7073		87.890625
7074		85.937500
7075		89.843750
7076		85.937500
7077		91.796875
7078		87.890625
7079		91.796875
7080		89.843750
7081		91.796875
7082		89.843750
7083		93.750000
7084		89.843750
7085		93.750000
7086		91.796875
7087		93.750000
7088		89.843750
7089		93.750000
7090		91.796875
7091		93.750000
7092		89.843750
7093		93.750000
7094		89.843750
7095		93.750000
7096		89.843750
7097		93.750000
7098		87.890625
7099		91.796875
7100		87.890625
7101		91.796875
7102		87.890625
7103		89.843750
7104		85.937500
7105		89.843750
7106		83.984375
7107		87.890625
7108		82.031250
7109		85.937500
7110		80.078125
7111		83.984375
7112		78.125000
7113		82.031250
7114		76.171875
7115		80.078125
7116		72.265625
7117		76.171875
7118		70.312500
7119		74.218750
7120		66.406250
7121		72.265625
7122		64.453125
7123		68.359375
7124		60.546875
7125		66.406250
7126		56.640625
7127		62.500000
7128		54.687500
7129		58.593750
7130		50.781250
7131		54.687500
7132		44.921875
7133		50.781250
7134		42.968750
7135		46.875000
7136		39.062500
7137		44.921875
7138		35.156250
7139		39.062500
7140		29.296875
7141		35.156250
7142		25.390625
7143		31.250000
7144		21.484375
7145		27.343750
7146		17.578125
7147		23.437500
7148		11.718750
7149		19.531250
7150		7.812500
7151		13.671875
7152		1.953125
7153		9.765625
7154		-1.953125
7155		3.906250
7156		-5.859375
7157		0.000000
7158		-9.765625
7159		-3.906250
7160		-15.625000
7161		-9.765625
7162		-19.531250
7163		-13.671875
7164		-25.390625
7165		-17.578125
7166		-29.296875
7167		-23.437500
7168		-33.203125
7169		-27.343750
7170		-37.109375
7171		-31.250000
7172		-41.015625
7173		-35.156250
7174		-44.921875
7175		-41.015625
7176		-48.828125
7177		-42.968750
7178		-52.734375
7179		-48.828125
7180		-56.640625
7181		-52.734375
7182		-62.500000
7183		-54.687500
7184		-64.453125
7185		-58.593750
7186		-66.406250
7187		-62.500000
7188		-70.312500
7189		-66.406250
7190		-74.218750
7191		-68.359375
7192		-76.171875
7193		-72.265625
7194		-78.125000
7195		-74.218750
7196		-80.078125
7197		-76.171875
7198		-82.031250
7199		-80.078125
7200		-83.984375
7201		-80.078125
7202		-87.890625
7203		-83.984375
7204		-87.890625
7205		-83.984375
7206		-89.843750
7207		-85.937500
7208		-89.843750
7209		-87.890625
7210		-89.843750
7211		-87.890625
7212		-91.796875
7213		-87.890625
7214		-91.796875
7215		-89.843750
7216		-91.796875
7217		-87.890625
7218		-91.796875
7219		-87.890625
7220		-91.796875
7221		-87.890625
7222		-89.843750
7223		-87.890625
7224		-89.843750
7225		-85.937500
7226		-87.890625
7227		-85.937500
7228		-87.890625
7229		-82.031250
7230		-85.937500
7231		-82.031250
7232		-83.984375
7233		-80.078125
7234		-82.031250
7235		-78.125000
7236		-80.078125
7237		-74.218750
7238		-76.171875
7239		-72.265625
7240		-74.218750
7241		-68.359375
7242		-72.265625
7243		-66.406250
7244		-68.359375
7245		-62.500000
7246		-66.406250
7247		-60.546875
7248		-60.546875
7249		-56.640625
7250		-58.593750
7251		-52.734375
7252		-54.687500
7253		-46.875000
7254		-50.781250
7255		-44.921875
7256		-46.875000
7257		-41.015625
7258		-42.968750
7259		-37.109375
7260		-37.109375
7261		-31.250000
7262		-33.203125
7263		-27.343750
7264		-29.296875
7265		-23.437500
7266		-23.437500
7267		-17.578125
7268		-19.531250
7269		-13.671875
7270		-15.625000
7271		-9.765625
7272		-11.718750
7273		-5.859375
7274		-5.859375
7275		0.000000
7276		-1.953125
7277		3.906250
7278		1.953125
7279		9.765625
7280		7.812500
7281		13.671875
7282		11.718750
7283		17.578125
7284		15.625000
7285		23.437500
7286		19.531250
7287		27.343750
7288		25.390625
7289		31.250000
7290		29.296875
7291		35.156250
7292		33.203125
7293		39.062500
7294		37.109375
7295		42.968750
7296		41.015625
7297		46.875000
7298		44.921875
7299		50.781250
7300		48.828125
7301		54.687500
7302		52.734375
7303		58.593750
7304		56.640625
7305		62.500000
7306		60.546875
7307		64.453125
7308		62.500000
7309		68.359375
7310		66.406250
7311		70.312500
7312		68.359375
7313		74.218750
7314		72.265625
7315		76.171875
7316		74.218750
7317		78.125000
7318		76.171875
7319		80.078125
7320		78.125000
7321		82.031250
7322		80.078125
7323		85.937500
7324		82.031250
7325		85.937500
7326		83.984375
7327		87.890625
7328		85.937500
7329		89.843750
7330		87.890625
7331		89.843750
7332		87.890625
7333		91.796875
7334		87.890625
7335		93.750000
7336		89.843750
7337		93.750000
7338		89.843750
7339		93.750000
7340		89.843750
7341		93.750000
7342		89.843750
7343		93.750000
7344		89.843750
7345		93.750000
7346		89.843750
7347		93.750000
7348		89.843750
7349		91.796875
7350		87.890625
7351		91.796875
7352		87.890625
7353		91.796875
7354		85.937500
7355		89.843750
7356		85.937500
7357		89.843750
7358		83.984375
7359		87.890625
7360		82.031250
7361		85.937500
7362		80.078125
7363		83.984375
7364		78.125000
7365		82.031250
7366		76.171875
7367		80.078125
7368		72.265625
7369		78.125000
7370		70.312500
7371		76.171875
7372		68.359375
7373		72.265625
7374		64.453125
7375		70.312500
7376		62.500000
7377		66.406250
7378		58.593750
7379		62.500000
7380		54.687500
7381		60.546875
7382		50.781250
7383		56.640625
7384		46.875000
7385		52.734375
7386		44.921875
7387		50.781250
7388		41.015625
7389		44.921875
7390		35.156250
7391		41.015625
7392		31.250000
7393		37.109375
7394		27.343750
7395		33.203125
7396		23.437500
7397		29.296875
7398		17.578125
7399		25.390625
7400		13.671875
7401		19.531250
7402		9.765625
7403		15.625000
7404		3.906250
7405		11.718750
7406		0.000000
7407		7.812500
7408		-3.906250
7409		1.953125
7410		-7.812500
7411		-1.953125
7412		-13.671875
7413		-7.812500
7414		-17.578125
7415		-11.718750
7416		-21.484375
7417		-15.625000
7418		-27.343750
7419		-21.484375
7420		-31.250000
7421		-25.390625
7422		-35.156250
7423		-29.296875
7424		-41.015625
7425		-35.156250
7426		-44.921875
7427		-39.062500
7428		-48.828125
7429		-42.968750
7430		-52.734375
7431		-46.875000
7432		-56.640625
7433		-50.781250
7434		-60.546875
7435		-54.687500
7436		-62.500000
7437		-56.640625
7438		-66.406250
7439		-60.546875
7440		-70.312500
7441		-64.453125
7442		-72.265625
7443		-68.359375
7444		-76.171875
7445		-70.312500
7446		-78.125000
7447		-74.218750
7448		-80.078125
7449		-76.171875
7450		-82.031250
7451		-78.125000
7452		-85.937500
7453		-80.078125
7454		-85.937500
7455		-83.984375
7456		-87.890625
7457		-83.984375
7458		-89.843750
7459		-85.937500
7460		-89.843750
7461		-87.890625
7462		-91.796875
7463		-87.890625
7464		-91.796875
7465		-87.890625
7466		-91.796875
7467		-89.843750
7468		-93.750000
7469		-89.843750
7470		-91.796875
7471		-89.843750
7472		-91.796875
7473		-89.843750
7474		-91.796875
7475		-87.890625
7476		-89.843750
7477		-87.890625
7478		-89.843750
7479		-85.937500
7480		-89.843750
7481		-83.984375
7482		-87.890625
7483		-83.984375
7484		-85.937500
7485		-82.031250
7486		-83.984375
7487		-78.125000
7488		-80.078125
7489		-78.125000
7490		-80.078125
7491		-74.218750
7492		-76.171875
7493		-70.312500
7494		-74.218750
7495		-68.359375
7496		-70.312500
7497		-64.453125
7498		-68.359375
7499		-62.500000
7500		-64.453125
7501		-58.593750
7502		-60.546875
7503		-54.687500
7504		-56.640625
7505		-50.781250
7506		-52.734375
7507		-46.875000
7508		-48.828125
7509		-42.968750
7510		-44.921875
7511		-39.062500
7512		-41.015625
7513		-35.156250
7514		-37.109375
7515		-31.250000
7516		-31.250000
7517		-25.390625
7518		-27.343750
7519		-21.484375
7520		-25.390625
7521		-17.578125
7522		-19.531250
7523		-11.718750
7524		-13.671875
7525		-7.812500
7526		-9.765625
7527		-1.953125
7528		-3.906250
7529		1.953125
7530		0.000000
7531		5.859375
7532		3.906250
7533		9.765625
7534		9.765625
7535		15.625000
7536		13.671875
7537		19.531250
7538		17.578125
7539		23.437500
7540		21.484375
7541		27.343750
7542		25.390625
7543		33.203125
7544		31.250000
7545		37.109375
7546		35.156250
7547		41.015625
7548		39.062500
7549		44.921875
7550		42.968750
7551		48.828125
7552		46.875000
7553		52.734375
7554		50.781250
7555		56.640625
7556		54.687500
7557		58.593750
7558		56.640625
7559		62.500000
7560		60.546875
7561		66.406250
7562		64.453125
7563		68.359375
7564		66.406250
7565		72.265625
7566		70.312500
7567		74.218750
7568		72.265625
7569		76.171875
7570		74.218750
7571		80.078125
7572		76.171875
7573		80.078125
7574		78.125000
7575		83.984375
7576		82.031250
7577		83.984375
7578		82.031250
7579		85.937500
7580		83.984375
7581		87.890625
7582		85.937500
7583		89.843750
7584		87.890625
7585		89.843750
7586		87.890625
7587		91.796875
7588		89.843750
7589		91.796875
7590		89.843750
7591		91.796875
7592		89.843750
7593		93.750000
7594		89.843750
7595		93.750000
7596		89.843750
7597		93.750000
7598		89.843750
7599		93.750000
7600		89.843750
7601		91.796875
7602		89.843750
7603		91.796875
7604		87.890625
7605		91.796875
7606		85.937500
7607		89.843750
7608		85.937500
7609		89.843750
7610		83.984375
7611		87.890625
7612		82.031250
7613		85.937500
7614		80.078125
7615		83.984375
7616		78.125000
7617		82.031250
7618		76.171875
7619		80.078125
7620		74.218750
7621		78.125000
7622		72.265625
7623		76.171875
7624		68.359375
7625		72.265625
7626		66.406250
7627		70.312500
7628		62.500000
7629		68.359375
7630		58.593750
7631		64.453125
7632		56.640625
7633		60.546875
7634		52.734375
7635		56.640625
7636		48.828125
7637		54.687500
7638		44.921875
7639		50.781250
7640		41.015625
7641		46.875000
7642		37.109375
7643		42.968750
7644		33.203125
7645		39.062500
7646		29.296875
7647		35.156250
7648		23.437500
7649		29.296875
7650		19.531250
7651		25.390625
7652		15.625000
7653		21.484375
7654		11.718750
7655		17.578125
7656		5.859375
7657		11.718750
7658		1.953125
7659		7.812500
7660		-1.953125
7661		3.906250
7662		-7.812500
7663		0.000000
7664		-11.718750
7665		-5.859375
7666		-15.625000
7667		-9.765625
7668		-21.484375
7669		-15.625000
7670		-25.390625
7671		-19.531250
7672		-29.296875
7673		-23.437500
7674		-35.156250
7675		-27.343750
7676		-39.062500
7677		-33.203125
7678		-42.968750
7679		-37.109375
7680		-46.875000
7681		-41.015625
7682		-50.781250
7683		-44.921875
7684		-54.687500
7685		-48.828125
7686		-58.593750
7687		-52.734375
7688		-62.500000
7689		-56.640625
7690		-66.406250
7691		-60.546875
7692		-68.359375
7693		-64.453125
7694		-72.265625
7695		-66.406250
7696		-74.218750
7697		-70.312500
7698		-78.125000
7699		-72.265625
7700		-80.078125
7701		-76.171875
7702		-82.031250
7703		-78.125000
7704		-83.984375
7705		-80.078125
7706		-85.937500
7707		-82.031250
7708		-87.890625
7709		-83.984375
7710		-89.843750
7711		-85.937500
7712		-89.843750
7713		-87.890625
7714		-91.796875
7715		-87.890625
7716		-91.796875
7717		-87.890625
7718		-91.796875
7719		-89.843750
7720		-93.750000
7721		-89.843750
7722		-93.750000
7723		-89.843750
7724		-91.796875
7725		-89.843750
7726		-91.796875
7727		-89.843750
7728		-91.796875
7729		-87.890625
7730		-91.796875
7731		-85.937500
7732		-89.843750
7733		-85.937500
7734		-87.890625
7735		-83.984375
7736		-85.937500
7737		-82.031250
7738		-85.937500
7739		-80.078125
7740		-82.031250
7741		-78.125000
7742		-80.078125
7743		-76.171875
7744		-78.125000
7745		-74.218750
7746		-76.171875
7747		-70.312500
7748		-72.265625
7749		-68.359375
7750		-70.312500
7751		-64.453125
7752		-66.406250
7753		-60.546875
7754		-62.500000
7755		-56.640625
7756		-58.593750
7757		-54.687500
7758		-56.640625
7759		-48.828125
7760		-50.781250
7761		-44.921875
7762		-48.828125
7763		-41.015625
7764		-42.968750
7765		-37.109375
7766		-39.062500
7767		-33.203125
7768		-35.156250
7769		-27.343750
7770		-29.296875
7771		-23.437500
7772		-25.390625
7773		-19.531250
7774		-21.484375
7775		-15.625000
7776		-15.625000
7777		-9.765625
7778		-11.718750
7779		-5.859375
7780		-7.812500
7781		-1.953125
7782		-3.906250
7783		3.906250
7784		0.000000
7785		7.812500
7786		5.859375
7787		11.718750
7788		11.718750
7789		17.578125
7790		15.625000
7791		21.484375
7792		19.531250
7793		25.390625
7794		23.437500
7795		31.250000
7796		29.296875
7797		33.203125
7798		33.203125
7799		39.062500
7800		37.109375
7801		42.968750
7802		41.015625
7803		46.875000
7804		44.921875
7805		50.781250
7806		48.828125
7807		54.687500
7808		52.734375
7809		56.640625
7810		54.687500
7811		60.546875
7812		58.593750
7813		62.500000
7814		62.500000
7815		66.406250
7816		64.453125
7817		70.312500
7818		68.359375
7819		72.265625
7820		70.312500
7821		74.218750
7822		72.265625
7823		78.125000
7824		76.171875
7825		80.078125
7826		78.125000
7827		82.031250
7828		80.078125
7829		83.984375
7830		82.031250
7831		85.937500
7832		83.984375
7833		87.890625
7834		83.984375
7835		87.890625
7836		85.937500
7837		89.843750
7838		87.890625
7839		91.796875
7840		87.890625
7841		91.796875
7842		87.890625
7843		91.796875
7844		89.843750
7845		93.750000
7846		89.843750
7847		93.750000
7848		89.843750
7849		93.750000
7850		89.843750
7851		93.750000
7852		89.843750
7853		91.796875
7854		89.843750
7855		91.796875
7856		87.890625
7857		91.796875
7858		87.890625
7859		91.796875
7860		85.937500
7861		89.843750
7862		83.984375
7863		87.890625
7864		83.984375
7865		85.937500
7866		82.031250
7867		85.937500
7868		80.078125
7869		83.984375
7870		78.125000
7871		82.031250
7872		74.218750
7873		80.078125
7874		72.265625
7875		76.171875
7876		70.312500
7877		74.218750
7878		68.359375
7879		72.265625
7880		64.453125
7881		68.359375
7882		60.546875
7883		66.406250
7884		58.593750
7885		62.500000
7886		54.687500
7887		58.593750
7888		50.781250
7889		56.640625
7890		46.875000
7891		52.734375
7892		42.968750
7893		48.828125
7894		39.062500
7895		44.921875
7896		35.156250
7897		41.015625
7898		31.250000
7899		37.109375
7900		25.390625
7901		31.250000
7902		21.484375
7903		27.343750
7904		17.578125
7905		23.437500
7906		13.671875
7907		19.531250
7908		9.765625
7909		15.625000
7910		3.906250
7911		9.765625
7912		0.000000
7913		5.859375
7914		-5.859375
7915		1.953125
7916		-9.765625
7917		-3.906250
7918		-13.671875
7919		-7.812500
7920		-17.578125
7921		-11.718750
7922		-23.437500
7923		-17.578125
7924		-27.343750
7925		-21.484375
7926		-33.203125
7927		-27.343750
7928		-37.109375
7929		-31.250000
7930		-41.015625
7931		-35.156250
7932		-44.921875
7933		-39.062500
7934		-48.828125
7935		-42.968750
7936		-52.734375
7937		-46.875000
7938		-56.640625
7939		-50.781250
7940		-60.546875
7941		-54.687500
7942		-64.453125
7943		-58.593750
7944		-66.406250
7945		-62.500000
7946		-70.312500
7947		-64.453125
7948		-72.265625
7949		-68.359375
7950		-76.171875
7951		-72.265625
7952		-78.125000
7953		-74.218750
7954		-80.078125
7955		-76.171875
7956		-83.984375
7957		-80.078125
7958		-85.937500
7959		-82.031250
7960		-85.937500
7961		-83.984375
7962		-87.890625
7963		-85.937500
7964		-89.843750
7965		-85.937500
7966		-91.796875
7967		-87.890625
7968		-91.796875
7969		-87.890625
7970		-91.796875
7971		-89.843750
7972		-93.750000
7973		-89.843750
7974		-93.750000
7975		-89.843750
7976		-93.750000
7977		-89.843750
7978		-91.796875
7979		-89.843750
7980		-91.796875
7981		-87.890625
7982		-91.796875
7983		-87.890625
7984		-89.843750
7985		-85.937500
7986		-87.890625
7987		-85.937500
7988		-87.890625
7989		-83.984375
7990		-85.937500
7991		-82.031250
7992		-83.984375
7993		-78.125000
7994		-82.031250
7995		-76.171875
7996		-80.078125
7997		-74.218750
7998		-76.171875
7999		-72.265625
8000		-74.218750
8001		-68.359375
8002		-70.312500
8003		-66.406250
8004		-66.406250
8005		-62.500000
8006		-64.453125
8007		-58.593750
8008		-60.546875
8009		-54.687500
8010		-56.640625
8011		-50.781250
8012		-52.734375
8013		-46.875000
8014		-48.828125
8015		-42.968750
8016		-44.921875
8017		-39.062500
8018		-41.015625
8019		-35.156250
8020		-37.109375
8021		-31.250000
8022		-33.203125
8023		-25.390625
8024		-27.343750
8025		-21.484375
8026		-23.437500
8027		-17.578125
8028		-19.531250
8029		-13.671875
8030		-13.671875
8031		-7.812500
8032		-9.765625
8033		-3.906250
8034		-5.859375
8035		1.953125
8036		-1.953125
8037		5.859375
8038		3.906250
8039		9.765625
8040		7.812500
8041		15.625000
8042		13.671875
8043		19.531250
8044		17.578125
8045		23.437500
8046		21.484375
8047		27.343750
8048		27.343750
8049		31.250000
8050		31.250000
8051		35.156250
8052		35.156250
8053		41.015625
8054		39.062500
8055		44.921875
8056		42.968750
8057		48.828125
8058		44.921875
8059		50.781250
8060		48.828125
8061		54.687500
8062		54.687500
8063		58.593750
8064		56.640625
8065		62.500000
8066		60.546875
8067		66.406250
8068		64.453125
8069		70.312500
8070		66.406250
8071		72.265625
8072		68.359375
8073		74.218750
8074		72.265625
8075		78.125000
8076		72.265625
8077		80.078125
8078		78.125000
8079		82.031250
8080		78.125000
8081		83.984375
8082		80.078125
8083		85.937500
8084		82.031250
8085		87.890625
8086		83.984375
8087		87.890625
8088		85.937500
8089		87.890625
8090		85.937500
8091		93.750000
8092		85.937500
8093		93.750000
8094		85.937500
8095		93.750000
8096		89.843750
8097		91.796875
8098		87.890625
8099		93.750000
8100		89.843750
8101		93.750000
8102		87.890625
8103		95.703125
8104		89.843750
8105		91.796875
8106		89.843750
8107		91.796875
8108		85.937500
8109		93.750000
8110		85.937500
8111		93.750000
8112		85.937500
8113		91.796875
8114		83.984375
8115		89.843750
8116		82.031250
8117		89.843750
8118		80.078125
8119		87.890625
8120		80.078125
8121		85.937500
8122		78.125000
8123		82.031250
8124		74.218750
8125		82.031250
8126		72.265625
8127		80.078125
8128		70.312500
8129		78.125000
8130		66.406250
8131		74.218750
8132		66.406250
8133		72.265625
8134		62.500000
8135		68.359375
8136		58.593750
8137		66.406250
8138		56.640625
8139		60.546875
8140		52.734375
8141		58.593750
8142		46.875000
8143		56.640625
8144		42.968750
8145		52.734375
8146		39.062500
8147		48.828125
8148		35.156250
8149		44.921875
8150		31.250000
8151		41.015625
8152		27.343750
8153		37.109375
8154		25.390625
8155		31.250000
8156		19.531250
8157		25.390625
8158		13.671875
8159		21.484375
8160		9.765625
8161		19.531250
8162		3.906250
8163		13.671875
8164		0.000000
8165		9.765625
8166		-3.906250
8167		5.859375
8168		-9.765625
8169		1.953125
8170		-11.718750
8171		-3.906250
8172		-15.625000
8173		-9.765625
8174		-23.437500
8175		-15.625000
8176		-27.343750
8177		-17.578125
8178		-31.250000
8179		-21.484375
8180		-35.156250
8181		-25.390625
8182		-41.015625
8183		-31.250000
8184		-44.921875
8185		-35.156250
8186		-48.828125
8187		-39.062500
8188		-50.781250
8189		-44.921875
8190		-54.687500
8191		-48.828125
8192		-60.546875
8193		-52.734375
8194		-64.453125
8195		-54.687500
8196		-66.406250
8197		-58.593750
8198		-70.312500
8199		-62.500000
8200		-72.265625
8201		-64.453125
8202		-78.125000
8203		-68.359375
8204		-78.125000
8205		-72.265625
8206		-80.078125
8207		-76.171875
8208		-85.937500
8209		-76.171875
8210		-85.937500
8211		-78.125000
8212		-87.890625
8213		-80.078125
8214		-89.843750
8215		-82.031250
8216		-91.796875
8217		-83.984375
8218		-91.796875
8219		-85.937500
8220		-93.750000
8221		-85.937500
8222		-91.796875
8223		-89.843750
8224		-93.750000
8225		-89.843750
8226		-95.703125
8227		-87.890625
8228		-93.750000
8229		-87.890625
8230		-95.703125
8231		-87.890625
8232		-93.750000
8233		-87.890625
8234		-93.750000
8235		-85.937500
8236		-91.796875
8237		-85.937500
8238		-89.843750
8239		-85.937500
8240		-87.890625
8241		-83.984375
8242		-87.890625
8243		-80.078125
8244		-87.890625
8245		-78.125000
8246		-83.984375
8247		-76.171875
8248		-82.031250
8249		-74.218750
8250		-80.078125
8251		-70.312500
8252		-78.125000
8253		-68.359375
8254		-74.218750
8255		-66.406250
8256		-68.359375
8257		-64.453125
8258		-66.406250
8259		-58.593750
8260		-64.453125
8261		-54.687500
8262		-60.546875
8263		-52.734375
8264		-56.640625
8265		-46.875000
8266		-52.734375
8267		-42.968750
8268		-48.828125
8269		-39.062500
8270		-44.921875
8271		-35.156250
8272		-39.062500
8273		-33.203125
8274		-33.203125
8275		-29.296875
8276		-31.250000
8277		-21.484375
8278		-27.343750
8279		-17.578125
8280		-23.437500
8281		-13.671875
8282		-17.578125
8283		-7.812500
8284		-13.671875
8285		-3.906250
8286		-9.765625
8287		1.953125
8288		-3.906250
8289		3.906250
8290		1.953125
8291		7.812500
8292		5.859375
8293		15.625000
8294		9.765625
8295		19.531250
8296		13.671875
8297		23.437500
8298		17.578125
8299		27.343750
8300		21.484375
8301		33.203125
8302		25.390625
8303		37.109375
8304		31.250000
8305		39.062500
8306		37.109375
8307		42.968750
8308		41.015625
8309		46.875000
8310		42.968750
8311		52.734375
8312		46.875000
8313		56.640625
8314		50.781250
8315		58.593750
8316		54.687500
8317		62.500000
8318		56.640625
8319		66.406250
8320		60.546875
8321		68.359375
8322		64.453125
8323		70.312500
8324		68.359375
8325		72.265625
8326		70.312500
8327		78.125000
8328		70.312500
8329		80.078125
8330		74.218750
8331		82.031250
8332		76.171875
8333		83.984375
8334		78.125000
8335		85.937500
8336		80.078125
8337		87.890625
8338		82.031250
8339		89.843750
8340		85.937500
8341		87.890625
8342		85.937500
8343		91.796875
8344		85.937500
8345		91.796875
8346		85.937500
8347		93.750000
8348		87.890625
8349		93.750000
8350		87.890625
8351		93.750000
8352		87.890625
8353		95.703125
8354		87.890625
8355		95.703125
8356		89.843750
8357		91.796875
8358		89.843750
8359		93.750000
8360		87.890625
8361		93.750000
8362		85.937500
8363		93.750000
8364		85.937500
8365		93.750000
8366		83.984375
8367		91.796875
8368		83.984375
8369		89.843750
8370		82.031250
8371		87.890625
8372		82.031250
8373		87.890625
8374		80.078125
8375		83.984375
8376		74.218750
8377		82.031250
8378		72.265625
8379		82.031250
8380		70.312500
8381		78.125000
8382		68.359375
8383		76.171875
8384		64.453125
8385		72.265625
8386		62.500000
8387		70.312500
8388		60.546875
8389		68.359375
8390		56.640625
8391		62.500000
8392		54.687500
8393		60.546875
8394		48.828125
8395		56.640625
8396		44.921875
8397		54.687500
8398		41.015625
8399		50.781250
8400		37.109375
8401		46.875000
8402		33.203125
8403		42.968750
8404		29.296875
8405		39.062500
8406		27.343750
8407		33.203125
8408		21.484375
8409		27.343750
8410		15.625000
8411		23.437500
8412		11.718750
8413		21.484375
8414		5.859375
8415		15.625000
8416		1.953125
8417		11.718750
8418		-1.953125
8419		7.812500
8420		-7.812500
8421		1.953125
8422		-9.765625
8423		-1.953125
8424		-13.671875
8425		-7.812500
8426		-21.484375
8427		-13.671875
8428		-25.390625
8429		-15.625000
8430		-29.296875
8431		-19.531250
8432		-35.156250
8433		-25.390625
8434		-39.062500
8435		-29.296875
8436		-42.968750
8437		-33.203125
8438		-46.875000
8439		-37.109375
8440		-48.828125
8441		-42.968750
8442		-52.734375
8443		-46.875000
8444		-58.593750
8445		-50.781250
8446		-62.500000
8447		-52.734375
8448		-66.406250
8449		-56.640625
8450		-68.359375
8451		-60.546875
8452		-72.265625
8453		-64.453125
8454		-76.171875
8455		-66.406250
8456		-76.171875
8457		-70.312500
8458		-78.125000
8459		-74.218750
8460		-83.984375
8461		-76.171875
8462		-85.937500
8463		-78.125000
8464		-87.890625
8465		-80.078125
8466		-89.843750
8467		-82.031250
8468		-89.843750
8469		-82.031250
8470		-91.796875
8471		-83.984375
8472		-93.750000
8473		-85.937500
8474		-91.796875
8475		-87.890625
8476		-91.796875
8477		-89.843750
8478		-93.750000
8479		-87.890625
8480		-93.750000
8481		-87.890625
8482		-93.750000
8483		-87.890625
8484		-93.750000
8485		-87.890625
8486		-93.750000
8487		-85.937500
8488		-91.796875
8489		-85.937500
8490		-89.843750
8491		-85.937500
8492		-87.890625
8493		-85.937500
8494		-87.890625
8495		-82.031250
8496		-87.890625
8497		-78.125000
8498		-85.937500
8499		-76.171875
8500		-83.984375
8501		-74.218750
8502		-80.078125
8503		-72.265625
8504		-78.125000
8505		-68.359375
8506		-76.171875
8507		-68.359375
8508		-70.312500
8509		-64.453125
8510		-66.406250
8511		-60.546875
8512		-66.406250
8513		-56.640625
8514		-62.500000
8515		-52.734375
8516		-58.593750
8517		-48.828125
8518		-54.687500
8519		-44.921875
8520		-50.781250
8521		-41.015625
8522		-46.875000
8523		-37.109375
8524		-41.015625
8525		-35.156250
8526		-37.109375
8527		-31.250000
8528		-33.203125
8529		-23.437500
8530		-29.296875
8531		-19.531250
8532		-25.390625
8533		-15.625000
8534		-19.531250
8535		-9.765625
8536		-15.625000
8537		-5.859375
8538		-11.718750
8539		0.000000
8540		-5.859375
8541		1.953125
8542		0.000000
8543		5.859375
8544		3.906250
8545		11.718750
8546		5.859375
8547		17.578125
8548		11.718750
8549		21.484375
8550		15.625000
8551		25.390625
8552		19.531250
8553		31.250000
8554		25.390625
8555		35.156250
8556		29.296875
8557		37.109375
8558		35.156250
8559		41.015625
8560		39.062500
8561		44.921875
8562		41.015625
8563		50.781250
8564		44.921875
8565		54.687500
8566		48.828125
8567		58.593750
8568		50.781250
8569		60.546875
8570		56.640625
8571		64.453125
8572		58.593750
8573		68.359375
8574		62.500000
8575		68.359375
8576		66.406250
8577		72.265625
8578		68.359375
8579		76.171875
8580		70.312500
8581		80.078125
8582		72.265625
8583		82.031250
8584		76.171875
8585		83.984375
8586		78.125000
8587		85.937500
8588		80.078125
8589		87.890625
8590		82.031250
8591		87.890625
8592		85.937500
8593		87.890625
8594		85.937500
8595		89.843750
8596		83.984375
8597		93.750000
8598		85.937500
8599		93.750000
8600		87.890625
8601		93.750000
8602		87.890625
8603		95.703125
8604		87.890625
8605		95.703125
8606		87.890625
8607		95.703125
8608		89.843750
8609		93.750000
8610		89.843750
8611		93.750000
8612		87.890625
8613		93.750000
8614		85.937500
8615		93.750000
8616		85.937500
8617		93.750000
8618		83.984375
8619		91.796875
8620		83.984375
8621		91.796875
8622		82.031250
8623		89.843750
8624		82.031250
8625		87.890625
8626		80.078125
8627		83.984375
8628		76.171875
8629		83.984375
8630		74.218750
8631		82.031250
8632		72.265625
8633		80.078125
8634		70.312500
8635		78.125000
8636		66.406250
8637		76.171875
8638		62.500000
8639		72.265625
8640		60.546875
8641		70.312500
8642		60.546875
8643		64.453125
8644		56.640625
8645		60.546875
8646		50.781250
8647		58.593750
8648		46.875000
8649		56.640625
8650		42.968750
8651		52.734375
8652		39.062500
8653		48.828125
8654		35.156250
8655		44.921875
8656		31.250000
8657		41.015625
8658		29.296875
8659		37.109375
8660		23.437500
8661		31.250000
8662		19.531250
8663		25.390625
8664		13.671875
8665		23.437500
8666		9.765625
8667		19.531250
8668		5.859375
8669		15.625000
8670		0.000000
8671		9.765625
8672		-5.859375
8673		5.859375
8674		-7.812500
8675		0.000000
8676		-11.718750
8677		-5.859375
8678		-15.625000
8679		-9.765625
8680		-23.437500
8681		-13.671875
8682		-27.343750
8683		-17.578125
8684		-31.250000
8685		-21.484375
8686		-35.156250
8687		-25.390625
8688		-41.015625
8689		-31.250000
8690		-44.921875
8691		-35.156250
8692		-46.875000
8693		-41.015625
8694		-50.781250
8695		-44.921875
8696		-56.640625
8697		-48.828125
8698		-60.546875
8699		-50.781250
8700		-64.453125
8701		-54.687500
8702		-66.406250
8703		-58.593750
8704		-70.312500
8705		-60.546875
8706		-74.218750
8707		-64.453125
8708		-74.218750
8709		-68.359375
8710		-76.171875
8711		-72.265625
8712		-82.031250
8713		-76.171875
8714		-83.984375
8715		-76.171875
8716		-85.937500
8717		-78.125000
8718		-87.890625
8719		-80.078125
8720		-89.843750
8721		-82.031250
8722		-89.843750
8723		-83.984375
8724		-91.796875
8725		-85.937500
8726		-89.843750
8727		-87.890625
8728		-91.796875
8729		-89.843750
8730		-93.750000
8731		-87.890625
8732		-93.750000
8733		-87.890625
8734		-93.750000
8735		-87.890625
8736		-93.750000
8737		-87.890625
8738		-93.750000
8739		-85.937500
8740		-93.750000
8741		-85.937500
8742		-91.796875
8743		-85.937500
8744		-87.890625
8745		-85.937500
8746		-87.890625
8747		-82.031250
8748		-87.890625
8749		-80.078125
8750		-85.937500
8751		-78.125000
8752		-83.984375
8753		-76.171875
8754		-82.031250
8755		-74.218750
8756		-80.078125
8757		-72.265625
8758		-78.125000
8759		-70.312500
8760		-72.265625
8761		-66.406250
8762		-68.359375
8763		-64.453125
8764		-68.359375
8765		-58.593750
8766		-64.453125
8767		-54.687500
8768		-60.546875
8769		-50.781250
8770		-56.640625
8771		-46.875000
8772		-52.734375
8773		-42.968750
8774		-48.828125
8775		-39.062500
8776		-42.968750
8777		-37.109375
8778		-37.109375
8779		-33.203125
8780		-33.203125
8781		-25.390625
8782		-31.250000
8783		-21.484375
8784		-27.343750
8785		-17.578125
8786		-21.484375
8787		-13.671875
8788		-17.578125
8789		-7.812500
8790		-13.671875
8791		-3.906250
8792		-9.765625
8793		0.000000
8794		-1.953125
8795		3.906250
8796		1.953125
8797		11.718750
8798		3.906250
8799		15.625000
8800		9.765625
8801		19.531250
8802		13.671875
8803		23.437500
8804		19.531250
8805		27.343750
8806		23.437500
8807		31.250000
8808		27.343750
8809		37.109375
8810		33.203125
8811		39.062500
8812		37.109375
8813		42.968750
8814		41.015625
8815		48.828125
8816		42.968750
8817		52.734375
8818		46.875000
8819		56.640625
8820		50.781250
8821		60.546875
8822		52.734375
8823		62.500000
8824		56.640625
8825		66.406250
8826		60.546875
8827		68.359375
8828		66.406250
8829		70.312500
8830		68.359375
8831		76.171875
8832		68.359375
8833		78.125000
8834		72.265625
8835		80.078125
8836		74.218750
8837		82.031250
8838		76.171875
8839		83.984375
8840		78.125000
8841		85.937500
8842		80.078125
8843		87.890625
8844		83.984375
8845		87.890625
8846		85.937500
8847		87.890625
8848		83.984375
8849		91.796875
8850		85.937500
8851		91.796875
8852		85.937500
8853		93.750000
8854		85.937500
8855		93.750000
8856		87.890625
8857		95.703125
8858		87.890625
8859		95.703125
8860		89.843750
8861		93.750000
8862		89.843750
8863		91.796875
8864		87.890625
8865		93.750000
8866		85.937500
8867		93.750000
8868		85.937500
8869		93.750000
8870		85.937500
8871		91.796875
8872		83.984375
8873		91.796875
8874		82.031250
8875		89.843750
8876		82.031250
8877		89.843750
8878		82.031250
8879		85.937500
8880		80.078125
8881		83.984375
8882		76.171875
8883		82.031250
8884		74.218750
8885		80.078125
8886		72.265625
8887		78.125000
8888		68.359375
8889		76.171875
8890		66.406250
8891		74.218750
8892		64.453125
8893		70.312500
8894		60.546875
8895		66.406250
8896		58.593750
8897		62.500000
8898		52.734375
8899		60.546875
8900		48.828125
8901		58.593750
8902		44.921875
8903		54.687500
8904		41.015625
8905		50.781250
8906		37.109375
8907		46.875000
8908		33.203125
8909		42.968750
8910		31.250000
8911		39.062500
8912		27.343750
8913		33.203125
8914		21.484375
8915		27.343750
8916		15.625000
8917		25.390625
8918		11.718750
8919		21.484375
8920		7.812500
8921		15.625000
8922		1.953125
8923		11.718750
8924		-1.953125
8925		7.812500
8926		-5.859375
8927		3.906250
8928		-9.765625
8929		-3.906250
8930		-13.671875
8931		-7.812500
8932		-21.484375
8933		-11.718750
8934		-25.390625
8935		-15.625000
8936		-31.250000
8937		-19.531250
8938		-33.203125
8939		-23.437500
8940		-37.109375
8941		-29.296875
8942		-42.968750
8943		-33.203125
8944		-44.921875
8945		-39.062500
8946		-48.828125
8947		-42.968750
8948		-54.687500
8949		-46.875000
8950		-58.593750
8951		-48.828125
8952		-62.500000
8953		-52.734375
8954		-66.406250
8955		-56.640625
8956		-70.312500
8957		-60.546875
8958		-72.265625
8959		-62.500000
8960		-74.218750
8961		-66.406250
8962		-76.171875
8963		-72.265625
8964		-82.031250
8965		-74.218750
8966		-83.984375
8967		-74.218750
8968		-85.937500
8969		-76.171875
8970		-85.937500
8971		-80.078125
8972		-89.843750
8973		-82.031250
8974		-89.843750
8975		-82.031250
8976		-91.796875
8977		-83.984375
8978		-89.843750
8979		-87.890625
8980		-91.796875
8981		-87.890625
8982		-93.750000
8983		-87.890625
8984		-93.750000
8985		-87.890625
8986		-93.750000
8987		-87.890625
8988		-93.750000
8989		-87.890625
8990		-93.750000
8991		-85.937500
8992		-93.750000
8993		-85.937500
8994		-93.750000
8995		-85.937500
8996		-89.843750
8997		-85.937500
8998		-89.843750
8999		-82.031250
9000		-87.890625
9001		-80.078125
9002		-87.890625
9003		-80.078125
9004		-83.984375
9005		-76.171875
9006		-83.984375
9007		-74.218750
9008		-80.078125
9009		-72.265625
9010		-78.125000
9011		-70.312500
9012		-72.265625
9013		-68.359375
9014		-70.312500
9015		-64.453125
9016		-68.359375
9017		-58.593750
9018		-66.406250
9019		-56.640625
9020		-62.500000
9021		-52.734375
9022		-58.593750
9023		-48.828125
9024		-54.687500
9025		-44.921875
9026		-50.781250
9027		-41.015625
9028		-44.921875
9029		-39.062500
9030		-39.062500
9031		-35.156250
9032		-37.109375
9033		-29.296875
9034		-33.203125
9035		-23.437500
9036		-29.296875
9037		-19.531250
9038		-25.390625
9039		-13.671875
9040		-19.531250
9041		-9.765625
9042		-15.625000
9043		-5.859375
9044		-9.765625
9045		-1.953125
9046		-3.906250
9047		1.953125
9048		0.000000
9049		7.812500
9050		1.953125
9051		13.671875
9052		7.812500
9053		17.578125
9054		11.718750
9055		21.484375
9056		17.578125
9057		27.343750
9058		21.484375
9059		31.250000
9060		25.390625
9061		33.203125
9062		31.250000
9063		37.109375
9064		35.156250
9065		41.015625
9066		39.062500
9067		46.875000
9068		41.015625
9069		50.781250
9070		44.921875
9071		54.687500
9072		48.828125
9073		58.593750
9074		52.734375
9075		62.500000
9076		56.640625
9077		64.453125
9078		60.546875
9079		66.406250
9080		64.453125
9081		68.359375
9082		68.359375
9083		74.218750
9084		68.359375
9085		76.171875
9086		70.312500
9087		78.125000
9088		72.265625
9089		82.031250
9090		76.171875
9091		83.984375
9092		78.125000
9093		85.937500
9094		80.078125
9095		85.937500
9096		83.984375
9097		85.937500
9098		85.937500
9099		87.890625
9100		83.984375
9101		91.796875
9102		85.937500
9103		91.796875
9104		85.937500
9105		93.750000
9106		87.890625
9107		93.750000
9108		87.890625
9109		95.703125
9110		87.890625
9111		95.703125
9112		89.843750
9113		93.750000
9114		91.796875
9115		93.750000
9116		87.890625
9117		95.703125
9118		87.890625
9119		93.750000
9120		85.937500
9121		93.750000
9122		85.937500
9123		93.750000
9124		83.984375
9125		91.796875
9126		83.984375
9127		91.796875
9128		82.031250
9129		89.843750
9130		82.031250
9131		85.937500
9132		80.078125
9133		83.984375
9134		76.171875
9135		85.937500
9136		74.218750
9137		83.984375
9138		72.265625
9139		80.078125
9140		70.312500
9141		78.125000
9142		66.406250
9143		76.171875
9144		64.453125
9145		72.265625
9146		62.500000
9147		68.359375
9148		60.546875
9149		64.453125
9150		54.687500
9151		62.500000
9152		50.781250
9153		60.546875
9154		46.875000
9155		56.640625
9156		42.968750
9157		52.734375
9158		39.062500
9159		48.828125
9160		35.156250
9161		44.921875
9162		33.203125
9163		41.015625
9164		29.296875
9165		35.156250
9166		21.484375
9167		31.250000
9168		17.578125
9169		27.343750
9170		13.671875
9171		23.437500
9172		9.765625
9173		19.531250
9174		3.906250
9175		15.625000
9176		0.000000
9177		9.765625
9178		-3.906250
9179		5.859375
9180		-7.812500
9181		0.000000
9182		-11.718750
9183		-5.859375
9184		-17.578125
9185		-7.812500
9186		-23.437500
9187		-11.718750
9188		-27.343750
9189		-17.578125
9190		-33.203125
9191		-21.484375
9192		-37.109375
9193		-27.343750
9194		-41.015625
9195		-29.296875
9196		-42.968750
9197		-35.156250
9198		-46.875000
9199		-41.015625
9200		-52.734375
9201		-44.921875
9202		-56.640625
9203		-46.875000
9204		-60.546875
9205		-50.781250
9206		-64.453125
9207		-54.687500
9208		-66.406250
9209		-58.593750
9210		-70.312500
9211		-60.546875
9212		-72.265625
9213		-64.453125
9214		-74.218750
9215		-70.312500
9216		-80.078125
9217		-72.265625
9218		-82.031250
9219		-74.218750
9220		-83.984375
9221		-76.171875
9222		-85.937500
9223		-78.125000
9224		-87.890625
9225		-80.078125
9226		-89.843750
9227		-82.031250
9228		-91.796875
9229		-83.984375
9230		-89.843750
9231		-85.937500
9232		-89.843750
9233		-87.890625
9234		-93.750000
9235		-85.937500
9236		-93.750000
9237		-87.890625
9238		-93.750000
9239		-87.890625
9240		-93.750000
9241		-87.890625
9242		-93.750000
9243		-87.890625
9244		-93.750000
9245		-85.937500
9246		-93.750000
9247		-85.937500
9248		-89.843750
9249		-85.937500
9250		-89.843750
9251		-83.984375
9252		-89.843750
9253		-82.031250
9254		-87.890625
9255		-80.078125
9256		-85.937500
9257		-78.125000
9258		-83.984375
9259		-76.171875
9260		-82.031250
9261		-72.265625
9262		-78.125000
9263		-72.265625
9264		-74.218750
9265		-70.312500
9266		-72.265625
9267		-66.406250
9268		-70.312500
9269		-62.500000
9270		-66.406250
9271		-58.593750
9272		-62.500000
9273		-54.687500
9274		-60.546875
9275		-50.781250
9276		-56.640625
9277		-46.875000
9278		-52.734375
9279		-42.968750
9280		-48.828125
9281		-41.015625
9282		-42.968750
9283		-37.109375
9284		-37.109375
9285		-31.250000
9286		-37.109375
9287		-25.390625
9288		-31.250000
9289		-21.484375
9290		-27.343750
9291		-17.578125
9292		-21.484375
9293		-11.718750
9294		-17.578125
9295		-7.812500
9296		-13.671875
9297		-5.859375
9298		-5.859375
9299		0.000000
9300		-1.953125
9301		3.906250
9302		0.000000
9303		9.765625
9304		3.906250
9305		15.625000
9306		9.765625
9307		19.531250
9308		13.671875
9309		25.390625
9310		17.578125
9311		29.296875
9312		23.437500
9313		33.203125
9314		29.296875
9315		35.156250
9316		33.203125
9317		39.062500
9318		37.109375
9319		44.921875
9320		39.062500
9321		46.875000
9322		42.968750
9323		52.734375
9324		46.875000
9325		56.640625
9326		50.781250
9327		60.546875
9328		54.687500
9329		62.500000
9330		58.593750
9331		64.453125
9332		62.500000
9333		66.406250
9334		66.406250
9335		72.265625
9336		66.406250
9337		74.218750
9338		70.312500
9339		78.125000
9340		72.265625
9341		80.078125
9342		74.218750
9343		82.031250
9344		76.171875
9345		83.984375
9346		78.125000
9347		85.937500
9348		82.031250
9349		85.937500
9350		83.984375
9351		87.890625
9352		83.984375
9353		89.843750
9354		85.937500
9355		91.796875
9356		85.937500
9357		93.750000
9358		85.937500
9359		93.750000
9360		87.890625
9361		93.750000
9362		87.890625
9363		95.703125
9364		87.890625
9365		93.750000
9366		91.796875
9367		93.750000
9368		87.890625
9369		95.703125
9370		87.890625
9371		95.703125
9372		85.937500
9373		93.750000
9374		85.937500
9375		93.750000
9376		85.937500
9377		91.796875
9378		83.984375
9379		91.796875
9380		83.984375
9381		89.843750
9382		83.984375
9383		87.890625
9384		82.031250
9385		85.937500
9386		78.125000
9387		85.937500
9388		76.171875
9389		83.984375
9390		72.265625
9391		82.031250
9392		70.312500
9393		78.125000
9394		68.359375
9395		76.171875
9396		64.453125
9397		74.218750
9398		64.453125
9399		70.312500
9400		60.546875
9401		66.406250
9402		56.640625
9403		64.453125
9404		50.781250
9405		62.500000
9406		48.828125
9407		58.593750
9408		44.921875
9409		54.687500
9410		41.015625
9411		50.781250
9412		37.109375
9413		46.875000
9414		35.156250
9415		42.968750
9416		31.250000
9417		37.109375
9418		25.390625
9419		31.250000
9420		21.484375
9421		29.296875
9422		15.625000
9423		25.390625
9424		11.718750
9425		21.484375
9426		5.859375
9427		17.578125
9428		1.953125
9429		11.718750
9430		-1.953125
9431		7.812500
9432		-5.859375
9433		1.953125
9434		-9.765625
9435		-3.906250
9436		-17.578125
9437		-7.812500
9438		-21.484375
9439		-11.718750
9440		-25.390625
9441		-15.625000
9442		-29.296875
9443		-19.531250
9444		-33.203125
9445		-23.437500
9446		-37.109375
9447		-29.296875
9448		-41.015625
9449		-33.203125
9450		-44.921875
9451		-39.062500
9452		-50.781250
9453		-42.968750
9454		-54.687500
9455		-44.921875
9456		-58.593750
9457		-48.828125
9458		-62.500000
9459		-54.687500
9460		-66.406250
9461		-56.640625
9462		-68.359375
9463		-60.546875
9464		-72.265625
9465		-62.500000
9466		-72.265625
9467		-68.359375
9468		-76.171875
9469		-72.265625
9470		-80.078125
9471		-72.265625
9472		-83.984375
9473		-74.218750
9474		-83.984375
9475		-76.171875
9476		-85.937500
9477		-80.078125
9478		-89.843750
9479		-82.031250
9480		-89.843750
9481		-82.031250
9482		-89.843750
9483		-85.937500
9484		-89.843750
9485		-87.890625
9486		-93.750000
9487		-85.937500
9488		-93.750000
9489		-87.890625
9490		-93.750000
9491		-87.890625
9492		-93.750000
9493		-87.890625
9494		-93.750000
9495		-87.890625
9496		-93.750000
9497		-87.890625
9498		-93.750000
9499		-85.937500
9500		-89.843750
9501		-87.890625
9502		-89.843750
9503		-83.984375
9504		-89.843750
9505		-82.031250
9506		-87.890625
9507		-80.078125
9508		-87.890625
9509		-78.125000
9510		-83.984375
9511		-76.171875
9512		-82.031250
9513		-74.218750
9514		-80.078125
9515		-72.265625
9516		-76.171875
9517		-72.265625
9518		-72.265625
9519		-68.359375
9520		-70.312500
9521		-62.500000
9522		-68.359375
9523		-58.593750
9524		-64.453125
9525		-56.640625
9526		-62.500000
9527		-52.734375
9528		-58.593750
9529		-46.875000
9530		-54.687500
9531		-44.921875
9532		-50.781250
9533		-42.968750
9534		-44.921875
9535		-39.062500
9536		-39.062500
9537		-33.203125
9538		-37.109375
9539		-27.343750
9540		-33.203125
9541		-23.437500
9542		-29.296875
9543		-17.578125
9544		-25.390625
9545		-13.671875
9546		-19.531250
9547		-9.765625
9548		-15.625000
9549		-7.812500
9550		-7.812500
9551		-1.953125
9552		-3.906250
9553		1.953125
9554		-1.953125
9555		7.812500
9556		1.953125
9557		13.671875
9558		7.812500
9559		17.578125
9560		11.718750
9561		21.484375
9562		15.625000
9563		27.343750
9564		21.484375
9565		31.250000
9566		27.343750
9567		33.203125
9568		31.250000
9569		37.109375
9570		35.156250
9571		42.968750
9572		37.109375
9573		46.875000
9574		41.015625
9575		50.781250
9576		44.921875
9577		54.687500
9578		48.828125
9579		58.593750
9580		52.734375
9581		60.546875
9582		56.640625
9583		64.453125
9584		60.546875
9585		66.406250
9586		64.453125
9587		72.265625
9588		64.453125
9589		74.218750
9590		68.359375
9591		76.171875
9592		70.312500
9593		80.078125
9594		74.218750
9595		82.031250
9596		76.171875
9597		83.984375
9598		78.125000
9599		85.937500
9600		82.031250
9601		85.937500
9602		83.984375
9603		85.937500
9604		83.984375
9605		91.796875
9606		83.984375
9607		91.796875
9608		85.937500
9609		91.796875
9610		85.937500
9611		93.750000
9612		87.890625
9613		93.750000
9614		87.890625
9615		93.750000
9616		87.890625
9617		95.703125
9618		89.843750
9619		93.750000
9620		89.843750
9621		93.750000
9622		87.890625
9623		95.703125
9624		87.890625
9625		93.750000
9626		85.937500
9627		93.750000
9628		85.937500
9629		93.750000
9630		83.984375
9631		91.796875
9632		83.984375
9633		91.796875
9634		83.984375
9635		87.890625
9636		82.031250
9637		85.937500
9638		78.125000
9639		85.937500
9640		76.171875
9641		83.984375
9642		74.218750
9643		82.031250
9644		72.265625
9645		80.078125
9646		68.359375
9647		78.125000
9648		66.406250
9649		76.171875
9650		66.406250
9651		72.265625
9652		62.500000
9653		68.359375
9654		58.593750
9655		64.453125
9656		54.687500
9657		64.453125
9658		50.781250
9659		58.593750
9660		46.875000
9661		54.687500
9662		42.968750
9663		52.734375
9664		39.062500
9665		48.828125
9666		37.109375
9667		44.921875
9668		33.203125
9669		39.062500
9670		25.390625
9671		35.156250
9672		21.484375
9673		31.250000
9674		17.578125
9675		27.343750
9676		13.671875
9677		23.437500
9678		9.765625
9679		19.531250
9680		3.906250
9681		13.671875
9682		0.000000
9683		9.765625
9684		-1.953125
9685		3.906250
9686		-7.812500
9687		-1.953125
9688		-13.671875
9689		-5.859375
9690		-19.531250
9691		-7.812500
9692		-23.437500
9693		-13.671875
9694		-27.343750
9695		-17.578125
9696		-31.250000
9697		-21.484375
9698		-37.109375
9699		-25.390625
9700		-39.062500
9701		-29.296875
9702		-42.968750
9703		-37.109375
9704		-50.781250
9705		-41.015625
9706		-52.734375
9707		-42.968750
9708		-56.640625
9709		-46.875000
9710		-60.546875
9711		-50.781250
9712		-62.500000
9713		-54.687500
9714		-68.359375
9715		-58.593750
9716		-70.312500
9717		-60.546875
9718		-72.265625
9719		-66.406250
9720		-74.218750
9721		-70.312500
9722		-80.078125
9723		-70.312500
9724		-82.031250
9725		-74.218750
9726		-83.984375
9727		-76.171875
9728		-87.890625
9729		-78.125000
9730		-87.890625
9731		-80.078125
9732		-89.843750
9733		-82.031250
9734		-89.843750
9735		-83.984375
9736		-89.843750
9737		-87.890625
9738		-93.750000
9739		-85.937500
9740		-93.750000
9741		-85.937500
9742		-95.703125
9743		-87.890625
9744		-93.750000
9745		-87.890625
9746		-93.750000
9747		-87.890625
9748		-95.703125
9749		-87.890625
9750		-93.750000
9751		-87.890625
9752		-91.796875
9753		-87.890625
9754		-89.843750
9755		-85.937500
9756		-91.796875
9757		-83.984375
9758		-89.843750
9759		-82.031250
9760		-87.890625
9761		-80.078125
9762		-85.937500
9763		-78.125000
9764		-83.984375
9765		-76.171875
9766		-82.031250
9767		-74.218750
9768		-76.171875
9769		-72.265625
9770		-74.218750
9771		-68.359375
9772		-72.265625
9773		-64.453125
9774		-72.265625
9775		-62.500000
9776		-66.406250
9777		-58.593750
9778		-62.500000
9779		-54.687500
9780		-60.546875
9781		-50.781250
9782		-56.640625
9783		-46.875000
9784		-52.734375
9785		-44.921875
9786		-46.875000
9787		-41.015625
9788		-42.968750
9789		-35.156250
9790		-41.015625
9791		-31.250000
9792		-35.156250
9793		-25.390625
9794		-31.250000
9795		-21.484375
9796		-27.343750
9797		-15.625000
9798		-21.484375
9799		-11.718750
9800		-17.578125
9801		-7.812500
9802		-11.718750
9803		-5.859375
9804		-5.859375
9805		0.000000
9806		-3.906250
9807		5.859375
9808		1.953125
9809		11.718750
9810		5.859375
9811		15.625000
9812		9.765625
9813		19.531250
9814		13.671875
9815		23.437500
9816		17.578125
9817		27.343750
9818		23.437500
9819		31.250000
9820		29.296875
9821		35.156250
9822		33.203125
9823		41.015625
9824		35.156250
9825		44.921875
9826		39.062500
9827		48.828125
9828		42.968750
9829		52.734375
9830		46.875000
9831		56.640625
9832		50.781250
9833		60.546875
9834		54.687500
9835		62.500000
9836		60.546875
9837		64.453125
9838		62.500000
9839		68.359375
9840		64.453125
9841		72.265625
9842		68.359375
9843		76.171875
9844		70.312500
9845		78.125000
9846		72.265625
9847		80.078125
9848		74.218750
9849		82.031250
9850		76.171875
9851		83.984375
9852		80.078125
9853		83.984375
9854		82.031250
9855		85.937500
9856		82.031250
9857		89.843750
9858		82.031250
9859		89.843750
9860		83.984375
9861		91.796875
9862		85.937500
9863		93.750000
9864		85.937500
9865		93.750000
9866		87.890625
9867		93.750000
9868		87.890625
9869		95.703125
9870		89.843750
9871		91.796875
9872		89.843750
9873		93.750000
9874		87.890625
9875		95.703125
9876		87.890625
9877		93.750000
9878		85.937500
9879		93.750000
9880		85.937500
9881		93.750000
9882		85.937500
9883		91.796875
9884		83.984375
9885		91.796875
9886		83.984375
9887		87.890625
9888		83.984375
9889		85.937500
9890		80.078125
9891		87.890625
9892		78.125000
9893		85.937500
9894		76.171875
9895		83.984375
9896		72.265625
9897		80.078125
9898		70.312500
9899		78.125000
9900		68.359375
9901		76.171875
9902		66.406250
9903		72.265625
9904		64.453125
9905		68.359375
9906		58.593750
9907		66.406250
9908		54.687500
9909		64.453125
9910		52.734375
9911		60.546875
9912		46.875000
9913		58.593750
9914		44.921875
9915		54.687500
9916		41.015625
9917		50.781250
9918		39.062500
9919		46.875000
9920		35.156250
9921		41.015625
9922		31.250000
9923		35.156250
9924		23.437500
9925		33.203125
9926		19.531250
9927		29.296875
9928		15.625000
9929		25.390625
9930		9.765625
9931		19.531250
9932		5.859375
9933		15.625000
9934		1.953125
9935		11.718750
9936		0.000000
9937		5.859375
9938		-5.859375
9939		0.000000
9940		-11.718750
9941		-3.906250
9942		-15.625000
9943		-5.859375
9944		-19.531250
9945		-11.718750
9946		-25.390625
9947		-15.625000
9948		-29.296875
9949		-19.531250
9950		-35.156250
9951		-25.390625
9952		-37.109375
9953		-29.296875
9954		-41.015625
9955		-35.156250
9956		-46.875000
9957		-39.062500
9958		-50.781250
9959		-41.015625
9960		-54.687500
9961		-44.921875
9962		-58.593750
9963		-48.828125
9964		-62.500000
9965		-52.734375
9966		-66.406250
9967		-56.640625
9968		-68.359375
9969		-60.546875
9970		-70.312500
9971		-66.406250
9972		-74.218750
9973		-68.359375
9974		-78.125000
9975		-70.312500
9976		-80.078125
9977		-72.265625
9978		-83.984375
9979		-74.218750
9980		-85.937500
9981		-78.125000
9982		-87.890625
9983		-80.078125
9984		-89.843750
9985		-82.031250
9986		-89.843750
9987		-82.031250
9988		-89.843750
9989		-85.937500
9990		-93.750000
9991		-85.937500
9992		-93.750000
9993		-85.937500
9994		-93.750000
9995		-87.890625
9996		-93.750000
9997		-87.890625
9998		-93.750000
9999		-87.890625
10000		-93.750000
