Channel              :		CH1
Frequency            :		1.975kHz
Period               :		0.506ms
PK-PK                :		179.7mV
Probe attenuation    :		1X
Voltage per ADC value:		0.122070mV
Time interval        :		2.00000us

index		CH1_Voltage(mV)
1		89.843750
2		89.843750
3		91.796875
4		89.843750
5		93.750000
6		89.843750
7		93.750000
8		89.843750
9		91.796875
10		89.843750
11		91.796875
12		89.843750
13		91.796875
14		87.890625
15		91.796875
16		87.890625
17		91.796875
18		87.890625
19		91.796875
20		85.937500
21		89.843750
22		83.984375
23		87.890625
24		83.984375
25		85.937500
26		82.031250
27		85.937500
28		80.078125
29		83.984375
30		78.125000
31		82.031250
32		76.171875
33		80.078125
34		74.218750
35		78.125000
36		70.312500
37		76.171875
38		68.359375
39		74.218750
40		66.406250
41		72.265625
42		62.500000
43		68.359375
44		58.593750
45		64.453125
46		56.640625
47		60.546875
48		54.687500
49		58.593750
50		50.781250
51		54.687500
52		46.875000
53		52.734375
54		42.968750
55		48.828125
56		39.062500
57		44.921875
58		35.156250
59		41.015625
60		31.250000
61		37.109375
62		27.343750
63		35.156250
64		23.437500
65		29.296875
66		19.531250
67		25.390625
68		15.625000
69		21.484375
70		11.718750
71		17.578125
72		5.859375
73		13.671875
74		1.953125
75		7.812500
76		-1.953125
77		3.906250
78		-5.859375
79		0.000000
80		-9.765625
81		-3.906250
82		-13.671875
83		-7.812500
84		-17.578125
85		-13.671875
86		-21.484375
87		-17.578125
88		-25.390625
89		-21.484375
90		-29.296875
91		-25.390625
92		-35.156250
93		-29.296875
94		-39.062500
95		-33.203125
96		-42.968750
97		-37.109375
98		-44.921875
99		-39.062500
100		-48.828125
101		-42.968750
102		-52.734375
103		-46.875000
104		-54.687500
105		-48.828125
106		-56.640625
107		-52.734375
108		-60.546875
109		-56.640625
110		-62.500000
111		-58.593750
112		-66.406250
113		-60.546875
114		-68.359375
115		-62.500000
116		-70.312500
117		-66.406250
118		-72.265625
119		-68.359375
120		-72.265625
121		-68.359375
122		-74.218750
123		-70.312500
124		-76.171875
125		-72.265625
126		-76.171875
127		-74.218750
128		-78.125000
129		-72.265625
130		-78.125000
131		-74.218750
132		-78.125000
133		-74.218750
134		-78.125000
135		-76.171875
136		-78.125000
137		-74.218750
138		-78.125000
139		-74.218750
140		-78.125000
141		-74.218750
142		-78.125000
143		-74.218750
144		-76.171875
145		-72.265625
146		-74.218750
147		-70.312500
148		-74.218750
149		-70.312500
150		-72.265625
151		-68.359375
152		-70.312500
153		-66.406250
154		-68.359375
155		-64.453125
156		-66.406250
157		-62.500000
158		-64.453125
159		-58.593750
160		-60.546875
161		-56.640625
162		-58.593750
163		-52.734375
164		-56.640625
165		-50.781250
166		-52.734375
167		-48.828125
168		-48.828125
169		-42.968750
170		-44.921875
171		-41.015625
172		-42.968750
173		-37.109375
174		-39.062500
175		-33.203125
176		-35.156250
177		-29.296875
178		-31.250000
179		-25.390625
180		-27.343750
181		-21.484375
182		-23.437500
183		-17.578125
184		-19.531250
185		-13.671875
186		-15.625000
187		-9.765625
188		-11.718750
189		-3.906250
190		-5.859375
191		0.000000
192		-1.953125
193		1.953125
194		1.953125
195		7.812500
196		5.859375
197		11.718750
198		9.765625
199		15.625000
200		13.671875
201		19.531250
202		17.578125
203		23.437500
204		21.484375
205		27.343750
206		27.343750
207		31.250000
208		29.296875
209		35.156250
210		33.203125
211		39.062500
212		37.109375
213		42.968750
214		41.015625
215		46.875000
216		44.921875
217		50.781250
218		48.828125
219		54.687500
220		50.781250
221		56.640625
222		54.687500
223		60.546875
224		58.593750
225		62.500000
226		62.500000
227		66.406250
228		64.453125
229		68.359375
230		66.406250
231		72.265625
232		68.359375
233		74.218750
234		72.265625
235		76.171875
236		74.218750
237		78.125000
238		76.171875
239		80.078125
240		78.125000
241		83.984375
242		80.078125
243		83.984375
244		82.031250
245		85.937500
246		83.984375
247		87.890625
248		85.937500
249		87.890625
250		85.937500
251		89.843750
252		85.937500
253		89.843750
254		87.890625
255		91.796875
256		87.890625
257		91.796875
258		87.890625
259		91.796875
260		87.890625
261		91.796875
262		87.890625
263		93.750000
264		87.890625
265		91.796875
266		87.890625
267		91.796875
268		87.890625
269		89.843750
270		85.937500
271		89.843750
272		85.937500
273		89.843750
274		83.984375
275		87.890625
276		83.984375
277		85.937500
278		82.031250
279		85.937500
280		80.078125
281		83.984375
282		78.125000
283		82.031250
284		76.171875
285		80.078125
286		74.218750
287		78.125000
288		70.312500
289		76.171875
290		68.359375
291		74.218750
292		66.406250
293		72.265625
294		64.453125
295		68.359375
296		60.546875
297		64.453125
298		56.640625
299		62.500000
300		52.734375
301		58.593750
302		50.781250
303		56.640625
304		46.875000
305		52.734375
306		42.968750
307		48.828125
308		41.015625
309		46.875000
310		37.109375
311		41.015625
312		33.203125
313		39.062500
314		29.296875
315		33.203125
316		23.437500
317		29.296875
318		21.484375
319		25.390625
320		15.625000
321		21.484375
322		11.718750
323		17.578125
324		7.812500
325		13.671875
326		3.906250
327		9.765625
328		0.000000
329		5.859375
330		-5.859375
331		0.000000
332		-7.812500
333		-3.906250
334		-13.671875
335		-5.859375
336		-17.578125
337		-11.718750
338		-21.484375
339		-15.625000
340		-25.390625
341		-19.531250
342		-29.296875
343		-23.437500
344		-33.203125
345		-27.343750
346		-37.109375
347		-31.250000
348		-41.015625
349		-35.156250
350		-44.921875
351		-39.062500
352		-46.875000
353		-42.968750
354		-50.781250
355		-46.875000
356		-54.687500
357		-48.828125
358		-58.593750
359		-52.734375
360		-58.593750
361		-54.687500
362		-62.500000
363		-58.593750
364		-64.453125
365		-60.546875
366		-68.359375
367		-62.500000
368		-70.312500
369		-64.453125
370		-72.265625
371		-66.406250
372		-72.265625
373		-68.359375
374		-74.218750
375		-70.312500
376		-76.171875
377		-72.265625
378		-76.171875
379		-74.218750
380		-78.125000
381		-74.218750
382		-78.125000
383		-74.218750
384		-78.125000
385		-76.171875
386		-80.078125
387		-76.171875
388		-78.125000
389		-76.171875
390		-78.125000
391		-76.171875
392		-80.078125
393		-74.218750
394		-78.125000
395		-74.218750
396		-76.171875
397		-74.218750
398		-76.171875
399		-72.265625
400		-74.218750
401		-70.312500
402		-74.218750
403		-70.312500
404		-72.265625
405		-66.406250
406		-68.359375
407		-64.453125
408		-66.406250
409		-62.500000
410		-66.406250
411		-60.546875
412		-62.500000
413		-58.593750
414		-60.546875
415		-54.687500
416		-56.640625
417		-52.734375
418		-54.687500
419		-48.828125
420		-50.781250
421		-44.921875
422		-46.875000
423		-42.968750
424		-44.921875
425		-39.062500
426		-41.015625
427		-35.156250
428		-37.109375
429		-31.250000
430		-33.203125
431		-27.343750
432		-29.296875
433		-23.437500
434		-25.390625
435		-19.531250
436		-21.484375
437		-15.625000
438		-17.578125
439		-11.718750
440		-13.671875
441		-5.859375
442		-7.812500
443		-1.953125
444		-3.906250
445		0.000000
446		0.000000
447		5.859375
448		3.906250
449		9.765625
450		7.812500
451		13.671875
452		11.718750
453		17.578125
454		15.625000
455		21.484375
456		21.484375
457		27.343750
458		23.437500
459		29.296875
460		27.343750
461		33.203125
462		33.203125
463		39.062500
464		37.109375
465		42.968750
466		39.062500
467		44.921875
468		42.968750
469		48.828125
470		46.875000
471		52.734375
472		50.781250
473		56.640625
474		54.687500
475		58.593750
476		56.640625
477		62.500000
478		60.546875
479		64.453125
480		62.500000
481		68.359375
482		64.453125
483		70.312500
484		68.359375
485		72.265625
486		70.312500
487		76.171875
488		74.218750
489		78.125000
490		76.171875
491		80.078125
492		78.125000
493		82.031250
494		78.125000
495		83.984375
496		82.031250
497		83.984375
498		82.031250
499		87.890625
500		83.984375
501		87.890625
502		85.937500
503		89.843750
504		85.937500
505		89.843750
506		87.890625
507		89.843750
508		87.890625
509		91.796875
510		87.890625
511		91.796875
512		87.890625
513		91.796875
514		89.843750
515		91.796875
516		87.890625
517		91.796875
518		87.890625
519		91.796875
520		87.890625
521		91.796875
522		85.937500
523		89.843750
524		85.937500
525		89.843750
526		85.937500
527		87.890625
528		83.984375
529		87.890625
530		82.031250
531		85.937500
532		80.078125
533		83.984375
534		78.125000
535		83.984375
536		76.171875
537		80.078125
538		74.218750
539		80.078125
540		72.265625
541		76.171875
542		70.312500
543		74.218750
544		68.359375
545		72.265625
546		64.453125
547		68.359375
548		60.546875
549		66.406250
550		58.593750
551		62.500000
552		56.640625
553		60.546875
554		52.734375
555		58.593750
556		48.828125
557		54.687500
558		44.921875
559		50.781250
560		41.015625
561		46.875000
562		37.109375
563		42.968750
564		33.203125
565		39.062500
566		29.296875
567		35.156250
568		25.390625
569		31.250000
570		21.484375
571		27.343750
572		17.578125
573		23.437500
574		13.671875
575		19.531250
576		9.765625
577		15.625000
578		5.859375
579		11.718750
580		1.953125
581		5.859375
582		-3.906250
583		1.953125
584		-7.812500
585		-1.953125
586		-11.718750
587		-5.859375
588		-15.625000
589		-9.765625
590		-19.531250
591		-13.671875
592		-23.437500
593		-17.578125
594		-27.343750
595		-21.484375
596		-31.250000
597		-25.390625
598		-35.156250
599		-29.296875
600		-39.062500
601		-33.203125
602		-42.968750
603		-37.109375
604		-46.875000
605		-41.015625
606		-48.828125
607		-44.921875
608		-52.734375
609		-48.828125
610		-56.640625
611		-50.781250
612		-58.593750
613		-52.734375
614		-60.546875
615		-56.640625
616		-64.453125
617		-58.593750
618		-66.406250
619		-62.500000
620		-68.359375
621		-64.453125
622		-70.312500
623		-66.406250
624		-72.265625
625		-68.359375
626		-74.218750
627		-70.312500
628		-76.171875
629		-70.312500
630		-76.171875
631		-74.218750
632		-78.125000
633		-74.218750
634		-78.125000
635		-74.218750
636		-78.125000
637		-76.171875
638		-78.125000
639		-74.218750
640		-78.125000
641		-76.171875
642		-78.125000
643		-76.171875
644		-80.078125
645		-74.218750
646		-78.125000
647		-74.218750
648		-76.171875
649		-74.218750
650		-76.171875
651		-72.265625
652		-74.218750
653		-72.265625
654		-74.218750
655		-70.312500
656		-72.265625
657		-68.359375
658		-70.312500
659		-66.406250
660		-68.359375
661		-64.453125
662		-66.406250
663		-62.500000
664		-64.453125
665		-58.593750
666		-60.546875
667		-56.640625
668		-58.593750
669		-54.687500
670		-54.687500
671		-50.781250
672		-52.734375
673		-46.875000
674		-48.828125
675		-42.968750
676		-44.921875
677		-41.015625
678		-42.968750
679		-37.109375
680		-39.062500
681		-33.203125
682		-35.156250
683		-29.296875
684		-33.203125
685		-25.390625
686		-27.343750
687		-21.484375
688		-23.437500
689		-17.578125
690		-19.531250
691		-13.671875
692		-15.625000
693		-9.765625
694		-9.765625
695		-5.859375
696		-7.812500
697		0.000000
698		-1.953125
699		3.906250
700		1.953125
701		7.812500
702		5.859375
703		11.718750
704		9.765625
705		15.625000
706		13.671875
707		19.531250
708		17.578125
709		23.437500
710		21.484375
711		27.343750
712		25.390625
713		31.250000
714		29.296875
715		35.156250
716		35.156250
717		39.062500
718		39.062500
719		44.921875
720		41.015625
721		46.875000
722		44.921875
723		50.781250
724		48.828125
725		52.734375
726		52.734375
727		56.640625
728		54.687500
729		60.546875
730		58.593750
731		62.500000
732		62.500000
733		66.406250
734		64.453125
735		68.359375
736		66.406250
737		72.265625
738		70.312500
739		74.218750
740		72.265625
741		76.171875
742		74.218750
743		78.125000
744		76.171875
745		80.078125
746		78.125000
747		82.031250
748		80.078125
749		83.984375
750		82.031250
751		85.937500
752		82.031250
753		85.937500
754		83.984375
755		87.890625
756		85.937500
757		89.843750
758		85.937500
759		89.843750
760		85.937500
761		89.843750
762		87.890625
763		91.796875
764		87.890625
765		89.843750
766		87.890625
767		89.843750
768		87.890625
769		91.796875
770		87.890625
771		91.796875
772		87.890625
773		89.843750
774		85.937500
775		89.843750
776		85.937500
777		89.843750
778		85.937500
779		89.843750
780		83.984375
781		87.890625
782		82.031250
783		85.937500
784		80.078125
785		83.984375
786		80.078125
787		82.031250
788		76.171875
789		80.078125
790		74.218750
791		80.078125
792		72.265625
793		76.171875
794		70.312500
795		76.171875
796		68.359375
797		72.265625
798		66.406250
799		70.312500
800		60.546875
801		66.406250
802		58.593750
803		64.453125
804		56.640625
805		60.546875
806		52.734375
807		58.593750
808		50.781250
809		54.687500
810		44.921875
811		50.781250
812		42.968750
813		48.828125
814		39.062500
815		44.921875
816		35.156250
817		41.015625
818		29.296875
819		37.109375
820		27.343750
821		33.203125
822		23.437500
823		29.296875
824		19.531250
825		25.390625
826		13.671875
827		21.484375
828		11.718750
829		15.625000
830		5.859375
831		13.671875
832		1.953125
833		7.812500
834		-1.953125
835		3.906250
836		-5.859375
837		0.000000
838		-11.718750
839		-3.906250
840		-13.671875
841		-9.765625
842		-17.578125
843		-13.671875
844		-23.437500
845		-17.578125
846		-27.343750
847		-21.484375
848		-29.296875
849		-25.390625
850		-33.203125
851		-29.296875
852		-39.062500
853		-33.203125
854		-42.968750
855		-37.109375
856		-44.921875
857		-41.015625
858		-48.828125
859		-42.968750
860		-52.734375
861		-46.875000
862		-54.687500
863		-48.828125
864		-58.593750
865		-52.734375
866		-60.546875
867		-56.640625
868		-64.453125
869		-58.593750
870		-66.406250
871		-62.500000
872		-68.359375
873		-64.453125
874		-70.312500
875		-66.406250
876		-72.265625
877		-68.359375
878		-74.218750
879		-70.312500
880		-74.218750
881		-70.312500
882		-76.171875
883		-72.265625
884		-78.125000
885		-74.218750
886		-78.125000
887		-74.218750
888		-78.125000
889		-76.171875
890		-78.125000
891		-76.171875
892		-80.078125
893		-76.171875
894		-80.078125
895		-76.171875
896		-80.078125
897		-76.171875
898		-78.125000
899		-76.171875
900		-78.125000
901		-74.218750
902		-76.171875
903		-74.218750
904		-76.171875
905		-72.265625
906		-74.218750
907		-70.312500
908		-72.265625
909		-68.359375
910		-70.312500
911		-66.406250
912		-70.312500
913		-66.406250
914		-68.359375
915		-62.500000
916		-64.453125
917		-60.546875
918		-62.500000
919		-58.593750
920		-58.593750
921		-54.687500
922		-56.640625
923		-52.734375
924		-54.687500
925		-48.828125
926		-50.781250
927		-46.875000
928		-46.875000
929		-42.968750
930		-42.968750
931		-39.062500
932		-41.015625
933		-35.156250
934		-37.109375
935		-31.250000
936		-33.203125
937		-27.343750
938		-29.296875
939		-23.437500
940		-25.390625
941		-19.531250
942		-21.484375
943		-13.671875
944		-17.578125
945		-11.718750
946		-13.671875
947		-7.812500
948		-9.765625
949		-1.953125
950		-3.906250
951		1.953125
952		0.000000
953		5.859375
954		3.906250
955		9.765625
956		7.812500
957		13.671875
958		11.718750
959		19.531250
960		15.625000
961		23.437500
962		19.531250
963		27.343750
964		25.390625
965		31.250000
966		29.296875
967		33.203125
968		31.250000
969		39.062500
970		35.156250
971		41.015625
972		41.015625
973		44.921875
974		42.968750
975		48.828125
976		46.875000
977		52.734375
978		50.781250
979		56.640625
980		54.687500
981		60.546875
982		56.640625
983		62.500000
984		60.546875
985		64.453125
986		62.500000
987		68.359375
988		66.406250
989		70.312500
990		66.406250
991		72.265625
992		70.312500
993		76.171875
994		72.265625
995		78.125000
996		76.171875
997		80.078125
998		78.125000
999		82.031250
1000		80.078125
1001		82.031250
1002		82.031250
1003		85.937500
1004		82.031250
1005		85.937500
1006		82.031250
1007		89.843750
1008		85.937500
1009		87.890625
1010		83.984375
1011		89.843750
1012		87.890625
1013		89.843750
1014		87.890625
1015		91.796875
1016		87.890625
1017		89.843750
1018		87.890625
1019		91.796875
1020		85.937500
1021		91.796875
1022		85.937500
1023		93.750000
1024		85.937500
1025		93.750000
1026		85.937500
1027		91.796875
1028		85.937500
1029		91.796875
1030		83.984375
1031		87.890625
1032		83.984375
1033		87.890625
1034		83.984375
1035		85.937500
1036		80.078125
1037		85.937500
1038		78.125000
1039		85.937500
1040		76.171875
1041		83.984375
1042		74.218750
1043		82.031250
1044		72.265625
1045		80.078125
1046		72.265625
1047		76.171875
1048		68.359375
1049		74.218750
1050		66.406250
1051		70.312500
1052		64.453125
1053		68.359375
1054		58.593750
1055		68.359375
1056		56.640625
1057		64.453125
1058		54.687500
1059		62.500000
1060		50.781250
1061		58.593750
1062		46.875000
1063		54.687500
1064		42.968750
1065		50.781250
1066		41.015625
1067		46.875000
1068		37.109375
1069		42.968750
1070		31.250000
1071		39.062500
1072		25.390625
1073		37.109375
1074		23.437500
1075		33.203125
1076		19.531250
1077		27.343750
1078		13.671875
1079		25.390625
1080		11.718750
1081		21.484375
1082		7.812500
1083		13.671875
1084		3.906250
1085		9.765625
1086		-1.953125
1087		5.859375
1088		-5.859375
1089		1.953125
1090		-9.765625
1091		0.000000
1092		-13.671875
1093		-5.859375
1094		-17.578125
1095		-9.765625
1096		-23.437500
1097		-13.671875
1098		-25.390625
1099		-17.578125
1100		-29.296875
1101		-23.437500
1102		-33.203125
1103		-27.343750
1104		-39.062500
1105		-29.296875
1106		-42.968750
1107		-33.203125
1108		-44.921875
1109		-37.109375
1110		-48.828125
1111		-41.015625
1112		-52.734375
1113		-44.921875
1114		-54.687500
1115		-46.875000
1116		-56.640625
1117		-50.781250
1118		-58.593750
1119		-54.687500
1120		-64.453125
1121		-56.640625
1122		-66.406250
1123		-58.593750
1124		-70.312500
1125		-60.546875
1126		-72.265625
1127		-64.453125
1128		-74.218750
1129		-66.406250
1130		-74.218750
1131		-68.359375
1132		-76.171875
1133		-70.312500
1134		-76.171875
1135		-72.265625
1136		-76.171875
1137		-74.218750
1138		-80.078125
1139		-74.218750
1140		-80.078125
1141		-74.218750
1142		-80.078125
1143		-74.218750
1144		-82.031250
1145		-74.218750
1146		-82.031250
1147		-74.218750
1148		-82.031250
1149		-74.218750
1150		-80.078125
1151		-76.171875
1152		-78.125000
1153		-76.171875
1154		-78.125000
1155		-72.265625
1156		-80.078125
1157		-72.265625
1158		-78.125000
1159		-70.312500
1160		-76.171875
1161		-68.359375
1162		-74.218750
1163		-66.406250
1164		-72.265625
1165		-64.453125
1166		-70.312500
1167		-64.453125
1168		-66.406250
1169		-62.500000
1170		-64.453125
1171		-56.640625
1172		-62.500000
1173		-54.687500
1174		-60.546875
1175		-50.781250
1176		-58.593750
1177		-48.828125
1178		-54.687500
1179		-46.875000
1180		-50.781250
1181		-42.968750
1182		-46.875000
1183		-39.062500
1184		-42.968750
1185		-37.109375
1186		-39.062500
1187		-33.203125
1188		-37.109375
1189		-27.343750
1190		-33.203125
1191		-23.437500
1192		-29.296875
1193		-19.531250
1194		-25.390625
1195		-15.625000
1196		-21.484375
1197		-11.718750
1198		-17.578125
1199		-7.812500
1200		-13.671875
1201		-5.859375
1202		-5.859375
1203		0.000000
1204		-1.953125
1205		5.859375
1206		0.000000
1207		9.765625
1208		3.906250
1209		13.671875
1210		7.812500
1211		17.578125
1212		11.718750
1213		21.484375
1214		15.625000
1215		27.343750
1216		19.531250
1217		27.343750
1218		27.343750
1219		31.250000
1220		31.250000
1221		35.156250
1222		31.250000
1223		41.015625
1224		37.109375
1225		44.921875
1226		39.062500
1227		48.828125
1228		42.968750
1229		52.734375
1230		46.875000
1231		54.687500
1232		48.828125
1233		58.593750
1234		54.687500
1235		60.546875
1236		58.593750
1237		62.500000
1238		58.593750
1239		68.359375
1240		62.500000
1241		70.312500
1242		64.453125
1243		74.218750
1244		68.359375
1245		76.171875
1246		70.312500
1247		78.125000
1248		72.265625
1249		80.078125
1250		74.218750
1251		82.031250
1252		78.125000
1253		82.031250
1254		80.078125
1255		85.937500
1256		80.078125
1257		87.890625
1258		80.078125
1259		87.890625
1260		82.031250
1261		89.843750
1262		83.984375
1263		89.843750
1264		83.984375
1265		91.796875
1266		83.984375
1267		91.796875
1268		87.890625
1269		89.843750
1270		87.890625
1271		89.843750
1272		85.937500
1273		93.750000
1274		85.937500
1275		91.796875
1276		85.937500
1277		91.796875
1278		85.937500
1279		91.796875
1280		83.984375
1281		91.796875
1282		83.984375
1283		89.843750
1284		83.984375
1285		89.843750
1286		83.984375
1287		85.937500
1288		80.078125
1289		85.937500
1290		78.125000
1291		85.937500
1292		76.171875
1293		83.984375
1294		74.218750
1295		82.031250
1296		72.265625
1297		80.078125
1298		70.312500
1299		78.125000
1300		68.359375
1301		76.171875
1302		68.359375
1303		72.265625
1304		64.453125
1305		70.312500
1306		58.593750
1307		68.359375
1308		56.640625
1309		66.406250
1310		52.734375
1311		62.500000
1312		50.781250
1313		58.593750
1314		46.875000
1315		54.687500
1316		42.968750
1317		52.734375
1318		41.015625
1319		46.875000
1320		39.062500
1321		42.968750
1322		31.250000
1323		39.062500
1324		27.343750
1325		37.109375
1326		23.437500
1327		33.203125
1328		19.531250
1329		29.296875
1330		15.625000
1331		25.390625
1332		11.718750
1333		21.484375
1334		9.765625
1335		17.578125
1336		5.859375
1337		11.718750
1338		0.000000
1339		7.812500
1340		-3.906250
1341		3.906250
1342		-9.765625
1343		1.953125
1344		-13.671875
1345		-3.906250
1346		-17.578125
1347		-7.812500
1348		-21.484375
1349		-11.718750
1350		-25.390625
1351		-15.625000
1352		-27.343750
1353		-21.484375
1354		-31.250000
1355		-25.390625
1356		-37.109375
1357		-29.296875
1358		-41.015625
1359		-31.250000
1360		-44.921875
1361		-35.156250
1362		-48.828125
1363		-39.062500
1364		-52.734375
1365		-42.968750
1366		-54.687500
1367		-46.875000
1368		-56.640625
1369		-48.828125
1370		-58.593750
1371		-54.687500
1372		-64.453125
1373		-56.640625
1374		-66.406250
1375		-58.593750
1376		-68.359375
1377		-60.546875
1378		-70.312500
1379		-62.500000
1380		-74.218750
1381		-64.453125
1382		-74.218750
1383		-66.406250
1384		-76.171875
1385		-68.359375
1386		-76.171875
1387		-72.265625
1388		-76.171875
1389		-74.218750
1390		-80.078125
1391		-72.265625
1392		-82.031250
1393		-74.218750
1394		-82.031250
1395		-74.218750
1396		-82.031250
1397		-74.218750
1398		-82.031250
1399		-74.218750
1400		-82.031250
1401		-76.171875
1402		-80.078125
1403		-76.171875
1404		-78.125000
1405		-76.171875
1406		-80.078125
1407		-72.265625
1408		-80.078125
1409		-72.265625
1410		-78.125000
1411		-70.312500
1412		-78.125000
1413		-70.312500
1414		-76.171875
1415		-68.359375
1416		-74.218750
1417		-66.406250
1418		-72.265625
1419		-64.453125
1420		-68.359375
1421		-64.453125
1422		-64.453125
1423		-60.546875
1424		-64.453125
1425		-56.640625
1426		-62.500000
1427		-52.734375
1428		-58.593750
1429		-50.781250
1430		-56.640625
1431		-46.875000
1432		-52.734375
1433		-42.968750
1434		-50.781250
1435		-41.015625
1436		-44.921875
1437		-39.062500
1438		-41.015625
1439		-35.156250
1440		-37.109375
1441		-29.296875
1442		-37.109375
1443		-25.390625
1444		-31.250000
1445		-21.484375
1446		-27.343750
1447		-17.578125
1448		-23.437500
1449		-13.671875
1450		-19.531250
1451		-9.765625
1452		-15.625000
1453		-7.812500
1454		-9.765625
1455		-3.906250
1456		-3.906250
1457		3.906250
1458		-1.953125
1459		7.812500
1460		1.953125
1461		11.718750
1462		5.859375
1463		15.625000
1464		9.765625
1465		19.531250
1466		13.671875
1467		25.390625
1468		17.578125
1469		27.343750
1470		25.390625
1471		29.296875
1472		29.296875
1473		33.203125
1474		29.296875
1475		41.015625
1476		35.156250
1477		42.968750
1478		37.109375
1479		46.875000
1480		41.015625
1481		50.781250
1482		44.921875
1483		54.687500
1484		48.828125
1485		58.593750
1486		52.734375
1487		58.593750
1488		56.640625
1489		62.500000
1490		58.593750
1491		66.406250
1492		60.546875
1493		70.312500
1494		62.500000
1495		72.265625
1496		66.406250
1497		74.218750
1498		68.359375
1499		76.171875
1500		70.312500
1501		80.078125
1502		72.265625
1503		80.078125
1504		78.125000
1505		80.078125
1506		80.078125
1507		83.984375
1508		78.125000
1509		85.937500
1510		80.078125
1511		87.890625
1512		82.031250
1513		87.890625
1514		82.031250
1515		89.843750
1516		83.984375
1517		91.796875
1518		83.984375
1519		91.796875
1520		85.937500
1521		89.843750
1522		87.890625
1523		89.843750
1524		85.937500
1525		91.796875
1526		85.937500
1527		91.796875
1528		85.937500
1529		91.796875
1530		83.984375
1531		91.796875
1532		83.984375
1533		91.796875
1534		83.984375
1535		91.796875
1536		82.031250
1537		89.843750
1538		83.984375
1539		85.937500
1540		80.078125
1541		85.937500
1542		78.125000
1543		85.937500
1544		78.125000
1545		83.984375
1546		74.218750
1547		83.984375
1548		72.265625
1549		80.078125
1550		70.312500
1551		78.125000
1552		70.312500
1553		76.171875
1554		68.359375
1555		72.265625
1556		66.406250
1557		70.312500
1558		60.546875
1559		68.359375
1560		56.640625
1561		66.406250
1562		54.687500
1563		62.500000
1564		50.781250
1565		60.546875
1566		46.875000
1567		56.640625
1568		44.921875
1569		52.734375
1570		42.968750
1571		50.781250
1572		39.062500
1573		44.921875
1574		35.156250
1575		41.015625
1576		31.250000
1577		39.062500
1578		27.343750
1579		35.156250
1580		21.484375
1581		31.250000
1582		17.578125
1583		27.343750
1584		13.671875
1585		23.437500
1586		11.718750
1587		19.531250
1588		5.859375
1589		11.718750
1590		1.953125
1591		7.812500
1592		-3.906250
1593		5.859375
1594		-7.812500
1595		1.953125
1596		-11.718750
1597		-1.953125
1598		-15.625000
1599		-5.859375
1600		-21.484375
1601		-9.765625
1602		-23.437500
1603		-15.625000
1604		-27.343750
1605		-21.484375
1606		-29.296875
1607		-25.390625
1608		-35.156250
1609		-29.296875
1610		-41.015625
1611		-31.250000
1612		-42.968750
1613		-35.156250
1614		-46.875000
1615		-39.062500
1616		-50.781250
1617		-41.015625
1618		-54.687500
1619		-44.921875
1620		-54.687500
1621		-48.828125
1622		-58.593750
1623		-54.687500
1624		-62.500000
1625		-56.640625
1626		-66.406250
1627		-58.593750
1628		-68.359375
1629		-58.593750
1630		-70.312500
1631		-62.500000
1632		-72.265625
1633		-64.453125
1634		-74.218750
1635		-66.406250
1636		-76.171875
1637		-68.359375
1638		-76.171875
1639		-72.265625
1640		-76.171875
1641		-74.218750
1642		-80.078125
1643		-72.265625
1644		-82.031250
1645		-74.218750
1646		-82.031250
1647		-74.218750
1648		-82.031250
1649		-76.171875
1650		-82.031250
1651		-76.171875
1652		-82.031250
1653		-76.171875
1654		-82.031250
1655		-76.171875
1656		-80.078125
1657		-76.171875
1658		-80.078125
1659		-74.218750
1660		-82.031250
1661		-72.265625
1662		-80.078125
1663		-72.265625
1664		-78.125000
1665		-70.312500
1666		-78.125000
1667		-68.359375
1668		-76.171875
1669		-68.359375
1670		-74.218750
1671		-66.406250
1672		-70.312500
1673		-66.406250
1674		-66.406250
1675		-62.500000
1676		-66.406250
1677		-58.593750
1678		-62.500000
1679		-54.687500
1680		-60.546875
1681		-52.734375
1682		-58.593750
1683		-48.828125
1684		-54.687500
1685		-46.875000
1686		-50.781250
1687		-42.968750
1688		-46.875000
1689		-41.015625
1690		-42.968750
1691		-37.109375
1692		-39.062500
1693		-31.250000
1694		-39.062500
1695		-27.343750
1696		-33.203125
1697		-25.390625
1698		-29.296875
1699		-19.531250
1700		-25.390625
1701		-15.625000
1702		-21.484375
1703		-11.718750
1704		-17.578125
1705		-9.765625
1706		-11.718750
1707		-5.859375
1708		-7.812500
1709		0.000000
1710		-3.906250
1711		5.859375
1712		0.000000
1713		9.765625
1714		3.906250
1715		13.671875
1716		7.812500
1717		17.578125
1718		11.718750
1719		21.484375
1720		15.625000
1721		25.390625
1722		21.484375
1723		27.343750
1724		25.390625
1725		33.203125
1726		29.296875
1727		37.109375
1728		31.250000
1729		41.015625
1730		35.156250
1731		44.921875
1732		39.062500
1733		48.828125
1734		42.968750
1735		52.734375
1736		46.875000
1737		54.687500
1738		50.781250
1739		56.640625
1740		54.687500
1741		60.546875
1742		58.593750
1743		64.453125
1744		58.593750
1745		68.359375
1746		62.500000
1747		70.312500
1748		64.453125
1749		72.265625
1750		66.406250
1751		74.218750
1752		70.312500
1753		78.125000
1754		70.312500
1755		78.125000
1756		76.171875
1757		80.078125
1758		78.125000
1759		82.031250
1760		78.125000
1761		83.984375
1762		80.078125
1763		85.937500
1764		82.031250
1765		87.890625
1766		82.031250
1767		87.890625
1768		83.984375
1769		89.843750
1770		83.984375
1771		89.843750
1772		85.937500
1773		89.843750
1774		87.890625
1775		89.843750
1776		85.937500
1777		91.796875
1778		83.984375
1779		91.796875
1780		85.937500
1781		91.796875
1782		83.984375
1783		91.796875
1784		83.984375
1785		91.796875
1786		83.984375
1787		91.796875
1788		82.031250
1789		89.843750
1790		83.984375
1791		87.890625
1792		80.078125
1793		85.937500
1794		78.125000
1795		85.937500
1796		78.125000
1797		83.984375
1798		76.171875
1799		83.984375
1800		74.218750
1801		82.031250
1802		70.312500
1803		80.078125
1804		70.312500
1805		78.125000
1806		68.359375
1807		72.265625
1808		66.406250
1809		70.312500
1810		62.500000
1811		70.312500
1812		58.593750
1813		68.359375
1814		56.640625
1815		64.453125
1816		52.734375
1817		60.546875
1818		48.828125
1819		58.593750
1820		46.875000
1821		54.687500
1822		44.921875
1823		50.781250
1824		41.015625
1825		46.875000
1826		35.156250
1827		42.968750
1828		31.250000
1829		41.015625
1830		27.343750
1831		37.109375
1832		23.437500
1833		33.203125
1834		19.531250
1835		29.296875
1836		15.625000
1837		25.390625
1838		11.718750
1839		21.484375
1840		9.765625
1841		13.671875
1842		3.906250
1843		9.765625
1844		-1.953125
1845		7.812500
1846		-5.859375
1847		3.906250
1848		-9.765625
1849		0.000000
1850		-15.625000
1851		-3.906250
1852		-17.578125
1853		-7.812500
1854		-23.437500
1855		-13.671875
1856		-23.437500
1857		-17.578125
1858		-29.296875
1859		-23.437500
1860		-35.156250
1861		-27.343750
1862		-39.062500
1863		-29.296875
1864		-42.968750
1865		-33.203125
1866		-44.921875
1867		-37.109375
1868		-48.828125
1869		-41.015625
1870		-52.734375
1871		-42.968750
1872		-54.687500
1873		-46.875000
1874		-56.640625
1875		-52.734375
1876		-60.546875
1877		-54.687500
1878		-64.453125
1879		-56.640625
1880		-66.406250
1881		-58.593750
1882		-70.312500
1883		-62.500000
1884		-72.265625
1885		-64.453125
1886		-74.218750
1887		-64.453125
1888		-76.171875
1889		-68.359375
1890		-74.218750
1891		-72.265625
1892		-76.171875
1893		-72.265625
1894		-80.078125
1895		-72.265625
1896		-82.031250
1897		-72.265625
1898		-82.031250
1899		-74.218750
1900		-82.031250
1901		-74.218750
1902		-82.031250
1903		-74.218750
1904		-82.031250
1905		-76.171875
1906		-82.031250
1907		-76.171875
1908		-80.078125
1909		-78.125000
1910		-80.078125
1911		-74.218750
1912		-82.031250
1913		-74.218750
1914		-80.078125
1915		-72.265625
1916		-78.125000
1917		-72.265625
1918		-78.125000
1919		-68.359375
1920		-76.171875
1921		-68.359375
1922		-74.218750
1923		-66.406250
1924		-70.312500
1925		-66.406250
1926		-68.359375
1927		-64.453125
1928		-66.406250
1929		-58.593750
1930		-66.406250
1931		-56.640625
1932		-62.500000
1933		-52.734375
1934		-60.546875
1935		-50.781250
1936		-56.640625
1937		-46.875000
1938		-52.734375
1939		-44.921875
1940		-48.828125
1941		-42.968750
1942		-42.968750
1943		-39.062500
1944		-41.015625
1945		-33.203125
1946		-39.062500
1947		-29.296875
1948		-37.109375
1949		-25.390625
1950		-31.250000
1951		-21.484375
1952		-27.343750
1953		-17.578125
1954		-23.437500
1955		-13.671875
1956		-19.531250
1957		-11.718750
1958		-13.671875
1959		-7.812500
1960		-7.812500
1961		-1.953125
1962		-5.859375
1963		1.953125
1964		-1.953125
1965		7.812500
1966		1.953125
1967		11.718750
1968		5.859375
1969		15.625000
1970		9.765625
1971		19.531250
1972		13.671875
1973		23.437500
1974		21.484375
1975		25.390625
1976		25.390625
1977		29.296875
1978		27.343750
1979		35.156250
1980		29.296875
1981		39.062500
1982		33.203125
1983		42.968750
1984		37.109375
1985		46.875000
1986		41.015625
1987		50.781250
1988		44.921875
1989		54.687500
1990		46.875000
1991		54.687500
1992		54.687500
1993		58.593750
1994		56.640625
1995		62.500000
1996		58.593750
1997		66.406250
1998		60.546875
1999		70.312500
2000		62.500000
2001		72.265625
2002		66.406250
2003		74.218750
2004		68.359375
2005		76.171875
2006		70.312500
2007		78.125000
2008		76.171875
2009		78.125000
2010		76.171875
2011		80.078125
2012		78.125000
2013		85.937500
2014		78.125000
2015		85.937500
2016		80.078125
2017		87.890625
2018		80.078125
2019		87.890625
2020		82.031250
2021		89.843750
2022		83.984375
2023		89.843750
2024		85.937500
2025		89.843750
2026		87.890625
2027		89.843750
2028		85.937500
2029		91.796875
2030		83.984375
2031		91.796875
2032		85.937500
2033		91.796875
2034		83.984375
2035		91.796875
2036		83.984375
2037		91.796875
2038		83.984375
2039		89.843750
2040		83.984375
2041		89.843750
2042		83.984375
2043		87.890625
2044		80.078125
2045		87.890625
2046		80.078125
2047		87.890625
2048		78.125000
2049		85.937500
2050		76.171875
2051		83.984375
2052		74.218750
2053		82.031250
2054		72.265625
2055		80.078125
2056		70.312500
2057		78.125000
2058		70.312500
2059		74.218750
2060		68.359375
2061		72.265625
2062		62.500000
2063		70.312500
2064		60.546875
2065		68.359375
2066		56.640625
2067		66.406250
2068		52.734375
2069		62.500000
2070		50.781250
2071		60.546875
2072		46.875000
2073		56.640625
2074		44.921875
2075		52.734375
2076		42.968750
2077		46.875000
2078		35.156250
2079		42.968750
2080		33.203125
2081		41.015625
2082		29.296875
2083		37.109375
2084		25.390625
2085		35.156250
2086		21.484375
2087		31.250000
2088		17.578125
2089		25.390625
2090		13.671875
2091		21.484375
2092		9.765625
2093		15.625000
2094		5.859375
2095		11.718750
2096		0.000000
2097		7.812500
2098		-5.859375
2099		5.859375
2100		-9.765625
2101		0.000000
2102		-11.718750
2103		-1.953125
2104		-17.578125
2105		-7.812500
2106		-21.484375
2107		-11.718750
2108		-23.437500
2109		-15.625000
2110		-27.343750
2111		-21.484375
2112		-33.203125
2113		-25.390625
2114		-37.109375
2115		-27.343750
2116		-41.015625
2117		-31.250000
2118		-44.921875
2119		-35.156250
2120		-48.828125
2121		-39.062500
2122		-52.734375
2123		-42.968750
2124		-52.734375
2125		-46.875000
2126		-56.640625
2127		-50.781250
2128		-60.546875
2129		-54.687500
2130		-64.453125
2131		-54.687500
2132		-66.406250
2133		-58.593750
2134		-70.312500
2135		-60.546875
2136		-72.265625
2137		-62.500000
2138		-74.218750
2139		-66.406250
2140		-74.218750
2141		-66.406250
2142		-74.218750
2143		-70.312500
2144		-76.171875
2145		-72.265625
2146		-80.078125
2147		-72.265625
2148		-80.078125
2149		-74.218750
2150		-82.031250
2151		-74.218750
2152		-82.031250
2153		-76.171875
2154		-83.984375
2155		-76.171875
2156		-83.984375
2157		-76.171875
2158		-82.031250
2159		-76.171875
2160		-80.078125
2161		-78.125000
2162		-82.031250
2163		-76.171875
2164		-82.031250
2165		-74.218750
2166		-82.031250
2167		-74.218750
2168		-80.078125
2169		-72.265625
2170		-80.078125
2171		-72.265625
2172		-78.125000
2173		-70.312500
2174		-76.171875
2175		-68.359375
2176		-72.265625
2177		-68.359375
2178		-70.312500
2179		-66.406250
2180		-70.312500
2181		-60.546875
2182		-66.406250
2183		-58.593750
2184		-64.453125
2185		-54.687500
2186		-62.500000
2187		-52.734375
2188		-58.593750
2189		-48.828125
2190		-54.687500
2191		-46.875000
2192		-52.734375
2193		-44.921875
2194		-46.875000
2195		-41.015625
2196		-42.968750
2197		-35.156250
2198		-41.015625
2199		-33.203125
2200		-37.109375
2201		-27.343750
2202		-35.156250
2203		-23.437500
2204		-29.296875
2205		-19.531250
2206		-27.343750
2207		-15.625000
2208		-21.484375
2209		-13.671875
2210		-15.625000
2211		-9.765625
2212		-11.718750
2213		-5.859375
2214		-9.765625
2215		0.000000
2216		-3.906250
2217		5.859375
2218		0.000000
2219		9.765625
2220		1.953125
2221		13.671875
2222		7.812500
2223		17.578125
2224		11.718750
2225		21.484375
2226		17.578125
2227		23.437500
2228		21.484375
2229		27.343750
2230		25.390625
2231		33.203125
2232		27.343750
2233		37.109375
2234		31.250000
2235		41.015625
2236		35.156250
2237		44.921875
2238		39.062500
2239		48.828125
2240		42.968750
2241		52.734375
2242		46.875000
2243		52.734375
2244		50.781250
2245		56.640625
2246		54.687500
2247		62.500000
2248		56.640625
2249		64.453125
2250		58.593750
2251		68.359375
2252		62.500000
2253		70.312500
2254		64.453125
2255		72.265625
2256		66.406250
2257		76.171875
2258		70.312500
2259		78.125000
2260		74.218750
2261		78.125000
2262		76.171875
2263		80.078125
2264		76.171875
2265		83.984375
2266		78.125000
2267		85.937500
2268		78.125000
2269		85.937500
2270		80.078125
2271		87.890625
2272		82.031250
2273		87.890625
2274		82.031250
2275		89.843750
2276		83.984375
2277		89.843750
2278		85.937500
2279		87.890625
2280		83.984375
2281		91.796875
2282		83.984375
2283		91.796875
2284		83.984375
2285		91.796875
2286		83.984375
2287		91.796875
2288		83.984375
2289		91.796875
2290		83.984375
2291		91.796875
2292		83.984375
2293		89.843750
2294		83.984375
2295		87.890625
2296		82.031250
2297		85.937500
2298		80.078125
2299		87.890625
2300		78.125000
2301		85.937500
2302		76.171875
2303		83.984375
2304		74.218750
2305		83.984375
2306		72.265625
2307		82.031250
2308		72.265625
2309		80.078125
2310		72.265625
2311		76.171875
2312		68.359375
2313		72.265625
2314		64.453125
2315		70.312500
2316		62.500000
2317		70.312500
2318		58.593750
2319		66.406250
2320		56.640625
2321		64.453125
2322		52.734375
2323		60.546875
2324		48.828125
2325		58.593750
2326		46.875000
2327		54.687500
2328		44.921875
2329		48.828125
2330		37.109375
2331		44.921875
2332		33.203125
2333		42.968750
2334		29.296875
2335		41.015625
2336		27.343750
2337		35.156250
2338		21.484375
2339		31.250000
2340		19.531250
2341		27.343750
2342		15.625000
2343		25.390625
2344		11.718750
2345		17.578125
2346		7.812500
2347		13.671875
2348		1.953125
2349		9.765625
2350		-1.953125
2351		7.812500
2352		-5.859375
2353		1.953125
2354		-11.718750
2355		-1.953125
2356		-15.625000
2357		-5.859375
2358		-19.531250
2359		-9.765625
2360		-21.484375
2361		-13.671875
2362		-25.390625
2363		-19.531250
2364		-31.250000
2365		-23.437500
2366		-35.156250
2367		-25.390625
2368		-39.062500
2369		-29.296875
2370		-42.968750
2371		-33.203125
2372		-46.875000
2373		-37.109375
2374		-48.828125
2375		-39.062500
2376		-52.734375
2377		-44.921875
2378		-54.687500
2379		-48.828125
2380		-56.640625
2381		-52.734375
2382		-62.500000
2383		-52.734375
2384		-66.406250
2385		-56.640625
2386		-68.359375
2387		-58.593750
2388		-70.312500
2389		-60.546875
2390		-72.265625
2391		-64.453125
2392		-74.218750
2393		-66.406250
2394		-74.218750
2395		-68.359375
2396		-76.171875
2397		-72.265625
2398		-80.078125
2399		-72.265625
2400		-80.078125
2401		-72.265625
2402		-82.031250
2403		-74.218750
2404		-82.031250
2405		-74.218750
2406		-82.031250
2407		-76.171875
2408		-82.031250
2409		-76.171875
2410		-82.031250
2411		-76.171875
2412		-80.078125
2413		-78.125000
2414		-82.031250
2415		-76.171875
2416		-82.031250
2417		-74.218750
2418		-80.078125
2419		-74.218750
2420		-80.078125
2421		-72.265625
2422		-78.125000
2423		-72.265625
2424		-78.125000
2425		-70.312500
2426		-76.171875
2427		-68.359375
2428		-72.265625
2429		-68.359375
2430		-70.312500
2431		-66.406250
2432		-70.312500
2433		-62.500000
2434		-68.359375
2435		-58.593750
2436		-64.453125
2437		-56.640625
2438		-62.500000
2439		-54.687500
2440		-58.593750
2441		-50.781250
2442		-56.640625
2443		-46.875000
2444		-52.734375
2445		-46.875000
2446		-46.875000
2447		-42.968750
2448		-44.921875
2449		-37.109375
2450		-42.968750
2451		-33.203125
2452		-37.109375
2453		-29.296875
2454		-35.156250
2455		-25.390625
2456		-31.250000
2457		-21.484375
2458		-27.343750
2459		-17.578125
2460		-23.437500
2461		-13.671875
2462		-17.578125
2463		-11.718750
2464		-13.671875
2465		-7.812500
2466		-9.765625
2467		-1.953125
2468		-5.859375
2469		3.906250
2470		-1.953125
2471		7.812500
2472		1.953125
2473		11.718750
2474		5.859375
2475		15.625000
2476		11.718750
2477		19.531250
2478		15.625000
2479		21.484375
2480		21.484375
2481		25.390625
2482		25.390625
2483		31.250000
2484		25.390625
2485		37.109375
2486		31.250000
2487		39.062500
2488		35.156250
2489		42.968750
2490		37.109375
2491		46.875000
2492		41.015625
2493		50.781250
2494		44.921875
2495		52.734375
2496		50.781250
2497		56.640625
2498		54.687500
2499		60.546875
2500		54.687500
2501		64.453125
2502		58.593750
2503		66.406250
2504		60.546875
2505		70.312500
2506		64.453125
2507		72.265625
2508		66.406250
2509		74.218750
2510		68.359375
2511		76.171875
2512		72.265625
2513		76.171875
2514		76.171875
2515		78.125000
2516		76.171875
2517		82.031250
2518		76.171875
2519		83.984375
2520		78.125000
2521		85.937500
2522		80.078125
2523		87.890625
2524		80.078125
2525		89.843750
2526		82.031250
2527		89.843750
2528		82.031250
2529		89.843750
2530		85.937500
2531		89.843750
2532		83.984375
2533		91.796875
2534		83.984375
2535		91.796875
2536		85.937500
2537		91.796875
2538		83.984375
2539		91.796875
2540		83.984375
2541		91.796875
2542		83.984375
2543		91.796875
2544		83.984375
2545		91.796875
2546		85.937500
2547		87.890625
2548		83.984375
2549		87.890625
2550		82.031250
2551		87.890625
2552		80.078125
2553		87.890625
2554		78.125000
2555		85.937500
2556		76.171875
2557		83.984375
2558		74.218750
2559		82.031250
2560		72.265625
2561		80.078125
2562		72.265625
2563		76.171875
2564		70.312500
2565		74.218750
2566		64.453125
2567		72.265625
2568		62.500000
2569		70.312500
2570		60.546875
2571		68.359375
2572		56.640625
2573		66.406250
2574		52.734375
2575		62.500000
2576		50.781250
2577		58.593750
2578		48.828125
2579		56.640625
2580		44.921875
2581		50.781250
2582		41.015625
2583		46.875000
2584		37.109375
2585		44.921875
2586		33.203125
2587		41.015625
2588		29.296875
2589		37.109375
2590		23.437500
2591		33.203125
2592		19.531250
2593		29.296875
2594		15.625000
2595		25.390625
2596		13.671875
2597		19.531250
2598		9.765625
2599		15.625000
2600		3.906250
2601		11.718750
2602		-1.953125
2603		9.765625
2604		-3.906250
2605		5.859375
2606		-9.765625
2607		1.953125
2608		-13.671875
2609		-3.906250
2610		-17.578125
2611		-7.812500
2612		-19.531250
2613		-11.718750
2614		-23.437500
2615		-17.578125
2616		-29.296875
2617		-21.484375
2618		-33.203125
2619		-23.437500
2620		-37.109375
2621		-27.343750
2622		-41.015625
2623		-31.250000
2624		-44.921875
2625		-37.109375
2626		-48.828125
2627		-39.062500
2628		-50.781250
2629		-42.968750
2630		-52.734375
2631		-48.828125
2632		-56.640625
2633		-50.781250
2634		-60.546875
2635		-52.734375
2636		-64.453125
2637		-54.687500
2638		-66.406250
2639		-58.593750
2640		-68.359375
2641		-60.546875
2642		-70.312500
2643		-62.500000
2644		-74.218750
2645		-64.453125
2646		-74.218750
2647		-68.359375
2648		-74.218750
2649		-72.265625
2650		-80.078125
2651		-72.265625
2652		-80.078125
2653		-72.265625
2654		-82.031250
2655		-74.218750
2656		-82.031250
2657		-74.218750
2658		-82.031250
2659		-76.171875
2660		-83.984375
2661		-76.171875
2662		-83.984375
2663		-76.171875
2664		-80.078125
2665		-78.125000
2666		-82.031250
2667		-78.125000
2668		-82.031250
2669		-76.171875
2670		-82.031250
2671		-74.218750
2672		-80.078125
2673		-74.218750
2674		-80.078125
2675		-72.265625
2676		-78.125000
2677		-70.312500
2678		-78.125000
2679		-70.312500
2680		-72.265625
2681		-70.312500
2682		-70.312500
2683		-68.359375
2684		-70.312500
2685		-62.500000
2686		-68.359375
2687		-60.546875
2688		-66.406250
2689		-58.593750
2690		-62.500000
2691		-54.687500
2692		-62.500000
2693		-52.734375
2694		-58.593750
2695		-48.828125
2696		-54.687500
2697		-48.828125
2698		-48.828125
2699		-44.921875
2700		-44.921875
2701		-39.062500
2702		-44.921875
2703		-35.156250
2704		-41.015625
2705		-31.250000
2706		-37.109375
2707		-27.343750
2708		-33.203125
2709		-23.437500
2710		-29.296875
2711		-19.531250
2712		-25.390625
2713		-15.625000
2714		-19.531250
2715		-13.671875
2716		-15.625000
2717		-9.765625
2718		-11.718750
2719		-1.953125
2720		-7.812500
2721		1.953125
2722		-3.906250
2723		5.859375
2724		0.000000
2725		9.765625
2726		3.906250
2727		13.671875
2728		7.812500
2729		17.578125
2730		11.718750
2731		19.531250
2732		19.531250
2733		23.437500
2734		23.437500
2735		29.296875
2736		23.437500
2737		35.156250
2738		27.343750
2739		37.109375
2740		33.203125
2741		41.015625
2742		37.109375
2743		44.921875
2744		39.062500
2745		48.828125
2746		44.921875
2747		50.781250
2748		48.828125
2749		54.687500
2750		52.734375
2751		58.593750
2752		52.734375
2753		62.500000
2754		56.640625
2755		64.453125
2756		58.593750
2757		68.359375
2758		62.500000
2759		70.312500
2760		64.453125
2761		72.265625
2762		66.406250
2763		76.171875
2764		72.265625
2765		76.171875
2766		74.218750
2767		78.125000
2768		76.171875
2769		82.031250
2770		76.171875
2771		83.984375
2772		78.125000
2773		85.937500
2774		80.078125
2775		87.890625
2776		80.078125
2777		87.890625
2778		82.031250
2779		89.843750
2780		83.984375
2781		89.843750
2782		85.937500
2783		87.890625
2784		83.984375
2785		91.796875
2786		83.984375
2787		91.796875
2788		85.937500
2789		91.796875
2790		85.937500
2791		91.796875
2792		85.937500
2793		91.796875
2794		83.984375
2795		91.796875
2796		83.984375
2797		91.796875
2798		85.937500
2799		87.890625
2800		83.984375
2801		87.890625
2802		82.031250
2803		87.890625
2804		80.078125
2805		87.890625
2806		78.125000
2807		85.937500
2808		76.171875
2809		83.984375
2810		74.218750
2811		83.984375
2812		72.265625
2813		82.031250
2814		72.265625
2815		80.078125
2816		70.312500
2817		74.218750
2818		66.406250
2819		74.218750
2820		64.453125
2821		72.265625
2822		60.546875
2823		70.312500
2824		58.593750
2825		66.406250
2826		54.687500
2827		64.453125
2828		52.734375
2829		60.546875
2830		50.781250
2831		56.640625
2832		46.875000
2833		52.734375
2834		42.968750
2835		48.828125
2836		37.109375
2837		46.875000
2838		33.203125
2839		42.968750
2840		29.296875
2841		41.015625
2842		25.390625
2843		35.156250
2844		23.437500
2845		33.203125
2846		17.578125
2847		27.343750
2848		15.625000
2849		21.484375
2850		11.718750
2851		17.578125
2852		5.859375
2853		13.671875
2854		1.953125
2855		11.718750
2856		-1.953125
2857		7.812500
2858		-5.859375
2859		1.953125
2860		-11.718750
2861		-1.953125
2862		-15.625000
2863		-5.859375
2864		-17.578125
2865		-9.765625
2866		-21.484375
2867		-15.625000
2868		-27.343750
2869		-19.531250
2870		-31.250000
2871		-21.484375
2872		-35.156250
2873		-25.390625
2874		-39.062500
2875		-29.296875
2876		-42.968750
2877		-33.203125
2878		-46.875000
2879		-37.109375
2880		-50.781250
2881		-41.015625
2882		-50.781250
2883		-46.875000
2884		-54.687500
2885		-48.828125
2886		-58.593750
2887		-52.734375
2888		-62.500000
2889		-54.687500
2890		-64.453125
2891		-56.640625
2892		-68.359375
2893		-58.593750
2894		-70.312500
2895		-62.500000
2896		-72.265625
2897		-64.453125
2898		-72.265625
2899		-66.406250
2900		-74.218750
2901		-70.312500
2902		-78.125000
2903		-70.312500
2904		-78.125000
2905		-70.312500
2906		-80.078125
2907		-72.265625
2908		-82.031250
2909		-74.218750
2910		-82.031250
2911		-74.218750
2912		-82.031250
2913		-74.218750
2914		-82.031250
2915		-76.171875
2916		-80.078125
2917		-78.125000
2918		-80.078125
2919		-78.125000
2920		-82.031250
2921		-74.218750
2922		-82.031250
2923		-74.218750
2924		-80.078125
2925		-72.265625
2926		-80.078125
2927		-72.265625
2928		-78.125000
2929		-70.312500
2930		-78.125000
2931		-70.312500
2932		-76.171875
2933		-70.312500
2934		-72.265625
2935		-68.359375
2936		-70.312500
2937		-64.453125
2938		-70.312500
2939		-60.546875
2940		-68.359375
2941		-58.593750
2942		-64.453125
2943		-56.640625
2944		-62.500000
2945		-52.734375
2946		-58.593750
2947		-48.828125
2948		-54.687500
2949		-48.828125
2950		-50.781250
2951		-46.875000
2952		-46.875000
2953		-41.015625
2954		-44.921875
2955		-37.109375
2956		-42.968750
2957		-33.203125
2958		-39.062500
2959		-29.296875
2960		-35.156250
2961		-25.390625
2962		-31.250000
2963		-21.484375
2964		-27.343750
2965		-17.578125
2966		-19.531250
2967		-15.625000
2968		-15.625000
2969		-11.718750
2970		-13.671875
2971		-5.859375
2972		-9.765625
2973		0.000000
2974		-5.859375
2975		3.906250
2976		-1.953125
2977		7.812500
2978		1.953125
2979		11.718750
2980		5.859375
2981		15.625000
2982		9.765625
2983		19.531250
2984		17.578125
2985		23.437500
2986		21.484375
2987		29.296875
2988		21.484375
2989		33.203125
2990		27.343750
2991		37.109375
2992		29.296875
2993		41.015625
2994		35.156250
2995		44.921875
2996		37.109375
2997		46.875000
2998		42.968750
2999		50.781250
3000		46.875000
3001		52.734375
3002		50.781250
3003		56.640625
3004		52.734375
3005		60.546875
3006		56.640625
3007		64.453125
3008		58.593750
3009		66.406250
3010		60.546875
3011		70.312500
3012		64.453125
3013		72.265625
3014		66.406250
3015		76.171875
3016		68.359375
3017		74.218750
3018		74.218750
3019		78.125000
3020		74.218750
3021		82.031250
3022		74.218750
3023		82.031250
3024		76.171875
3025		85.937500
3026		78.125000
3027		85.937500
3028		80.078125
3029		87.890625
3030		82.031250
3031		87.890625
3032		82.031250
3033		89.843750
3034		85.937500
3035		87.890625
3036		85.937500
3037		89.843750
3038		83.984375
3039		91.796875
3040		83.984375
3041		91.796875
3042		83.984375
3043		91.796875
3044		83.984375
3045		91.796875
3046		83.984375
3047		91.796875
3048		83.984375
3049		91.796875
3050		85.937500
3051		87.890625
3052		85.937500
3053		87.890625
3054		82.031250
3055		87.890625
3056		80.078125
3057		87.890625
3058		80.078125
3059		85.937500
3060		78.125000
3061		85.937500
3062		76.171875
3063		83.984375
3064		74.218750
3065		82.031250
3066		74.218750
3067		80.078125
3068		72.265625
3069		76.171875
3070		68.359375
3071		74.218750
3072		64.453125
3073		74.218750
3074		62.500000
3075		70.312500
3076		58.593750
3077		68.359375
3078		56.640625
3079		64.453125
3080		52.734375
3081		62.500000
3082		50.781250
3083		58.593750
3084		48.828125
3085		52.734375
3086		44.921875
3087		50.781250
3088		39.062500
3089		46.875000
3090		35.156250
3091		44.921875
3092		31.250000
3093		41.015625
3094		29.296875
3095		37.109375
3096		23.437500
3097		33.203125
3098		19.531250
3099		29.296875
3100		17.578125
3101		25.390625
3102		13.671875
3103		19.531250
3104		7.812500
3105		15.625000
3106		3.906250
3107		13.671875
3108		0.000000
3109		9.765625
3110		-5.859375
3111		3.906250
3112		-9.765625
3113		1.953125
3114		-13.671875
3115		-3.906250
3116		-15.625000
3117		-7.812500
3118		-19.531250
3119		-13.671875
3120		-25.390625
3121		-17.578125
3122		-29.296875
3123		-19.531250
3124		-35.156250
3125		-23.437500
3126		-37.109375
3127		-27.343750
3128		-41.015625
3129		-31.250000
3130		-44.921875
3131		-35.156250
3132		-48.828125
3133		-39.062500
3134		-50.781250
3135		-44.921875
3136		-52.734375
3137		-48.828125
3138		-58.593750
3139		-50.781250
3140		-60.546875
3141		-52.734375
3142		-64.453125
3143		-54.687500
3144		-66.406250
3145		-58.593750
3146		-70.312500
3147		-60.546875
3148		-72.265625
3149		-62.500000
3150		-72.265625
3151		-64.453125
3152		-72.265625
3153		-70.312500
3154		-78.125000
3155		-70.312500
3156		-80.078125
3157		-70.312500
3158		-80.078125
3159		-72.265625
3160		-80.078125
3161		-72.265625
3162		-82.031250
3163		-74.218750
3164		-82.031250
3165		-76.171875
3166		-82.031250
3167		-76.171875
3168		-80.078125
3169		-78.125000
3170		-80.078125
3171		-78.125000
3172		-82.031250
3173		-76.171875
3174		-82.031250
3175		-74.218750
3176		-82.031250
3177		-74.218750
3178		-80.078125
3179		-74.218750
3180		-80.078125
3181		-72.265625
3182		-78.125000
3183		-70.312500
3184		-76.171875
3185		-70.312500
3186		-72.265625
3187		-68.359375
3188		-72.265625
3189		-64.453125
3190		-70.312500
3191		-62.500000
3192		-68.359375
3193		-60.546875
3194		-66.406250
3195		-58.593750
3196		-62.500000
3197		-54.687500
3198		-60.546875
3199		-52.734375
3200		-56.640625
3201		-50.781250
3202		-52.734375
3203		-46.875000
3204		-48.828125
3205		-42.968750
3206		-46.875000
3207		-39.062500
3208		-44.921875
3209		-35.156250
3210		-41.015625
3211		-31.250000
3212		-37.109375
3213		-27.343750
3214		-33.203125
3215		-23.437500
3216		-29.296875
3217		-19.531250
3218		-21.484375
3219		-17.578125
3220		-17.578125
3221		-11.718750
3222		-15.625000
3223		-5.859375
3224		-11.718750
3225		-1.953125
3226		-7.812500
3227		1.953125
3228		-3.906250
3229		5.859375
3230		0.000000
3231		9.765625
3232		3.906250
3233		13.671875
3234		7.812500
3235		17.578125
3236		15.625000
3237		21.484375
3238		19.531250
3239		27.343750
3240		21.484375
3241		31.250000
3242		25.390625
3243		35.156250
3244		29.296875
3245		39.062500
3246		33.203125
3247		42.968750
3248		37.109375
3249		46.875000
3250		41.015625
3251		48.828125
3252		46.875000
3253		50.781250
3254		48.828125
3255		54.687500
3256		50.781250
3257		60.546875
3258		52.734375
3259		62.500000
3260		56.640625
3261		66.406250
3262		58.593750
3263		68.359375
3264		62.500000
3265		72.265625
3266		64.453125
3267		74.218750
3268		68.359375
3269		74.218750
3270		72.265625
3271		76.171875
3272		74.218750
3273		80.078125
3274		74.218750
3275		83.984375
3276		76.171875
3277		83.984375
3278		78.125000
3279		85.937500
3280		80.078125
3281		87.890625
3282		80.078125
3283		87.890625
3284		82.031250
3285		89.843750
3286		85.937500
3287		87.890625
3288		85.937500
3289		89.843750
3290		83.984375
3291		91.796875
3292		83.984375
3293		91.796875
3294		83.984375
3295		91.796875
3296		85.937500
3297		91.796875
3298		85.937500
3299		91.796875
3300		83.984375
3301		91.796875
3302		85.937500
3303		89.843750
3304		85.937500
3305		87.890625
3306		82.031250
3307		89.843750
3308		82.031250
3309		89.843750
3310		80.078125
3311		87.890625
3312		78.125000
3313		85.937500
3314		76.171875
3315		83.984375
3316		74.218750
3317		83.984375
3318		74.218750
3319		82.031250
3320		74.218750
3321		78.125000
3322		68.359375
3323		74.218750
3324		66.406250
3325		74.218750
3326		64.453125
3327		72.265625
3328		60.546875
3329		68.359375
3330		58.593750
3331		66.406250
3332		54.687500
3333		64.453125
3334		52.734375
3335		60.546875
3336		50.781250
3337		54.687500
3338		46.875000
3339		50.781250
3340		41.015625
3341		48.828125
3342		37.109375
3343		46.875000
3344		33.203125
3345		42.968750
3346		29.296875
3347		39.062500
3348		27.343750
3349		35.156250
3350		23.437500
3351		31.250000
3352		19.531250
3353		27.343750
3354		15.625000
3355		21.484375
3356		9.765625
3357		17.578125
3358		5.859375
3359		15.625000
3360		1.953125
3361		11.718750
3362		-1.953125
3363		7.812500
3364		-7.812500
3365		1.953125
3366		-11.718750
3367		-1.953125
3368		-13.671875
3369		-5.859375
3370		-17.578125
3371		-11.718750
3372		-23.437500
3373		-15.625000
3374		-27.343750
3375		-17.578125
3376		-31.250000
3377		-21.484375
3378		-35.156250
3379		-25.390625
3380		-39.062500
3381		-29.296875
3382		-42.968750
3383		-33.203125
3384		-46.875000
3385		-37.109375
3386		-48.828125
3387		-42.968750
3388		-50.781250
3389		-46.875000
3390		-56.640625
3391		-48.828125
3392		-60.546875
3393		-50.781250
3394		-62.500000
3395		-54.687500
3396		-64.453125
3397		-56.640625
3398		-68.359375
3399		-58.593750
3400		-70.312500
3401		-62.500000
3402		-70.312500
3403		-64.453125
3404		-72.265625
3405		-68.359375
3406		-76.171875
3407		-70.312500
3408		-78.125000
3409		-70.312500
3410		-78.125000
3411		-72.265625
3412		-80.078125
3413		-72.265625
3414		-82.031250
3415		-74.218750
3416		-82.031250
3417		-74.218750
3418		-82.031250
3419		-74.218750
3420		-80.078125
3421		-78.125000
3422		-80.078125
3423		-78.125000
3424		-82.031250
3425		-76.171875
3426		-82.031250
3427		-74.218750
3428		-80.078125
3429		-74.218750
3430		-80.078125
3431		-72.265625
3432		-80.078125
3433		-72.265625
3434		-78.125000
3435		-70.312500
3436		-78.125000
3437		-70.312500
3438		-72.265625
3439		-70.312500
3440		-72.265625
3441		-66.406250
3442		-70.312500
3443		-64.453125
3444		-68.359375
3445		-62.500000
3446		-66.406250
3447		-58.593750
3448		-62.500000
3449		-56.640625
3450		-60.546875
3451		-52.734375
3452		-56.640625
3453		-52.734375
3454		-52.734375
3455		-48.828125
3456		-50.781250
3457		-44.921875
3458		-48.828125
3459		-41.015625
3460		-44.921875
3461		-35.156250
3462		-41.015625
3463		-31.250000
3464		-37.109375
3465		-27.343750
3466		-33.203125
3467		-23.437500
3468		-29.296875
3469		-19.531250
3470		-23.437500
3471		-17.578125
3472		-19.531250
3473		-13.671875
3474		-15.625000
3475		-7.812500
3476		-13.671875
3477		-3.906250
3478		-9.765625
3479		0.000000
3480		-5.859375
3481		3.906250
3482		-1.953125
3483		9.765625
3484		3.906250
3485		13.671875
3486		7.812500
3487		15.625000
3488		13.671875
3489		19.531250
3490		17.578125
3491		25.390625
3492		19.531250
3493		29.296875
3494		25.390625
3495		33.203125
3496		27.343750
3497		37.109375
3498		31.250000
3499		41.015625
3500		35.156250
3501		44.921875
3502		39.062500
3503		46.875000
3504		44.921875
3505		48.828125
3506		48.828125
3507		52.734375
3508		50.781250
3509		58.593750
3510		52.734375
3511		62.500000
3512		56.640625
3513		64.453125
3514		58.593750
3515		68.359375
3516		62.500000
3517		70.312500
3518		64.453125
3519		72.265625
3520		68.359375
3521		74.218750
3522		72.265625
3523		76.171875
3524		72.265625
3525		80.078125
3526		74.218750
3527		82.031250
3528		76.171875
3529		83.984375
3530		78.125000
3531		85.937500
3532		80.078125
3533		87.890625
3534		80.078125
3535		87.890625
3536		82.031250
3537		89.843750
3538		85.937500
3539		87.890625
3540		85.937500
3541		87.890625
3542		83.984375
3543		91.796875
3544		85.937500
3545		91.796875
3546		85.937500
3547		91.796875
3548		85.937500
3549		91.796875
3550		83.984375
3551		91.796875
3552		83.984375
3553		91.796875
3554		85.937500
3555		89.843750
3556		85.937500
3557		89.843750
3558		83.984375
3559		89.843750
3560		82.031250
3561		89.843750
3562		80.078125
3563		87.890625
3564		80.078125
3565		87.890625
3566		78.125000
3567		85.937500
3568		76.171875
3569		83.984375
3570		76.171875
3571		82.031250
3572		74.218750
3573		78.125000
3574		70.312500
3575		76.171875
3576		68.359375
3577		76.171875
3578		64.453125
3579		74.218750
3580		62.500000
3581		72.265625
3582		58.593750
3583		68.359375
3584		56.640625
3585		66.406250
3586		52.734375
3587		62.500000
3588		52.734375
3589		56.640625
3590		48.828125
3591		52.734375
3592		42.968750
3593		50.781250
3594		39.062500
3595		48.828125
3596		35.156250
3597		44.921875
3598		31.250000
3599		41.015625
3600		27.343750
3601		39.062500
3602		23.437500
3603		33.203125
3604		21.484375
3605		29.296875
3606		17.578125
3607		23.437500
3608		11.718750
3609		19.531250
3610		7.812500
3611		17.578125
3612		3.906250
3613		13.671875
3614		-1.953125
3615		9.765625
3616		-5.859375
3617		5.859375
3618		-9.765625
3619		1.953125
3620		-11.718750
3621		-3.906250
3622		-15.625000
3623		-9.765625
3624		-19.531250
3625		-13.671875
3626		-25.390625
3627		-15.625000
3628		-29.296875
3629		-19.531250
3630		-33.203125
3631		-23.437500
3632		-37.109375
3633		-29.296875
3634		-41.015625
3635		-31.250000
3636		-46.875000
3637		-35.156250
3638		-46.875000
3639		-39.062500
3640		-48.828125
3641		-44.921875
3642		-54.687500
3643		-46.875000
3644		-58.593750
3645		-48.828125
3646		-62.500000
3647		-52.734375
3648		-64.453125
3649		-54.687500
3650		-66.406250
3651		-58.593750
3652		-70.312500
3653		-60.546875
3654		-70.312500
3655		-62.500000
3656		-72.265625
3657		-68.359375
3658		-74.218750
3659		-70.312500
3660		-76.171875
3661		-68.359375
3662		-78.125000
3663		-70.312500
3664		-80.078125
3665		-72.265625
3666		-80.078125
3667		-72.265625
3668		-82.031250
3669		-74.218750
3670		-82.031250
3671		-74.218750
3672		-80.078125
3673		-76.171875
3674		-80.078125
3675		-78.125000
3676		-82.031250
3677		-74.218750
3678		-82.031250
3679		-74.218750
3680		-82.031250
3681		-74.218750
3682		-80.078125
3683		-74.218750
3684		-80.078125
3685		-72.265625
3686		-80.078125
3687		-72.265625
3688		-78.125000
3689		-70.312500
3690		-74.218750
3691		-70.312500
3692		-72.265625
3693		-66.406250
3694		-72.265625
3695		-64.453125
3696		-70.312500
3697		-62.500000
3698		-68.359375
3699		-60.546875
3700		-66.406250
3701		-56.640625
3702		-62.500000
3703		-52.734375
3704		-60.546875
3705		-52.734375
3706		-54.687500
3707		-50.781250
3708		-50.781250
3709		-46.875000
3710		-48.828125
3711		-41.015625
3712		-46.875000
3713		-37.109375
3714		-42.968750
3715		-33.203125
3716		-39.062500
3717		-29.296875
3718		-35.156250
3719		-25.390625
3720		-31.250000
3721		-21.484375
3722		-29.296875
3723		-19.531250
3724		-21.484375
3725		-15.625000
3726		-17.578125
3727		-9.765625
3728		-15.625000
3729		-5.859375
3730		-11.718750
3731		-1.953125
3732		-7.812500
3733		3.906250
3734		-3.906250
3735		5.859375
3736		0.000000
3737		11.718750
3738		5.859375
3739		13.671875
3740		11.718750
3741		17.578125
3742		15.625000
3743		21.484375
3744		17.578125
3745		27.343750
3746		21.484375
3747		31.250000
3748		25.390625
3749		35.156250
3750		29.296875
3751		39.062500
3752		33.203125
3753		42.968750
3754		37.109375
3755		46.875000
3756		42.968750
3757		48.828125
3758		46.875000
3759		52.734375
3760		48.828125
3761		56.640625
3762		52.734375
3763		60.546875
3764		54.687500
3765		64.453125
3766		56.640625
3767		66.406250
3768		60.546875
3769		68.359375
3770		62.500000
3771		72.265625
3772		64.453125
3773		74.218750
3774		70.312500
3775		74.218750
3776		72.265625
3777		78.125000
3778		72.265625
3779		80.078125
3780		74.218750
3781		82.031250
3782		76.171875
3783		83.984375
3784		78.125000
3785		85.937500
3786		80.078125
3787		87.890625
3788		82.031250
3789		87.890625
3790		83.984375
3791		87.890625
3792		85.937500
3793		87.890625
3794		83.984375
3795		91.796875
3796		83.984375
3797		91.796875
3798		83.984375
3799		91.796875
3800		83.984375
3801		91.796875
3802		85.937500
3803		93.750000
3804		85.937500
3805		91.796875
3806		85.937500
3807		91.796875
3808		85.937500
3809		89.843750
3810		83.984375
3811		89.843750
3812		82.031250
3813		89.843750
3814		82.031250
3815		89.843750
3816		80.078125
3817		87.890625
3818		78.125000
3819		85.937500
3820		78.125000
3821		85.937500
3822		76.171875
3823		83.984375
3824		76.171875
3825		80.078125
3826		74.218750
3827		78.125000
3828		68.359375
3829		78.125000
3830		66.406250
3831		74.218750
3832		64.453125
3833		72.265625
3834		60.546875
3835		70.312500
3836		58.593750
3837		66.406250
3838		54.687500
3839		64.453125
3840		52.734375
3841		58.593750
3842		50.781250
3843		56.640625
3844		44.921875
3845		52.734375
3846		41.015625
3847		50.781250
3848		37.109375
3849		46.875000
3850		33.203125
3851		44.921875
3852		29.296875
3853		41.015625
3854		25.390625
3855		35.156250
3856		23.437500
3857		31.250000
3858		19.531250
3859		25.390625
3860		13.671875
3861		21.484375
3862		9.765625
3863		19.531250
3864		5.859375
3865		15.625000
3866		1.953125
3867		9.765625
3868		-1.953125
3869		7.812500
3870		-7.812500
3871		1.953125
3872		-9.765625
3873		-1.953125
3874		-13.671875
3875		-7.812500
3876		-17.578125
3877		-11.718750
3878		-23.437500
3879		-15.625000
3880		-27.343750
3881		-17.578125
3882		-31.250000
3883		-21.484375
3884		-37.109375
3885		-25.390625
3886		-39.062500
3887		-29.296875
3888		-42.968750
3889		-33.203125
3890		-44.921875
3891		-37.109375
3892		-48.828125
3893		-42.968750
3894		-54.687500
3895		-46.875000
3896		-56.640625
3897		-48.828125
3898		-58.593750
3899		-50.781250
3900		-62.500000
3901		-54.687500
3902		-64.453125
3903		-56.640625
3904		-66.406250
3905		-58.593750
3906		-68.359375
3907		-62.500000
3908		-70.312500
3909		-66.406250
3910		-72.265625
3911		-68.359375
3912		-76.171875
3913		-66.406250
3914		-78.125000
3915		-70.312500
3916		-78.125000
3917		-70.312500
3918		-80.078125
3919		-72.265625
3920		-80.078125
3921		-74.218750
3922		-82.031250
3923		-74.218750
3924		-80.078125
3925		-76.171875
3926		-80.078125
3927		-76.171875
3928		-82.031250
3929		-74.218750
3930		-82.031250
3931		-74.218750
3932		-82.031250
3933		-74.218750
3934		-78.125000
3935		-76.171875
3936		-80.078125
3937		-74.218750
3938		-78.125000
3939		-72.265625
3940		-78.125000
3941		-72.265625
3942		-74.218750
3943		-70.312500
3944		-74.218750
3945		-66.406250
3946		-72.265625
3947		-64.453125
3948		-70.312500
3949		-62.500000
3950		-66.406250
3951		-62.500000
3952		-64.453125
3953		-58.593750
3954		-62.500000
3955		-54.687500
3956		-60.546875
3957		-52.734375
3958		-54.687500
3959		-50.781250
3960		-52.734375
3961		-46.875000
3962		-48.828125
3963		-44.921875
3964		-44.921875
3965		-39.062500
3966		-42.968750
3967		-37.109375
3968		-39.062500
3969		-33.203125
3970		-35.156250
3971		-29.296875
3972		-31.250000
3973		-23.437500
3974		-29.296875
3975		-21.484375
3976		-23.437500
3977		-17.578125
3978		-19.531250
3979		-13.671875
3980		-15.625000
3981		-9.765625
3982		-11.718750
3983		-5.859375
3984		-5.859375
3985		0.000000
3986		-1.953125
3987		3.906250
3988		1.953125
3989		9.765625
3990		3.906250
3991		11.718750
3992		9.765625
3993		15.625000
3994		13.671875
3995		21.484375
3996		17.578125
3997		23.437500
3998		21.484375
3999		27.343750
4000		27.343750
4001		31.250000
4002		31.250000
4003		37.109375
4004		33.203125
4005		41.015625
4006		35.156250
4007		44.921875
4008		42.968750
4009		46.875000
4010		44.921875
4011		50.781250
4012		48.828125
4013		54.687500
4014		52.734375
4015		56.640625
4016		54.687500
4017		60.546875
4018		58.593750
4019		64.453125
4020		62.500000
4021		66.406250
4022		64.453125
4023		68.359375
4024		66.406250
4025		72.265625
4026		68.359375
4027		74.218750
4028		72.265625
4029		76.171875
4030		74.218750
4031		78.125000
4032		76.171875
4033		80.078125
4034		78.125000
4035		82.031250
4036		80.078125
4037		83.984375
4038		82.031250
4039		85.937500
4040		82.031250
4041		87.890625
4042		83.984375
4043		87.890625
4044		85.937500
4045		87.890625
4046		85.937500
4047		89.843750
4048		85.937500
4049		89.843750
4050		87.890625
4051		89.843750
4052		87.890625
4053		89.843750
4054		87.890625
4055		89.843750
4056		87.890625
4057		89.843750
4058		87.890625
4059		89.843750
4060		85.937500
4061		89.843750
4062		85.937500
4063		89.843750
4064		83.984375
4065		87.890625
4066		83.984375
4067		87.890625
4068		83.984375
4069		85.937500
4070		82.031250
4071		83.984375
4072		80.078125
4073		83.984375
4074		78.125000
4075		82.031250
4076		76.171875
4077		80.078125
4078		74.218750
4079		78.125000
4080		72.265625
4081		76.171875
4082		68.359375
4083		74.218750
4084		66.406250
4085		70.312500
4086		64.453125
4087		68.359375
4088		60.546875
4089		66.406250
4090		56.640625
4091		62.500000
4092		54.687500
4093		60.546875
4094		52.734375
4095		56.640625
4096		48.828125
4097		52.734375
4098		44.921875
4099		50.781250
4100		41.015625
4101		46.875000
4102		37.109375
4103		42.968750
4104		33.203125
4105		39.062500
4106		29.296875
4107		35.156250
4108		25.390625
4109		31.250000
4110		21.484375
4111		27.343750
4112		15.625000
4113		23.437500
4114		13.671875
4115		19.531250
4116		9.765625
4117		15.625000
4118		3.906250
4119		11.718750
4120		0.000000
4121		5.859375
4122		-3.906250
4123		1.953125
4124		-7.812500
4125		-1.953125
4126		-11.718750
4127		-5.859375
4128		-15.625000
4129		-9.765625
4130		-19.531250
4131		-13.671875
4132		-23.437500
4133		-19.531250
4134		-29.296875
4135		-21.484375
4136		-31.250000
4137		-27.343750
4138		-35.156250
4139		-29.296875
4140		-41.015625
4141		-35.156250
4142		-42.968750
4143		-37.109375
4144		-46.875000
4145		-41.015625
4146		-50.781250
4147		-44.921875
4148		-52.734375
4149		-48.828125
4150		-56.640625
4151		-50.781250
4152		-58.593750
4153		-54.687500
4154		-62.500000
4155		-56.640625
4156		-64.453125
4157		-60.546875
4158		-68.359375
4159		-62.500000
4160		-68.359375
4161		-64.453125
4162		-70.312500
4163		-66.406250
4164		-74.218750
4165		-68.359375
4166		-74.218750
4167		-70.312500
4168		-76.171875
4169		-72.265625
4170		-78.125000
4171		-74.218750
4172		-78.125000
4173		-74.218750
4174		-80.078125
4175		-76.171875
4176		-80.078125
4177		-76.171875
4178		-80.078125
4179		-78.125000
4180		-80.078125
4181		-76.171875
4182		-80.078125
4183		-76.171875
4184		-80.078125
4185		-76.171875
4186		-80.078125
4187		-76.171875
4188		-78.125000
4189		-74.218750
4190		-78.125000
4191		-74.218750
4192		-76.171875
4193		-72.265625
4194		-76.171875
4195		-72.265625
4196		-72.265625
4197		-68.359375
4198		-72.265625
4199		-66.406250
4200		-70.312500
4201		-66.406250
4202		-68.359375
4203		-62.500000
4204		-64.453125
4205		-60.546875
4206		-62.500000
4207		-58.593750
4208		-60.546875
4209		-54.687500
4210		-56.640625
4211		-52.734375
4212		-54.687500
4213		-48.828125
4214		-50.781250
4215		-44.921875
4216		-46.875000
4217		-42.968750
4218		-44.921875
4219		-39.062500
4220		-39.062500
4221		-35.156250
4222		-37.109375
4223		-31.250000
4224		-33.203125
4225		-27.343750
4226		-29.296875
4227		-23.437500
4228		-25.390625
4229		-19.531250
4230		-21.484375
4231		-13.671875
4232		-15.625000
4233		-11.718750
4234		-11.718750
4235		-7.812500
4236		-7.812500
4237		-1.953125
4238		-3.906250
4239		1.953125
4240		0.000000
4241		5.859375
4242		3.906250
4243		9.765625
4244		7.812500
4245		13.671875
4246		11.718750
4247		19.531250
4248		15.625000
4249		23.437500
4250		19.531250
4251		27.343750
4252		25.390625
4253		31.250000
4254		29.296875
4255		35.156250
4256		33.203125
4257		39.062500
4258		37.109375
4259		42.968750
4260		39.062500
4261		44.921875
4262		44.921875
4263		48.828125
4264		46.875000
4265		52.734375
4266		50.781250
4267		56.640625
4268		54.687500
4269		58.593750
4270		56.640625
4271		62.500000
4272		60.546875
4273		64.453125
4274		64.453125
4275		68.359375
4276		66.406250
4277		70.312500
4278		68.359375
4279		72.265625
4280		72.265625
4281		78.125000
4282		74.218750
4283		78.125000
4284		76.171875
4285		80.078125
4286		78.125000
4287		82.031250
4288		80.078125
4289		82.031250
4290		82.031250
4291		83.984375
4292		82.031250
4293		85.937500
4294		83.984375
4295		85.937500
4296		85.937500
4297		87.890625
4298		85.937500
4299		89.843750
4300		85.937500
4301		89.843750
4302		87.890625
4303		89.843750
4304		87.890625
4305		91.796875
4306		87.890625
4307		91.796875
4308		87.890625
4309		91.796875
4310		87.890625
4311		91.796875
4312		87.890625
4313		89.843750
4314		85.937500
4315		89.843750
4316		85.937500
4317		89.843750
4318		83.984375
4319		87.890625
4320		83.984375
4321		87.890625
4322		82.031250
4323		85.937500
4324		82.031250
4325		83.984375
4326		80.078125
4327		83.984375
4328		78.125000
4329		82.031250
4330		76.171875
4331		80.078125
4332		74.218750
4333		78.125000
4334		70.312500
4335		76.171875
4336		68.359375
4337		72.265625
4338		66.406250
4339		70.312500
4340		62.500000
4341		68.359375
4342		60.546875
4343		66.406250
4344		56.640625
4345		62.500000
4346		54.687500
4347		58.593750
4348		50.781250
4349		54.687500
4350		46.875000
4351		52.734375
4352		42.968750
4353		48.828125
4354		39.062500
4355		44.921875
4356		37.109375
4357		41.015625
4358		31.250000
4359		37.109375
4360		29.296875
4361		33.203125
4362		23.437500
4363		29.296875
4364		19.531250
4365		25.390625
4366		15.625000
4367		21.484375
4368		11.718750
4369		17.578125
4370		7.812500
4371		13.671875
4372		3.906250
4373		9.765625
4374		-1.953125
4375		5.859375
4376		-5.859375
4377		0.000000
4378		-9.765625
4379		-3.906250
4380		-13.671875
4381		-7.812500
4382		-17.578125
4383		-11.718750
4384		-21.484375
4385		-15.625000
4386		-25.390625
4387		-19.531250
4388		-29.296875
4389		-23.437500
4390		-33.203125
4391		-27.343750
4392		-37.109375
4393		-31.250000
4394		-41.015625
4395		-35.156250
4396		-44.921875
4397		-39.062500
4398		-48.828125
4399		-42.968750
4400		-50.781250
4401		-46.875000
4402		-54.687500
4403		-48.828125
4404		-56.640625
4405		-52.734375
4406		-60.546875
4407		-54.687500
4408		-62.500000
4409		-58.593750
4410		-64.453125
4411		-60.546875
4412		-68.359375
4413		-62.500000
4414		-70.312500
4415		-66.406250
4416		-72.265625
4417		-66.406250
4418		-74.218750
4419		-70.312500
4420		-74.218750
4421		-72.265625
4422		-76.171875
4423		-72.265625
4424		-78.125000
4425		-74.218750
4426		-78.125000
4427		-74.218750
4428		-78.125000
4429		-76.171875
4430		-78.125000
4431		-76.171875
4432		-80.078125
4433		-76.171875
4434		-80.078125
4435		-76.171875
4436		-80.078125
4437		-76.171875
4438		-78.125000
4439		-76.171875
4440		-78.125000
4441		-76.171875
4442		-78.125000
4443		-74.218750
4444		-78.125000
4445		-72.265625
4446		-74.218750
4447		-72.265625
4448		-74.218750
4449		-68.359375
4450		-72.265625
4451		-68.359375
4452		-70.312500
4453		-66.406250
4454		-68.359375
4455		-62.500000
4456		-66.406250
4457		-62.500000
4458		-64.453125
4459		-58.593750
4460		-60.546875
4461		-56.640625
4462		-58.593750
4463		-52.734375
4464		-54.687500
4465		-50.781250
4466		-52.734375
4467		-46.875000
4468		-48.828125
4469		-42.968750
4470		-44.921875
4471		-39.062500
4472		-41.015625
4473		-37.109375
4474		-39.062500
4475		-33.203125
4476		-35.156250
4477		-29.296875
4478		-31.250000
4479		-25.390625
4480		-25.390625
4481		-21.484375
4482		-21.484375
4483		-17.578125
4484		-19.531250
4485		-13.671875
4486		-13.671875
4487		-7.812500
4488		-9.765625
4489		-3.906250
4490		-5.859375
4491		0.000000
4492		-1.953125
4493		3.906250
4494		1.953125
4495		7.812500
4496		7.812500
4497		11.718750
4498		9.765625
4499		15.625000
4500		13.671875
4501		21.484375
4502		19.531250
4503		25.390625
4504		23.437500
4505		29.296875
4506		27.343750
4507		33.203125
4508		31.250000
4509		37.109375
4510		35.156250
4511		41.015625
4512		37.109375
4513		44.921875
4514		42.968750
4515		46.875000
4516		46.875000
4517		50.781250
4518		48.828125
4519		54.687500
4520		52.734375
4521		58.593750
4522		56.640625
4523		60.546875
4524		58.593750
4525		64.453125
4526		62.500000
4527		66.406250
4528		64.453125
4529		70.312500
4530		68.359375
4531		72.265625
4532		70.312500
4533		74.218750
4534		72.265625
4535		76.171875
4536		74.218750
4537		78.125000
4538		76.171875
4539		80.078125
4540		78.125000
4541		82.031250
4542		80.078125
4543		85.937500
4544		82.031250
4545		85.937500
4546		83.984375
4547		85.937500
4548		83.984375
4549		87.890625
4550		83.984375
4551		89.843750
4552		85.937500
4553		89.843750
4554		85.937500
4555		89.843750
4556		87.890625
4557		89.843750
4558		87.890625
4559		89.843750
4560		87.890625
4561		91.796875
4562		87.890625
4563		89.843750
4564		87.890625
4565		89.843750
4566		85.937500
4567		89.843750
4568		85.937500
4569		89.843750
4570		85.937500
4571		87.890625
4572		83.984375
4573		87.890625
4574		82.031250
4575		85.937500
4576		82.031250
4577		85.937500
4578		80.078125
4579		83.984375
4580		78.125000
4581		82.031250
4582		76.171875
4583		80.078125
4584		74.218750
4585		78.125000
4586		72.265625
4587		76.171875
4588		70.312500
4589		74.218750
4590		66.406250
4591		70.312500
4592		64.453125
4593		68.359375
4594		60.546875
4595		66.406250
4596		58.593750
4597		64.453125
4598		54.687500
4599		60.546875
4600		50.781250
4601		56.640625
4602		48.828125
4603		52.734375
4604		44.921875
4605		50.781250
4606		41.015625
4607		46.875000
4608		37.109375
4609		42.968750
4610		33.203125
4611		39.062500
4612		29.296875
4613		35.156250
4614		25.390625
4615		31.250000
4616		19.531250
4617		27.343750
4618		17.578125
4619		23.437500
4620		13.671875
4621		19.531250
4622		7.812500
4623		15.625000
4624		5.859375
4625		11.718750
4626		0.000000
4627		5.859375
4628		-3.906250
4629		1.953125
4630		-7.812500
4631		-1.953125
4632		-11.718750
4633		-5.859375
4634		-15.625000
4635		-9.765625
4636		-21.484375
4637		-13.671875
4638		-25.390625
4639		-19.531250
4640		-27.343750
4641		-21.484375
4642		-33.203125
4643		-27.343750
4644		-35.156250
4645		-31.250000
4646		-39.062500
4647		-33.203125
4648		-42.968750
4649		-39.062500
4650		-46.875000
4651		-41.015625
4652		-50.781250
4653		-44.921875
4654		-52.734375
4655		-48.828125
4656		-56.640625
4657		-50.781250
4658		-60.546875
4659		-54.687500
4660		-62.500000
4661		-58.593750
4662		-66.406250
4663		-60.546875
4664		-66.406250
4665		-62.500000
4666		-68.359375
4667		-64.453125
4668		-70.312500
4669		-66.406250
4670		-72.265625
4671		-68.359375
4672		-74.218750
4673		-70.312500
4674		-76.171875
4675		-72.265625
4676		-78.125000
4677		-74.218750
4678		-78.125000
4679		-74.218750
4680		-80.078125
4681		-74.218750
4682		-80.078125
4683		-76.171875
4684		-80.078125
4685		-76.171875
4686		-80.078125
4687		-76.171875
4688		-80.078125
4689		-76.171875
4690		-80.078125
4691		-76.171875
4692		-78.125000
4693		-76.171875
4694		-78.125000
4695		-74.218750
4696		-76.171875
4697		-74.218750
4698		-76.171875
4699		-72.265625
4700		-74.218750
4701		-70.312500
4702		-74.218750
4703		-70.312500
4704		-72.265625
4705		-66.406250
4706		-68.359375
4707		-64.453125
4708		-66.406250
4709		-62.500000
4710		-64.453125
4711		-58.593750
4712		-62.500000
4713		-56.640625
4714		-58.593750
4715		-54.687500
4716		-56.640625
4717		-50.781250
4718		-52.734375
4719		-48.828125
4720		-50.781250
4721		-44.921875
4722		-46.875000
4723		-41.015625
4724		-42.968750
4725		-37.109375
4726		-39.062500
4727		-33.203125
4728		-37.109375
4729		-31.250000
4730		-31.250000
4731		-27.343750
4732		-27.343750
4733		-23.437500
4734		-23.437500
4735		-19.531250
4736		-19.531250
4737		-13.671875
4738		-15.625000
4739		-9.765625
4740		-13.671875
4741		-5.859375
4742		-7.812500
4743		-1.953125
4744		-3.906250
4745		1.953125
4746		0.000000
4747		7.812500
4748		3.906250
4749		9.765625
4750		9.765625
4751		15.625000
4752		11.718750
4753		19.531250
4754		17.578125
4755		23.437500
4756		21.484375
4757		27.343750
4758		25.390625
4759		31.250000
4760		29.296875
4761		35.156250
4762		33.203125
4763		39.062500
4764		37.109375
4765		42.968750
4766		41.015625
4767		46.875000
4768		44.921875
4769		50.781250
4770		48.828125
4771		52.734375
4772		50.781250
4773		56.640625
4774		54.687500
4775		58.593750
4776		58.593750
4777		62.500000
4778		60.546875
4779		66.406250
4780		64.453125
4781		68.359375
4782		66.406250
4783		70.312500
4784		68.359375
4785		74.218750
4786		70.312500
4787		76.171875
4788		74.218750
4789		78.125000
4790		76.171875
4791		80.078125
4792		76.171875
4793		82.031250
4794		80.078125
4795		83.984375
4796		82.031250
4797		83.984375
4798		82.031250
4799		85.937500
4800		83.984375
4801		87.890625
4802		85.937500
4803		87.890625
4804		85.937500
4805		89.843750
4806		85.937500
4807		89.843750
4808		87.890625
4809		89.843750
4810		87.890625
4811		89.843750
4812		87.890625
4813		91.796875
4814		87.890625
4815		91.796875
4816		87.890625
4817		89.843750
4818		85.937500
4819		91.796875
4820		87.890625
4821		89.843750
4822		85.937500
4823		89.843750
4824		85.937500
4825		87.890625
4826		83.984375
4827		87.890625
4828		82.031250
4829		85.937500
4830		82.031250
4831		85.937500
4832		80.078125
4833		82.031250
4834		78.125000
4835		82.031250
4836		76.171875
4837		80.078125
4838		74.218750
4839		78.125000
4840		70.312500
4841		76.171875
4842		68.359375
4843		72.265625
4844		66.406250
4845		72.265625
4846		62.500000
4847		66.406250
4848		60.546875
4849		64.453125
4850		56.640625
4851		62.500000
4852		52.734375
4853		58.593750
4854		50.781250
4855		54.687500
4856		46.875000
4857		52.734375
4858		42.968750
4859		48.828125
4860		39.062500
4861		44.921875
4862		35.156250
4863		41.015625
4864		31.250000
4865		37.109375
4866		27.343750
4867		33.203125
4868		23.437500
4869		29.296875
4870		19.531250
4871		27.343750
4872		15.625000
4873		21.484375
4874		11.718750
4875		17.578125
4876		7.812500
4877		13.671875
4878		3.906250
4879		7.812500
4880		-1.953125
4881		5.859375
4882		-5.859375
4883		1.953125
4884		-9.765625
4885		-3.906250
4886		-13.671875
4887		-7.812500
4888		-17.578125
4889		-11.718750
4890		-21.484375
4891		-15.625000
4892		-25.390625
4893		-19.531250
4894		-29.296875
4895		-25.390625
4896		-33.203125
4897		-27.343750
4898		-37.109375
4899		-33.203125
4900		-41.015625
4901		-35.156250
4902		-44.921875
4903		-39.062500
4904		-48.828125
4905		-42.968750
4906		-50.781250
4907		-46.875000
4908		-54.687500
4909		-48.828125
4910		-56.640625
4911		-52.734375
4912		-60.546875
4913		-54.687500
4914		-64.453125
4915		-58.593750
4916		-64.453125
4917		-60.546875
4918		-68.359375
4919		-64.453125
4920		-70.312500
4921		-66.406250
4922		-72.265625
4923		-68.359375
4924		-74.218750
4925		-70.312500
4926		-74.218750
4927		-72.265625
4928		-76.171875
4929		-72.265625
4930		-76.171875
4931		-74.218750
4932		-78.125000
4933		-74.218750
4934		-78.125000
4935		-76.171875
4936		-80.078125
4937		-74.218750
4938		-80.078125
4939		-76.171875
4940		-80.078125
4941		-76.171875
4942		-80.078125
4943		-76.171875
4944		-78.125000
4945		-76.171875
4946		-78.125000
4947		-74.218750
4948		-78.125000
4949		-72.265625
4950		-76.171875
4951		-72.265625
4952		-74.218750
4953		-72.265625
4954		-74.218750
4955		-70.312500
4956		-72.265625
4957		-68.359375
4958		-70.312500
4959		-66.406250
4960		-68.359375
4961		-62.500000
4962		-64.453125
4963		-60.546875
4964		-62.500000
4965		-58.593750
4966		-60.546875
4967		-56.640625
4968		-56.640625
4969		-52.734375
4970		-54.687500
4971		-48.828125
4972		-50.781250
4973		-44.921875
4974		-46.875000
4975		-42.968750
4976		-44.921875
4977		-39.062500
4978		-41.015625
4979		-35.156250
4980		-37.109375
4981		-31.250000
4982		-33.203125
4983		-27.343750
4984		-29.296875
4985		-23.437500
4986		-25.390625
4987		-19.531250
4988		-21.484375
4989		-13.671875
4990		-17.578125
4991		-11.718750
4992		-13.671875
4993		-7.812500
4994		-9.765625
4995		-3.906250
4996		-5.859375
4997		0.000000
4998		-1.953125
4999		5.859375
5000		3.906250
5001		9.765625
5002		7.812500
5003		13.671875
5004		11.718750
5005		17.578125
5006		15.625000
5007		21.484375
5008		19.531250
5009		25.390625
5010		23.437500
5011		29.296875
5012		27.343750
5013		33.203125
5014		33.203125
5015		37.109375
5016		35.156250
5017		41.015625
5018		39.062500
5019		44.921875
5020		42.968750
5021		48.828125
5022		46.875000
5023		52.734375
5024		50.781250
5025		54.687500
5026		52.734375
5027		58.593750
5028		56.640625
5029		62.500000
5030		60.546875
5031		64.453125
5032		62.500000
5033		68.359375
5034		66.406250
5035		70.312500
5036		68.359375
5037		72.265625
5038		70.312500
5039		74.218750
5040		72.265625
5041		78.125000
5042		76.171875
5043		80.078125
5044		78.125000
5045		82.031250
5046		78.125000
5047		82.031250
5048		80.078125
5049		83.984375
5050		82.031250
5051		85.937500
5052		83.984375
5053		87.890625
5054		83.984375
5055		89.843750
5056		85.937500
5057		89.843750
5058		87.890625
5059		89.843750
5060		87.890625
5061		89.843750
5062		87.890625
5063		91.796875
5064		87.890625
5065		91.796875
5066		87.890625
5067		91.796875
5068		87.890625
5069		89.843750
5070		87.890625
5071		91.796875
5072		85.937500
5073		89.843750
5074		85.937500
5075		89.843750
5076		85.937500
5077		89.843750
5078		83.984375
5079		87.890625
5080		83.984375
5081		85.937500
5082		82.031250
5083		85.937500
5084		80.078125
5085		83.984375
5086		78.125000
5087		82.031250
5088		76.171875
5089		80.078125
5090		74.218750
5091		78.125000
5092		72.265625
5093		76.171875
5094		70.312500
5095		74.218750
5096		66.406250
5097		72.265625
5098		64.453125
5099		68.359375
5100		62.500000
5101		66.406250
5102		58.593750
5103		62.500000
5104		54.687500
5105		60.546875
5106		52.734375
5107		56.640625
5108		48.828125
5109		54.687500
5110		44.921875
5111		50.781250
5112		41.015625
5113		46.875000
5114		37.109375
5115		42.968750
5116		33.203125
5117		39.062500
5118		29.296875
5119		35.156250
5120		25.390625
5121		31.250000
5122		21.484375
5123		27.343750
5124		17.578125
5125		23.437500
5126		13.671875
5127		19.531250
5128		9.765625
5129		15.625000
5130		5.859375
5131		9.765625
5132		0.000000
5133		5.859375
5134		-3.906250
5135		3.906250
5136		-7.812500
5137		-1.953125
5138		-11.718750
5139		-5.859375
5140		-15.625000
5141		-9.765625
5142		-19.531250
5143		-13.671875
5144		-25.390625
5145		-19.531250
5146		-27.343750
5147		-23.437500
5148		-31.250000
5149		-25.390625
5150		-35.156250
5151		-31.250000
5152		-39.062500
5153		-35.156250
5154		-42.968750
5155		-37.109375
5156		-46.875000
5157		-41.015625
5158		-50.781250
5159		-44.921875
5160		-52.734375
5161		-48.828125
5162		-56.640625
5163		-50.781250
5164		-58.593750
5165		-54.687500
5166		-62.500000
5167		-56.640625
5168		-64.453125
5169		-60.546875
5170		-66.406250
5171		-62.500000
5172		-68.359375
5173		-64.453125
5174		-70.312500
5175		-66.406250
5176		-72.265625
5177		-68.359375
5178		-74.218750
5179		-70.312500
5180		-76.171875
5181		-72.265625
5182		-76.171875
5183		-74.218750
5184		-78.125000
5185		-74.218750
5186		-78.125000
5187		-76.171875
5188		-80.078125
5189		-74.218750
5190		-78.125000
5191		-76.171875
5192		-80.078125
5193		-76.171875
5194		-78.125000
5195		-76.171875
5196		-78.125000
5197		-76.171875
5198		-78.125000
5199		-74.218750
5200		-78.125000
5201		-74.218750
5202		-76.171875
5203		-72.265625
5204		-74.218750
5205		-72.265625
5206		-74.218750
5207		-68.359375
5208		-72.265625
5209		-68.359375
5210		-70.312500
5211		-66.406250
5212		-68.359375
5213		-64.453125
5214		-66.406250
5215		-62.500000
5216		-64.453125
5217		-58.593750
5218		-62.500000
5219		-56.640625
5220		-58.593750
5221		-54.687500
5222		-54.687500
5223		-50.781250
5224		-52.734375
5225		-46.875000
5226		-48.828125
5227		-42.968750
5228		-46.875000
5229		-39.062500
5230		-42.968750
5231		-37.109375
5232		-39.062500
5233		-33.203125
5234		-35.156250
5235		-29.296875
5236		-31.250000
5237		-25.390625
5238		-27.343750
5239		-21.484375
5240		-25.390625
5241		-17.578125
5242		-19.531250
5243		-13.671875
5244		-15.625000
5245		-9.765625
5246		-9.765625
5247		-3.906250
5248		-5.859375
5249		0.000000
5250		-1.953125
5251		5.859375
5252		1.953125
5253		7.812500
5254		5.859375
5255		11.718750
5256		9.765625
5257		15.625000
5258		13.671875
5259		19.531250
5260		17.578125
5261		25.390625
5262		21.484375
5263		29.296875
5264		27.343750
5265		33.203125
5266		31.250000
5267		37.109375
5268		35.156250
5269		39.062500
5270		39.062500
5271		42.968750
5272		42.968750
5273		48.828125
5274		44.921875
5275		50.781250
5276		48.828125
5277		54.687500
5278		52.734375
5279		56.640625
5280		56.640625
5281		60.546875
5282		58.593750
5283		64.453125
5284		62.500000
5285		66.406250
5286		64.453125
5287		68.359375
5288		68.359375
5289		72.265625
5290		70.312500
5291		74.218750
5292		72.265625
5293		76.171875
5294		74.218750
5295		80.078125
5296		76.171875
5297		82.031250
5298		80.078125
5299		83.984375
5300		80.078125
5301		83.984375
5302		82.031250
5303		85.937500
5304		83.984375
5305		87.890625
5306		83.984375
5307		87.890625
5308		85.937500
5309		89.843750
5310		85.937500
5311		89.843750
5312		87.890625
5313		91.796875
5314		87.890625
5315		91.796875
5316		87.890625
5317		91.796875
5318		89.843750
5319		91.796875
5320		89.843750
5321		91.796875
5322		87.890625
5323		91.796875
5324		87.890625
5325		91.796875
5326		87.890625
5327		89.843750
5328		85.937500
5329		89.843750
5330		85.937500
5331		87.890625
5332		83.984375
5333		87.890625
5334		82.031250
5335		87.890625
5336		82.031250
5337		85.937500
5338		80.078125
5339		83.984375
5340		78.125000
5341		82.031250
5342		76.171875
5343		80.078125
5344		74.218750
5345		78.125000
5346		72.265625
5347		76.171875
5348		68.359375
5349		72.265625
5350		66.406250
5351		70.312500
5352		62.500000
5353		68.359375
5354		60.546875
5355		64.453125
5356		56.640625
5357		62.500000
5358		54.687500
5359		58.593750
5360		50.781250
5361		54.687500
5362		46.875000
5363		52.734375
5364		42.968750
5365		48.828125
5366		39.062500
5367		44.921875
5368		35.156250
5369		41.015625
5370		33.203125
5371		37.109375
5372		29.296875
5373		33.203125
5374		23.437500
5375		29.296875
5376		19.531250
5377		25.390625
5378		15.625000
5379		21.484375
5380		11.718750
5381		17.578125
5382		7.812500
5383		13.671875
5384		3.906250
5385		9.765625
5386		0.000000
5387		5.859375
5388		-5.859375
5389		0.000000
5390		-9.765625
5391		-3.906250
5392		-13.671875
5393		-7.812500
5394		-17.578125
5395		-11.718750
5396		-21.484375
5397		-15.625000
5398		-25.390625
5399		-19.531250
5400		-31.250000
5401		-23.437500
5402		-33.203125
5403		-27.343750
5404		-37.109375
5405		-31.250000
5406		-41.015625
5407		-35.156250
5408		-44.921875
5409		-37.109375
5410		-48.828125
5411		-42.968750
5412		-50.781250
5413		-46.875000
5414		-54.687500
5415		-48.828125
5416		-56.640625
5417		-52.734375
5418		-60.546875
5419		-54.687500
5420		-62.500000
5421		-56.640625
5422		-64.453125
5423		-60.546875
5424		-66.406250
5425		-62.500000
5426		-68.359375
5427		-64.453125
5428		-70.312500
5429		-66.406250
5430		-72.265625
5431		-68.359375
5432		-74.218750
5433		-70.312500
5434		-76.171875
5435		-72.265625
5436		-76.171875
5437		-72.265625
5438		-76.171875
5439		-74.218750
5440		-78.125000
5441		-74.218750
5442		-78.125000
5443		-74.218750
5444		-78.125000
5445		-76.171875
5446		-78.125000
5447		-74.218750
5448		-78.125000
5449		-74.218750
5450		-78.125000
5451		-74.218750
5452		-78.125000
5453		-72.265625
5454		-76.171875
5455		-72.265625
5456		-74.218750
5457		-72.265625
5458		-74.218750
5459		-70.312500
5460		-72.265625
5461		-68.359375
5462		-70.312500
5463		-66.406250
5464		-70.312500
5465		-64.453125
5466		-66.406250
5467		-62.500000
5468		-64.453125
5469		-58.593750
5470		-62.500000
5471		-56.640625
5472		-58.593750
5473		-54.687500
5474		-56.640625
5475		-50.781250
5476		-52.734375
5477		-48.828125
5478		-50.781250
5479		-44.921875
5480		-46.875000
5481		-41.015625
5482		-42.968750
5483		-37.109375
5484		-39.062500
5485		-35.156250
5486		-37.109375
5487		-31.250000
5488		-31.250000
5489		-27.343750
5490		-27.343750
5491		-23.437500
5492		-25.390625
5493		-19.531250
5494		-21.484375
5495		-13.671875
5496		-15.625000
5497		-9.765625
5498		-11.718750
5499		-5.859375
5500		-7.812500
5501		-1.953125
5502		-3.906250
5503		1.953125
5504		0.000000
5505		5.859375
5506		3.906250
5507		9.765625
5508		7.812500
5509		13.671875
5510		13.671875
5511		19.531250
5512		17.578125
5513		23.437500
5514		19.531250
5515		27.343750
5516		25.390625
5517		31.250000
5518		29.296875
5519		35.156250
5520		33.203125
5521		39.062500
5522		37.109375
5523		42.968750
5524		41.015625
5525		46.875000
5526		44.921875
5527		48.828125
5528		46.875000
5529		52.734375
5530		50.781250
5531		56.640625
5532		54.687500
5533		58.593750
5534		56.640625
5535		62.500000
5536		60.546875
5537		66.406250
5538		64.453125
5539		68.359375
5540		66.406250
5541		70.312500
5542		68.359375
5543		74.218750
5544		72.265625
5545		76.171875
5546		74.218750
5547		78.125000
5548		76.171875
5549		80.078125
5550		78.125000
5551		82.031250
5552		80.078125
5553		83.984375
5554		80.078125
5555		85.937500
5556		83.984375
5557		85.937500
5558		83.984375
5559		87.890625
5560		85.937500
5561		89.843750
5562		85.937500
5563		89.843750
5564		87.890625
5565		89.843750
5566		87.890625
5567		91.796875
5568		87.890625
5569		91.796875
5570		87.890625
5571		91.796875
5572		89.843750
5573		91.796875
5574		87.890625
5575		91.796875
5576		87.890625
5577		91.796875
5578		87.890625
5579		91.796875
5580		85.937500
5581		89.843750
5582		85.937500
5583		89.843750
5584		83.984375
5585		87.890625
5586		83.984375
5587		85.937500
5588		82.031250
5589		85.937500
5590		80.078125
5591		83.984375
5592		78.125000
5593		82.031250
5594		76.171875
5595		80.078125
5596		74.218750
5597		78.125000
5598		72.265625
5599		76.171875
5600		70.312500
5601		74.218750
5602		66.406250
5603		72.265625
5604		64.453125
5605		68.359375
5606		60.546875
5607		66.406250
5608		56.640625
5609		62.500000
5610		54.687500
5611		60.546875
5612		52.734375
5613		56.640625
5614		48.828125
5615		54.687500
5616		44.921875
5617		50.781250
5618		41.015625
5619		46.875000
5620		37.109375
5621		42.968750
5622		33.203125
5623		39.062500
5624		29.296875
5625		35.156250
5626		25.390625
5627		31.250000
5628		21.484375
5629		27.343750
5630		17.578125
5631		23.437500
5632		13.671875
5633		19.531250
5634		9.765625
5635		15.625000
5636		5.859375
5637		11.718750
5638		0.000000
5639		7.812500
5640		-3.906250
5641		1.953125
5642		-7.812500
5643		-1.953125
5644		-11.718750
5645		-5.859375
5646		-15.625000
5647		-9.765625
5648		-19.531250
5649		-13.671875
5650		-25.390625
5651		-17.578125
5652		-27.343750
5653		-21.484375
5654		-31.250000
5655		-25.390625
5656		-35.156250
5657		-31.250000
5658		-39.062500
5659		-35.156250
5660		-42.968750
5661		-37.109375
5662		-46.875000
5663		-41.015625
5664		-48.828125
5665		-44.921875
5666		-52.734375
5667		-48.828125
5668		-56.640625
5669		-50.781250
5670		-58.593750
5671		-52.734375
5672		-60.546875
5673		-56.640625
5674		-64.453125
5675		-58.593750
5676		-66.406250
5677		-62.500000
5678		-68.359375
5679		-64.453125
5680		-70.312500
5681		-66.406250
5682		-72.265625
5683		-68.359375
5684		-74.218750
5685		-70.312500
5686		-74.218750
5687		-72.265625
5688		-76.171875
5689		-72.265625
5690		-76.171875
5691		-74.218750
5692		-78.125000
5693		-74.218750
5694		-78.125000
5695		-76.171875
5696		-78.125000
5697		-76.171875
5698		-78.125000
5699		-76.171875
5700		-78.125000
5701		-74.218750
5702		-78.125000
5703		-74.218750
5704		-78.125000
5705		-74.218750
5706		-78.125000
5707		-74.218750
5708		-76.171875
5709		-72.265625
5710		-74.218750
5711		-72.265625
5712		-74.218750
5713		-68.359375
5714		-72.265625
5715		-66.406250
5716		-70.312500
5717		-66.406250
5718		-68.359375
5719		-62.500000
5720		-66.406250
5721		-60.546875
5722		-62.500000
5723		-58.593750
5724		-60.546875
5725		-56.640625
5726		-58.593750
5727		-52.734375
5728		-54.687500
5729		-48.828125
5730		-50.781250
5731		-44.921875
5732		-48.828125
5733		-42.968750
5734		-44.921875
5735		-39.062500
5736		-41.015625
5737		-35.156250
5738		-39.062500
5739		-33.203125
5740		-35.156250
5741		-29.296875
5742		-29.296875
5743		-25.390625
5744		-27.343750
5745		-21.484375
5746		-21.484375
5747		-15.625000
5748		-17.578125
5749		-11.718750
5750		-13.671875
5751		-7.812500
5752		-9.765625
5753		-3.906250
5754		-5.859375
5755		0.000000
5756		-1.953125
5757		3.906250
5758		1.953125
5759		7.812500
5760		7.812500
5761		13.671875
5762		11.718750
5763		17.578125
5764		13.671875
5765		21.484375
5766		19.531250
5767		25.390625
5768		23.437500
5769		29.296875
5770		27.343750
5771		33.203125
5772		31.250000
5773		37.109375
5774		35.156250
5775		41.015625
5776		39.062500
5777		44.921875
5778		42.968750
5779		48.828125
5780		44.921875
5781		50.781250
5782		48.828125
5783		54.687500
5784		52.734375
5785		58.593750
5786		56.640625
5787		62.500000
5788		58.593750
5789		64.453125
5790		62.500000
5791		66.406250
5792		66.406250
5793		70.312500
5794		68.359375
5795		72.265625
5796		70.312500
5797		76.171875
5798		72.265625
5799		78.125000
5800		76.171875
5801		80.078125
5802		76.171875
5803		82.031250
5804		78.125000
5805		83.984375
5806		80.078125
5807		85.937500
5808		82.031250
5809		85.937500
5810		83.984375
5811		87.890625
5812		85.937500
5813		87.890625
5814		85.937500
5815		89.843750
5816		87.890625
5817		89.843750
5818		87.890625
5819		91.796875
5820		87.890625
5821		91.796875
5822		87.890625
5823		91.796875
5824		89.843750
5825		91.796875
5826		89.843750
5827		91.796875
5828		87.890625
5829		91.796875
5830		87.890625
5831		91.796875
5832		87.890625
5833		91.796875
5834		85.937500
5835		89.843750
5836		85.937500
5837		87.890625
5838		83.984375
5839		87.890625
5840		82.031250
5841		87.890625
5842		82.031250
5843		85.937500
5844		80.078125
5845		83.984375
5846		78.125000
5847		82.031250
5848		76.171875
5849		80.078125
5850		72.265625
5851		78.125000
5852		70.312500
5853		76.171875
5854		68.359375
5855		74.218750
5856		66.406250
5857		70.312500
5858		62.500000
5859		68.359375
5860		60.546875
5861		64.453125
5862		56.640625
5863		62.500000
5864		54.687500
5865		60.546875
5866		48.828125
5867		56.640625
5868		46.875000
5869		52.734375
5870		42.968750
5871		48.828125
5872		39.062500
5873		44.921875
5874		35.156250
5875		41.015625
5876		31.250000
5877		37.109375
5878		27.343750
5879		33.203125
5880		23.437500
5881		31.250000
5882		19.531250
5883		25.390625
5884		15.625000
5885		21.484375
5886		11.718750
5887		17.578125
5888		5.859375
5889		13.671875
5890		1.953125
5891		9.765625
5892		-1.953125
5893		3.906250
5894		-7.812500
5895		0.000000
5896		-9.765625
5897		-3.906250
5898		-15.625000
5899		-5.859375
5900		-19.531250
5901		-11.718750
5902		-23.437500
5903		-15.625000
5904		-27.343750
5905		-19.531250
5906		-31.250000
5907		-23.437500
5908		-33.203125
5909		-29.296875
5910		-37.109375
5911		-33.203125
5912		-42.968750
5913		-35.156250
5914		-44.921875
5915		-39.062500
5916		-48.828125
5917		-41.015625
5918		-52.734375
5919		-44.921875
5920		-54.687500
5921		-48.828125
5922		-58.593750
5923		-50.781250
5924		-60.546875
5925		-54.687500
5926		-62.500000
5927		-58.593750
5928		-66.406250
5929		-60.546875
5930		-68.359375
5931		-62.500000
5932		-70.312500
5933		-64.453125
5934		-72.265625
5935		-66.406250
5936		-74.218750
5937		-68.359375
5938		-76.171875
5939		-70.312500
5940		-76.171875
5941		-70.312500
5942		-76.171875
5943		-74.218750
5944		-76.171875
5945		-74.218750
5946		-78.125000
5947		-74.218750
5948		-78.125000
5949		-74.218750
5950		-78.125000
5951		-74.218750
5952		-78.125000
5953		-74.218750
5954		-80.078125
5955		-74.218750
5956		-78.125000
5957		-74.218750
5958		-76.171875
5959		-74.218750
5960		-76.171875
5961		-72.265625
5962		-74.218750
5963		-70.312500
5964		-74.218750
5965		-70.312500
5966		-72.265625
5967		-68.359375
5968		-70.312500
5969		-66.406250
5970		-68.359375
5971		-64.453125
5972		-66.406250
5973		-62.500000
5974		-64.453125
5975		-60.546875
5976		-60.546875
5977		-56.640625
5978		-58.593750
5979		-52.734375
5980		-54.687500
5981		-50.781250
5982		-52.734375
5983		-46.875000
5984		-48.828125
5985		-44.921875
5986		-46.875000
5987		-41.015625
5988		-42.968750
5989		-37.109375
5990		-39.062500
5991		-33.203125
5992		-35.156250
5993		-29.296875
5994		-31.250000
5995		-25.390625
5996		-27.343750
5997		-21.484375
5998		-23.437500
5999		-17.578125
6000		-19.531250
6001		-13.671875
6002		-15.625000
6003		-9.765625
6004		-11.718750
6005		-5.859375
6006		-7.812500
6007		-1.953125
6008		-3.906250
6009		1.953125
6010		1.953125
6011		7.812500
6012		5.859375
6013		11.718750
6014		9.765625
6015		15.625000
6016		13.671875
6017		19.531250
6018		17.578125
6019		23.437500
6020		21.484375
6021		27.343750
6022		25.390625
6023		31.250000
6024		29.296875
6025		35.156250
6026		33.203125
6027		39.062500
6028		37.109375
6029		42.968750
6030		41.015625
6031		46.875000
6032		44.921875
6033		50.781250
6034		48.828125
6035		52.734375
6036		52.734375
6037		56.640625
6038		54.687500
6039		60.546875
6040		58.593750
6041		62.500000
6042		60.546875
6043		66.406250
6044		64.453125
6045		70.312500
6046		66.406250
6047		72.265625
6048		70.312500
6049		74.218750
6050		72.265625
6051		76.171875
6052		74.218750
6053		78.125000
6054		76.171875
6055		80.078125
6056		78.125000
6057		82.031250
6058		80.078125
6059		83.984375
6060		82.031250
6061		85.937500
6062		82.031250
6063		89.843750
6064		82.031250
6065		91.796875
6066		82.031250
6067		91.796875
6068		83.984375
6069		93.750000
6070		87.890625
6071		89.843750
6072		87.890625
6073		91.796875
6074		89.843750
6075		91.796875
6076		89.843750
6077		91.796875
6078		89.843750
6079		91.796875
6080		85.937500
6081		93.750000
6082		85.937500
6083		93.750000
6084		83.984375
6085		93.750000
6086		87.890625
6087		89.843750
6088		85.937500
6089		89.843750
6090		83.984375
6091		87.890625
6092		83.984375
6093		87.890625
6094		82.031250
6095		85.937500
6096		76.171875
6097		85.937500
6098		76.171875
6099		83.984375
6100		74.218750
6101		83.984375
6102		74.218750
6103		82.031250
6104		72.265625
6105		76.171875
6106		70.312500
6107		74.218750
6108		66.406250
6109		72.265625
6110		64.453125
6111		68.359375
6112		62.500000
6113		66.406250
6114		56.640625
6115		66.406250
6116		52.734375
6117		64.453125
6118		48.828125
6119		60.546875
6120		48.828125
6121		52.734375
6122		44.921875
6123		50.781250
6124		41.015625
6125		46.875000
6126		37.109375
6127		42.968750
6128		33.203125
6129		39.062500
6130		25.390625
6131		37.109375
6132		21.484375
6133		33.203125
6134		17.578125
6135		29.296875
6136		17.578125
6137		23.437500
6138		13.671875
6139		19.531250
6140		9.765625
6141		15.625000
6142		3.906250
6143		9.765625
6144		0.000000
6145		5.859375
6146		-5.859375
6147		1.953125
6148		-11.718750
6149		1.953125
6150		-15.625000
6151		-1.953125
6152		-17.578125
6153		-5.859375
6154		-19.531250
6155		-13.671875
6156		-23.437500
6157		-19.531250
6158		-27.343750
6159		-23.437500
6160		-31.250000
6161		-27.343750
6162		-35.156250
6163		-31.250000
6164		-41.015625
6165		-31.250000
6166		-44.921875
6167		-35.156250
6168		-48.828125
6169		-39.062500
6170		-48.828125
6171		-44.921875
6172		-52.734375
6173		-46.875000
6174		-56.640625
6175		-50.781250
6176		-58.593750
6177		-54.687500
6178		-60.546875
6179		-56.640625
6180		-68.359375
6181		-56.640625
6182		-70.312500
6183		-58.593750
6184		-72.265625
6185		-60.546875
6186		-72.265625
6187		-62.500000
6188		-72.265625
6189		-68.359375
6190		-72.265625
6191		-70.312500
6192		-74.218750
6193		-72.265625
6194		-76.171875
6195		-72.265625
6196		-76.171875
6197		-74.218750
6198		-80.078125
6199		-70.312500
6200		-82.031250
6201		-70.312500
6202		-82.031250
6203		-72.265625
6204		-78.125000
6205		-76.171875
6206		-78.125000
6207		-74.218750
6208		-78.125000
6209		-74.218750
6210		-76.171875
6211		-74.218750
6212		-76.171875
6213		-74.218750
6214		-78.125000
6215		-68.359375
6216		-76.171875
6217		-66.406250
6218		-76.171875
6219		-66.406250
6220		-70.312500
6221		-66.406250
6222		-68.359375
6223		-64.453125
6224		-66.406250
6225		-62.500000
6226		-64.453125
6227		-60.546875
6228		-62.500000
6229		-58.593750
6230		-60.546875
6231		-52.734375
6232		-60.546875
6233		-48.828125
6234		-56.640625
6235		-44.921875
6236		-54.687500
6237		-44.921875
6238		-46.875000
6239		-42.968750
6240		-44.921875
6241		-39.062500
6242		-41.015625
6243		-35.156250
6244		-37.109375
6245		-31.250000
6246		-33.203125
6247		-27.343750
6248		-29.296875
6249		-23.437500
6250		-27.343750
6251		-15.625000
6252		-23.437500
6253		-15.625000
6254		-17.578125
6255		-11.718750
6256		-13.671875
6257		-7.812500
6258		-9.765625
6259		-3.906250
6260		-3.906250
6261		0.000000
6262		0.000000
6263		5.859375
6264		3.906250
6265		9.765625
6266		7.812500
6267		15.625000
6268		11.718750
6269		19.531250
6270		15.625000
6271		21.484375
6272		19.531250
6273		25.390625
6274		23.437500
6275		29.296875
6276		29.296875
6277		33.203125
6278		33.203125
6279		37.109375
6280		37.109375
6281		42.968750
6282		39.062500
6283		44.921875
6284		42.968750
6285		50.781250
6286		46.875000
6287		52.734375
6288		50.781250
6289		56.640625
6290		54.687500
6291		58.593750
6292		56.640625
6293		62.500000
6294		60.546875
6295		64.453125
6296		64.453125
6297		68.359375
6298		66.406250
6299		70.312500
6300		68.359375
6301		72.265625
6302		72.265625
6303		76.171875
6304		74.218750
6305		78.125000
6306		76.171875
6307		80.078125
6308		78.125000
6309		82.031250
6310		80.078125
6311		83.984375
6312		82.031250
6313		85.937500
6314		83.984375
6315		87.890625
6316		83.984375
6317		87.890625
6318		85.937500
6319		89.843750
6320		87.890625
6321		89.843750
6322		87.890625
6323		89.843750
6324		87.890625
6325		91.796875
6326		89.843750
6327		91.796875
6328		89.843750
6329		91.796875
6330		89.843750
6331		91.796875
6332		87.890625
6333		91.796875
6334		89.843750
6335		91.796875
6336		87.890625
6337		91.796875
6338		87.890625
6339		89.843750
6340		87.890625
6341		91.796875
6342		85.937500
6343		89.843750
6344		85.937500
6345		87.890625
6346		83.984375
6347		85.937500
6348		82.031250
6349		85.937500
6350		80.078125
6351		83.984375
6352		78.125000
6353		82.031250
6354		76.171875
6355		80.078125
6356		74.218750
6357		78.125000
6358		70.312500
6359		76.171875
6360		68.359375
6361		74.218750
6362		66.406250
6363		70.312500
6364		64.453125
6365		68.359375
6366		60.546875
6367		66.406250
6368		56.640625
6369		62.500000
6370		54.687500
6371		58.593750
6372		50.781250
6373		54.687500
6374		46.875000
6375		52.734375
6376		42.968750
6377		48.828125
6378		39.062500
6379		44.921875
6380		35.156250
6381		41.015625
6382		31.250000
6383		37.109375
6384		27.343750
6385		33.203125
6386		23.437500
6387		29.296875
6388		19.531250
6389		25.390625
6390		15.625000
6391		21.484375
6392		11.718750
6393		17.578125
6394		7.812500
6395		13.671875
6396		3.906250
6397		9.765625
6398		-1.953125
6399		3.906250
6400		-5.859375
6401		1.953125
6402		-9.765625
6403		-3.906250
6404		-13.671875
6405		-7.812500
6406		-17.578125
6407		-11.718750
6408		-21.484375
6409		-15.625000
6410		-25.390625
6411		-19.531250
6412		-29.296875
6413		-23.437500
6414		-33.203125
6415		-27.343750
6416		-37.109375
6417		-31.250000
6418		-41.015625
6419		-35.156250
6420		-44.921875
6421		-39.062500
6422		-46.875000
6423		-42.968750
6424		-50.781250
6425		-44.921875
6426		-54.687500
6427		-48.828125
6428		-56.640625
6429		-52.734375
6430		-58.593750
6431		-54.687500
6432		-62.500000
6433		-56.640625
6434		-64.453125
6435		-60.546875
6436		-66.406250
6437		-62.500000
6438		-70.312500
6439		-64.453125
6440		-72.265625
6441		-66.406250
6442		-72.265625
6443		-68.359375
6444		-74.218750
6445		-70.312500
6446		-74.218750
6447		-72.265625
6448		-76.171875
6449		-72.265625
6450		-78.125000
6451		-72.265625
6452		-78.125000
6453		-74.218750
6454		-78.125000
6455		-74.218750
6456		-78.125000
6457		-74.218750
6458		-78.125000
6459		-74.218750
6460		-76.171875
6461		-74.218750
6462		-76.171875
6463		-74.218750
6464		-76.171875
6465		-72.265625
6466		-76.171875
6467		-70.312500
6468		-74.218750
6469		-70.312500
6470		-72.265625
6471		-70.312500
6472		-70.312500
6473		-66.406250
6474		-70.312500
6475		-64.453125
6476		-66.406250
6477		-64.453125
6478		-64.453125
6479		-60.546875
6480		-62.500000
6481		-58.593750
6482		-60.546875
6483		-54.687500
6484		-58.593750
6485		-52.734375
6486		-54.687500
6487		-50.781250
6488		-52.734375
6489		-46.875000
6490		-48.828125
6491		-42.968750
6492		-46.875000
6493		-39.062500
6494		-41.015625
6495		-37.109375
6496		-39.062500
6497		-33.203125
6498		-35.156250
6499		-29.296875
6500		-31.250000
6501		-25.390625
6502		-27.343750
6503		-21.484375
6504		-23.437500
6505		-17.578125
6506		-19.531250
6507		-11.718750
6508		-15.625000
6509		-9.765625
6510		-11.718750
6511		-5.859375
6512		-5.859375
6513		0.000000
6514		-1.953125
6515		3.906250
6516		1.953125
6517		7.812500
6518		5.859375
6519		11.718750
6520		9.765625
6521		15.625000
6522		13.671875
6523		19.531250
6524		17.578125
6525		25.390625
6526		23.437500
6527		27.343750
6528		27.343750
6529		31.250000
6530		31.250000
6531		35.156250
6532		35.156250
6533		39.062500
6534		39.062500
6535		42.968750
6536		42.968750
6537		46.875000
6538		44.921875
6539		50.781250
6540		48.828125
6541		54.687500
6542		52.734375
6543		56.640625
6544		54.687500
6545		60.546875
6546		58.593750
6547		62.500000
6548		62.500000
6549		66.406250
6550		64.453125
6551		70.312500
6552		68.359375
6553		72.265625
6554		70.312500
6555		74.218750
6556		72.265625
6557		76.171875
6558		74.218750
6559		78.125000
6560		78.125000
6561		80.078125
6562		78.125000
6563		82.031250
6564		82.031250
6565		83.984375
6566		82.031250
6567		85.937500
6568		83.984375
6569		87.890625
6570		85.937500
6571		87.890625
6572		85.937500
6573		89.843750
6574		87.890625
6575		89.843750
6576		87.890625
6577		91.796875
6578		87.890625
6579		91.796875
6580		89.843750
6581		91.796875
6582		89.843750
6583		91.796875
6584		89.843750
6585		91.796875
6586		89.843750
6587		91.796875
6588		87.890625
6589		91.796875
6590		87.890625
6591		91.796875
6592		87.890625
6593		89.843750
6594		85.937500
6595		89.843750
6596		85.937500
6597		87.890625
6598		83.984375
6599		87.890625
6600		82.031250
6601		85.937500
6602		80.078125
6603		83.984375
6604		78.125000
6605		82.031250
6606		76.171875
6607		80.078125
6608		74.218750
6609		78.125000
6610		72.265625
6611		76.171875
6612		68.359375
6613		74.218750
6614		68.359375
6615		72.265625
6616		64.453125
6617		68.359375
6618		60.546875
6619		66.406250
6620		58.593750
6621		62.500000
6622		54.687500
6623		60.546875
6624		50.781250
6625		56.640625
6626		48.828125
6627		52.734375
6628		44.921875
6629		48.828125
6630		41.015625
6631		46.875000
6632		37.109375
6633		42.968750
6634		33.203125
6635		39.062500
6636		29.296875
6637		35.156250
6638		25.390625
6639		31.250000
6640		21.484375
6641		27.343750
6642		17.578125
6643		23.437500
6644		13.671875
6645		17.578125
6646		7.812500
6647		13.671875
6648		3.906250
6649		11.718750
6650		0.000000
6651		5.859375
6652		-3.906250
6653		3.906250
6654		-7.812500
6655		-1.953125
6656		-11.718750
6657		-5.859375
6658		-15.625000
6659		-9.765625
6660		-19.531250
6661		-15.625000
6662		-25.390625
6663		-19.531250
6664		-27.343750
6665		-23.437500
6666		-31.250000
6667		-27.343750
6668		-37.109375
6669		-31.250000
6670		-39.062500
6671		-35.156250
6672		-42.968750
6673		-39.062500
6674		-46.875000
6675		-41.015625
6676		-48.828125
6677		-44.921875
6678		-52.734375
6679		-48.828125
6680		-56.640625
6681		-50.781250
6682		-58.593750
6683		-54.687500
6684		-62.500000
6685		-56.640625
6686		-66.406250
6687		-58.593750
6688		-66.406250
6689		-62.500000
6690		-68.359375
6691		-64.453125
6692		-70.312500
6693		-66.406250
6694		-72.265625
6695		-68.359375
6696		-72.265625
6697		-70.312500
6698		-74.218750
6699		-72.265625
6700		-76.171875
6701		-72.265625
6702		-78.125000
6703		-72.265625
6704		-78.125000
6705		-72.265625
6706		-78.125000
6707		-74.218750
6708		-78.125000
6709		-76.171875
6710		-78.125000
6711		-76.171875
6712		-78.125000
6713		-76.171875
6714		-76.171875
6715		-74.218750
6716		-76.171875
6717		-74.218750
6718		-78.125000
6719		-70.312500
6720		-76.171875
6721		-70.312500
6722		-74.218750
6723		-70.312500
6724		-72.265625
6725		-68.359375
6726		-70.312500
6727		-66.406250
6728		-68.359375
6729		-64.453125
6730		-66.406250
6731		-62.500000
6732		-64.453125
6733		-60.546875
6734		-62.500000
6735		-56.640625
6736		-60.546875
6737		-52.734375
6738		-58.593750
6739		-52.734375
6740		-52.734375
6741		-48.828125
6742		-50.781250
6743		-44.921875
6744		-46.875000
6745		-42.968750
6746		-42.968750
6747		-39.062500
6748		-41.015625
6749		-35.156250
6750		-37.109375
6751		-31.250000
6752		-33.203125
6753		-27.343750
6754		-29.296875
6755		-23.437500
6756		-25.390625
6757		-19.531250
6758		-19.531250
6759		-15.625000
6760		-17.578125
6761		-11.718750
6762		-11.718750
6763		-7.812500
6764		-7.812500
6765		-1.953125
6766		-3.906250
6767		1.953125
6768		0.000000
6769		7.812500
6770		1.953125
6771		11.718750
6772		7.812500
6773		13.671875
6774		11.718750
6775		17.578125
6776		17.578125
6777		23.437500
6778		21.484375
6779		25.390625
6780		25.390625
6781		31.250000
6782		29.296875
6783		35.156250
6784		31.250000
6785		37.109375
6786		35.156250
6787		42.968750
6788		39.062500
6789		44.921875
6790		44.921875
6791		48.828125
6792		46.875000
6793		52.734375
6794		50.781250
6795		56.640625
6796		54.687500
6797		58.593750
6798		58.593750
6799		62.500000
6800		60.546875
6801		64.453125
6802		62.500000
6803		70.312500
6804		64.453125
6805		72.265625
6806		70.312500
6807		74.218750
6808		72.265625
6809		76.171875
6810		74.218750
6811		78.125000
6812		76.171875
6813		80.078125
6814		78.125000
6815		82.031250
6816		80.078125
6817		83.984375
6818		82.031250
6819		87.890625
6820		82.031250
6821		87.890625
6822		83.984375
6823		89.843750
6824		85.937500
6825		89.843750
6826		87.890625
6827		89.843750
6828		87.890625
6829		91.796875
6830		89.843750
6831		91.796875
6832		89.843750
6833		91.796875
6834		89.843750
6835		91.796875
6836		87.890625
6837		93.750000
6838		87.890625
6839		93.750000
6840		89.843750
6841		91.796875
6842		89.843750
6843		91.796875
6844		87.890625
6845		89.843750
6846		87.890625
6847		89.843750
6848		85.937500
6849		89.843750
6850		83.984375
6851		87.890625
6852		82.031250
6853		87.890625
6854		80.078125
6855		87.890625
6856		80.078125
6857		85.937500
6858		78.125000
6859		82.031250
6860		76.171875
6861		80.078125
6862		74.218750
6863		78.125000
6864		72.265625
6865		76.171875
6866		68.359375
6867		72.265625
6868		66.406250
6869		70.312500
6870		64.453125
6871		68.359375
6872		60.546875
6873		64.453125
6874		56.640625
6875		62.500000
6876		54.687500
6877		58.593750
6878		50.781250
6879		54.687500
6880		46.875000
6881		52.734375
6882		42.968750
6883		48.828125
6884		39.062500
6885		44.921875
6886		35.156250
6887		41.015625
6888		31.250000
6889		37.109375
6890		27.343750
6891		33.203125
6892		23.437500
6893		29.296875
6894		19.531250
6895		25.390625
6896		15.625000
6897		21.484375
6898		11.718750
6899		17.578125
6900		7.812500
6901		13.671875
6902		1.953125
6903		7.812500
6904		0.000000
6905		5.859375
6906		-5.859375
6907		0.000000
6908		-9.765625
6909		-3.906250
6910		-13.671875
6911		-7.812500
6912		-17.578125
6913		-11.718750
6914		-21.484375
6915		-15.625000
6916		-25.390625
6917		-19.531250
6918		-29.296875
6919		-23.437500
6920		-33.203125
6921		-27.343750
6922		-37.109375
6923		-31.250000
6924		-41.015625
6925		-35.156250
6926		-42.968750
6927		-39.062500
6928		-46.875000
6929		-42.968750
6930		-50.781250
6931		-44.921875
6932		-54.687500
6933		-48.828125
6934		-56.640625
6935		-52.734375
6936		-58.593750
6937		-54.687500
6938		-62.500000
6939		-58.593750
6940		-64.453125
6941		-60.546875
6942		-66.406250
6943		-62.500000
6944		-68.359375
6945		-64.453125
6946		-70.312500
6947		-66.406250
6948		-72.265625
6949		-68.359375
6950		-72.265625
6951		-70.312500
6952		-74.218750
6953		-70.312500
6954		-74.218750
6955		-72.265625
6956		-76.171875
6957		-74.218750
6958		-76.171875
6959		-74.218750
6960		-76.171875
6961		-74.218750
6962		-76.171875
6963		-74.218750
6964		-76.171875
6965		-74.218750
6966		-76.171875
6967		-74.218750
6968		-76.171875
6969		-74.218750
6970		-76.171875
6971		-72.265625
6972		-74.218750
6973		-72.265625
6974		-74.218750
6975		-70.312500
6976		-72.265625
6977		-68.359375
6978		-70.312500
6979		-66.406250
6980		-68.359375
6981		-64.453125
6982		-66.406250
6983		-62.500000
6984		-64.453125
6985		-60.546875
6986		-62.500000
6987		-58.593750
6988		-58.593750
6989		-54.687500
6990		-56.640625
6991		-52.734375
6992		-54.687500
6993		-48.828125
6994		-50.781250
6995		-46.875000
6996		-46.875000
6997		-42.968750
6998		-44.921875
6999		-39.062500
7000		-41.015625
7001		-35.156250
7002		-37.109375
7003		-31.250000
7004		-33.203125
7005		-27.343750
7006		-29.296875
7007		-23.437500
7008		-25.390625
7009		-19.531250
7010		-21.484375
7011		-15.625000
7012		-17.578125
7013		-11.718750
7014		-13.671875
7015		-7.812500
7016		-9.765625
7017		-3.906250
7018		-5.859375
7019		0.000000
7020		-1.953125
7021		3.906250
7022		1.953125
7023		7.812500
7024		7.812500
7025		11.718750
7026		11.718750
7027		17.578125
7028		15.625000
7029		21.484375
7030		19.531250
7031		25.390625
7032		23.437500
7033		29.296875
7034		27.343750
7035		33.203125
7036		31.250000
7037		37.109375
7038		35.156250
7039		41.015625
7040		39.062500
7041		44.921875
7042		42.968750
7043		48.828125
7044		46.875000
7045		50.781250
7046		50.781250
7047		54.687500
7048		52.734375
7049		58.593750
7050		56.640625
7051		62.500000
7052		60.546875
7053		64.453125
7054		62.500000
7055		68.359375
7056		66.406250
7057		70.312500
7058		68.359375
7059		72.265625
7060		70.312500
7061		74.218750
7062		74.218750
7063		78.125000
7064		76.171875
7065		80.078125
7066		78.125000
7067		82.031250
7068		80.078125
7069		83.984375
7070		82.031250
7071		83.984375
7072		83.984375
7073		85.937500
7074		83.984375
7075		87.890625
7076		85.937500
7077		89.843750
7078		87.890625
7079		89.843750
7080		87.890625
7081		89.843750
7082		89.843750
7083		91.796875
7084		89.843750
7085		91.796875
7086		89.843750
7087		93.750000
7088		89.843750
7089		91.796875
7090		89.843750
7091		91.796875
7092		89.843750
7093		91.796875
7094		89.843750
7095		91.796875
7096		87.890625
7097		91.796875
7098		87.890625
7099		89.843750
7100		87.890625
7101		89.843750
7102		85.937500
7103		87.890625
7104		83.984375
7105		87.890625
7106		82.031250
7107		85.937500
7108		82.031250
7109		83.984375
7110		78.125000
7111		82.031250
7112		78.125000
7113		80.078125
7114		76.171875
7115		78.125000
7116		72.265625
7117		76.171875
7118		70.312500
7119		74.218750
7120		68.359375
7121		72.265625
7122		64.453125
7123		68.359375
7124		62.500000
7125		66.406250
7126		58.593750
7127		62.500000
7128		54.687500
7129		60.546875
7130		52.734375
7131		56.640625
7132		48.828125
7133		52.734375
7134		44.921875
7135		50.781250
7136		41.015625
7137		46.875000
7138		37.109375
7139		42.968750
7140		33.203125
7141		39.062500
7142		29.296875
7143		35.156250
7144		25.390625
7145		31.250000
7146		21.484375
7147		27.343750
7148		17.578125
7149		23.437500
7150		13.671875
7151		19.531250
7152		9.765625
7153		13.671875
7154		5.859375
7155		9.765625
7156		0.000000
7157		5.859375
7158		-3.906250
7159		1.953125
7160		-7.812500
7161		-1.953125
7162		-11.718750
7163		-5.859375
7164		-15.625000
7165		-9.765625
7166		-19.531250
7167		-13.671875
7168		-23.437500
7169		-17.578125
7170		-27.343750
7171		-23.437500
7172		-31.250000
7173		-25.390625
7174		-35.156250
7175		-31.250000
7176		-39.062500
7177		-33.203125
7178		-42.968750
7179		-37.109375
7180		-46.875000
7181		-41.015625
7182		-48.828125
7183		-44.921875
7184		-52.734375
7185		-46.875000
7186		-54.687500
7187		-50.781250
7188		-58.593750
7189		-54.687500
7190		-60.546875
7191		-56.640625
7192		-62.500000
7193		-58.593750
7194		-64.453125
7195		-60.546875
7196		-68.359375
7197		-64.453125
7198		-68.359375
7199		-66.406250
7200		-70.312500
7201		-68.359375
7202		-72.265625
7203		-70.312500
7204		-74.218750
7205		-70.312500
7206		-74.218750
7207		-72.265625
7208		-76.171875
7209		-72.265625
7210		-76.171875
7211		-74.218750
7212		-76.171875
7213		-74.218750
7214		-76.171875
7215		-74.218750
7216		-76.171875
7217		-74.218750
7218		-76.171875
7219		-74.218750
7220		-76.171875
7221		-74.218750
7222		-76.171875
7223		-72.265625
7224		-74.218750
7225		-72.265625
7226		-74.218750
7227		-70.312500
7228		-72.265625
7229		-68.359375
7230		-70.312500
7231		-68.359375
7232		-68.359375
7233		-66.406250
7234		-66.406250
7235		-64.453125
7236		-64.453125
7237		-60.546875
7238		-62.500000
7239		-58.593750
7240		-60.546875
7241		-56.640625
7242		-58.593750
7243		-52.734375
7244		-54.687500
7245		-50.781250
7246		-52.734375
7247		-46.875000
7248		-48.828125
7249		-44.921875
7250		-44.921875
7251		-41.015625
7252		-42.968750
7253		-37.109375
7254		-39.062500
7255		-33.203125
7256		-35.156250
7257		-29.296875
7258		-31.250000
7259		-25.390625
7260		-27.343750
7261		-21.484375
7262		-23.437500
7263		-17.578125
7264		-19.531250
7265		-13.671875
7266		-15.625000
7267		-9.765625
7268		-11.718750
7269		-5.859375
7270		-7.812500
7271		-1.953125
7272		-1.953125
7273		1.953125
7274		0.000000
7275		7.812500
7276		5.859375
7277		11.718750
7278		9.765625
7279		15.625000
7280		13.671875
7281		19.531250
7282		17.578125
7283		23.437500
7284		21.484375
7285		27.343750
7286		25.390625
7287		31.250000
7288		31.250000
7289		35.156250
7290		35.156250
7291		39.062500
7292		37.109375
7293		42.968750
7294		41.015625
7295		46.875000
7296		44.921875
7297		50.781250
7298		48.828125
7299		54.687500
7300		52.734375
7301		56.640625
7302		56.640625
7303		60.546875
7304		58.593750
7305		62.500000
7306		62.500000
7307		66.406250
7308		64.453125
7309		68.359375
7310		68.359375
7311		72.265625
7312		70.312500
7313		74.218750
7314		72.265625
7315		76.171875
7316		76.171875
7317		80.078125
7318		76.171875
7319		82.031250
7320		80.078125
7321		82.031250
7322		82.031250
7323		83.984375
7324		83.984375
7325		85.937500
7326		83.984375
7327		87.890625
7328		85.937500
7329		89.843750
7330		87.890625
7331		89.843750
7332		87.890625
7333		89.843750
7334		87.890625
7335		91.796875
7336		89.843750
7337		91.796875
7338		89.843750
7339		91.796875
7340		89.843750
7341		93.750000
7342		89.843750
7343		91.796875
7344		89.843750
7345		93.750000
7346		89.843750
7347		91.796875
7348		89.843750
7349		91.796875
7350		87.890625
7351		91.796875
7352		87.890625
7353		89.843750
7354		87.890625
7355		89.843750
7356		85.937500
7357		87.890625
7358		83.984375
7359		87.890625
7360		82.031250
7361		85.937500
7362		80.078125
7363		83.984375
7364		78.125000
7365		82.031250
7366		76.171875
7367		80.078125
7368		74.218750
7369		78.125000
7370		72.265625
7371		76.171875
7372		70.312500
7373		74.218750
7374		66.406250
7375		70.312500
7376		64.453125
7377		68.359375
7378		60.546875
7379		64.453125
7380		56.640625
7381		62.500000
7382		54.687500
7383		58.593750
7384		50.781250
7385		56.640625
7386		46.875000
7387		52.734375
7388		42.968750
7389		48.828125
7390		39.062500
7391		44.921875
7392		35.156250
7393		41.015625
7394		31.250000
7395		37.109375
7396		27.343750
7397		33.203125
7398		23.437500
7399		29.296875
7400		19.531250
7401		25.390625
7402		15.625000
7403		21.484375
7404		11.718750
7405		17.578125
7406		7.812500
7407		13.671875
7408		3.906250
7409		7.812500
7410		-1.953125
7411		3.906250
7412		-5.859375
7413		0.000000
7414		-9.765625
7415		-3.906250
7416		-13.671875
7417		-7.812500
7418		-17.578125
7419		-11.718750
7420		-21.484375
7421		-15.625000
7422		-25.390625
7423		-19.531250
7424		-29.296875
7425		-23.437500
7426		-33.203125
7427		-27.343750
7428		-37.109375
7429		-31.250000
7430		-41.015625
7431		-35.156250
7432		-42.968750
7433		-39.062500
7434		-46.875000
7435		-42.968750
7436		-50.781250
7437		-44.921875
7438		-54.687500
7439		-48.828125
7440		-56.640625
7441		-52.734375
7442		-58.593750
7443		-54.687500
7444		-62.500000
7445		-56.640625
7446		-64.453125
7447		-60.546875
7448		-66.406250
7449		-62.500000
7450		-68.359375
7451		-64.453125
7452		-70.312500
7453		-66.406250
7454		-72.265625
7455		-68.359375
7456		-72.265625
7457		-70.312500
7458		-74.218750
7459		-70.312500
7460		-74.218750
7461		-72.265625
7462		-76.171875
7463		-72.265625
7464		-76.171875
7465		-74.218750
7466		-76.171875
7467		-74.218750
7468		-76.171875
7469		-74.218750
7470		-78.125000
7471		-74.218750
7472		-76.171875
7473		-74.218750
7474		-76.171875
7475		-72.265625
7476		-74.218750
7477		-72.265625
7478		-74.218750
7479		-70.312500
7480		-72.265625
7481		-70.312500
7482		-72.265625
7483		-68.359375
7484		-70.312500
7485		-66.406250
7486		-68.359375
7487		-64.453125
7488		-66.406250
7489		-62.500000
7490		-64.453125
7491		-60.546875
7492		-60.546875
7493		-56.640625
7494		-58.593750
7495		-54.687500
7496		-56.640625
7497		-52.734375
7498		-52.734375
7499		-48.828125
7500		-50.781250
7501		-44.921875
7502		-46.875000
7503		-41.015625
7504		-42.968750
7505		-39.062500
7506		-39.062500
7507		-35.156250
7508		-37.109375
7509		-31.250000
7510		-33.203125
7511		-27.343750
7512		-29.296875
7513		-23.437500
7514		-25.390625
7515		-19.531250
7516		-21.484375
7517		-15.625000
7518		-17.578125
7519		-11.718750
7520		-13.671875
7521		-7.812500
7522		-7.812500
7523		-3.906250
7524		-5.859375
7525		1.953125
7526		0.000000
7527		5.859375
7528		3.906250
7529		9.765625
7530		7.812500
7531		13.671875
7532		11.718750
7533		17.578125
7534		15.625000
7535		21.484375
7536		19.531250
7537		25.390625
7538		25.390625
7539		29.296875
7540		29.296875
7541		33.203125
7542		31.250000
7543		37.109375
7544		37.109375
7545		41.015625
7546		41.015625
7547		44.921875
7548		42.968750
7549		48.828125
7550		46.875000
7551		52.734375
7552		50.781250
7553		54.687500
7554		54.687500
7555		58.593750
7556		56.640625
7557		62.500000
7558		60.546875
7559		64.453125
7560		64.453125
7561		68.359375
7562		66.406250
7563		70.312500
7564		68.359375
7565		74.218750
7566		72.265625
7567		76.171875
7568		74.218750
7569		78.125000
7570		76.171875
7571		80.078125
7572		78.125000
7573		82.031250
7574		80.078125
7575		83.984375
7576		82.031250
7577		85.937500
7578		83.984375
7579		87.890625
7580		85.937500
7581		87.890625
7582		85.937500
7583		89.843750
7584		87.890625
7585		89.843750
7586		87.890625
7587		91.796875
7588		89.843750
7589		91.796875
7590		89.843750
7591		91.796875
7592		89.843750
7593		91.796875
7594		89.843750
7595		91.796875
7596		89.843750
7597		91.796875
7598		89.843750
7599		91.796875
7600		89.843750
7601		91.796875
7602		89.843750
7603		91.796875
7604		87.890625
7605		91.796875
7606		85.937500
7607		89.843750
7608		85.937500
7609		89.843750
7610		83.984375
7611		87.890625
7612		83.984375
7613		85.937500
7614		82.031250
7615		83.984375
7616		80.078125
7617		83.984375
7618		78.125000
7619		82.031250
7620		76.171875
7621		80.078125
7622		72.265625
7623		78.125000
7624		70.312500
7625		74.218750
7626		68.359375
7627		72.265625
7628		64.453125
7629		68.359375
7630		62.500000
7631		66.406250
7632		56.640625
7633		64.453125
7634		56.640625
7635		60.546875
7636		52.734375
7637		56.640625
7638		48.828125
7639		52.734375
7640		44.921875
7641		50.781250
7642		41.015625
7643		46.875000
7644		37.109375
7645		42.968750
7646		33.203125
7647		39.062500
7648		29.296875
7649		35.156250
7650		25.390625
7651		31.250000
7652		21.484375
7653		27.343750
7654		17.578125
7655		23.437500
7656		13.671875
7657		19.531250
7658		9.765625
7659		15.625000
7660		5.859375
7661		11.718750
7662		0.000000
7663		5.859375
7664		-3.906250
7665		1.953125
7666		-7.812500
7667		-1.953125
7668		-11.718750
7669		-5.859375
7670		-15.625000
7671		-9.765625
7672		-19.531250
7673		-13.671875
7674		-23.437500
7675		-17.578125
7676		-27.343750
7677		-21.484375
7678		-31.250000
7679		-25.390625
7680		-35.156250
7681		-29.296875
7682		-39.062500
7683		-33.203125
7684		-42.968750
7685		-37.109375
7686		-44.921875
7687		-41.015625
7688		-48.828125
7689		-44.921875
7690		-52.734375
7691		-46.875000
7692		-54.687500
7693		-50.781250
7694		-58.593750
7695		-52.734375
7696		-60.546875
7697		-56.640625
7698		-62.500000
7699		-58.593750
7700		-64.453125
7701		-60.546875
7702		-66.406250
7703		-64.453125
7704		-68.359375
7705		-64.453125
7706		-70.312500
7707		-68.359375
7708		-72.265625
7709		-68.359375
7710		-74.218750
7711		-70.312500
7712		-74.218750
7713		-72.265625
7714		-76.171875
7715		-70.312500
7716		-76.171875
7717		-72.265625
7718		-78.125000
7719		-70.312500
7720		-76.171875
7721		-74.218750
7722		-76.171875
7723		-74.218750
7724		-76.171875
7725		-74.218750
7726		-76.171875
7727		-72.265625
7728		-74.218750
7729		-72.265625
7730		-76.171875
7731		-70.312500
7732		-72.265625
7733		-70.312500
7734		-72.265625
7735		-68.359375
7736		-72.265625
7737		-64.453125
7738		-68.359375
7739		-62.500000
7740		-66.406250
7741		-62.500000
7742		-64.453125
7743		-60.546875
7744		-62.500000
7745		-58.593750
7746		-60.546875
7747		-54.687500
7748		-58.593750
7749		-52.734375
7750		-54.687500
7751		-48.828125
7752		-52.734375
7753		-44.921875
7754		-48.828125
7755		-42.968750
7756		-46.875000
7757		-39.062500
7758		-41.015625
7759		-35.156250
7760		-37.109375
7761		-31.250000
7762		-35.156250
7763		-29.296875
7764		-31.250000
7765		-23.437500
7766		-25.390625
7767		-21.484375
7768		-23.437500
7769		-13.671875
7770		-17.578125
7771		-13.671875
7772		-13.671875
7773		-5.859375
7774		-9.765625
7775		-3.906250
7776		-5.859375
7777		0.000000
7778		-1.953125
7779		5.859375
7780		0.000000
7781		7.812500
7782		3.906250
7783		11.718750
7784		9.765625
7785		15.625000
7786		13.671875
7787		21.484375
7788		19.531250
7789		25.390625
7790		21.484375
7791		29.296875
7792		27.343750
7793		33.203125
7794		31.250000
7795		37.109375
7796		33.203125
7797		42.968750
7798		39.062500
7799		44.921875
7800		42.968750
7801		46.875000
7802		46.875000
7803		54.687500
7804		46.875000
7805		54.687500
7806		50.781250
7807		58.593750
7808		56.640625
7809		60.546875
7810		60.546875
7811		64.453125
7812		62.500000
7813		68.359375
7814		62.500000
7815		72.265625
7816		68.359375
7817		72.265625
7818		70.312500
7819		76.171875
7820		70.312500
7821		80.078125
7822		72.265625
7823		82.031250
7824		78.125000
7825		82.031250
7826		80.078125
7827		83.984375
7828		82.031250
7829		85.937500
7830		80.078125
7831		89.843750
7832		83.984375
7833		89.843750
7834		85.937500
7835		89.843750
7836		83.984375
7837		93.750000
7838		85.937500
7839		93.750000
7840		85.937500
7841		95.703125
7842		89.843750
7843		91.796875
7844		89.843750
7845		93.750000
7846		87.890625
7847		95.703125
7848		87.890625
7849		95.703125
7850		89.843750
7851		91.796875
7852		89.843750
7853		95.703125
7854		85.937500
7855		95.703125
7856		85.937500
7857		93.750000
7858		87.890625
7859		89.843750
7860		87.890625
7861		89.843750
7862		83.984375
7863		89.843750
7864		82.031250
7865		89.843750
7866		82.031250
7867		87.890625
7868		80.078125
7869		83.984375
7870		74.218750
7871		83.984375
7872		76.171875
7873		82.031250
7874		72.265625
7875		82.031250
7876		72.265625
7877		76.171875
7878		68.359375
7879		74.218750
7880		64.453125
7881		72.265625
7882		62.500000
7883		68.359375
7884		60.546875
7885		64.453125
7886		54.687500
7887		62.500000
7888		52.734375
7889		62.500000
7890		46.875000
7891		56.640625
7892		46.875000
7893		52.734375
7894		42.968750
7895		48.828125
7896		39.062500
7897		44.921875
7898		33.203125
7899		44.921875
7900		31.250000
7901		37.109375
7902		27.343750
7903		33.203125
7904		19.531250
7905		31.250000
7906		17.578125
7907		25.390625
7908		15.625000
7909		21.484375
7910		11.718750
7911		17.578125
7912		5.859375
7913		11.718750
7914		0.000000
7915		9.765625
7916		-1.953125
7917		3.906250
7918		-5.859375
7919		0.000000
7920		-13.671875
7921		-3.906250
7922		-13.671875
7923		-3.906250
7924		-19.531250
7925		-9.765625
7926		-21.484375
7927		-17.578125
7928		-27.343750
7929		-19.531250
7930		-31.250000
7931		-23.437500
7932		-33.203125
7933		-25.390625
7934		-37.109375
7935		-31.250000
7936		-41.015625
7937		-35.156250
7938		-46.875000
7939		-37.109375
7940		-48.828125
7941		-41.015625
7942		-50.781250
7943		-44.921875
7944		-54.687500
7945		-48.828125
7946		-58.593750
7947		-50.781250
7948		-60.546875
7949		-52.734375
7950		-62.500000
7951		-56.640625
7952		-64.453125
7953		-60.546875
7954		-70.312500
7955		-60.546875
7956		-70.312500
7957		-60.546875
7958		-70.312500
7959		-64.453125
7960		-72.265625
7961		-68.359375
7962		-74.218750
7963		-70.312500
7964		-76.171875
7965		-68.359375
7966		-76.171875
7967		-70.312500
7968		-76.171875
7969		-72.265625
7970		-80.078125
7971		-70.312500
7972		-80.078125
7973		-70.312500
7974		-78.125000
7975		-70.312500
7976		-76.171875
7977		-74.218750
7978		-76.171875
7979		-74.218750
7980		-76.171875
7981		-72.265625
7982		-78.125000
7983		-70.312500
7984		-76.171875
7985		-70.312500
7986		-72.265625
7987		-68.359375
7988		-72.265625
7989		-66.406250
7990		-70.312500
7991		-62.500000
7992		-68.359375
7993		-64.453125
7994		-66.406250
7995		-62.500000
7996		-64.453125
7997		-60.546875
7998		-62.500000
7999		-54.687500
8000		-60.546875
8001		-52.734375
8002		-56.640625
8003		-50.781250
8004		-54.687500
8005		-46.875000
8006		-48.828125
8007		-44.921875
8008		-46.875000
8009		-41.015625
8010		-42.968750
8011		-39.062500
8012		-39.062500
8013		-35.156250
8014		-35.156250
8015		-31.250000
8016		-33.203125
8017		-25.390625
8018		-29.296875
8019		-23.437500
8020		-25.390625
8021		-19.531250
8022		-23.437500
8023		-15.625000
8024		-17.578125
8025		-11.718750
8026		-11.718750
8027		-5.859375
8028		-7.812500
8029		-1.953125
8030		-3.906250
8031		1.953125
8032		0.000000
8033		5.859375
8034		3.906250
8035		9.765625
8036		7.812500
8037		13.671875
8038		11.718750
8039		17.578125
8040		15.625000
8041		21.484375
8042		19.531250
8043		25.390625
8044		25.390625
8045		31.250000
8046		29.296875
8047		35.156250
8048		33.203125
8049		39.062500
8050		37.109375
8051		41.015625
8052		41.015625
8053		46.875000
8054		44.921875
8055		48.828125
8056		46.875000
8057		52.734375
8058		50.781250
8059		56.640625
8060		54.687500
8061		58.593750
8062		58.593750
8063		62.500000
8064		60.546875
8065		66.406250
8066		62.500000
8067		68.359375
8068		66.406250
8069		72.265625
8070		68.359375
8071		74.218750
8072		70.312500
8073		76.171875
8074		72.265625
8075		80.078125
8076		76.171875
8077		80.078125
8078		78.125000
8079		82.031250
8080		80.078125
8081		85.937500
8082		82.031250
8083		87.890625
8084		82.031250
8085		87.890625
8086		83.984375
8087		89.843750
8088		85.937500
8089		91.796875
8090		87.890625
8091		91.796875
8092		87.890625
8093		91.796875
8094		89.843750
8095		91.796875
8096		87.890625
8097		93.750000
8098		89.843750
8099		93.750000
8100		89.843750
8101		93.750000
8102		89.843750
8103		93.750000
8104		87.890625
8105		93.750000
8106		87.890625
8107		93.750000
8108		87.890625
8109		93.750000
8110		87.890625
8111		91.796875
8112		87.890625
8113		89.843750
8114		83.984375
8115		89.843750
8116		83.984375
8117		87.890625
8118		82.031250
8119		87.890625
8120		80.078125
8121		85.937500
8122		78.125000
8123		83.984375
8124		76.171875
8125		82.031250
8126		76.171875
8127		80.078125
8128		72.265625
8129		76.171875
8130		70.312500
8131		74.218750
8132		66.406250
8133		72.265625
8134		64.453125
8135		70.312500
8136		60.546875
8137		66.406250
8138		58.593750
8139		64.453125
8140		54.687500
8141		60.546875
8142		50.781250
8143		58.593750
8144		48.828125
8145		52.734375
8146		44.921875
8147		48.828125
8148		41.015625
8149		46.875000
8150		37.109375
8151		42.968750
8152		33.203125
8153		39.062500
8154		29.296875
8155		37.109375
8156		25.390625
8157		31.250000
8158		21.484375
8159		27.343750
8160		17.578125
8161		23.437500
8162		13.671875
8163		19.531250
8164		7.812500
8165		15.625000
8166		3.906250
8167		9.765625
8168		0.000000
8169		5.859375
8170		-3.906250
8171		1.953125
8172		-7.812500
8173		-1.953125
8174		-13.671875
8175		-5.859375
8176		-15.625000
8177		-9.765625
8178		-19.531250
8179		-13.671875
8180		-25.390625
8181		-19.531250
8182		-29.296875
8183		-23.437500
8184		-33.203125
8185		-25.390625
8186		-39.062500
8187		-29.296875
8188		-39.062500
8189		-33.203125
8190		-42.968750
8191		-37.109375
8192		-48.828125
8193		-41.015625
8194		-48.828125
8195		-44.921875
8196		-52.734375
8197		-46.875000
8198		-54.687500
8199		-50.781250
8200		-58.593750
8201		-52.734375
8202		-60.546875
8203		-56.640625
8204		-64.453125
8205		-56.640625
8206		-66.406250
8207		-60.546875
8208		-68.359375
8209		-64.453125
8210		-70.312500
8211		-64.453125
8212		-70.312500
8213		-68.359375
8214		-74.218750
8215		-68.359375
8216		-74.218750
8217		-70.312500
8218		-74.218750
8219		-72.265625
8220		-78.125000
8221		-70.312500
8222		-76.171875
8223		-72.265625
8224		-76.171875
8225		-74.218750
8226		-76.171875
8227		-72.265625
8228		-76.171875
8229		-74.218750
8230		-76.171875
8231		-74.218750
8232		-76.171875
8233		-72.265625
8234		-74.218750
8235		-72.265625
8236		-74.218750
8237		-70.312500
8238		-74.218750
8239		-68.359375
8240		-72.265625
8241		-68.359375
8242		-70.312500
8243		-66.406250
8244		-68.359375
8245		-64.453125
8246		-66.406250
8247		-62.500000
8248		-64.453125
8249		-60.546875
8250		-62.500000
8251		-58.593750
8252		-60.546875
8253		-54.687500
8254		-56.640625
8255		-50.781250
8256		-54.687500
8257		-48.828125
8258		-50.781250
8259		-46.875000
8260		-48.828125
8261		-42.968750
8262		-44.921875
8263		-39.062500
8264		-41.015625
8265		-35.156250
8266		-39.062500
8267		-33.203125
8268		-35.156250
8269		-29.296875
8270		-29.296875
8271		-23.437500
8272		-27.343750
8273		-19.531250
8274		-21.484375
8275		-15.625000
8276		-17.578125
8277		-9.765625
8278		-13.671875
8279		-7.812500
8280		-9.765625
8281		-3.906250
8282		-5.859375
8283		0.000000
8284		-1.953125
8285		3.906250
8286		1.953125
8287		7.812500
8288		5.859375
8289		11.718750
8290		11.718750
8291		17.578125
8292		15.625000
8293		21.484375
8294		19.531250
8295		25.390625
8296		23.437500
8297		29.296875
8298		27.343750
8299		33.203125
8300		31.250000
8301		37.109375
8302		35.156250
8303		41.015625
8304		39.062500
8305		44.921875
8306		42.968750
8307		48.828125
8308		46.875000
8309		50.781250
8310		48.828125
8311		54.687500
8312		52.734375
8313		58.593750
8314		56.640625
8315		60.546875
8316		58.593750
8317		64.453125
8318		62.500000
8319		66.406250
8320		64.453125
8321		70.312500
8322		68.359375
8323		72.265625
8324		70.312500
8325		76.171875
8326		72.265625
8327		78.125000
8328		74.218750
8329		80.078125
8330		78.125000
8331		82.031250
8332		80.078125
8333		83.984375
8334		82.031250
8335		85.937500
8336		83.984375
8337		87.890625
8338		83.984375
8339		87.890625
8340		85.937500
8341		89.843750
8342		87.890625
8343		91.796875
8344		87.890625
8345		91.796875
8346		87.890625
8347		91.796875
8348		89.843750
8349		91.796875
8350		89.843750
8351		93.750000
8352		89.843750
8353		93.750000
8354		89.843750
8355		93.750000
8356		89.843750
8357		93.750000
8358		89.843750
8359		91.796875
8360		89.843750
8361		91.796875
8362		87.890625
8363		91.796875
8364		87.890625
8365		89.843750
8366		85.937500
8367		89.843750
8368		83.984375
8369		89.843750
8370		83.984375
8371		87.890625
8372		82.031250
8373		85.937500
8374		80.078125
8375		83.984375
8376		78.125000
8377		82.031250
8378		76.171875
8379		80.078125
8380		74.218750
8381		78.125000
8382		70.312500
8383		76.171875
8384		68.359375
8385		72.265625
8386		66.406250
8387		70.312500
8388		62.500000
8389		68.359375
8390		58.593750
8391		64.453125
8392		56.640625
8393		60.546875
8394		52.734375
8395		58.593750
8396		48.828125
8397		54.687500
8398		46.875000
8399		50.781250
8400		42.968750
8401		48.828125
8402		39.062500
8403		44.921875
8404		35.156250
8405		41.015625
8406		31.250000
8407		37.109375
8408		27.343750
8409		33.203125
8410		21.484375
8411		29.296875
8412		17.578125
8413		25.390625
8414		13.671875
8415		19.531250
8416		9.765625
8417		15.625000
8418		5.859375
8419		11.718750
8420		1.953125
8421		7.812500
8422		-1.953125
8423		3.906250
8424		-5.859375
8425		0.000000
8426		-11.718750
8427		-5.859375
8428		-13.671875
8429		-9.765625
8430		-19.531250
8431		-13.671875
8432		-23.437500
8433		-17.578125
8434		-27.343750
8435		-19.531250
8436		-31.250000
8437		-25.390625
8438		-35.156250
8439		-29.296875
8440		-39.062500
8441		-33.203125
8442		-42.968750
8443		-37.109375
8444		-44.921875
8445		-41.015625
8446		-48.828125
8447		-42.968750
8448		-50.781250
8449		-46.875000
8450		-54.687500
8451		-50.781250
8452		-58.593750
8453		-52.734375
8454		-60.546875
8455		-56.640625
8456		-62.500000
8457		-58.593750
8458		-64.453125
8459		-60.546875
8460		-66.406250
8461		-62.500000
8462		-70.312500
8463		-64.453125
8464		-70.312500
8465		-68.359375
8466		-72.265625
8467		-68.359375
8468		-74.218750
8469		-70.312500
8470		-74.218750
8471		-72.265625
8472		-76.171875
8473		-72.265625
8474		-76.171875
8475		-72.265625
8476		-78.125000
8477		-74.218750
8478		-78.125000
8479		-74.218750
8480		-76.171875
8481		-74.218750
8482		-76.171875
8483		-74.218750
8484		-76.171875
8485		-74.218750
8486		-76.171875
8487		-72.265625
8488		-76.171875
8489		-72.265625
8490		-74.218750
8491		-72.265625
8492		-74.218750
8493		-70.312500
8494		-72.265625
8495		-68.359375
8496		-70.312500
8497		-66.406250
8498		-68.359375
8499		-64.453125
8500		-66.406250
8501		-62.500000
8502		-64.453125
8503		-60.546875
8504		-62.500000
8505		-56.640625
8506		-58.593750
8507		-54.687500
8508		-56.640625
8509		-50.781250
8510		-52.734375
8511		-46.875000
8512		-50.781250
8513		-44.921875
8514		-46.875000
8515		-42.968750
8516		-42.968750
8517		-39.062500
8518		-41.015625
8519		-35.156250
8520		-37.109375
8521		-29.296875
8522		-33.203125
8523		-27.343750
8524		-29.296875
8525		-23.437500
8526		-25.390625
8527		-19.531250
8528		-21.484375
8529		-15.625000
8530		-17.578125
8531		-11.718750
8532		-11.718750
8533		-7.812500
8534		-7.812500
8535		-1.953125
8536		-3.906250
8537		1.953125
8538		0.000000
8539		5.859375
8540		3.906250
8541		9.765625
8542		7.812500
8543		13.671875
8544		11.718750
8545		17.578125
8546		15.625000
8547		21.484375
8548		21.484375
8549		25.390625
8550		25.390625
8551		31.250000
8552		29.296875
8553		35.156250
8554		33.203125
8555		37.109375
8556		37.109375
8557		41.015625
8558		41.015625
8559		44.921875
8560		42.968750
8561		48.828125
8562		46.875000
8563		52.734375
8564		50.781250
8565		56.640625
8566		54.687500
8567		58.593750
8568		56.640625
8569		62.500000
8570		60.546875
8571		64.453125
8572		62.500000
8573		68.359375
8574		66.406250
8575		70.312500
8576		68.359375
8577		74.218750
8578		72.265625
8579		76.171875
8580		74.218750
8581		78.125000
8582		76.171875
8583		80.078125
8584		78.125000
8585		82.031250
8586		80.078125
8587		83.984375
8588		82.031250
8589		85.937500
8590		83.984375
8591		85.937500
8592		83.984375
8593		87.890625
8594		85.937500
8595		89.843750
8596		85.937500
8597		89.843750
8598		87.890625
8599		89.843750
8600		89.843750
8601		91.796875
8602		89.843750
8603		91.796875
8604		89.843750
8605		93.750000
8606		89.843750
8607		93.750000
8608		89.843750
8609		93.750000
8610		89.843750
8611		91.796875
8612		87.890625
8613		91.796875
8614		87.890625
8615		91.796875
8616		87.890625
8617		89.843750
8618		85.937500
8619		89.843750
8620		83.984375
8621		87.890625
8622		83.984375
8623		87.890625
8624		82.031250
8625		85.937500
8626		80.078125
8627		83.984375
8628		78.125000
8629		82.031250
8630		76.171875
8631		80.078125
8632		74.218750
8633		78.125000
8634		70.312500
8635		76.171875
8636		68.359375
8637		74.218750
8638		66.406250
8639		70.312500
8640		64.453125
8641		68.359375
8642		60.546875
8643		64.453125
8644		56.640625
8645		62.500000
8646		52.734375
8647		58.593750
8648		50.781250
8649		56.640625
8650		46.875000
8651		52.734375
8652		42.968750
8653		48.828125
8654		41.015625
8655		44.921875
8656		35.156250
8657		41.015625
8658		31.250000
8659		37.109375
8660		27.343750
8661		33.203125
8662		23.437500
8663		29.296875
8664		19.531250
8665		27.343750
8666		15.625000
8667		21.484375
8668		11.718750
8669		17.578125
8670		7.812500
8671		13.671875
8672		1.953125
8673		9.765625
8674		0.000000
8675		3.906250
8676		-5.859375
8677		1.953125
8678		-9.765625
8679		-3.906250
8680		-13.671875
8681		-7.812500
8682		-17.578125
8683		-11.718750
8684		-21.484375
8685		-15.625000
8686		-25.390625
8687		-19.531250
8688		-29.296875
8689		-23.437500
8690		-33.203125
8691		-27.343750
8692		-37.109375
8693		-31.250000
8694		-41.015625
8695		-35.156250
8696		-42.968750
8697		-37.109375
8698		-46.875000
8699		-41.015625
8700		-50.781250
8701		-44.921875
8702		-54.687500
8703		-48.828125
8704		-56.640625
8705		-52.734375
8706		-58.593750
8707		-54.687500
8708		-62.500000
8709		-56.640625
8710		-64.453125
8711		-60.546875
8712		-66.406250
8713		-62.500000
8714		-68.359375
8715		-64.453125
8716		-70.312500
8717		-66.406250
8718		-72.265625
8719		-68.359375
8720		-74.218750
8721		-68.359375
8722		-74.218750
8723		-70.312500
8724		-76.171875
8725		-72.265625
8726		-76.171875
8727		-72.265625
8728		-76.171875
8729		-74.218750
8730		-78.125000
8731		-74.218750
8732		-76.171875
8733		-74.218750
8734		-76.171875
8735		-74.218750
8736		-78.125000
8737		-74.218750
8738		-76.171875
8739		-74.218750
8740		-76.171875
8741		-72.265625
8742		-76.171875
8743		-72.265625
8744		-74.218750
8745		-70.312500
8746		-72.265625
8747		-68.359375
8748		-72.265625
8749		-66.406250
8750		-68.359375
8751		-64.453125
8752		-66.406250
8753		-62.500000
8754		-64.453125
8755		-60.546875
8756		-62.500000
8757		-58.593750
8758		-60.546875
8759		-56.640625
8760		-56.640625
8761		-52.734375
8762		-54.687500
8763		-48.828125
8764		-50.781250
8765		-46.875000
8766		-48.828125
8767		-42.968750
8768		-44.921875
8769		-39.062500
8770		-42.968750
8771		-35.156250
8772		-37.109375
8773		-31.250000
8774		-33.203125
8775		-29.296875
8776		-29.296875
8777		-23.437500
8778		-27.343750
8779		-21.484375
8780		-21.484375
8781		-15.625000
8782		-17.578125
8783		-13.671875
8784		-13.671875
8785		-7.812500
8786		-9.765625
8787		-3.906250
8788		-5.859375
8789		0.000000
8790		-1.953125
8791		3.906250
8792		1.953125
8793		7.812500
8794		5.859375
8795		11.718750
8796		9.765625
8797		17.578125
8798		15.625000
8799		21.484375
8800		19.531250
8801		25.390625
8802		23.437500
8803		29.296875
8804		27.343750
8805		33.203125
8806		31.250000
8807		37.109375
8808		35.156250
8809		41.015625
8810		39.062500
8811		44.921875
8812		42.968750
8813		48.828125
8814		46.875000
8815		52.734375
8816		50.781250
8817		54.687500
8818		52.734375
8819		58.593750
8820		56.640625
8821		60.546875
8822		58.593750
8823		64.453125
8824		62.500000
8825		68.359375
8826		64.453125
8827		70.312500
8828		68.359375
8829		74.218750
8830		70.312500
8831		74.218750
8832		72.265625
8833		78.125000
8834		76.171875
8835		80.078125
8836		78.125000
8837		82.031250
8838		80.078125
8839		83.984375
8840		80.078125
8841		85.937500
8842		82.031250
8843		85.937500
8844		83.984375
8845		87.890625
8846		85.937500
8847		89.843750
8848		85.937500
8849		91.796875
8850		87.890625
8851		91.796875
8852		87.890625
8853		91.796875
8854		87.890625
8855		93.750000
8856		89.843750
8857		91.796875
8858		89.843750
8859		93.750000
8860		89.843750
8861		91.796875
8862		89.843750
8863		93.750000
8864		87.890625
8865		93.750000
8866		87.890625
8867		91.796875
8868		87.890625
8869		91.796875
8870		85.937500
8871		89.843750
8872		85.937500
8873		89.843750
8874		83.984375
8875		87.890625
8876		82.031250
8877		85.937500
8878		82.031250
8879		85.937500
8880		80.078125
8881		83.984375
8882		76.171875
8883		82.031250
8884		76.171875
8885		78.125000
8886		72.265625
8887		76.171875
8888		70.312500
8889		74.218750
8890		66.406250
8891		72.265625
8892		64.453125
8893		70.312500
8894		60.546875
8895		66.406250
8896		58.593750
8897		62.500000
8898		54.687500
8899		60.546875
8900		50.781250
8901		56.640625
8902		48.828125
8903		54.687500
8904		44.921875
8905		50.781250
8906		41.015625
8907		46.875000
8908		37.109375
8909		42.968750
8910		33.203125
8911		39.062500
8912		29.296875
8913		35.156250
8914		25.390625
8915		31.250000
8916		21.484375
8917		27.343750
8918		17.578125
8919		23.437500
8920		13.671875
8921		19.531250
8922		9.765625
8923		15.625000
8924		5.859375
8925		11.718750
8926		0.000000
8927		7.812500
8928		-3.906250
8929		1.953125
8930		-7.812500
8931		-1.953125
8932		-11.718750
8933		-5.859375
8934		-15.625000
8935		-9.765625
8936		-19.531250
8937		-13.671875
8938		-23.437500
8939		-17.578125
8940		-27.343750
8941		-23.437500
8942		-31.250000
8943		-25.390625
8944		-35.156250
8945		-31.250000
8946		-39.062500
8947		-33.203125
8948		-42.968750
8949		-37.109375
8950		-46.875000
8951		-41.015625
8952		-48.828125
8953		-44.921875
8954		-52.734375
8955		-48.828125
8956		-56.640625
8957		-50.781250
8958		-58.593750
8959		-52.734375
8960		-62.500000
8961		-56.640625
8962		-64.453125
8963		-58.593750
8964		-66.406250
8965		-62.500000
8966		-68.359375
8967		-64.453125
8968		-70.312500
8969		-66.406250
8970		-72.265625
8971		-68.359375
8972		-72.265625
8973		-68.359375
8974		-74.218750
8975		-70.312500
8976		-76.171875
8977		-72.265625
8978		-76.171875
8979		-72.265625
8980		-78.125000
8981		-74.218750
8982		-78.125000
8983		-74.218750
8984		-78.125000
8985		-74.218750
8986		-78.125000
8987		-76.171875
8988		-78.125000
8989		-74.218750
8990		-78.125000
8991		-74.218750
8992		-76.171875
8993		-74.218750
8994		-76.171875
8995		-72.265625
8996		-74.218750
8997		-70.312500
8998		-74.218750
8999		-70.312500
9000		-72.265625
9001		-68.359375
9002		-70.312500
9003		-66.406250
9004		-68.359375
9005		-64.453125
9006		-68.359375
9007		-62.500000
9008		-64.453125
9009		-60.546875
9010		-62.500000
9011		-58.593750
9012		-60.546875
9013		-54.687500
9014		-56.640625
9015		-52.734375
9016		-54.687500
9017		-48.828125
9018		-50.781250
9019		-44.921875
9020		-46.875000
9021		-42.968750
9022		-42.968750
9023		-37.109375
9024		-41.015625
9025		-35.156250
9026		-37.109375
9027		-31.250000
9028		-33.203125
9029		-27.343750
9030		-29.296875
9031		-23.437500
9032		-25.390625
9033		-19.531250
9034		-21.484375
9035		-15.625000
9036		-17.578125
9037		-11.718750
9038		-13.671875
9039		-5.859375
9040		-7.812500
9041		-1.953125
9042		-3.906250
9043		1.953125
9044		0.000000
9045		5.859375
9046		3.906250
9047		9.765625
9048		7.812500
9049		13.671875
9050		11.718750
9051		17.578125
9052		15.625000
9053		21.484375
9054		19.531250
9055		25.390625
9056		23.437500
9057		31.250000
9058		29.296875
9059		35.156250
9060		33.203125
9061		37.109375
9062		37.109375
9063		41.015625
9064		41.015625
9065		44.921875
9066		42.968750
9067		48.828125
9068		46.875000
9069		52.734375
9070		50.781250
9071		56.640625
9072		54.687500
9073		58.593750
9074		56.640625
9075		62.500000
9076		60.546875
9077		64.453125
9078		64.453125
9079		68.359375
9080		66.406250
9081		70.312500
9082		68.359375
9083		74.218750
9084		70.312500
9085		76.171875
9086		74.218750
9087		78.125000
9088		76.171875
9089		80.078125
9090		78.125000
9091		82.031250
9092		80.078125
9093		83.984375
9094		82.031250
9095		85.937500
9096		82.031250
9097		87.890625
9098		83.984375
9099		87.890625
9100		85.937500
9101		89.843750
9102		87.890625
9103		89.843750
9104		87.890625
9105		91.796875
9106		87.890625
9107		91.796875
9108		87.890625
9109		91.796875
9110		89.843750
9111		91.796875
9112		89.843750
9113		91.796875
9114		87.890625
9115		91.796875
9116		87.890625
9117		91.796875
9118		87.890625
9119		91.796875
9120		87.890625
9121		89.843750
9122		85.937500
9123		89.843750
9124		85.937500
9125		89.843750
9126		83.984375
9127		87.890625
9128		83.984375
9129		85.937500
9130		82.031250
9131		85.937500
9132		80.078125
9133		83.984375
9134		78.125000
9135		82.031250
9136		76.171875
9137		80.078125
9138		74.218750
9139		78.125000
9140		70.312500
9141		76.171875
9142		68.359375
9143		72.265625
9144		66.406250
9145		70.312500
9146		62.500000
9147		68.359375
9148		60.546875
9149		64.453125
9150		56.640625
9151		62.500000
9152		52.734375
9153		58.593750
9154		50.781250
9155		54.687500
9156		46.875000
9157		50.781250
9158		42.968750
9159		48.828125
9160		39.062500
9161		44.921875
9162		35.156250
9163		41.015625
9164		31.250000
9165		37.109375
9166		27.343750
9167		33.203125
9168		23.437500
9169		29.296875
9170		19.531250
9171		25.390625
9172		13.671875
9173		21.484375
9174		9.765625
9175		17.578125
9176		5.859375
9177		11.718750
9178		1.953125
9179		9.765625
9180		-1.953125
9181		3.906250
9182		-7.812500
9183		0.000000
9184		-9.765625
9185		-3.906250
9186		-13.671875
9187		-7.812500
9188		-17.578125
9189		-13.671875
9190		-21.484375
9191		-15.625000
9192		-25.390625
9193		-21.484375
9194		-31.250000
9195		-23.437500
9196		-33.203125
9197		-29.296875
9198		-37.109375
9199		-31.250000
9200		-41.015625
9201		-37.109375
9202		-44.921875
9203		-39.062500
9204		-46.875000
9205		-42.968750
9206		-50.781250
9207		-46.875000
9208		-54.687500
9209		-48.828125
9210		-56.640625
9211		-52.734375
9212		-60.546875
9213		-54.687500
9214		-62.500000
9215		-56.640625
9216		-64.453125
9217		-60.546875
9218		-68.359375
9219		-62.500000
9220		-68.359375
9221		-64.453125
9222		-70.312500
9223		-66.406250
9224		-72.265625
9225		-68.359375
9226		-74.218750
9227		-70.312500
9228		-74.218750
9229		-72.265625
9230		-76.171875
9231		-72.265625
9232		-76.171875
9233		-74.218750
9234		-78.125000
9235		-74.218750
9236		-78.125000
9237		-74.218750
9238		-78.125000
9239		-74.218750
9240		-78.125000
9241		-74.218750
9242		-78.125000
9243		-74.218750
9244		-76.171875
9245		-74.218750
9246		-76.171875
9247		-72.265625
9248		-76.171875
9249		-70.312500
9250		-74.218750
9251		-70.312500
9252		-72.265625
9253		-68.359375
9254		-70.312500
9255		-66.406250
9256		-68.359375
9257		-64.453125
9258		-68.359375
9259		-62.500000
9260		-64.453125
9261		-60.546875
9262		-64.453125
9263		-58.593750
9264		-60.546875
9265		-56.640625
9266		-58.593750
9267		-52.734375
9268		-54.687500
9269		-48.828125
9270		-50.781250
9271		-46.875000
9272		-48.828125
9273		-42.968750
9274		-44.921875
9275		-39.062500
9276		-41.015625
9277		-37.109375
9278		-37.109375
9279		-33.203125
9280		-33.203125
9281		-29.296875
9282		-31.250000
9283		-23.437500
9284		-25.390625
9285		-21.484375
9286		-23.437500
9287		-17.578125
9288		-17.578125
9289		-13.671875
9290		-13.671875
9291		-7.812500
9292		-9.765625
9293		-3.906250
9294		-5.859375
9295		0.000000
9296		-1.953125
9297		3.906250
9298		1.953125
9299		7.812500
9300		5.859375
9301		11.718750
9302		11.718750
9303		15.625000
9304		15.625000
9305		21.484375
9306		19.531250
9307		23.437500
9308		23.437500
9309		29.296875
9310		27.343750
9311		33.203125
9312		31.250000
9313		37.109375
9314		35.156250
9315		41.015625
9316		39.062500
9317		44.921875
9318		41.015625
9319		46.875000
9320		44.921875
9321		50.781250
9322		48.828125
9323		54.687500
9324		52.734375
9325		58.593750
9326		56.640625
9327		62.500000
9328		58.593750
9329		64.453125
9330		62.500000
9331		66.406250
9332		66.406250
9333		70.312500
9334		66.406250
9335		72.265625
9336		70.312500
9337		74.218750
9338		72.265625
9339		76.171875
9340		76.171875
9341		80.078125
9342		78.125000
9343		82.031250
9344		80.078125
9345		83.984375
9346		80.078125
9347		83.984375
9348		82.031250
9349		87.890625
9350		83.984375
9351		87.890625
9352		85.937500
9353		89.843750
9354		87.890625
9355		89.843750
9356		87.890625
9357		89.843750
9358		87.890625
9359		91.796875
9360		87.890625
9361		91.796875
9362		87.890625
9363		91.796875
9364		87.890625
9365		91.796875
9366		89.843750
9367		91.796875
9368		89.843750
9369		91.796875
9370		87.890625
9371		91.796875
9372		87.890625
9373		89.843750
9374		87.890625
9375		89.843750
9376		85.937500
9377		89.843750
9378		83.984375
9379		89.843750
9380		83.984375
9381		85.937500
9382		82.031250
9383		85.937500
9384		80.078125
9385		83.984375
9386		78.125000
9387		82.031250
9388		76.171875
9389		80.078125
9390		74.218750
9391		78.125000
9392		72.265625
9393		76.171875
9394		70.312500
9395		74.218750
9396		66.406250
9397		72.265625
9398		62.500000
9399		68.359375
9400		60.546875
9401		66.406250
9402		58.593750
9403		62.500000
9404		54.687500
9405		60.546875
9406		50.781250
9407		56.640625
9408		46.875000
9409		52.734375
9410		42.968750
9411		48.828125
9412		41.015625
9413		46.875000
9414		37.109375
9415		42.968750
9416		33.203125
9417		39.062500
9418		29.296875
9419		35.156250
9420		25.390625
9421		31.250000
9422		21.484375
9423		25.390625
9424		15.625000
9425		21.484375
9426		11.718750
9427		17.578125
9428		7.812500
9429		13.671875
9430		3.906250
9431		9.765625
9432		0.000000
9433		5.859375
9434		-3.906250
9435		1.953125
9436		-9.765625
9437		-1.953125
9438		-13.671875
9439		-7.812500
9440		-17.578125
9441		-9.765625
9442		-21.484375
9443		-15.625000
9444		-25.390625
9445		-17.578125
9446		-29.296875
9447		-23.437500
9448		-33.203125
9449		-27.343750
9450		-37.109375
9451		-31.250000
9452		-41.015625
9453		-35.156250
9454		-42.968750
9455		-39.062500
9456		-46.875000
9457		-42.968750
9458		-52.734375
9459		-44.921875
9460		-52.734375
9461		-48.828125
9462		-56.640625
9463		-50.781250
9464		-60.546875
9465		-54.687500
9466		-62.500000
9467		-56.640625
9468		-64.453125
9469		-60.546875
9470		-66.406250
9471		-62.500000
9472		-68.359375
9473		-64.453125
9474		-72.265625
9475		-66.406250
9476		-72.265625
9477		-68.359375
9478		-74.218750
9479		-70.312500
9480		-76.171875
9481		-72.265625
9482		-76.171875
9483		-72.265625
9484		-78.125000
9485		-74.218750
9486		-78.125000
9487		-74.218750
9488		-78.125000
9489		-74.218750
9490		-78.125000
9491		-76.171875
9492		-78.125000
9493		-74.218750
9494		-78.125000
9495		-74.218750
9496		-78.125000
9497		-74.218750
9498		-76.171875
9499		-74.218750
9500		-76.171875
9501		-72.265625
9502		-76.171875
9503		-72.265625
9504		-74.218750
9505		-70.312500
9506		-72.265625
9507		-68.359375
9508		-70.312500
9509		-66.406250
9510		-68.359375
9511		-64.453125
9512		-66.406250
9513		-62.500000
9514		-64.453125
9515		-60.546875
9516		-62.500000
9517		-58.593750
9518		-58.593750
9519		-54.687500
9520		-56.640625
9521		-50.781250
9522		-52.734375
9523		-48.828125
9524		-50.781250
9525		-44.921875
9526		-46.875000
9527		-41.015625
9528		-42.968750
9529		-39.062500
9530		-41.015625
9531		-35.156250
9532		-37.109375
9533		-31.250000
9534		-33.203125
9535		-27.343750
9536		-29.296875
9537		-23.437500
9538		-25.390625
9539		-19.531250
9540		-21.484375
9541		-15.625000
9542		-15.625000
9543		-9.765625
9544		-13.671875
9545		-5.859375
9546		-7.812500
9547		-1.953125
9548		-3.906250
9549		1.953125
9550		0.000000
9551		5.859375
9552		3.906250
9553		9.765625
9554		7.812500
9555		13.671875
9556		11.718750
9557		17.578125
9558		17.578125
9559		21.484375
9560		19.531250
9561		27.343750
9562		25.390625
9563		29.296875
9564		27.343750
9565		35.156250
9566		33.203125
9567		39.062500
9568		37.109375
9569		41.015625
9570		41.015625
9571		46.875000
9572		42.968750
9573		48.828125
9574		46.875000
9575		52.734375
9576		50.781250
9577		56.640625
9578		54.687500
9579		58.593750
9580		56.640625
9581		62.500000
9582		60.546875
9583		66.406250
9584		62.500000
9585		68.359375
9586		66.406250
9587		70.312500
9588		68.359375
9589		74.218750
9590		72.265625
9591		76.171875
9592		74.218750
9593		78.125000
9594		76.171875
9595		80.078125
9596		78.125000
9597		82.031250
9598		80.078125
9599		83.984375
9600		82.031250
9601		85.937500
9602		83.984375
9603		87.890625
9604		83.984375
9605		89.843750
9606		85.937500
9607		89.843750
9608		85.937500
9609		89.843750
9610		85.937500
9611		91.796875
9612		87.890625
9613		91.796875
9614		87.890625
9615		91.796875
9616		89.843750
9617		91.796875
9618		89.843750
9619		91.796875
9620		89.843750
9621		91.796875
9622		87.890625
9623		91.796875
9624		87.890625
9625		91.796875
9626		85.937500
9627		89.843750
9628		85.937500
9629		89.843750
9630		85.937500
9631		87.890625
9632		83.984375
9633		87.890625
9634		82.031250
9635		85.937500
9636		80.078125
9637		83.984375
9638		78.125000
9639		83.984375
9640		78.125000
9641		82.031250
9642		76.171875
9643		78.125000
9644		72.265625
9645		76.171875
9646		70.312500
9647		76.171875
9648		68.359375
9649		72.265625
9650		64.453125
9651		70.312500
9652		62.500000
9653		66.406250
9654		58.593750
9655		64.453125
9656		54.687500
9657		62.500000
9658		52.734375
9659		58.593750
9660		48.828125
9661		54.687500
9662		46.875000
9663		50.781250
9664		41.015625
9665		48.828125
9666		39.062500
9667		42.968750
9668		35.156250
9669		41.015625
9670		29.296875
9671		37.109375
9672		27.343750
9673		33.203125
9674		23.437500
9675		29.296875
9676		17.578125
9677		23.437500
9678		13.671875
9679		21.484375
9680		9.765625
9681		15.625000
9682		5.859375
9683		11.718750
9684		1.953125
9685		7.812500
9686		-1.953125
9687		3.906250
9688		-5.859375
9689		0.000000
9690		-11.718750
9691		-3.906250
9692		-15.625000
9693		-9.765625
9694		-19.531250
9695		-13.671875
9696		-23.437500
9697		-17.578125
9698		-27.343750
9699		-21.484375
9700		-31.250000
9701		-25.390625
9702		-35.156250
9703		-29.296875
9704		-39.062500
9705		-33.203125
9706		-41.015625
9707		-37.109375
9708		-44.921875
9709		-41.015625
9710		-48.828125
9711		-42.968750
9712		-52.734375
9713		-46.875000
9714		-54.687500
9715		-50.781250
9716		-58.593750
9717		-52.734375
9718		-60.546875
9719		-56.640625
9720		-62.500000
9721		-58.593750
9722		-66.406250
9723		-60.546875
9724		-68.359375
9725		-64.453125
9726		-70.312500
9727		-66.406250
9728		-72.265625
9729		-66.406250
9730		-72.265625
9731		-70.312500
9732		-74.218750
9733		-70.312500
9734		-76.171875
9735		-72.265625
9736		-76.171875
9737		-72.265625
9738		-78.125000
9739		-74.218750
9740		-78.125000
9741		-74.218750
9742		-78.125000
9743		-76.171875
9744		-78.125000
9745		-74.218750
9746		-78.125000
9747		-76.171875
9748		-78.125000
9749		-74.218750
9750		-76.171875
9751		-74.218750
9752		-76.171875
9753		-74.218750
9754		-76.171875
9755		-72.265625
9756		-74.218750
9757		-70.312500
9758		-72.265625
9759		-68.359375
9760		-70.312500
9761		-68.359375
9762		-70.312500
9763		-64.453125
9764		-66.406250
9765		-62.500000
9766		-64.453125
9767		-60.546875
9768		-62.500000
9769		-58.593750
9770		-60.546875
9771		-56.640625
9772		-56.640625
9773		-52.734375
9774		-56.640625
9775		-48.828125
9776		-50.781250
9777		-46.875000
9778		-48.828125
9779		-42.968750
9780		-44.921875
9781		-39.062500
9782		-41.015625
9783		-37.109375
9784		-37.109375
9785		-33.203125
9786		-33.203125
9787		-29.296875
9788		-31.250000
9789		-25.390625
9790		-25.390625
9791		-21.484375
9792		-21.484375
9793		-17.578125
9794		-17.578125
9795		-11.718750
9796		-13.671875
9797		-7.812500
9798		-9.765625
9799		-3.906250
9800		-5.859375
9801		0.000000
9802		-1.953125
9803		3.906250
9804		1.953125
9805		7.812500
9806		5.859375
9807		11.718750
9808		11.718750
9809		17.578125
9810		15.625000
9811		21.484375
9812		19.531250
9813		25.390625
9814		23.437500
9815		29.296875
9816		25.390625
9817		33.203125
9818		31.250000
9819		37.109375
9820		33.203125
9821		41.015625
9822		39.062500
9823		44.921875
9824		41.015625
9825		48.828125
9826		46.875000
9827		50.781250
9828		48.828125
9829		54.687500
9830		52.734375
9831		58.593750
9832		54.687500
9833		62.500000
9834		58.593750
9835		64.453125
9836		62.500000
9837		68.359375
9838		64.453125
9839		70.312500
9840		68.359375
9841		72.265625
9842		70.312500
9843		74.218750
9844		74.218750
9845		76.171875
9846		72.265625
9847		82.031250
9848		74.218750
9849		83.984375
9850		78.125000
9851		85.937500
9852		78.125000
9853		85.937500
9854		80.078125
9855		85.937500
9856		83.984375
9857		87.890625
9858		83.984375
9859		87.890625
9860		85.937500
9861		89.843750
9862		85.937500
9863		91.796875
9864		85.937500
9865		93.750000
9866		85.937500
9867		93.750000
9868		87.890625
9869		93.750000
9870		87.890625
9871		93.750000
9872		89.843750
9873		91.796875
9874		87.890625
9875		91.796875
9876		87.890625
9877		91.796875
9878		87.890625
9879		91.796875
9880		83.984375
9881		91.796875
9882		83.984375
9883		91.796875
9884		83.984375
9885		89.843750
9886		82.031250
9887		87.890625
9888		80.078125
9889		87.890625
9890		80.078125
9891		85.937500
9892		78.125000
9893		82.031250
9894		76.171875
9895		80.078125
9896		72.265625
9897		80.078125
9898		70.312500
9899		78.125000
9900		68.359375
9901		76.171875
9902		64.453125
9903		72.265625
9904		62.500000
9905		70.312500
9906		60.546875
9907		66.406250
9908		56.640625
9909		62.500000
9910		54.687500
9911		58.593750
9912		48.828125
9913		56.640625
9914		44.921875
9915		54.687500
9916		41.015625
9917		50.781250
9918		37.109375
9919		46.875000
9920		35.156250
9921		42.968750
9922		31.250000
9923		39.062500
9924		27.343750
9925		35.156250
9926		25.390625
9927		29.296875
9928		19.531250
9929		25.390625
9930		13.671875
9931		23.437500
9932		9.765625
9933		19.531250
9934		5.859375
9935		15.625000
9936		1.953125
9937		11.718750
9938		-1.953125
9939		7.812500
9940		-5.859375
9941		1.953125
9942		-9.765625
9943		-1.953125
9944		-13.671875
9945		-7.812500
9946		-19.531250
9947		-11.718750
9948		-23.437500
9949		-13.671875
9950		-27.343750
9951		-17.578125
9952		-33.203125
9953		-21.484375
9954		-35.156250
9955		-25.390625
9956		-39.062500
9957		-29.296875
9958		-41.015625
9959		-33.203125
9960		-44.921875
9961		-39.062500
9962		-48.828125
9963		-42.968750
9964		-52.734375
9965		-42.968750
9966		-56.640625
9967		-46.875000
9968		-58.593750
9969		-48.828125
9970		-60.546875
9971		-52.734375
9972		-64.453125
9973		-56.640625
9974		-66.406250
9975		-58.593750
9976		-66.406250
9977		-62.500000
9978		-68.359375
9979		-64.453125
9980		-74.218750
9981		-66.406250
9982		-74.218750
9983		-66.406250
9984		-76.171875
9985		-68.359375
9986		-78.125000
9987		-70.312500
9988		-78.125000
9989		-70.312500
9990		-80.078125
9991		-72.265625
9992		-78.125000
9993		-74.218750
9994		-78.125000
9995		-76.171875
9996		-80.078125
9997		-74.218750
9998		-82.031250
9999		-74.218750
10000		-80.078125
