Channel              :		CH1
Frequency            :		682.1Hz
Period               :		1.466ms
PK-PK                :		144.5mV
Probe attenuation    :		1X
Voltage per ADC value:		0.122070mV
Time interval        :		2.00000us

index		CH1_Voltage(mV)
1		52.734375
2		52.734375
3		56.640625
4		50.781250
5		58.593750
6		52.734375
7		56.640625
8		54.687500
9		58.593750
10		54.687500
11		58.593750
12		54.687500
13		58.593750
14		54.687500
15		58.593750
16		56.640625
17		58.593750
18		56.640625
19		58.593750
20		54.687500
21		60.546875
22		56.640625
23		60.546875
24		58.593750
25		60.546875
26		56.640625
27		62.500000
28		56.640625
29		60.546875
30		58.593750
31		62.500000
32		58.593750
33		62.500000
34		58.593750
35		62.500000
36		58.593750
37		62.500000
38		58.593750
39		62.500000
40		58.593750
41		62.500000
42		58.593750
43		64.453125
44		58.593750
45		62.500000
46		58.593750
47		64.453125
48		58.593750
49		62.500000
50		60.546875
51		64.453125
52		60.546875
53		62.500000
54		60.546875
55		62.500000
56		58.593750
57		62.500000
58		60.546875
59		62.500000
60		58.593750
61		64.453125
62		60.546875
63		62.500000
64		58.593750
65		62.500000
66		60.546875
67		62.500000
68		58.593750
69		62.500000
70		58.593750
71		62.500000
72		58.593750
73		62.500000
74		58.593750
75		62.500000
76		58.593750
77		62.500000
78		58.593750
79		62.500000
80		58.593750
81		62.500000
82		58.593750
83		62.500000
84		56.640625
85		62.500000
86		56.640625
87		60.546875
88		58.593750
89		60.546875
90		56.640625
91		60.546875
92		58.593750
93		60.546875
94		56.640625
95		60.546875
96		56.640625
97		60.546875
98		56.640625
99		58.593750
100		56.640625
101		58.593750
102		54.687500
103		58.593750
104		54.687500
105		58.593750
106		52.734375
107		58.593750
108		54.687500
109		56.640625
110		54.687500
111		56.640625
112		52.734375
113		56.640625
114		52.734375
115		56.640625
116		52.734375
117		56.640625
118		52.734375
119		54.687500
120		50.781250
121		54.687500
122		50.781250
123		54.687500
124		50.781250
125		52.734375
126		48.828125
127		52.734375
128		48.828125
129		52.734375
130		46.875000
131		50.781250
132		46.875000
133		50.781250
134		46.875000
135		50.781250
136		46.875000
137		48.828125
138		44.921875
139		48.828125
140		44.921875
141		48.828125
142		42.968750
143		46.875000
144		42.968750
145		46.875000
146		42.968750
147		46.875000
148		41.015625
149		44.921875
150		41.015625
151		44.921875
152		41.015625
153		42.968750
154		39.062500
155		42.968750
156		37.109375
157		42.968750
158		37.109375
159		41.015625
160		37.109375
161		41.015625
162		35.156250
163		39.062500
164		35.156250
165		39.062500
166		33.203125
167		37.109375
168		33.203125
169		37.109375
170		33.203125
171		37.109375
172		31.250000
173		35.156250
174		31.250000
175		33.203125
176		29.296875
177		33.203125
178		27.343750
179		31.250000
180		27.343750
181		31.250000
182		25.390625
183		31.250000
184		25.390625
185		29.296875
186		23.437500
187		29.296875
188		23.437500
189		27.343750
190		21.484375
191		25.390625
192		21.484375
193		25.390625
194		19.531250
195		23.437500
196		17.578125
197		23.437500
198		17.578125
199		21.484375
200		15.625000
201		21.484375
202		15.625000
203		19.531250
204		13.671875
205		19.531250
206		13.671875
207		17.578125
208		13.671875
209		17.578125
210		11.718750
211		15.625000
212		9.765625
213		15.625000
214		9.765625
215		13.671875
216		7.812500
217		11.718750
218		7.812500
219		11.718750
220		5.859375
221		9.765625
222		5.859375
223		9.765625
224		3.906250
225		7.812500
226		3.906250
227		5.859375
228		1.953125
229		7.812500
230		0.000000
231		5.859375
232		0.000000
233		3.906250
234		-1.953125
235		1.953125
236		-3.906250
237		0.000000
238		-3.906250
239		0.000000
240		-3.906250
241		-1.953125
242		-5.859375
243		-1.953125
244		-7.812500
245		-3.906250
246		-7.812500
247		-3.906250
248		-9.765625
249		-5.859375
250		-9.765625
251		-7.812500
252		-11.718750
253		-7.812500
254		-13.671875
255		-7.812500
256		-13.671875
257		-9.765625
258		-15.625000
259		-11.718750
260		-15.625000
261		-13.671875
262		-17.578125
263		-13.671875
264		-17.578125
265		-15.625000
266		-19.531250
267		-15.625000
268		-21.484375
269		-17.578125
270		-21.484375
271		-17.578125
272		-23.437500
273		-19.531250
274		-25.390625
275		-21.484375
276		-25.390625
277		-21.484375
278		-27.343750
279		-21.484375
280		-27.343750
281		-23.437500
282		-29.296875
283		-25.390625
284		-29.296875
285		-25.390625
286		-31.250000
287		-27.343750
288		-31.250000
289		-27.343750
290		-33.203125
291		-29.296875
292		-35.156250
293		-29.296875
294		-35.156250
295		-31.250000
296		-35.156250
297		-33.203125
298		-37.109375
299		-33.203125
300		-37.109375
301		-35.156250
302		-39.062500
303		-35.156250
304		-39.062500
305		-37.109375
306		-41.015625
307		-37.109375
308		-41.015625
309		-39.062500
310		-42.968750
311		-39.062500
312		-42.968750
313		-41.015625
314		-44.921875
315		-41.015625
316		-44.921875
317		-42.968750
318		-46.875000
319		-42.968750
320		-46.875000
321		-44.921875
322		-48.828125
323		-44.921875
324		-48.828125
325		-46.875000
326		-50.781250
327		-46.875000
328		-50.781250
329		-48.828125
330		-52.734375
331		-48.828125
332		-52.734375
333		-46.875000
334		-52.734375
335		-48.828125
336		-54.687500
337		-50.781250
338		-54.687500
339		-50.781250
340		-56.640625
341		-52.734375
342		-56.640625
343		-52.734375
344		-58.593750
345		-54.687500
346		-58.593750
347		-54.687500
348		-60.546875
349		-54.687500
350		-60.546875
351		-56.640625
352		-60.546875
353		-56.640625
354		-62.500000
355		-56.640625
356		-62.500000
357		-58.593750
358		-62.500000
359		-58.593750
360		-64.453125
361		-58.593750
362		-62.500000
363		-60.546875
364		-64.453125
365		-60.546875
366		-64.453125
367		-60.546875
368		-64.453125
369		-60.546875
370		-66.406250
371		-62.500000
372		-66.406250
373		-62.500000
374		-66.406250
375		-62.500000
376		-66.406250
377		-62.500000
378		-68.359375
379		-62.500000
380		-68.359375
381		-64.453125
382		-68.359375
383		-64.453125
384		-68.359375
385		-66.406250
386		-68.359375
387		-66.406250
388		-70.312500
389		-66.406250
390		-70.312500
391		-66.406250
392		-70.312500
393		-66.406250
394		-70.312500
395		-68.359375
396		-70.312500
397		-68.359375
398		-72.265625
399		-68.359375
400		-72.265625
401		-68.359375
402		-72.265625
403		-68.359375
404		-72.265625
405		-68.359375
406		-72.265625
407		-68.359375
408		-72.265625
409		-68.359375
410		-72.265625
411		-68.359375
412		-72.265625
413		-70.312500
414		-74.218750
415		-68.359375
416		-72.265625
417		-70.312500
418		-72.265625
419		-70.312500
420		-72.265625
421		-68.359375
422		-72.265625
423		-70.312500
424		-72.265625
425		-70.312500
426		-72.265625
427		-70.312500
428		-72.265625
429		-70.312500
430		-72.265625
431		-68.359375
432		-72.265625
433		-70.312500
434		-72.265625
435		-68.359375
436		-72.265625
437		-68.359375
438		-72.265625
439		-68.359375
440		-72.265625
441		-68.359375
442		-72.265625
443		-68.359375
444		-72.265625
445		-68.359375
446		-70.312500
447		-68.359375
448		-72.265625
449		-68.359375
450		-70.312500
451		-66.406250
452		-70.312500
453		-68.359375
454		-70.312500
455		-66.406250
456		-70.312500
457		-66.406250
458		-70.312500
459		-66.406250
460		-70.312500
461		-66.406250
462		-68.359375
463		-66.406250
464		-68.359375
465		-64.453125
466		-68.359375
467		-64.453125
468		-68.359375
469		-64.453125
470		-66.406250
471		-64.453125
472		-66.406250
473		-62.500000
474		-66.406250
475		-62.500000
476		-66.406250
477		-62.500000
478		-66.406250
479		-62.500000
480		-64.453125
481		-62.500000
482		-64.453125
483		-60.546875
484		-64.453125
485		-60.546875
486		-62.500000
487		-58.593750
488		-62.500000
489		-58.593750
490		-62.500000
491		-58.593750
492		-60.546875
493		-56.640625
494		-60.546875
495		-56.640625
496		-60.546875
497		-56.640625
498		-60.546875
499		-54.687500
500		-58.593750
501		-54.687500
502		-56.640625
503		-54.687500
504		-56.640625
505		-52.734375
506		-56.640625
507		-52.734375
508		-54.687500
509		-52.734375
510		-54.687500
511		-50.781250
512		-52.734375
513		-50.781250
514		-52.734375
515		-48.828125
516		-52.734375
517		-48.828125
518		-50.781250
519		-46.875000
520		-50.781250
521		-46.875000
522		-50.781250
523		-44.921875
524		-48.828125
525		-44.921875
526		-46.875000
527		-44.921875
528		-46.875000
529		-42.968750
530		-44.921875
531		-42.968750
532		-44.921875
533		-41.015625
534		-42.968750
535		-39.062500
536		-42.968750
537		-39.062500
538		-41.015625
539		-37.109375
540		-41.015625
541		-37.109375
542		-39.062500
543		-37.109375
544		-39.062500
545		-35.156250
546		-37.109375
547		-35.156250
548		-37.109375
549		-31.250000
550		-35.156250
551		-31.250000
552		-35.156250
553		-31.250000
554		-33.203125
555		-29.296875
556		-33.203125
557		-29.296875
558		-31.250000
559		-27.343750
560		-31.250000
561		-25.390625
562		-29.296875
563		-25.390625
564		-27.343750
565		-25.390625
566		-27.343750
567		-23.437500
568		-25.390625
569		-21.484375
570		-25.390625
571		-21.484375
572		-23.437500
573		-19.531250
574		-21.484375
575		-19.531250
576		-21.484375
577		-17.578125
578		-19.531250
579		-17.578125
580		-19.531250
581		-15.625000
582		-19.531250
583		-11.718750
584		-17.578125
585		-13.671875
586		-15.625000
587		-11.718750
588		-15.625000
589		-9.765625
590		-13.671875
591		-9.765625
592		-11.718750
593		-7.812500
594		-11.718750
595		-7.812500
596		-9.765625
597		-5.859375
598		-9.765625
599		-3.906250
600		-7.812500
601		-3.906250
602		-5.859375
603		-3.906250
604		-5.859375
605		-1.953125
606		-3.906250
607		0.000000
608		-3.906250
609		0.000000
610		-1.953125
611		1.953125
612		-1.953125
613		1.953125
614		0.000000
615		3.906250
616		0.000000
617		5.859375
618		1.953125
619		5.859375
620		3.906250
621		7.812500
622		3.906250
623		7.812500
624		5.859375
625		9.765625
626		5.859375
627		9.765625
628		7.812500
629		11.718750
630		7.812500
631		11.718750
632		9.765625
633		13.671875
634		9.765625
635		13.671875
636		11.718750
637		15.625000
638		13.671875
639		15.625000
640		13.671875
641		17.578125
642		15.625000
643		19.531250
644		15.625000
645		19.531250
646		17.578125
647		19.531250
648		17.578125
649		21.484375
650		19.531250
651		23.437500
652		19.531250
653		23.437500
654		19.531250
655		25.390625
656		21.484375
657		25.390625
658		23.437500
659		27.343750
660		23.437500
661		27.343750
662		25.390625
663		29.296875
664		25.390625
665		29.296875
666		27.343750
667		31.250000
668		27.343750
669		31.250000
670		29.296875
671		33.203125
672		29.296875
673		33.203125
674		31.250000
675		35.156250
676		31.250000
677		35.156250
678		33.203125
679		35.156250
680		33.203125
681		37.109375
682		35.156250
683		39.062500
684		35.156250
685		39.062500
686		35.156250
687		39.062500
688		37.109375
689		41.015625
690		37.109375
691		41.015625
692		39.062500
693		41.015625
694		39.062500
695		42.968750
696		39.062500
697		42.968750
698		41.015625
699		44.921875
700		41.015625
701		46.875000
702		41.015625
703		44.921875
704		42.968750
705		46.875000
706		44.921875
707		46.875000
708		44.921875
709		46.875000
710		44.921875
711		48.828125
712		44.921875
713		50.781250
714		46.875000
715		48.828125
716		46.875000
717		50.781250
718		46.875000
719		50.781250
720		48.828125
721		52.734375
722		48.828125
723		52.734375
724		48.828125
725		52.734375
726		50.781250
727		52.734375
728		50.781250
729		54.687500
730		50.781250
731		54.687500
732		52.734375
733		54.687500
734		50.781250
735		56.640625
736		50.781250
737		56.640625
738		52.734375
739		56.640625
740		52.734375
741		56.640625
742		54.687500
743		56.640625
744		54.687500
745		58.593750
746		54.687500
747		58.593750
748		54.687500
749		58.593750
750		54.687500
751		58.593750
752		56.640625
753		58.593750
754		56.640625
755		58.593750
756		56.640625
757		60.546875
758		56.640625
759		60.546875
760		56.640625
761		60.546875
762		56.640625
763		60.546875
764		58.593750
765		62.500000
766		58.593750
767		60.546875
768		58.593750
769		62.500000
770		58.593750
771		62.500000
772		58.593750
773		62.500000
774		58.593750
775		62.500000
776		58.593750
777		62.500000
778		58.593750
779		62.500000
780		58.593750
781		62.500000
782		58.593750
783		62.500000
784		58.593750
785		62.500000
786		58.593750
787		62.500000
788		58.593750
789		62.500000
790		58.593750
791		62.500000
792		58.593750
793		62.500000
794		58.593750
795		62.500000
796		58.593750
797		62.500000
798		58.593750
799		62.500000
800		58.593750
801		62.500000
802		58.593750
803		62.500000
804		58.593750
805		62.500000
806		58.593750
807		62.500000
808		58.593750
809		62.500000
810		58.593750
811		60.546875
812		58.593750
813		62.500000
814		56.640625
815		60.546875
816		58.593750
817		60.546875
818		56.640625
819		62.500000
820		58.593750
821		60.546875
822		56.640625
823		60.546875
824		56.640625
825		60.546875
826		56.640625
827		60.546875
828		56.640625
829		58.593750
830		54.687500
831		60.546875
832		56.640625
833		58.593750
834		54.687500
835		58.593750
836		54.687500
837		58.593750
838		54.687500
839		58.593750
840		54.687500
841		56.640625
842		52.734375
843		58.593750
844		52.734375
845		56.640625
846		52.734375
847		56.640625
848		52.734375
849		56.640625
850		52.734375
851		54.687500
852		50.781250
853		54.687500
854		50.781250
855		54.687500
856		48.828125
857		52.734375
858		48.828125
859		52.734375
860		48.828125
861		52.734375
862		48.828125
863		50.781250
864		46.875000
865		50.781250
866		46.875000
867		50.781250
868		46.875000
869		50.781250
870		44.921875
871		48.828125
872		44.921875
873		48.828125
874		44.921875
875		46.875000
876		42.968750
877		46.875000
878		42.968750
879		46.875000
880		41.015625
881		46.875000
882		41.015625
883		44.921875
884		41.015625
885		42.968750
886		39.062500
887		42.968750
888		39.062500
889		42.968750
890		39.062500
891		42.968750
892		37.109375
893		41.015625
894		37.109375
895		39.062500
896		35.156250
897		39.062500
898		35.156250
899		37.109375
900		33.203125
901		37.109375
902		33.203125
903		37.109375
904		33.203125
905		35.156250
906		31.250000
907		35.156250
908		31.250000
909		33.203125
910		29.296875
911		33.203125
912		29.296875
913		31.250000
914		27.343750
915		31.250000
916		27.343750
917		29.296875
918		25.390625
919		29.296875
920		23.437500
921		27.343750
922		23.437500
923		27.343750
924		23.437500
925		25.390625
926		21.484375
927		25.390625
928		19.531250
929		23.437500
930		19.531250
931		23.437500
932		17.578125
933		21.484375
934		17.578125
935		19.531250
936		15.625000
937		19.531250
938		15.625000
939		17.578125
940		13.671875
941		17.578125
942		11.718750
943		15.625000
944		11.718750
945		15.625000
946		9.765625
947		13.671875
948		9.765625
949		13.671875
950		9.765625
951		11.718750
952		7.812500
953		11.718750
954		5.859375
955		9.765625
956		5.859375
957		7.812500
958		3.906250
959		7.812500
960		3.906250
961		5.859375
962		1.953125
963		5.859375
964		0.000000
965		3.906250
966		0.000000
967		1.953125
968		-1.953125
969		1.953125
970		-3.906250
971		1.953125
972		-5.859375
973		0.000000
974		-5.859375
975		-1.953125
976		-5.859375
977		-1.953125
978		-9.765625
979		-3.906250
980		-9.765625
981		-3.906250
982		-9.765625
983		-7.812500
984		-9.765625
985		-7.812500
986		-13.671875
987		-7.812500
988		-13.671875
989		-7.812500
990		-15.625000
991		-9.765625
992		-15.625000
993		-11.718750
994		-17.578125
995		-13.671875
996		-17.578125
997		-11.718750
998		-19.531250
999		-13.671875
1000		-19.531250
1001		-17.578125
1002		-23.437500
1003		-17.578125
1004		-23.437500
1005		-17.578125
1006		-25.390625
1007		-17.578125
1008		-25.390625
1009		-19.531250
1010		-25.390625
1011		-21.484375
1012		-27.343750
1013		-21.484375
1014		-27.343750
1015		-23.437500
1016		-29.296875
1017		-25.390625
1018		-29.296875
1019		-25.390625
1020		-33.203125
1021		-27.343750
1022		-33.203125
1023		-27.343750
1024		-35.156250
1025		-27.343750
1026		-33.203125
1027		-29.296875
1028		-37.109375
1029		-31.250000
1030		-37.109375
1031		-33.203125
1032		-37.109375
1033		-33.203125
1034		-37.109375
1035		-35.156250
1036		-41.015625
1037		-35.156250
1038		-42.968750
1039		-35.156250
1040		-42.968750
1041		-37.109375
1042		-44.921875
1043		-39.062500
1044		-44.921875
1045		-39.062500
1046		-44.921875
1047		-39.062500
1048		-46.875000
1049		-41.015625
1050		-46.875000
1051		-42.968750
1052		-46.875000
1053		-44.921875
1054		-50.781250
1055		-42.968750
1056		-50.781250
1057		-44.921875
1058		-50.781250
1059		-44.921875
1060		-52.734375
1061		-44.921875
1062		-52.734375
1063		-46.875000
1064		-52.734375
1065		-48.828125
1066		-52.734375
1067		-50.781250
1068		-52.734375
1069		-50.781250
1070		-54.687500
1071		-50.781250
1072		-56.640625
1073		-50.781250
1074		-58.593750
1075		-52.734375
1076		-58.593750
1077		-52.734375
1078		-60.546875
1079		-52.734375
1080		-60.546875
1081		-54.687500
1082		-58.593750
1083		-54.687500
1084		-60.546875
1085		-56.640625
1086		-62.500000
1087		-56.640625
1088		-62.500000
1089		-56.640625
1090		-64.453125
1091		-56.640625
1092		-64.453125
1093		-58.593750
1094		-64.453125
1095		-58.593750
1096		-64.453125
1097		-58.593750
1098		-66.406250
1099		-58.593750
1100		-64.453125
1101		-62.500000
1102		-64.453125
1103		-62.500000
1104		-68.359375
1105		-62.500000
1106		-68.359375
1107		-60.546875
1108		-68.359375
1109		-62.500000
1110		-70.312500
1111		-62.500000
1112		-68.359375
1113		-62.500000
1114		-70.312500
1115		-62.500000
1116		-68.359375
1117		-64.453125
1118		-68.359375
1119		-66.406250
1120		-70.312500
1121		-64.453125
1122		-72.265625
1123		-64.453125
1124		-72.265625
1125		-64.453125
1126		-72.265625
1127		-66.406250
1128		-74.218750
1129		-64.453125
1130		-74.218750
1131		-66.406250
1132		-70.312500
1133		-66.406250
1134		-72.265625
1135		-68.359375
1136		-72.265625
1137		-68.359375
1138		-74.218750
1139		-66.406250
1140		-74.218750
1141		-66.406250
1142		-74.218750
1143		-66.406250
1144		-74.218750
1145		-66.406250
1146		-74.218750
1147		-68.359375
1148		-74.218750
1149		-68.359375
1150		-72.265625
1151		-70.312500
1152		-72.265625
1153		-68.359375
1154		-74.218750
1155		-68.359375
1156		-74.218750
1157		-66.406250
1158		-74.218750
1159		-68.359375
1160		-74.218750
1161		-68.359375
1162		-74.218750
1163		-68.359375
1164		-74.218750
1165		-66.406250
1166		-74.218750
1167		-68.359375
1168		-72.265625
1169		-68.359375
1170		-74.218750
1171		-68.359375
1172		-74.218750
1173		-66.406250
1174		-72.265625
1175		-66.406250
1176		-72.265625
1177		-66.406250
1178		-72.265625
1179		-66.406250
1180		-72.265625
1181		-66.406250
1182		-72.265625
1183		-66.406250
1184		-70.312500
1185		-68.359375
1186		-70.312500
1187		-66.406250
1188		-72.265625
1189		-64.453125
1190		-70.312500
1191		-64.453125
1192		-70.312500
1193		-64.453125
1194		-70.312500
1195		-64.453125
1196		-68.359375
1197		-62.500000
1198		-68.359375
1199		-62.500000
1200		-68.359375
1201		-62.500000
1202		-66.406250
1203		-62.500000
1204		-68.359375
1205		-60.546875
1206		-66.406250
1207		-60.546875
1208		-66.406250
1209		-60.546875
1210		-66.406250
1211		-60.546875
1212		-66.406250
1213		-58.593750
1214		-64.453125
1215		-58.593750
1216		-64.453125
1217		-58.593750
1218		-62.500000
1219		-58.593750
1220		-62.500000
1221		-56.640625
1222		-62.500000
1223		-56.640625
1224		-62.500000
1225		-54.687500
1226		-60.546875
1227		-54.687500
1228		-60.546875
1229		-54.687500
1230		-60.546875
1231		-52.734375
1232		-58.593750
1233		-52.734375
1234		-56.640625
1235		-52.734375
1236		-56.640625
1237		-52.734375
1238		-56.640625
1239		-50.781250
1240		-56.640625
1241		-48.828125
1242		-54.687500
1243		-48.828125
1244		-54.687500
1245		-46.875000
1246		-52.734375
1247		-46.875000
1248		-52.734375
1249		-46.875000
1250		-50.781250
1251		-46.875000
1252		-48.828125
1253		-46.875000
1254		-48.828125
1255		-44.921875
1256		-48.828125
1257		-42.968750
1258		-46.875000
1259		-42.968750
1260		-46.875000
1261		-42.968750
1262		-44.921875
1263		-41.015625
1264		-44.921875
1265		-41.015625
1266		-44.921875
1267		-39.062500
1268		-42.968750
1269		-39.062500
1270		-41.015625
1271		-37.109375
1272		-42.968750
1273		-35.156250
1274		-41.015625
1275		-33.203125
1276		-41.015625
1277		-33.203125
1278		-39.062500
1279		-31.250000
1280		-37.109375
1281		-31.250000
1282		-37.109375
1283		-31.250000
1284		-35.156250
1285		-29.296875
1286		-33.203125
1287		-29.296875
1288		-33.203125
1289		-27.343750
1290		-33.203125
1291		-25.390625
1292		-31.250000
1293		-25.390625
1294		-29.296875
1295		-23.437500
1296		-29.296875
1297		-23.437500
1298		-29.296875
1299		-21.484375
1300		-27.343750
1301		-19.531250
1302		-23.437500
1303		-21.484375
1304		-23.437500
1305		-19.531250
1306		-23.437500
1307		-17.578125
1308		-23.437500
1309		-15.625000
1310		-21.484375
1311		-15.625000
1312		-21.484375
1313		-13.671875
1314		-19.531250
1315		-11.718750
1316		-17.578125
1317		-11.718750
1318		-15.625000
1319		-11.718750
1320		-13.671875
1321		-11.718750
1322		-13.671875
1323		-7.812500
1324		-13.671875
1325		-5.859375
1326		-11.718750
1327		-5.859375
1328		-11.718750
1329		-3.906250
1330		-9.765625
1331		-3.906250
1332		-9.765625
1333		-1.953125
1334		-7.812500
1335		-1.953125
1336		-5.859375
1337		0.000000
1338		-5.859375
1339		0.000000
1340		-3.906250
1341		1.953125
1342		-3.906250
1343		3.906250
1344		-3.906250
1345		3.906250
1346		-1.953125
1347		5.859375
1348		0.000000
1349		5.859375
1350		0.000000
1351		7.812500
1352		3.906250
1353		5.859375
1354		3.906250
1355		7.812500
1356		3.906250
1357		9.765625
1358		3.906250
1359		11.718750
1360		5.859375
1361		11.718750
1362		7.812500
1363		13.671875
1364		7.812500
1365		15.625000
1366		9.765625
1367		15.625000
1368		9.765625
1369		15.625000
1370		11.718750
1371		17.578125
1372		13.671875
1373		19.531250
1374		13.671875
1375		19.531250
1376		15.625000
1377		21.484375
1378		15.625000
1379		21.484375
1380		17.578125
1381		23.437500
1382		17.578125
1383		23.437500
1384		19.531250
1385		25.390625
1386		21.484375
1387		25.390625
1388		23.437500
1389		27.343750
1390		23.437500
1391		29.296875
1392		23.437500
1393		29.296875
1394		23.437500
1395		31.250000
1396		25.390625
1397		31.250000
1398		25.390625
1399		33.203125
1400		27.343750
1401		33.203125
1402		29.296875
1403		33.203125
1404		29.296875
1405		33.203125
1406		29.296875
1407		35.156250
1408		31.250000
1409		37.109375
1410		33.203125
1411		37.109375
1412		31.250000
1413		39.062500
1414		33.203125
1415		39.062500
1416		33.203125
1417		41.015625
1418		35.156250
1419		41.015625
1420		37.109375
1421		41.015625
1422		37.109375
1423		41.015625
1424		35.156250
1425		42.968750
1426		39.062500
1427		44.921875
1428		39.062500
1429		44.921875
1430		41.015625
1431		46.875000
1432		41.015625
1433		46.875000
1434		41.015625
1435		46.875000
1436		42.968750
1437		46.875000
1438		44.921875
1439		46.875000
1440		42.968750
1441		50.781250
1442		42.968750
1443		50.781250
1444		44.921875
1445		50.781250
1446		44.921875
1447		50.781250
1448		46.875000
1449		52.734375
1450		46.875000
1451		52.734375
1452		46.875000
1453		52.734375
1454		48.828125
1455		52.734375
1456		48.828125
1457		54.687500
1458		48.828125
1459		54.687500
1460		48.828125
1461		56.640625
1462		48.828125
1463		56.640625
1464		50.781250
1465		56.640625
1466		50.781250
1467		56.640625
1468		52.734375
1469		56.640625
1470		52.734375
1471		56.640625
1472		54.687500
1473		56.640625
1474		52.734375
1475		58.593750
1476		54.687500
1477		60.546875
1478		54.687500
1479		58.593750
1480		54.687500
1481		60.546875
1482		54.687500
1483		60.546875
1484		54.687500
1485		60.546875
1486		56.640625
1487		60.546875
1488		56.640625
1489		60.546875
1490		56.640625
1491		62.500000
1492		56.640625
1493		62.500000
1494		56.640625
1495		62.500000
1496		58.593750
1497		62.500000
1498		56.640625
1499		62.500000
1500		56.640625
1501		62.500000
1502		56.640625
1503		62.500000
1504		58.593750
1505		62.500000
1506		58.593750
1507		62.500000
1508		56.640625
1509		64.453125
1510		56.640625
1511		64.453125
1512		58.593750
1513		64.453125
1514		58.593750
1515		64.453125
1516		58.593750
1517		64.453125
1518		58.593750
1519		64.453125
1520		60.546875
1521		62.500000
1522		58.593750
1523		64.453125
1524		58.593750
1525		64.453125
1526		58.593750
1527		64.453125
1528		58.593750
1529		64.453125
1530		58.593750
1531		64.453125
1532		58.593750
1533		64.453125
1534		58.593750
1535		64.453125
1536		58.593750
1537		64.453125
1538		58.593750
1539		62.500000
1540		58.593750
1541		64.453125
1542		56.640625
1543		64.453125
1544		56.640625
1545		64.453125
1546		56.640625
1547		64.453125
1548		56.640625
1549		62.500000
1550		56.640625
1551		62.500000
1552		56.640625
1553		62.500000
1554		58.593750
1555		60.546875
1556		58.593750
1557		60.546875
1558		54.687500
1559		62.500000
1560		56.640625
1561		62.500000
1562		54.687500
1563		62.500000
1564		54.687500
1565		60.546875
1566		54.687500
1567		60.546875
1568		54.687500
1569		60.546875
1570		54.687500
1571		58.593750
1572		54.687500
1573		58.593750
1574		52.734375
1575		58.593750
1576		52.734375
1577		58.593750
1578		52.734375
1579		56.640625
1580		50.781250
1581		56.640625
1582		50.781250
1583		56.640625
1584		50.781250
1585		56.640625
1586		48.828125
1587		56.640625
1588		50.781250
1589		54.687500
1590		50.781250
1591		54.687500
1592		46.875000
1593		54.687500
1594		46.875000
1595		54.687500
1596		46.875000
1597		52.734375
1598		46.875000
1599		52.734375
1600		44.921875
1601		50.781250
1602		44.921875
1603		50.781250
1604		44.921875
1605		50.781250
1606		44.921875
1607		48.828125
1608		42.968750
1609		50.781250
1610		42.968750
1611		48.828125
1612		41.015625
1613		48.828125
1614		41.015625
1615		46.875000
1616		41.015625
1617		46.875000
1618		39.062500
1619		44.921875
1620		41.015625
1621		44.921875
1622		39.062500
1623		42.968750
1624		37.109375
1625		42.968750
1626		35.156250
1627		42.968750
1628		35.156250
1629		41.015625
1630		35.156250
1631		41.015625
1632		33.203125
1633		41.015625
1634		33.203125
1635		39.062500
1636		31.250000
1637		39.062500
1638		31.250000
1639		35.156250
1640		31.250000
1641		35.156250
1642		27.343750
1643		35.156250
1644		27.343750
1645		35.156250
1646		27.343750
1647		33.203125
1648		25.390625
1649		33.203125
1650		25.390625
1651		31.250000
1652		23.437500
1653		31.250000
1654		23.437500
1655		29.296875
1656		23.437500
1657		27.343750
1658		21.484375
1659		27.343750
1660		19.531250
1661		25.390625
1662		19.531250
1663		25.390625
1664		17.578125
1665		25.390625
1666		17.578125
1667		23.437500
1668		15.625000
1669		23.437500
1670		15.625000
1671		21.484375
1672		15.625000
1673		19.531250
1674		13.671875
1675		17.578125
1676		9.765625
1677		17.578125
1678		9.765625
1679		17.578125
1680		7.812500
1681		15.625000
1682		7.812500
1683		15.625000
1684		5.859375
1685		13.671875
1686		5.859375
1687		13.671875
1688		5.859375
1689		9.765625
1690		5.859375
1691		7.812500
1692		1.953125
1693		9.765625
1694		1.953125
1695		7.812500
1696		0.000000
1697		5.859375
1698		0.000000
1699		5.859375
1700		-1.953125
1701		3.906250
1702		-3.906250
1703		3.906250
1704		-1.953125
1705		1.953125
1706		-3.906250
1707		0.000000
1708		-5.859375
1709		0.000000
1710		-7.812500
1711		0.000000
1712		-9.765625
1713		-1.953125
1714		-9.765625
1715		-1.953125
1716		-11.718750
1717		-3.906250
1718		-11.718750
1719		-5.859375
1720		-13.671875
1721		-5.859375
1722		-11.718750
1723		-9.765625
1724		-13.671875
1725		-11.718750
1726		-17.578125
1727		-9.765625
1728		-17.578125
1729		-9.765625
1730		-19.531250
1731		-11.718750
1732		-21.484375
1733		-13.671875
1734		-21.484375
1735		-13.671875
1736		-21.484375
1737		-15.625000
1738		-23.437500
1739		-15.625000
1740		-23.437500
1741		-19.531250
1742		-25.390625
1743		-19.531250
1744		-27.343750
1745		-19.531250
1746		-29.296875
1747		-21.484375
1748		-29.296875
1749		-21.484375
1750		-29.296875
1751		-23.437500
1752		-31.250000
1753		-25.390625
1754		-31.250000
1755		-25.390625
1756		-31.250000
1757		-29.296875
1758		-33.203125
1759		-29.296875
1760		-35.156250
1761		-29.296875
1762		-37.109375
1763		-31.250000
1764		-37.109375
1765		-29.296875
1766		-37.109375
1767		-31.250000
1768		-39.062500
1769		-33.203125
1770		-41.015625
1771		-35.156250
1772		-41.015625
1773		-37.109375
1774		-41.015625
1775		-37.109375
1776		-42.968750
1777		-37.109375
1778		-44.921875
1779		-37.109375
1780		-44.921875
1781		-39.062500
1782		-46.875000
1783		-41.015625
1784		-46.875000
1785		-41.015625
1786		-48.828125
1787		-41.015625
1788		-46.875000
1789		-42.968750
1790		-48.828125
1791		-44.921875
1792		-50.781250
1793		-44.921875
1794		-50.781250
1795		-44.921875
1796		-50.781250
1797		-46.875000
1798		-54.687500
1799		-46.875000
1800		-54.687500
1801		-46.875000
1802		-54.687500
1803		-48.828125
1804		-56.640625
1805		-48.828125
1806		-54.687500
1807		-52.734375
1808		-54.687500
1809		-52.734375
1810		-58.593750
1811		-48.828125
1812		-58.593750
1813		-52.734375
1814		-60.546875
1815		-52.734375
1816		-60.546875
1817		-54.687500
1818		-60.546875
1819		-54.687500
1820		-62.500000
1821		-54.687500
1822		-62.500000
1823		-56.640625
1824		-60.546875
1825		-58.593750
1826		-64.453125
1827		-56.640625
1828		-64.453125
1829		-58.593750
1830		-66.406250
1831		-58.593750
1832		-66.406250
1833		-58.593750
1834		-66.406250
1835		-60.546875
1836		-66.406250
1837		-60.546875
1838		-66.406250
1839		-60.546875
1840		-66.406250
1841		-62.500000
1842		-68.359375
1843		-62.500000
1844		-68.359375
1845		-62.500000
1846		-70.312500
1847		-62.500000
1848		-70.312500
1849		-64.453125
1850		-70.312500
1851		-64.453125
1852		-70.312500
1853		-64.453125
1854		-70.312500
1855		-64.453125
1856		-70.312500
1857		-66.406250
1858		-70.312500
1859		-66.406250
1860		-72.265625
1861		-66.406250
1862		-72.265625
1863		-66.406250
1864		-72.265625
1865		-66.406250
1866		-72.265625
1867		-66.406250
1868		-72.265625
1869		-66.406250
1870		-74.218750
1871		-66.406250
1872		-72.265625
1873		-68.359375
1874		-72.265625
1875		-68.359375
1876		-72.265625
1877		-68.359375
1878		-74.218750
1879		-68.359375
1880		-74.218750
1881		-66.406250
1882		-74.218750
1883		-66.406250
1884		-74.218750
1885		-66.406250
1886		-76.171875
1887		-68.359375
1888		-74.218750
1889		-68.359375
1890		-72.265625
1891		-68.359375
1892		-72.265625
1893		-70.312500
1894		-74.218750
1895		-66.406250
1896		-74.218750
1897		-68.359375
1898		-74.218750
1899		-68.359375
1900		-74.218750
1901		-66.406250
1902		-72.265625
1903		-68.359375
1904		-74.218750
1905		-66.406250
1906		-74.218750
1907		-68.359375
1908		-72.265625
1909		-68.359375
1910		-72.265625
1911		-66.406250
1912		-72.265625
1913		-66.406250
1914		-72.265625
1915		-66.406250
1916		-72.265625
1917		-66.406250
1918		-72.265625
1919		-66.406250
1920		-72.265625
1921		-66.406250
1922		-70.312500
1923		-66.406250
1924		-68.359375
1925		-66.406250
1926		-70.312500
1927		-64.453125
1928		-70.312500
1929		-64.453125
1930		-70.312500
1931		-64.453125
1932		-68.359375
1933		-64.453125
1934		-68.359375
1935		-62.500000
1936		-68.359375
1937		-62.500000
1938		-68.359375
1939		-62.500000
1940		-66.406250
1941		-62.500000
1942		-64.453125
1943		-62.500000
1944		-66.406250
1945		-60.546875
1946		-66.406250
1947		-58.593750
1948		-66.406250
1949		-58.593750
1950		-64.453125
1951		-58.593750
1952		-62.500000
1953		-58.593750
1954		-64.453125
1955		-56.640625
1956		-62.500000
1957		-56.640625
1958		-60.546875
1959		-58.593750
1960		-60.546875
1961		-54.687500
1962		-60.546875
1963		-54.687500
1964		-60.546875
1965		-52.734375
1966		-58.593750
1967		-52.734375
1968		-58.593750
1969		-52.734375
1970		-56.640625
1971		-50.781250
1972		-56.640625
1973		-50.781250
1974		-54.687500
1975		-50.781250
1976		-54.687500
1977		-50.781250
1978		-54.687500
1979		-48.828125
1980		-52.734375
1981		-46.875000
1982		-52.734375
1983		-46.875000
1984		-52.734375
1985		-44.921875
1986		-50.781250
1987		-44.921875
1988		-50.781250
1989		-42.968750
1990		-48.828125
1991		-42.968750
1992		-46.875000
1993		-42.968750
1994		-46.875000
1995		-41.015625
1996		-46.875000
1997		-41.015625
1998		-44.921875
1999		-39.062500
2000		-44.921875
2001		-37.109375
2002		-42.968750
2003		-37.109375
2004		-42.968750
2005		-35.156250
2006		-41.015625
2007		-35.156250
2008		-39.062500
2009		-35.156250
2010		-37.109375
2011		-35.156250
2012		-39.062500
2013		-31.250000
2014		-37.109375
2015		-31.250000
2016		-37.109375
2017		-29.296875
2018		-35.156250
2019		-27.343750
2020		-35.156250
2021		-27.343750
2022		-33.203125
2023		-25.390625
2024		-29.296875
2025		-27.343750
2026		-29.296875
2027		-25.390625
2028		-29.296875
2029		-23.437500
2030		-29.296875
2031		-21.484375
2032		-27.343750
2033		-21.484375
2034		-27.343750
2035		-19.531250
2036		-25.390625
2037		-19.531250
2038		-23.437500
2039		-17.578125
2040		-23.437500
2041		-17.578125
2042		-19.531250
2043		-17.578125
2044		-19.531250
2045		-13.671875
2046		-19.531250
2047		-13.671875
2048		-19.531250
2049		-11.718750
2050		-17.578125
2051		-11.718750
2052		-17.578125
2053		-9.765625
2054		-15.625000
2055		-9.765625
2056		-13.671875
2057		-7.812500
2058		-11.718750
2059		-7.812500
2060		-9.765625
2061		-7.812500
2062		-9.765625
2063		-3.906250
2064		-9.765625
2065		-3.906250
2066		-7.812500
2067		-1.953125
2068		-7.812500
2069		0.000000
2070		-5.859375
2071		0.000000
2072		-5.859375
2073		1.953125
2074		-3.906250
2075		1.953125
2076		0.000000
2077		1.953125
2078		-1.953125
2079		5.859375
2080		0.000000
2081		5.859375
2082		0.000000
2083		5.859375
2084		1.953125
2085		7.812500
2086		1.953125
2087		9.765625
2088		3.906250
2089		9.765625
2090		5.859375
2091		11.718750
2092		7.812500
2093		9.765625
2094		9.765625
2095		13.671875
2096		7.812500
2097		15.625000
2098		7.812500
2099		15.625000
2100		9.765625
2101		17.578125
2102		11.718750
2103		17.578125
2104		13.671875
2105		19.531250
2106		13.671875
2107		19.531250
2108		15.625000
2109		19.531250
2110		17.578125
2111		19.531250
2112		17.578125
2113		23.437500
2114		15.625000
2115		25.390625
2116		19.531250
2117		25.390625
2118		19.531250
2119		27.343750
2120		19.531250
2121		27.343750
2122		21.484375
2123		27.343750
2124		23.437500
2125		29.296875
2126		25.390625
2127		29.296875
2128		25.390625
2129		31.250000
2130		25.390625
2131		33.203125
2132		25.390625
2133		33.203125
2134		27.343750
2135		35.156250
2136		29.296875
2137		35.156250
2138		29.296875
2139		35.156250
2140		29.296875
2141		37.109375
2142		33.203125
2143		35.156250
2144		33.203125
2145		37.109375
2146		33.203125
2147		39.062500
2148		33.203125
2149		41.015625
2150		35.156250
2151		41.015625
2152		35.156250
2153		42.968750
2154		35.156250
2155		42.968750
2156		37.109375
2157		42.968750
2158		37.109375
2159		42.968750
2160		41.015625
2161		42.968750
2162		39.062500
2163		44.921875
2164		41.015625
2165		46.875000
2166		41.015625
2167		46.875000
2168		41.015625
2169		48.828125
2170		42.968750
2171		48.828125
2172		42.968750
2173		48.828125
2174		42.968750
2175		50.781250
2176		46.875000
2177		48.828125
2178		46.875000
2179		48.828125
2180		44.921875
2181		50.781250
2182		44.921875
2183		52.734375
2184		46.875000
2185		52.734375
2186		46.875000
2187		54.687500
2188		46.875000
2189		54.687500
2190		48.828125
2191		54.687500
2192		50.781250
2193		54.687500
2194		50.781250
2195		54.687500
2196		50.781250
2197		56.640625
2198		50.781250
2199		56.640625
2200		50.781250
2201		56.640625
2202		50.781250
2203		58.593750
2204		52.734375
2205		58.593750
2206		52.734375
2207		58.593750
2208		52.734375
2209		58.593750
2210		54.687500
2211		56.640625
2212		54.687500
2213		60.546875
2214		54.687500
2215		60.546875
2216		54.687500
2217		60.546875
2218		54.687500
2219		60.546875
2220		54.687500
2221		60.546875
2222		54.687500
2223		62.500000
2224		56.640625
2225		62.500000
2226		58.593750
2227		60.546875
2228		58.593750
2229		62.500000
2230		56.640625
2231		62.500000
2232		56.640625
2233		62.500000
2234		56.640625
2235		62.500000
2236		56.640625
2237		62.500000
2238		56.640625
2239		64.453125
2240		58.593750
2241		64.453125
2242		58.593750
2243		64.453125
2244		60.546875
2245		62.500000
2246		58.593750
2247		64.453125
2248		58.593750
2249		64.453125
2250		58.593750
2251		64.453125
2252		58.593750
2253		64.453125
2254		58.593750
2255		64.453125
2256		58.593750
2257		64.453125
2258		58.593750
2259		64.453125
2260		60.546875
2261		62.500000
2262		60.546875
2263		62.500000
2264		58.593750
2265		64.453125
2266		56.640625
2267		64.453125
2268		58.593750
2269		64.453125
2270		58.593750
2271		64.453125
2272		58.593750
2273		64.453125
2274		56.640625
2275		64.453125
2276		58.593750
2277		62.500000
2278		58.593750
2279		62.500000
2280		56.640625
2281		64.453125
2282		56.640625
2283		62.500000
2284		56.640625
2285		62.500000
2286		56.640625
2287		62.500000
2288		56.640625
2289		62.500000
2290		56.640625
2291		62.500000
2292		56.640625
2293		62.500000
2294		56.640625
2295		60.546875
2296		56.640625
2297		58.593750
2298		54.687500
2299		60.546875
2300		54.687500
2301		60.546875
2302		52.734375
2303		60.546875
2304		52.734375
2305		60.546875
2306		52.734375
2307		58.593750
2308		52.734375
2309		58.593750
2310		52.734375
2311		56.640625
2312		52.734375
2313		56.640625
2314		50.781250
2315		58.593750
2316		50.781250
2317		56.640625
2318		50.781250
2319		56.640625
2320		50.781250
2321		56.640625
2322		48.828125
2323		54.687500
2324		46.875000
2325		54.687500
2326		46.875000
2327		52.734375
2328		48.828125
2329		52.734375
2330		46.875000
2331		52.734375
2332		44.921875
2333		52.734375
2334		44.921875
2335		50.781250
2336		44.921875
2337		50.781250
2338		44.921875
2339		50.781250
2340		42.968750
2341		50.781250
2342		42.968750
2343		48.828125
2344		44.921875
2345		46.875000
2346		42.968750
2347		46.875000
2348		41.015625
2349		46.875000
2350		39.062500
2351		46.875000
2352		39.062500
2353		44.921875
2354		37.109375
2355		44.921875
2356		37.109375
2357		44.921875
2358		37.109375
2359		42.968750
2360		37.109375
2361		41.015625
2362		35.156250
2363		41.015625
2364		35.156250
2365		39.062500
2366		35.156250
2367		39.062500
2368		31.250000
2369		39.062500
2370		31.250000
2371		37.109375
2372		29.296875
2373		37.109375
2374		29.296875
2375		37.109375
2376		29.296875
2377		35.156250
2378		27.343750
2379		33.203125
2380		27.343750
2381		31.250000
2382		25.390625
2383		33.203125
2384		25.390625
2385		31.250000
2386		25.390625
2387		29.296875
2388		23.437500
2389		29.296875
2390		21.484375
2391		29.296875
2392		19.531250
2393		27.343750
2394		21.484375
2395		23.437500
2396		19.531250
2397		25.390625
2398		17.578125
2399		23.437500
2400		15.625000
2401		23.437500
2402		15.625000
2403		21.484375
2404		15.625000
2405		19.531250
2406		13.671875
2407		19.531250
2408		11.718750
2409		19.531250
2410		11.718750
2411		17.578125
2412		11.718750
2413		15.625000
2414		9.765625
2415		13.671875
2416		7.812500
2417		15.625000
2418		7.812500
2419		13.671875
2420		5.859375
2421		11.718750
2422		5.859375
2423		11.718750
2424		3.906250
2425		9.765625
2426		1.953125
2427		7.812500
2428		3.906250
2429		5.859375
2430		1.953125
2431		5.859375
2432		0.000000
2433		5.859375
2434		-1.953125
2435		3.906250
2436		-3.906250
2437		3.906250
2438		-3.906250
2439		1.953125
2440		-5.859375
2441		1.953125
2442		-5.859375
2443		0.000000
2444		-5.859375
2445		-1.953125
2446		-7.812500
2447		-3.906250
2448		-11.718750
2449		-3.906250
2450		-11.718750
2451		-3.906250
2452		-11.718750
2453		-5.859375
2454		-13.671875
2455		-7.812500
2456		-13.671875
2457		-7.812500
2458		-15.625000
2459		-9.765625
2460		-17.578125
2461		-9.765625
2462		-15.625000
2463		-13.671875
2464		-19.531250
2465		-13.671875
2466		-21.484375
2467		-13.671875
2468		-21.484375
2469		-13.671875
2470		-21.484375
2471		-15.625000
2472		-21.484375
2473		-17.578125
2474		-25.390625
2475		-17.578125
2476		-25.390625
2477		-19.531250
2478		-25.390625
2479		-21.484375
2480		-25.390625
2481		-21.484375
2482		-29.296875
2483		-23.437500
2484		-29.296875
2485		-23.437500
2486		-31.250000
2487		-23.437500
2488		-31.250000
2489		-25.390625
2490		-33.203125
2491		-25.390625
2492		-35.156250
2493		-27.343750
2494		-35.156250
2495		-29.296875
2496		-33.203125
2497		-31.250000
2498		-37.109375
2499		-31.250000
2500		-39.062500
2501		-31.250000
2502		-39.062500
2503		-33.203125
2504		-41.015625
2505		-33.203125
2506		-41.015625
2507		-33.203125
2508		-42.968750
2509		-35.156250
2510		-42.968750
2511		-37.109375
2512		-42.968750
2513		-39.062500
2514		-44.921875
2515		-39.062500
2516		-44.921875
2517		-39.062500
2518		-46.875000
2519		-39.062500
2520		-48.828125
2521		-41.015625
2522		-48.828125
2523		-42.968750
2524		-50.781250
2525		-42.968750
2526		-50.781250
2527		-42.968750
2528		-48.828125
2529		-44.921875
2530		-50.781250
2531		-46.875000
2532		-52.734375
2533		-46.875000
2534		-54.687500
2535		-46.875000
2536		-54.687500
2537		-48.828125
2538		-56.640625
2539		-48.828125
2540		-56.640625
2541		-48.828125
2542		-56.640625
2543		-50.781250
2544		-58.593750
2545		-50.781250
2546		-56.640625
2547		-54.687500
2548		-58.593750
2549		-54.687500
2550		-60.546875
2551		-52.734375
2552		-60.546875
2553		-54.687500
2554		-60.546875
2555		-54.687500
2556		-62.500000
2557		-56.640625
2558		-62.500000
2559		-56.640625
2560		-62.500000
2561		-56.640625
2562		-62.500000
2563		-58.593750
2564		-62.500000
2565		-60.546875
2566		-64.453125
2567		-58.593750
2568		-66.406250
2569		-58.593750
2570		-66.406250
2571		-58.593750
2572		-68.359375
2573		-60.546875
2574		-66.406250
2575		-60.546875
2576		-68.359375
2577		-60.546875
2578		-66.406250
2579		-62.500000
2580		-66.406250
2581		-64.453125
2582		-68.359375
2583		-62.500000
2584		-70.312500
2585		-62.500000
2586		-70.312500
2587		-62.500000
2588		-70.312500
2589		-62.500000
2590		-70.312500
2591		-64.453125
2592		-70.312500
2593		-64.453125
2594		-70.312500
2595		-64.453125
2596		-68.359375
2597		-66.406250
2598		-70.312500
2599		-66.406250
2600		-70.312500
2601		-64.453125
2602		-72.265625
2603		-64.453125
2604		-72.265625
2605		-66.406250
2606		-72.265625
2607		-66.406250
2608		-72.265625
2609		-66.406250
2610		-72.265625
2611		-66.406250
2612		-72.265625
2613		-66.406250
2614		-70.312500
2615		-68.359375
2616		-72.265625
2617		-66.406250
2618		-72.265625
2619		-66.406250
2620		-74.218750
2621		-66.406250
2622		-74.218750
2623		-66.406250
2624		-74.218750
2625		-66.406250
2626		-72.265625
2627		-66.406250
2628		-72.265625
2629		-66.406250
2630		-70.312500
2631		-68.359375
2632		-70.312500
2633		-66.406250
2634		-72.265625
2635		-66.406250
2636		-72.265625
2637		-64.453125
2638		-72.265625
2639		-66.406250
2640		-72.265625
2641		-66.406250
2642		-72.265625
2643		-66.406250
2644		-72.265625
2645		-64.453125
2646		-70.312500
2647		-66.406250
2648		-70.312500
2649		-66.406250
2650		-70.312500
2651		-64.453125
2652		-70.312500
2653		-64.453125
2654		-70.312500
2655		-64.453125
2656		-70.312500
2657		-64.453125
2658		-70.312500
2659		-64.453125
2660		-68.359375
2661		-62.500000
2662		-68.359375
2663		-62.500000
2664		-66.406250
2665		-64.453125
2666		-66.406250
2667		-62.500000
2668		-68.359375
2669		-60.546875
2670		-66.406250
2671		-60.546875
2672		-66.406250
2673		-60.546875
2674		-66.406250
2675		-58.593750
2676		-66.406250
2677		-58.593750
2678		-64.453125
2679		-58.593750
2680		-62.500000
2681		-60.546875
2682		-64.453125
2683		-58.593750
2684		-62.500000
2685		-56.640625
2686		-62.500000
2687		-56.640625
2688		-62.500000
2689		-56.640625
2690		-60.546875
2691		-54.687500
2692		-60.546875
2693		-54.687500
2694		-60.546875
2695		-54.687500
2696		-60.546875
2697		-54.687500
2698		-56.640625
2699		-54.687500
2700		-58.593750
2701		-52.734375
2702		-58.593750
2703		-50.781250
2704		-56.640625
2705		-50.781250
2706		-56.640625
2707		-48.828125
2708		-54.687500
2709		-48.828125
2710		-54.687500
2711		-46.875000
2712		-54.687500
2713		-46.875000
2714		-50.781250
2715		-46.875000
2716		-50.781250
2717		-46.875000
2718		-50.781250
2719		-44.921875
2720		-50.781250
2721		-42.968750
2722		-48.828125
2723		-42.968750
2724		-48.828125
2725		-42.968750
2726		-46.875000
2727		-41.015625
2728		-46.875000
2729		-39.062500
2730		-44.921875
2731		-41.015625
2732		-42.968750
2733		-39.062500
2734		-42.968750
2735		-37.109375
2736		-42.968750
2737		-37.109375
2738		-41.015625
2739		-35.156250
2740		-41.015625
2741		-35.156250
2742		-39.062500
2743		-33.203125
2744		-39.062500
2745		-33.203125
2746		-37.109375
2747		-31.250000
2748		-35.156250
2749		-31.250000
2750		-35.156250
2751		-29.296875
2752		-35.156250
2753		-27.343750
2754		-33.203125
2755		-27.343750
2756		-33.203125
2757		-25.390625
2758		-31.250000
2759		-23.437500
2760		-29.296875
2761		-23.437500
2762		-29.296875
2763		-23.437500
2764		-25.390625
2765		-23.437500
2766		-25.390625
2767		-21.484375
2768		-25.390625
2769		-19.531250
2770		-25.390625
2771		-17.578125
2772		-23.437500
2773		-17.578125
2774		-21.484375
2775		-15.625000
2776		-21.484375
2777		-13.671875
2778		-21.484375
2779		-13.671875
2780		-19.531250
2781		-13.671875
2782		-15.625000
2783		-13.671875
2784		-15.625000
2785		-9.765625
2786		-15.625000
2787		-9.765625
2788		-13.671875
2789		-7.812500
2790		-13.671875
2791		-7.812500
2792		-11.718750
2793		-5.859375
2794		-9.765625
2795		-3.906250
2796		-9.765625
2797		-3.906250
2798		-7.812500
2799		-3.906250
2800		-5.859375
2801		-1.953125
2802		-5.859375
2803		0.000000
2804		-5.859375
2805		1.953125
2806		-3.906250
2807		1.953125
2808		-3.906250
2809		3.906250
2810		-1.953125
2811		3.906250
2812		0.000000
2813		5.859375
2814		1.953125
2815		5.859375
2816		1.953125
2817		5.859375
2818		1.953125
2819		9.765625
2820		3.906250
2821		9.765625
2822		5.859375
2823		11.718750
2824		5.859375
2825		11.718750
2826		5.859375
2827		13.671875
2828		7.812500
2829		13.671875
2830		9.765625
2831		15.625000
2832		11.718750
2833		15.625000
2834		11.718750
2835		17.578125
2836		11.718750
2837		19.531250
2838		13.671875
2839		19.531250
2840		15.625000
2841		21.484375
2842		17.578125
2843		23.437500
2844		17.578125
2845		23.437500
2846		17.578125
2847		23.437500
2848		19.531250
2849		25.390625
2850		21.484375
2851		25.390625
2852		21.484375
2853		27.343750
2854		21.484375
2855		29.296875
2856		23.437500
2857		29.296875
2858		23.437500
2859		31.250000
2860		25.390625
2861		31.250000
2862		23.437500
2863		33.203125
2864		25.390625
2865		33.203125
2866		29.296875
2867		33.203125
2868		29.296875
2869		35.156250
2870		29.296875
2871		37.109375
2872		29.296875
2873		37.109375
2874		31.250000
2875		37.109375
2876		31.250000
2877		39.062500
2878		35.156250
2879		39.062500
2880		35.156250
2881		41.015625
2882		35.156250
2883		39.062500
2884		37.109375
2885		41.015625
2886		37.109375
2887		42.968750
2888		37.109375
2889		44.921875
2890		39.062500
2891		44.921875
2892		39.062500
2893		44.921875
2894		39.062500
2895		46.875000
2896		41.015625
2897		46.875000
2898		41.015625
2899		46.875000
2900		44.921875
2901		46.875000
2902		42.968750
2903		48.828125
2904		44.921875
2905		50.781250
2906		44.921875
2907		50.781250
2908		44.921875
2909		50.781250
2910		44.921875
2911		52.734375
2912		46.875000
2913		52.734375
2914		46.875000
2915		52.734375
2916		48.828125
2917		52.734375
2918		48.828125
2919		54.687500
2920		48.828125
2921		56.640625
2922		48.828125
2923		54.687500
2924		48.828125
2925		56.640625
2926		50.781250
2927		56.640625
2928		52.734375
2929		58.593750
2930		50.781250
2931		58.593750
2932		54.687500
2933		56.640625
2934		54.687500
2935		56.640625
2936		54.687500
2937		58.593750
2938		54.687500
2939		58.593750
2940		54.687500
2941		58.593750
2942		54.687500
2943		60.546875
2944		54.687500
2945		60.546875
2946		56.640625
2947		60.546875
2948		56.640625
2949		60.546875
2950		58.593750
2951		60.546875
2952		56.640625
2953		62.500000
2954		56.640625
2955		62.500000
2956		56.640625
2957		62.500000
2958		56.640625
2959		62.500000
2960		56.640625
2961		62.500000
2962		56.640625
2963		64.453125
2964		58.593750
2965		64.453125
2966		60.546875
2967		62.500000
2968		60.546875
2969		62.500000
2970		58.593750
2971		64.453125
2972		58.593750
2973		64.453125
2974		58.593750
2975		64.453125
2976		58.593750
2977		64.453125
2978		58.593750
2979		66.406250
2980		58.593750
2981		66.406250
2982		60.546875
2983		64.453125
2984		60.546875
2985		64.453125
2986		58.593750
2987		66.406250
2988		60.546875
2989		66.406250
2990		58.593750
2991		64.453125
2992		58.593750
2993		64.453125
2994		60.546875
2995		66.406250
2996		58.593750
2997		66.406250
2998		58.593750
2999		66.406250
3000		60.546875
3001		62.500000
3002		58.593750
3003		64.453125
3004		58.593750
3005		66.406250
3006		58.593750
3007		64.453125
3008		58.593750
3009		64.453125
3010		58.593750
3011		64.453125
3012		58.593750
3013		64.453125
3014		58.593750
3015		64.453125
3016		60.546875
3017		62.500000
3018		60.546875
3019		62.500000
3020		56.640625
3021		64.453125
3022		56.640625
3023		64.453125
3024		56.640625
3025		62.500000
3026		56.640625
3027		62.500000
3028		56.640625
3029		62.500000
3030		54.687500
3031		62.500000
3032		56.640625
3033		62.500000
3034		56.640625
3035		58.593750
3036		56.640625
3037		60.546875
3038		54.687500
3039		60.546875
3040		52.734375
3041		60.546875
3042		52.734375
3043		60.546875
3044		52.734375
3045		58.593750
3046		52.734375
3047		58.593750
3048		50.781250
3049		58.593750
3050		52.734375
3051		56.640625
3052		52.734375
3053		54.687500
3054		50.781250
3055		56.640625
3056		48.828125
3057		54.687500
3058		48.828125
3059		54.687500
3060		48.828125
3061		54.687500
3062		46.875000
3063		54.687500
3064		46.875000
3065		52.734375
3066		48.828125
3067		52.734375
3068		46.875000
3069		50.781250
3070		44.921875
3071		50.781250
3072		44.921875
3073		50.781250
3074		44.921875
3075		50.781250
3076		42.968750
3077		48.828125
3078		42.968750
3079		48.828125
3080		41.015625
3081		46.875000
3082		41.015625
3083		46.875000
3084		41.015625
3085		44.921875
3086		39.062500
3087		44.921875
3088		39.062500
3089		44.921875
3090		37.109375
3091		44.921875
3092		37.109375
3093		42.968750
3094		35.156250
3095		42.968750
3096		35.156250
3097		41.015625
3098		33.203125
3099		41.015625
3100		35.156250
3101		39.062500
3102		33.203125
3103		37.109375
3104		31.250000
3105		37.109375
3106		29.296875
3107		37.109375
3108		29.296875
3109		37.109375
3110		27.343750
3111		35.156250
3112		27.343750
3113		33.203125
3114		27.343750
3115		33.203125
3116		27.343750
3117		33.203125
3118		27.343750
3119		29.296875
3120		23.437500
3121		31.250000
3122		23.437500
3123		29.296875
3124		21.484375
3125		27.343750
3126		19.531250
3127		27.343750
3128		19.531250
3129		25.390625
3130		17.578125
3131		25.390625
3132		17.578125
3133		23.437500
3134		17.578125
3135		21.484375
3136		17.578125
3137		21.484375
3138		13.671875
3139		21.484375
3140		13.671875
3141		19.531250
3142		11.718750
3143		19.531250
3144		9.765625
3145		17.578125
3146		9.765625
3147		17.578125
3148		7.812500
3149		15.625000
3150		9.765625
3151		13.671875
3152		7.812500
3153		11.718750
3154		5.859375
3155		11.718750
3156		3.906250
3157		11.718750
3158		3.906250
3159		9.765625
3160		1.953125
3161		7.812500
3162		1.953125
3163		7.812500
3164		0.000000
3165		5.859375
3166		-1.953125
3167		5.859375
3168		0.000000
3169		1.953125
3170		-1.953125
3171		1.953125
3172		-3.906250
3173		1.953125
3174		-5.859375
3175		1.953125
3176		-7.812500
3177		0.000000
3178		-7.812500
3179		-1.953125
3180		-7.812500
3181		-1.953125
3182		-9.765625
3183		-3.906250
3184		-9.765625
3185		-5.859375
3186		-9.765625
3187		-7.812500
3188		-11.718750
3189		-7.812500
3190		-13.671875
3191		-7.812500
3192		-15.625000
3193		-7.812500
3194		-17.578125
3195		-9.765625
3196		-17.578125
3197		-11.718750
3198		-17.578125
3199		-11.718750
3200		-19.531250
3201		-13.671875
3202		-19.531250
3203		-13.671875
3204		-21.484375
3205		-17.578125
3206		-23.437500
3207		-17.578125
3208		-23.437500
3209		-19.531250
3210		-25.390625
3211		-19.531250
3212		-27.343750
3213		-19.531250
3214		-27.343750
3215		-21.484375
3216		-29.296875
3217		-23.437500
3218		-29.296875
3219		-25.390625
3220		-29.296875
3221		-25.390625
3222		-33.203125
3223		-25.390625
3224		-33.203125
3225		-27.343750
3226		-33.203125
3227		-29.296875
3228		-33.203125
3229		-27.343750
3230		-37.109375
3231		-29.296875
3232		-37.109375
3233		-29.296875
3234		-37.109375
3235		-33.203125
3236		-39.062500
3237		-35.156250
3238		-39.062500
3239		-35.156250
3240		-41.015625
3241		-35.156250
3242		-41.015625
3243		-35.156250
3244		-42.968750
3245		-37.109375
3246		-42.968750
3247		-37.109375
3248		-44.921875
3249		-39.062500
3250		-44.921875
3251		-39.062500
3252		-44.921875
3253		-42.968750
3254		-46.875000
3255		-42.968750
3256		-48.828125
3257		-42.968750
3258		-48.828125
3259		-42.968750
3260		-50.781250
3261		-42.968750
3262		-52.734375
3263		-44.921875
3264		-52.734375
3265		-44.921875
3266		-52.734375
3267		-46.875000
3268		-52.734375
3269		-48.828125
3270		-52.734375
3271		-50.781250
3272		-54.687500
3273		-50.781250
3274		-56.640625
3275		-50.781250
3276		-56.640625
3277		-50.781250
3278		-58.593750
3279		-50.781250
3280		-58.593750
3281		-52.734375
3282		-58.593750
3283		-52.734375
3284		-58.593750
3285		-52.734375
3286		-58.593750
3287		-56.640625
3288		-60.546875
3289		-56.640625
3290		-60.546875
3291		-54.687500
3292		-60.546875
3293		-56.640625
3294		-62.500000
3295		-56.640625
3296		-64.453125
3297		-58.593750
3298		-64.453125
3299		-58.593750
3300		-64.453125
3301		-58.593750
3302		-64.453125
3303		-60.546875
3304		-64.453125
3305		-60.546875
3306		-66.406250
3307		-60.546875
3308		-66.406250
3309		-60.546875
3310		-66.406250
3311		-60.546875
3312		-68.359375
3313		-60.546875
3314		-68.359375
3315		-62.500000
3316		-68.359375
3317		-62.500000
3318		-68.359375
3319		-62.500000
3320		-68.359375
3321		-64.453125
3322		-68.359375
3323		-64.453125
3324		-68.359375
3325		-64.453125
3326		-68.359375
3327		-64.453125
3328		-68.359375
3329		-66.406250
3330		-70.312500
3331		-64.453125
3332		-70.312500
3333		-64.453125
3334		-70.312500
3335		-64.453125
3336		-68.359375
3337		-66.406250
3338		-70.312500
3339		-66.406250
3340		-70.312500
3341		-66.406250
3342		-70.312500
3343		-66.406250
3344		-70.312500
3345		-66.406250
3346		-72.265625
3347		-64.453125
3348		-72.265625
3349		-66.406250
3350		-72.265625
3351		-66.406250
3352		-70.312500
3353		-66.406250
3354		-70.312500
3355		-68.359375
3356		-70.312500
3357		-66.406250
3358		-70.312500
3359		-66.406250
3360		-70.312500
3361		-68.359375
3362		-72.265625
3363		-66.406250
3364		-70.312500
3365		-66.406250
3366		-70.312500
3367		-66.406250
3368		-70.312500
3369		-66.406250
3370		-70.312500
3371		-66.406250
3372		-70.312500
3373		-66.406250
3374		-70.312500
3375		-66.406250
3376		-70.312500
3377		-66.406250
3378		-70.312500
3379		-66.406250
3380		-70.312500
3381		-64.453125
3382		-68.359375
3383		-66.406250
3384		-68.359375
3385		-64.453125
3386		-68.359375
3387		-64.453125
3388		-68.359375
3389		-64.453125
3390		-68.359375
3391		-64.453125
3392		-68.359375
3393		-64.453125
3394		-66.406250
3395		-62.500000
3396		-66.406250
3397		-62.500000
3398		-66.406250
3399		-62.500000
3400		-66.406250
3401		-62.500000
3402		-66.406250
3403		-60.546875
3404		-64.453125
3405		-62.500000
3406		-64.453125
3407		-60.546875
3408		-64.453125
3409		-60.546875
3410		-62.500000
3411		-58.593750
3412		-62.500000
3413		-58.593750
3414		-62.500000
3415		-58.593750
3416		-60.546875
3417		-58.593750
3418		-62.500000
3419		-56.640625
3420		-60.546875
3421		-56.640625
3422		-60.546875
3423		-56.640625
3424		-60.546875
3425		-54.687500
3426		-58.593750
3427		-54.687500
3428		-58.593750
3429		-52.734375
3430		-56.640625
3431		-52.734375
3432		-56.640625
3433		-52.734375
3434		-54.687500
3435		-50.781250
3436		-54.687500
3437		-50.781250
3438		-52.734375
3439		-50.781250
3440		-52.734375
3441		-48.828125
3442		-52.734375
3443		-48.828125
3444		-52.734375
3445		-48.828125
3446		-50.781250
3447		-46.875000
3448		-48.828125
3449		-46.875000
3450		-48.828125
3451		-44.921875
3452		-48.828125
3453		-42.968750
3454		-46.875000
3455		-42.968750
3456		-46.875000
3457		-41.015625
3458		-44.921875
3459		-41.015625
3460		-44.921875
3461		-41.015625
3462		-42.968750
3463		-39.062500
3464		-42.968750
3465		-39.062500
3466		-41.015625
3467		-37.109375
3468		-41.015625
3469		-35.156250
3470		-39.062500
3471		-37.109375
3472		-39.062500
3473		-35.156250
3474		-39.062500
3475		-33.203125
3476		-37.109375
3477		-33.203125
3478		-37.109375
3479		-31.250000
3480		-35.156250
3481		-31.250000
3482		-33.203125
3483		-29.296875
3484		-33.203125
3485		-29.296875
3486		-31.250000
3487		-27.343750
3488		-31.250000
3489		-27.343750
3490		-29.296875
3491		-25.390625
3492		-27.343750
3493		-23.437500
3494		-27.343750
3495		-23.437500
3496		-27.343750
3497		-23.437500
3498		-25.390625
3499		-19.531250
3500		-23.437500
3501		-21.484375
3502		-23.437500
3503		-19.531250
3504		-21.484375
3505		-17.578125
3506		-19.531250
3507		-17.578125
3508		-19.531250
3509		-15.625000
3510		-19.531250
3511		-15.625000
3512		-17.578125
3513		-13.671875
3514		-15.625000
3515		-11.718750
3516		-15.625000
3517		-11.718750
3518		-13.671875
3519		-9.765625
3520		-13.671875
3521		-9.765625
3522		-11.718750
3523		-7.812500
3524		-9.765625
3525		-5.859375
3526		-9.765625
3527		-5.859375
3528		-7.812500
3529		-3.906250
3530		-7.812500
3531		-3.906250
3532		-5.859375
3533		-1.953125
3534		-5.859375
3535		-1.953125
3536		-3.906250
3537		0.000000
3538		-1.953125
3539		0.000000
3540		-1.953125
3541		1.953125
3542		0.000000
3543		3.906250
3544		0.000000
3545		3.906250
3546		1.953125
3547		5.859375
3548		1.953125
3549		7.812500
3550		3.906250
3551		7.812500
3552		5.859375
3553		9.765625
3554		5.859375
3555		9.765625
3556		7.812500
3557		9.765625
3558		7.812500
3559		11.718750
3560		9.765625
3561		13.671875
3562		9.765625
3563		15.625000
3564		11.718750
3565		15.625000
3566		13.671875
3567		15.625000
3568		13.671875
3569		17.578125
3570		13.671875
3571		17.578125
3572		15.625000
3573		19.531250
3574		17.578125
3575		21.484375
3576		17.578125
3577		21.484375
3578		19.531250
3579		23.437500
3580		19.531250
3581		23.437500
3582		21.484375
3583		25.390625
3584		21.484375
3585		25.390625
3586		23.437500
3587		27.343750
3588		25.390625
3589		27.343750
3590		23.437500
3591		29.296875
3592		25.390625
3593		29.296875
3594		27.343750
3595		31.250000
3596		27.343750
3597		31.250000
3598		29.296875
3599		33.203125
3600		29.296875
3601		35.156250
3602		29.296875
3603		35.156250
3604		31.250000
3605		35.156250
3606		33.203125
3607		37.109375
3608		33.203125
3609		37.109375
3610		33.203125
3611		37.109375
3612		35.156250
3613		39.062500
3614		35.156250
3615		39.062500
3616		37.109375
3617		41.015625
3618		37.109375
3619		41.015625
3620		39.062500
3621		42.968750
3622		39.062500
3623		42.968750
3624		39.062500
3625		44.921875
3626		41.015625
3627		44.921875
3628		42.968750
3629		44.921875
3630		42.968750
3631		46.875000
3632		42.968750
3633		46.875000
3634		44.921875
3635		46.875000
3636		44.921875
3637		48.828125
3638		46.875000
3639		48.828125
3640		46.875000
3641		48.828125
3642		44.921875
3643		50.781250
3644		48.828125
3645		50.781250
3646		48.828125
3647		52.734375
3648		48.828125
3649		52.734375
3650		50.781250
3651		52.734375
3652		50.781250
3653		54.687500
3654		50.781250
3655		54.687500
3656		50.781250
3657		54.687500
3658		52.734375
3659		54.687500
3660		52.734375
3661		56.640625
3662		52.734375
3663		56.640625
3664		54.687500
3665		56.640625
3666		54.687500
3667		56.640625
3668		54.687500
3669		58.593750
3670		54.687500
3671		58.593750
3672		54.687500
3673		60.546875
3674		56.640625
3675		58.593750
3676		54.687500
3677		60.546875
3678		56.640625
3679		60.546875
3680		56.640625
3681		60.546875
3682		56.640625
3683		60.546875
3684		58.593750
3685		60.546875
3686		58.593750
3687		62.500000
3688		58.593750
3689		62.500000
3690		58.593750
3691		62.500000
3692		58.593750
3693		62.500000
3694		58.593750
3695		62.500000
3696		60.546875
3697		62.500000
3698		58.593750
3699		62.500000
3700		60.546875
3701		64.453125
3702		60.546875
3703		64.453125
3704		60.546875
3705		64.453125
3706		60.546875
3707		64.453125
3708		60.546875
3709		64.453125
3710		60.546875
3711		64.453125
3712		60.546875
3713		64.453125
3714		60.546875
3715		64.453125
3716		60.546875
3717		64.453125
3718		60.546875
3719		64.453125
3720		60.546875
3721		64.453125
3722		62.500000
3723		64.453125
3724		60.546875
3725		64.453125
3726		60.546875
3727		64.453125
3728		60.546875
3729		64.453125
3730		60.546875
3731		64.453125
3732		62.500000
3733		64.453125
3734		60.546875
3735		64.453125
3736		60.546875
3737		64.453125
3738		60.546875
3739		64.453125
3740		58.593750
3741		64.453125
3742		60.546875
3743		64.453125
3744		60.546875
3745		64.453125
3746		60.546875
3747		64.453125
3748		60.546875
3749		62.500000
3750		58.593750
3751		64.453125
3752		60.546875
3753		62.500000
3754		58.593750
3755		62.500000
3756		58.593750
3757		62.500000
3758		58.593750
3759		62.500000
3760		58.593750
3761		62.500000
3762		58.593750
3763		60.546875
3764		58.593750
3765		60.546875
3766		56.640625
3767		60.546875
3768		56.640625
3769		60.546875
3770		56.640625
3771		60.546875
3772		56.640625
3773		58.593750
3774		56.640625
3775		58.593750
3776		54.687500
3777		58.593750
3778		54.687500
3779		58.593750
3780		54.687500
3781		58.593750
3782		54.687500
3783		56.640625
3784		52.734375
3785		56.640625
3786		52.734375
3787		56.640625
3788		50.781250
3789		56.640625
3790		50.781250
3791		54.687500
3792		50.781250
3793		54.687500
3794		50.781250
3795		54.687500
3796		50.781250
3797		52.734375
3798		48.828125
3799		52.734375
3800		46.875000
3801		52.734375
3802		46.875000
3803		50.781250
3804		46.875000
3805		50.781250
3806		46.875000
3807		48.828125
3808		44.921875
3809		48.828125
3810		44.921875
3811		48.828125
3812		44.921875
3813		48.828125
3814		42.968750
3815		46.875000
3816		42.968750
3817		44.921875
3818		41.015625
3819		44.921875
3820		41.015625
3821		44.921875
3822		41.015625
3823		44.921875
3824		37.109375
3825		42.968750
3826		37.109375
3827		41.015625
3828		37.109375
3829		41.015625
3830		37.109375
3831		41.015625
3832		35.156250
3833		39.062500
3834		33.203125
3835		39.062500
3836		35.156250
3837		37.109375
3838		33.203125
3839		37.109375
3840		31.250000
3841		35.156250
3842		31.250000
3843		35.156250
3844		29.296875
3845		35.156250
3846		29.296875
3847		33.203125
3848		27.343750
3849		31.250000
3850		27.343750
3851		31.250000
3852		27.343750
3853		29.296875
3854		25.390625
3855		29.296875
3856		25.390625
3857		27.343750
3858		23.437500
3859		27.343750
3860		21.484375
3861		25.390625
3862		21.484375
3863		25.390625
3864		19.531250
3865		23.437500
3866		19.531250
3867		21.484375
3868		17.578125
3869		21.484375
3870		17.578125
3871		19.531250
3872		15.625000
3873		19.531250
3874		15.625000
3875		19.531250
3876		13.671875
3877		17.578125
3878		11.718750
3879		17.578125
3880		11.718750
3881		15.625000
3882		9.765625
3883		13.671875
3884		9.765625
3885		13.671875
3886		7.812500
3887		11.718750
3888		5.859375
3889		11.718750
3890		5.859375
3891		9.765625
3892		5.859375
3893		7.812500
3894		3.906250
3895		7.812500
3896		1.953125
3897		5.859375
3898		0.000000
3899		3.906250
3900		0.000000
3901		3.906250
3902		0.000000
3903		1.953125
3904		-1.953125
3905		1.953125
3906		-3.906250
3907		0.000000
3908		-3.906250
3909		0.000000
3910		-5.859375
3911		-1.953125
3912		-5.859375
3913		-1.953125
3914		-7.812500
3915		-3.906250
3916		-7.812500
3917		-5.859375
3918		-9.765625
3919		-5.859375
3920		-11.718750
3921		-7.812500
3922		-11.718750
3923		-7.812500
3924		-13.671875
3925		-7.812500
3926		-13.671875
3927		-11.718750
3928		-15.625000
3929		-11.718750
3930		-17.578125
3931		-13.671875
3932		-17.578125
3933		-13.671875
3934		-19.531250
3935		-15.625000
3936		-19.531250
3937		-15.625000
3938		-21.484375
3939		-17.578125
3940		-21.484375
3941		-17.578125
3942		-23.437500
3943		-19.531250
3944		-25.390625
3945		-19.531250
3946		-25.390625
3947		-21.484375
3948		-27.343750
3949		-23.437500
3950		-27.343750
3951		-23.437500
3952		-29.296875
3953		-25.390625
3954		-29.296875
3955		-25.390625
3956		-31.250000
3957		-27.343750
3958		-31.250000
3959		-27.343750
3960		-33.203125
3961		-29.296875
3962		-33.203125
3963		-31.250000
3964		-35.156250
3965		-31.250000
3966		-35.156250
3967		-33.203125
3968		-37.109375
3969		-33.203125
3970		-39.062500
3971		-35.156250
3972		-39.062500
3973		-35.156250
3974		-41.015625
3975		-35.156250
3976		-41.015625
3977		-37.109375
3978		-42.968750
3979		-37.109375
3980		-42.968750
3981		-39.062500
3982		-42.968750
3983		-41.015625
3984		-44.921875
3985		-41.015625
3986		-44.921875
3987		-41.015625
3988		-46.875000
3989		-42.968750
3990		-46.875000
3991		-42.968750
3992		-48.828125
3993		-44.921875
3994		-48.828125
3995		-44.921875
3996		-50.781250
3997		-44.921875
3998		-50.781250
3999		-46.875000
4000		-50.781250
4001		-46.875000
4002		-52.734375
4003		-48.828125
4004		-52.734375
4005		-48.828125
4006		-54.687500
4007		-50.781250
4008		-54.687500
4009		-50.781250
4010		-54.687500
4011		-50.781250
4012		-56.640625
4013		-50.781250
4014		-56.640625
4015		-52.734375
4016		-56.640625
4017		-52.734375
4018		-58.593750
4019		-54.687500
4020		-58.593750
4021		-54.687500
4022		-60.546875
4023		-54.687500
4024		-60.546875
4025		-56.640625
4026		-60.546875
4027		-56.640625
4028		-60.546875
4029		-56.640625
4030		-62.500000
4031		-58.593750
4032		-62.500000
4033		-58.593750
4034		-64.453125
4035		-58.593750
4036		-62.500000
4037		-60.546875
4038		-64.453125
4039		-60.546875
4040		-64.453125
4041		-60.546875
4042		-64.453125
4043		-60.546875
4044		-64.453125
4045		-62.500000
4046		-66.406250
4047		-62.500000
4048		-66.406250
4049		-62.500000
4050		-66.406250
4051		-62.500000
4052		-66.406250
4053		-62.500000
4054		-66.406250
4055		-62.500000
4056		-68.359375
4057		-64.453125
4058		-68.359375
4059		-64.453125
4060		-68.359375
4061		-64.453125
4062		-68.359375
4063		-64.453125
4064		-68.359375
4065		-64.453125
4066		-70.312500
4067		-64.453125
4068		-68.359375
4069		-66.406250
4070		-68.359375
4071		-66.406250
4072		-70.312500
4073		-66.406250
4074		-70.312500
4075		-64.453125
4076		-70.312500
4077		-66.406250
4078		-68.359375
4079		-66.406250
4080		-70.312500
4081		-66.406250
4082		-70.312500
4083		-66.406250
4084		-70.312500
4085		-66.406250
4086		-70.312500
4087		-66.406250
4088		-70.312500
4089		-66.406250
4090		-70.312500
4091		-66.406250
4092		-68.359375
4093		-66.406250
4094		-70.312500
4095		-66.406250
4096		-70.312500
4097		-66.406250
4098		-70.312500
4099		-66.406250
4100		-70.312500
4101		-64.453125
4102		-70.312500
4103		-66.406250
4104		-68.359375
4105		-66.406250
4106		-70.312500
4107		-64.453125
4108		-68.359375
4109		-64.453125
4110		-68.359375
4111		-64.453125
4112		-68.359375
4113		-64.453125
4114		-68.359375
4115		-64.453125
4116		-68.359375
4117		-64.453125
4118		-68.359375
4119		-62.500000
4120		-66.406250
4121		-64.453125
4122		-68.359375
4123		-64.453125
4124		-66.406250
4125		-62.500000
4126		-66.406250
4127		-62.500000
4128		-68.359375
4129		-62.500000
4130		-66.406250
4131		-62.500000
4132		-66.406250
4133		-60.546875
4134		-64.453125
4135		-60.546875
4136		-64.453125
4137		-60.546875
4138		-64.453125
4139		-60.546875
4140		-62.500000
4141		-58.593750
4142		-62.500000
4143		-58.593750
4144		-60.546875
4145		-58.593750
4146		-60.546875
4147		-58.593750
4148		-60.546875
4149		-56.640625
4150		-60.546875
4151		-56.640625
4152		-58.593750
4153		-56.640625
4154		-58.593750
4155		-54.687500
4156		-58.593750
4157		-54.687500
4158		-58.593750
4159		-54.687500
4160		-56.640625
4161		-52.734375
4162		-54.687500
4163		-52.734375
4164		-54.687500
4165		-52.734375
4166		-54.687500
4167		-50.781250
4168		-54.687500
4169		-50.781250
4170		-52.734375
4171		-50.781250
4172		-52.734375
4173		-48.828125
4174		-50.781250
4175		-46.875000
4176		-50.781250
4177		-46.875000
4178		-48.828125
4179		-46.875000
4180		-50.781250
4181		-44.921875
4182		-48.828125
4183		-44.921875
4184		-46.875000
4185		-42.968750
4186		-46.875000
4187		-42.968750
4188		-44.921875
4189		-42.968750
4190		-44.921875
4191		-41.015625
4192		-42.968750
4193		-41.015625
4194		-42.968750
4195		-39.062500
4196		-41.015625
4197		-37.109375
4198		-41.015625
4199		-37.109375
4200		-41.015625
4201		-37.109375
4202		-39.062500
4203		-35.156250
4204		-39.062500
4205		-35.156250
4206		-37.109375
4207		-33.203125
4208		-35.156250
4209		-31.250000
4210		-35.156250
4211		-31.250000
4212		-33.203125
4213		-31.250000
4214		-33.203125
4215		-29.296875
4216		-31.250000
4217		-27.343750
4218		-31.250000
4219		-27.343750
4220		-29.296875
4221		-25.390625
4222		-29.296875
4223		-25.390625
4224		-27.343750
4225		-23.437500
4226		-27.343750
4227		-23.437500
4228		-25.390625
4229		-21.484375
4230		-23.437500
4231		-21.484375
4232		-23.437500
4233		-19.531250
4234		-21.484375
4235		-17.578125
4236		-21.484375
4237		-17.578125
4238		-19.531250
4239		-15.625000
4240		-19.531250
4241		-13.671875
4242		-19.531250
4243		-13.671875
4244		-15.625000
4245		-11.718750
4246		-15.625000
4247		-11.718750
4248		-13.671875
4249		-9.765625
4250		-13.671875
4251		-9.765625
4252		-11.718750
4253		-7.812500
4254		-9.765625
4255		-7.812500
4256		-9.765625
4257		-5.859375
4258		-9.765625
4259		-5.859375
4260		-7.812500
4261		-3.906250
4262		-5.859375
4263		-1.953125
4264		-5.859375
4265		-1.953125
4266		-3.906250
4267		0.000000
4268		-3.906250
4269		1.953125
4270		-1.953125
4271		1.953125
4272		0.000000
4273		3.906250
4274		0.000000
4275		3.906250
4276		0.000000
4277		5.859375
4278		1.953125
4279		7.812500
4280		3.906250
4281		7.812500
4282		3.906250
4283		7.812500
4284		5.859375
4285		9.765625
4286		7.812500
4287		11.718750
4288		7.812500
4289		11.718750
4290		7.812500
4291		13.671875
4292		9.765625
4293		13.671875
4294		11.718750
4295		15.625000
4296		11.718750
4297		17.578125
4298		13.671875
4299		17.578125
4300		13.671875
4301		17.578125
4302		15.625000
4303		19.531250
4304		17.578125
4305		21.484375
4306		17.578125
4307		21.484375
4308		17.578125
4309		23.437500
4310		19.531250
4311		23.437500
4312		21.484375
4313		23.437500
4314		21.484375
4315		25.390625
4316		23.437500
4317		27.343750
4318		23.437500
4319		27.343750
4320		23.437500
4321		29.296875
4322		25.390625
4323		29.296875
4324		27.343750
4325		31.250000
4326		27.343750
4327		31.250000
4328		29.296875
4329		31.250000
4330		29.296875
4331		33.203125
4332		29.296875
4333		33.203125
4334		31.250000
4335		35.156250
4336		33.203125
4337		35.156250
4338		33.203125
4339		37.109375
4340		33.203125
4341		37.109375
4342		35.156250
4343		39.062500
4344		35.156250
4345		39.062500
4346		37.109375
4347		39.062500
4348		37.109375
4349		41.015625
4350		37.109375
4351		41.015625
4352		39.062500
4353		42.968750
4354		41.015625
4355		44.921875
4356		39.062500
4357		44.921875
4358		41.015625
4359		44.921875
4360		42.968750
4361		44.921875
4362		42.968750
4363		46.875000
4364		42.968750
4365		46.875000
4366		44.921875
4367		48.828125
4368		44.921875
4369		48.828125
4370		44.921875
4371		48.828125
4372		46.875000
4373		50.781250
4374		46.875000
4375		50.781250
4376		48.828125
4377		52.734375
4378		48.828125
4379		52.734375
4380		48.828125
4381		52.734375
4382		48.828125
4383		52.734375
4384		50.781250
4385		54.687500
4386		50.781250
4387		54.687500
4388		52.734375
4389		54.687500
4390		52.734375
4391		56.640625
4392		52.734375
4393		56.640625
4394		52.734375
4395		56.640625
4396		54.687500
4397		56.640625
4398		54.687500
4399		58.593750
4400		54.687500
4401		58.593750
4402		54.687500
4403		58.593750
4404		54.687500
4405		58.593750
4406		56.640625
4407		58.593750
4408		56.640625
4409		60.546875
4410		56.640625
4411		60.546875
4412		56.640625
4413		60.546875
4414		58.593750
4415		62.500000
4416		58.593750
4417		62.500000
4418		58.593750
4419		62.500000
4420		58.593750
4421		62.500000
4422		58.593750
4423		62.500000
4424		58.593750
4425		62.500000
4426		58.593750
4427		64.453125
4428		60.546875
4429		62.500000
4430		60.546875
4431		62.500000
4432		60.546875
4433		64.453125
4434		60.546875
4435		64.453125
4436		60.546875
4437		64.453125
4438		60.546875
4439		64.453125
4440		60.546875
4441		64.453125
4442		62.500000
4443		64.453125
4444		60.546875
4445		64.453125
4446		62.500000
4447		64.453125
4448		60.546875
4449		64.453125
4450		60.546875
4451		66.406250
4452		62.500000
4453		64.453125
4454		62.500000
4455		64.453125
4456		60.546875
4457		64.453125
4458		60.546875
4459		64.453125
4460		60.546875
4461		64.453125
4462		62.500000
4463		66.406250
4464		62.500000
4465		64.453125
4466		60.546875
4467		64.453125
4468		60.546875
4469		64.453125
4470		60.546875
4471		64.453125
4472		60.546875
4473		64.453125
4474		60.546875
4475		64.453125
4476		60.546875
4477		64.453125
4478		60.546875
4479		64.453125
4480		60.546875
4481		62.500000
4482		60.546875
4483		64.453125
4484		60.546875
4485		64.453125
4486		58.593750
4487		64.453125
4488		58.593750
4489		64.453125
4490		58.593750
4491		62.500000
4492		58.593750
4493		62.500000
4494		58.593750
4495		62.500000
4496		58.593750
4497		62.500000
4498		58.593750
4499		62.500000
4500		56.640625
4501		62.500000
4502		56.640625
4503		60.546875
4504		56.640625
4505		60.546875
4506		56.640625
4507		60.546875
4508		56.640625
4509		60.546875
4510		54.687500
4511		58.593750
4512		54.687500
4513		58.593750
4514		54.687500
4515		56.640625
4516		54.687500
4517		56.640625
4518		52.734375
4519		56.640625
4520		52.734375
4521		56.640625
4522		52.734375
4523		54.687500
4524		50.781250
4525		56.640625
4526		50.781250
4527		54.687500
4528		50.781250
4529		54.687500
4530		50.781250
4531		52.734375
4532		48.828125
4533		52.734375
4534		48.828125
4535		52.734375
4536		48.828125
4537		50.781250
4538		46.875000
4539		50.781250
4540		46.875000
4541		50.781250
4542		46.875000
4543		48.828125
4544		44.921875
4545		48.828125
4546		44.921875
4547		48.828125
4548		44.921875
4549		46.875000
4550		42.968750
4551		46.875000
4552		42.968750
4553		44.921875
4554		41.015625
4555		44.921875
4556		41.015625
4557		44.921875
4558		39.062500
4559		42.968750
4560		37.109375
4561		42.968750
4562		37.109375
4563		42.968750
4564		37.109375
4565		41.015625
4566		35.156250
4567		39.062500
4568		35.156250
4569		39.062500
4570		35.156250
4571		37.109375
4572		33.203125
4573		37.109375
4574		33.203125
4575		37.109375
4576		31.250000
4577		35.156250
4578		31.250000
4579		35.156250
4580		29.296875
4581		33.203125
4582		29.296875
4583		31.250000
4584		27.343750
4585		31.250000
4586		27.343750
4587		31.250000
4588		25.390625
4589		29.296875
4590		25.390625
4591		27.343750
4592		23.437500
4593		27.343750
4594		23.437500
4595		27.343750
4596		21.484375
4597		25.390625
4598		21.484375
4599		23.437500
4600		19.531250
4601		23.437500
4602		17.578125
4603		21.484375
4604		17.578125
4605		21.484375
4606		15.625000
4607		21.484375
4608		15.625000
4609		19.531250
4610		13.671875
4611		17.578125
4612		13.671875
4613		17.578125
4614		11.718750
4615		15.625000
4616		11.718750
4617		13.671875
4618		9.765625
4619		13.671875
4620		9.765625
4621		11.718750
4622		5.859375
4623		11.718750
4624		7.812500
4625		9.765625
4626		5.859375
4627		7.812500
4628		1.953125
4629		7.812500
4630		3.906250
4631		5.859375
4632		1.953125
4633		5.859375
4634		0.000000
4635		5.859375
4636		0.000000
4637		3.906250
4638		-1.953125
4639		1.953125
4640		-1.953125
4641		1.953125
4642		-3.906250
4643		0.000000
4644		-3.906250
4645		-1.953125
4646		-5.859375
4647		-1.953125
4648		-7.812500
4649		-3.906250
4650		-7.812500
4651		-3.906250
4652		-9.765625
4653		-5.859375
4654		-11.718750
4655		-5.859375
4656		-11.718750
4657		-7.812500
4658		-13.671875
4659		-9.765625
4660		-13.671875
4661		-9.765625
4662		-15.625000
4663		-11.718750
4664		-15.625000
4665		-13.671875
4666		-17.578125
4667		-13.671875
4668		-19.531250
4669		-13.671875
4670		-19.531250
4671		-15.625000
4672		-21.484375
4673		-17.578125
4674		-23.437500
4675		-17.578125
4676		-23.437500
4677		-19.531250
4678		-23.437500
4679		-19.531250
4680		-25.390625
4681		-21.484375
4682		-27.343750
4683		-23.437500
4684		-27.343750
4685		-23.437500
4686		-27.343750
4687		-25.390625
4688		-29.296875
4689		-25.390625
4690		-31.250000
4691		-27.343750
4692		-31.250000
4693		-27.343750
4694		-33.203125
4695		-29.296875
4696		-33.203125
4697		-29.296875
4698		-35.156250
4699		-31.250000
4700		-37.109375
4701		-31.250000
4702		-37.109375
4703		-33.203125
4704		-39.062500
4705		-33.203125
4706		-39.062500
4707		-35.156250
4708		-39.062500
4709		-35.156250
4710		-41.015625
4711		-37.109375
4712		-42.968750
4713		-37.109375
4714		-42.968750
4715		-39.062500
4716		-42.968750
4717		-41.015625
4718		-44.921875
4719		-41.015625
4720		-44.921875
4721		-41.015625
4722		-46.875000
4723		-42.968750
4724		-46.875000
4725		-42.968750
4726		-46.875000
4727		-42.968750
4728		-48.828125
4729		-44.921875
4730		-50.781250
4731		-44.921875
4732		-50.781250
4733		-46.875000
4734		-52.734375
4735		-48.828125
4736		-52.734375
4737		-48.828125
4738		-52.734375
4739		-48.828125
4740		-54.687500
4741		-50.781250
4742		-54.687500
4743		-50.781250
4744		-54.687500
4745		-52.734375
4746		-56.640625
4747		-52.734375
4748		-56.640625
4749		-52.734375
4750		-56.640625
4751		-54.687500
4752		-58.593750
4753		-54.687500
4754		-58.593750
4755		-54.687500
4756		-60.546875
4757		-56.640625
4758		-60.546875
4759		-56.640625
4760		-60.546875
4761		-56.640625
4762		-60.546875
4763		-58.593750
4764		-62.500000
4765		-56.640625
4766		-62.500000
4767		-58.593750
4768		-64.453125
4769		-58.593750
4770		-62.500000
4771		-60.546875
4772		-64.453125
4773		-60.546875
4774		-64.453125
4775		-60.546875
4776		-64.453125
4777		-60.546875
4778		-66.406250
4779		-60.546875
4780		-66.406250
4781		-60.546875
4782		-64.453125
4783		-62.500000
4784		-66.406250
4785		-62.500000
4786		-66.406250
4787		-64.453125
4788		-66.406250
4789		-64.453125
4790		-68.359375
4791		-64.453125
4792		-68.359375
4793		-64.453125
4794		-68.359375
4795		-64.453125
4796		-68.359375
4797		-64.453125
4798		-68.359375
4799		-66.406250
4800		-68.359375
4801		-64.453125
4802		-68.359375
4803		-64.453125
4804		-70.312500
4805		-64.453125
4806		-70.312500
4807		-66.406250
4808		-68.359375
4809		-66.406250
4810		-70.312500
4811		-64.453125
4812		-68.359375
4813		-66.406250
4814		-70.312500
4815		-66.406250
4816		-68.359375
4817		-66.406250
4818		-70.312500
4819		-66.406250
4820		-70.312500
4821		-66.406250
4822		-70.312500
4823		-66.406250
4824		-70.312500
4825		-66.406250
4826		-70.312500
4827		-66.406250
4828		-68.359375
4829		-66.406250
4830		-70.312500
4831		-66.406250
4832		-68.359375
4833		-66.406250
4834		-68.359375
4835		-66.406250
4836		-70.312500
4837		-64.453125
4838		-68.359375
4839		-66.406250
4840		-68.359375
4841		-64.453125
4842		-68.359375
4843		-64.453125
4844		-68.359375
4845		-64.453125
4846		-68.359375
4847		-64.453125
4848		-68.359375
4849		-64.453125
4850		-66.406250
4851		-64.453125
4852		-68.359375
4853		-64.453125
4854		-66.406250
4855		-64.453125
4856		-66.406250
4857		-62.500000
4858		-68.359375
4859		-62.500000
4860		-66.406250
4861		-62.500000
4862		-64.453125
4863		-60.546875
4864		-64.453125
4865		-60.546875
4866		-64.453125
4867		-60.546875
4868		-64.453125
4869		-60.546875
4870		-64.453125
4871		-60.546875
4872		-62.500000
4873		-60.546875
4874		-62.500000
4875		-58.593750
4876		-62.500000
4877		-58.593750
4878		-60.546875
4879		-58.593750
4880		-60.546875
4881		-56.640625
4882		-60.546875
4883		-56.640625
4884		-58.593750
4885		-56.640625
4886		-60.546875
4887		-54.687500
4888		-58.593750
4889		-54.687500
4890		-56.640625
4891		-52.734375
4892		-56.640625
4893		-52.734375
4894		-56.640625
4895		-52.734375
4896		-54.687500
4897		-52.734375
4898		-56.640625
4899		-50.781250
4900		-52.734375
4901		-50.781250
4902		-54.687500
4903		-48.828125
4904		-52.734375
4905		-48.828125
4906		-52.734375
4907		-46.875000
4908		-52.734375
4909		-46.875000
4910		-50.781250
4911		-46.875000
4912		-50.781250
4913		-44.921875
4914		-48.828125
4915		-44.921875
4916		-46.875000
4917		-44.921875
4918		-46.875000
4919		-42.968750
4920		-44.921875
4921		-41.015625
4922		-44.921875
4923		-41.015625
4924		-44.921875
4925		-39.062500
4926		-42.968750
4927		-39.062500
4928		-42.968750
4929		-39.062500
4930		-41.015625
4931		-37.109375
4932		-39.062500
4933		-37.109375
4934		-39.062500
4935		-35.156250
4936		-39.062500
4937		-35.156250
4938		-37.109375
4939		-33.203125
4940		-37.109375
4941		-31.250000
4942		-35.156250
4943		-31.250000
4944		-35.156250
4945		-29.296875
4946		-33.203125
4947		-29.296875
4948		-31.250000
4949		-27.343750
4950		-31.250000
4951		-27.343750
4952		-29.296875
4953		-25.390625
4954		-29.296875
4955		-25.390625
4956		-27.343750
4957		-23.437500
4958		-27.343750
4959		-21.484375
4960		-25.390625
4961		-21.484375
4962		-25.390625
4963		-21.484375
4964		-23.437500
4965		-19.531250
4966		-21.484375
4967		-17.578125
4968		-21.484375
4969		-17.578125
4970		-19.531250
4971		-15.625000
4972		-19.531250
4973		-15.625000
4974		-17.578125
4975		-13.671875
4976		-17.578125
4977		-11.718750
4978		-15.625000
4979		-11.718750
4980		-13.671875
4981		-11.718750
4982		-13.671875
4983		-9.765625
4984		-11.718750
4985		-9.765625
4986		-11.718750
4987		-7.812500
4988		-9.765625
4989		-5.859375
4990		-9.765625
4991		-5.859375
4992		-7.812500
4993		-3.906250
4994		-7.812500
4995		-3.906250
4996		-5.859375
4997		-1.953125
4998		-3.906250
4999		0.000000
5000		-3.906250
5001		0.000000
5002		-1.953125
5003		1.953125
5004		-1.953125
5005		1.953125
5006		0.000000
5007		3.906250
5008		1.953125
5009		5.859375
5010		1.953125
5011		5.859375
5012		3.906250
5013		7.812500
5014		3.906250
5015		9.765625
5016		5.859375
5017		9.765625
5018		7.812500
5019		9.765625
5020		7.812500
5021		11.718750
5022		9.765625
5023		11.718750
5024		9.765625
5025		13.671875
5026		9.765625
5027		15.625000
5028		11.718750
5029		15.625000
5030		13.671875
5031		17.578125
5032		13.671875
5033		17.578125
5034		15.625000
5035		17.578125
5036		15.625000
5037		19.531250
5038		15.625000
5039		21.484375
5040		17.578125
5041		21.484375
5042		19.531250
5043		23.437500
5044		21.484375
5045		23.437500
5046		21.484375
5047		25.390625
5048		21.484375
5049		27.343750
5050		23.437500
5051		27.343750
5052		25.390625
5053		27.343750
5054		25.390625
5055		29.296875
5056		27.343750
5057		29.296875
5058		27.343750
5059		31.250000
5060		27.343750
5061		33.203125
5062		29.296875
5063		33.203125
5064		29.296875
5065		35.156250
5066		31.250000
5067		35.156250
5068		33.203125
5069		35.156250
5070		31.250000
5071		37.109375
5072		35.156250
5073		39.062500
5074		35.156250
5075		39.062500
5076		35.156250
5077		39.062500
5078		37.109375
5079		41.015625
5080		37.109375
5081		42.968750
5082		39.062500
5083		42.968750
5084		39.062500
5085		42.968750
5086		41.015625
5087		44.921875
5088		41.015625
5089		44.921875
5090		41.015625
5091		44.921875
5092		41.015625
5093		46.875000
5094		42.968750
5095		46.875000
5096		44.921875
5097		48.828125
5098		44.921875
5099		48.828125
5100		44.921875
5101		48.828125
5102		44.921875
5103		50.781250
5104		46.875000
5105		50.781250
5106		46.875000
5107		52.734375
5108		48.828125
5109		50.781250
5110		48.828125
5111		52.734375
5112		48.828125
5113		54.687500
5114		50.781250
5115		54.687500
5116		50.781250
5117		54.687500
5118		52.734375
5119		54.687500
5120		52.734375
5121		54.687500
5122		50.781250
5123		56.640625
5124		52.734375
5125		56.640625
5126		52.734375
5127		56.640625
5128		54.687500
5129		58.593750
5130		54.687500
5131		58.593750
5132		54.687500
5133		58.593750
5134		54.687500
5135		58.593750
5136		56.640625
5137		58.593750
5138		56.640625
5139		60.546875
5140		56.640625
5141		60.546875
5142		56.640625
5143		62.500000
5144		58.593750
5145		62.500000
5146		58.593750
5147		62.500000
5148		58.593750
5149		62.500000
5150		58.593750
5151		62.500000
5152		58.593750
5153		62.500000
5154		58.593750
5155		64.453125
5156		60.546875
5157		64.453125
5158		60.546875
5159		62.500000
5160		60.546875
5161		64.453125
5162		60.546875
5163		64.453125
5164		60.546875
5165		64.453125
5166		60.546875
5167		64.453125
5168		62.500000
5169		64.453125
5170		62.500000
5171		64.453125
5172		60.546875
5173		64.453125
5174		62.500000
5175		64.453125
5176		62.500000
5177		66.406250
5178		62.500000
5179		64.453125
5180		62.500000
5181		64.453125
5182		62.500000
5183		66.406250
5184		62.500000
5185		66.406250
5186		62.500000
5187		66.406250
5188		62.500000
5189		66.406250
5190		62.500000
5191		66.406250
5192		62.500000
5193		66.406250
5194		62.500000
5195		64.453125
5196		62.500000
5197		66.406250
5198		62.500000
5199		64.453125
5200		62.500000
5201		66.406250
5202		60.546875
5203		66.406250
5204		62.500000
5205		64.453125
5206		60.546875
5207		64.453125
5208		60.546875
5209		66.406250
5210		60.546875
5211		64.453125
5212		60.546875
5213		64.453125
5214		60.546875
5215		64.453125
5216		60.546875
5217		64.453125
5218		60.546875
5219		64.453125
5220		60.546875
5221		62.500000
5222		58.593750
5223		62.500000
5224		60.546875
5225		62.500000
5226		58.593750
5227		62.500000
5228		58.593750
5229		62.500000
5230		58.593750
5231		62.500000
5232		58.593750
5233		62.500000
5234		58.593750
5235		60.546875
5236		56.640625
5237		60.546875
5238		56.640625
5239		60.546875
5240		54.687500
5241		60.546875
5242		56.640625
5243		58.593750
5244		54.687500
5245		58.593750
5246		54.687500
5247		58.593750
5248		54.687500
5249		58.593750
5250		52.734375
5251		56.640625
5252		54.687500
5253		56.640625
5254		52.734375
5255		56.640625
5256		52.734375
5257		56.640625
5258		52.734375
5259		54.687500
5260		50.781250
5261		54.687500
5262		50.781250
5263		54.687500
5264		50.781250
5265		52.734375
5266		48.828125
5267		52.734375
5268		48.828125
5269		52.734375
5270		48.828125
5271		50.781250
5272		46.875000
5273		50.781250
5274		46.875000
5275		50.781250
5276		46.875000
5277		50.781250
5278		44.921875
5279		48.828125
5280		42.968750
5281		48.828125
5282		42.968750
5283		46.875000
5284		42.968750
5285		46.875000
5286		41.015625
5287		44.921875
5288		41.015625
5289		44.921875
5290		41.015625
5291		44.921875
5292		39.062500
5293		42.968750
5294		37.109375
5295		42.968750
5296		37.109375
5297		41.015625
5298		37.109375
5299		41.015625
5300		35.156250
5301		41.015625
5302		35.156250
5303		39.062500
5304		35.156250
5305		39.062500
5306		33.203125
5307		37.109375
5308		33.203125
5309		35.156250
5310		31.250000
5311		35.156250
5312		31.250000
5313		33.203125
5314		29.296875
5315		33.203125
5316		29.296875
5317		33.203125
5318		27.343750
5319		31.250000
5320		27.343750
5321		29.296875
5322		25.390625
5323		29.296875
5324		23.437500
5325		27.343750
5326		23.437500
5327		27.343750
5328		23.437500
5329		27.343750
5330		21.484375
5331		25.390625
5332		19.531250
5333		23.437500
5334		19.531250
5335		23.437500
5336		19.531250
5337		21.484375
5338		17.578125
5339		21.484375
5340		15.625000
5341		21.484375
5342		13.671875
5343		19.531250
5344		13.671875
5345		19.531250
5346		11.718750
5347		17.578125
5348		11.718750
5349		15.625000
5350		9.765625
5351		15.625000
5352		9.765625
5353		13.671875
5354		7.812500
5355		11.718750
5356		7.812500
5357		11.718750
5358		5.859375
5359		9.765625
5360		5.859375
5361		9.765625
5362		3.906250
5363		7.812500
5364		1.953125
5365		7.812500
5366		1.953125
5367		5.859375
5368		1.953125
5369		5.859375
5370		0.000000
5371		3.906250
5372		-1.953125
5373		1.953125
5374		-1.953125
5375		1.953125
5376		-3.906250
5377		0.000000
5378		-5.859375
5379		0.000000
5380		-5.859375
5381		-1.953125
5382		-7.812500
5383		-1.953125
5384		-7.812500
5385		-3.906250
5386		-9.765625
5387		-5.859375
5388		-9.765625
5389		-5.859375
5390		-11.718750
5391		-7.812500
5392		-13.671875
5393		-7.812500
5394		-13.671875
5395		-9.765625
5396		-15.625000
5397		-9.765625
5398		-17.578125
5399		-11.718750
5400		-17.578125
5401		-11.718750
5402		-19.531250
5403		-13.671875
5404		-19.531250
5405		-15.625000
5406		-19.531250
5407		-17.578125
5408		-23.437500
5409		-17.578125
5410		-23.437500
5411		-17.578125
5412		-25.390625
5413		-19.531250
5414		-25.390625
5415		-19.531250
5416		-27.343750
5417		-21.484375
5418		-27.343750
5419		-21.484375
5420		-27.343750
5421		-25.390625
5422		-29.296875
5423		-25.390625
5424		-31.250000
5425		-25.390625
5426		-31.250000
5427		-27.343750
5428		-33.203125
5429		-27.343750
5430		-35.156250
5431		-29.296875
5432		-35.156250
5433		-29.296875
5434		-35.156250
5435		-31.250000
5436		-35.156250
5437		-31.250000
5438		-37.109375
5439		-33.203125
5440		-39.062500
5441		-33.203125
5442		-39.062500
5443		-35.156250
5444		-41.015625
5445		-35.156250
5446		-42.968750
5447		-37.109375
5448		-42.968750
5449		-37.109375
5450		-42.968750
5451		-37.109375
5452		-44.921875
5453		-39.062500
5454		-44.921875
5455		-41.015625
5456		-44.921875
5457		-42.968750
5458		-46.875000
5459		-42.968750
5460		-46.875000
5461		-44.921875
5462		-46.875000
5463		-44.921875
5464		-48.828125
5465		-44.921875
5466		-48.828125
5467		-46.875000
5468		-50.781250
5469		-46.875000
5470		-52.734375
5471		-48.828125
5472		-52.734375
5473		-48.828125
5474		-52.734375
5475		-48.828125
5476		-54.687500
5477		-50.781250
5478		-54.687500
5479		-50.781250
5480		-54.687500
5481		-52.734375
5482		-56.640625
5483		-52.734375
5484		-56.640625
5485		-52.734375
5486		-58.593750
5487		-54.687500
5488		-58.593750
5489		-54.687500
5490		-58.593750
5491		-54.687500
5492		-58.593750
5493		-54.687500
5494		-58.593750
5495		-56.640625
5496		-60.546875
5497		-56.640625
5498		-60.546875
5499		-56.640625
5500		-60.546875
5501		-58.593750
5502		-60.546875
5503		-58.593750
5504		-62.500000
5505		-58.593750
5506		-62.500000
5507		-60.546875
5508		-62.500000
5509		-60.546875
5510		-64.453125
5511		-60.546875
5512		-64.453125
5513		-60.546875
5514		-64.453125
5515		-60.546875
5516		-64.453125
5517		-62.500000
5518		-64.453125
5519		-62.500000
5520		-66.406250
5521		-62.500000
5522		-66.406250
5523		-62.500000
5524		-66.406250
5525		-64.453125
5526		-66.406250
5527		-64.453125
5528		-66.406250
5529		-62.500000
5530		-66.406250
5531		-64.453125
5532		-68.359375
5533		-64.453125
5534		-68.359375
5535		-64.453125
5536		-66.406250
5537		-64.453125
5538		-68.359375
5539		-64.453125
5540		-68.359375
5541		-64.453125
5542		-68.359375
5543		-64.453125
5544		-68.359375
5545		-66.406250
5546		-68.359375
5547		-64.453125
5548		-68.359375
5549		-66.406250
5550		-68.359375
5551		-66.406250
5552		-68.359375
5553		-64.453125
5554		-68.359375
5555		-66.406250
5556		-68.359375
5557		-66.406250
5558		-70.312500
5559		-62.500000
5560		-70.312500
5561		-62.500000
5562		-70.312500
5563		-62.500000
5564		-68.359375
5565		-66.406250
5566		-68.359375
5567		-64.453125
5568		-68.359375
5569		-64.453125
5570		-68.359375
5571		-66.406250
5572		-68.359375
5573		-64.453125
5574		-68.359375
5575		-62.500000
5576		-70.312500
5577		-62.500000
5578		-70.312500
5579		-60.546875
5580		-70.312500
5581		-60.546875
5582		-66.406250
5583		-64.453125
5584		-66.406250
5585		-64.453125
5586		-66.406250
5587		-62.500000
5588		-66.406250
5589		-62.500000
5590		-66.406250
5591		-62.500000
5592		-68.359375
5593		-60.546875
5594		-68.359375
5595		-58.593750
5596		-66.406250
5597		-58.593750
5598		-64.453125
5599		-60.546875
5600		-64.453125
5601		-60.546875
5602		-64.453125
5603		-60.546875
5604		-62.500000
5605		-58.593750
5606		-62.500000
5607		-58.593750
5608		-64.453125
5609		-56.640625
5610		-64.453125
5611		-54.687500
5612		-64.453125
5613		-54.687500
5614		-64.453125
5615		-52.734375
5616		-60.546875
5617		-54.687500
5618		-58.593750
5619		-56.640625
5620		-58.593750
5621		-54.687500
5622		-58.593750
5623		-54.687500
5624		-56.640625
5625		-52.734375
5626		-58.593750
5627		-48.828125
5628		-58.593750
5629		-48.828125
5630		-58.593750
5631		-48.828125
5632		-54.687500
5633		-50.781250
5634		-52.734375
5635		-50.781250
5636		-52.734375
5637		-48.828125
5638		-50.781250
5639		-48.828125
5640		-50.781250
5641		-46.875000
5642		-52.734375
5643		-44.921875
5644		-52.734375
5645		-42.968750
5646		-50.781250
5647		-41.015625
5648		-48.828125
5649		-44.921875
5650		-46.875000
5651		-42.968750
5652		-44.921875
5653		-42.968750
5654		-44.921875
5655		-41.015625
5656		-44.921875
5657		-41.015625
5658		-42.968750
5659		-41.015625
5660		-46.875000
5661		-35.156250
5662		-44.921875
5663		-35.156250
5664		-42.968750
5665		-33.203125
5666		-41.015625
5667		-35.156250
5668		-39.062500
5669		-35.156250
5670		-37.109375
5671		-35.156250
5672		-37.109375
5673		-33.203125
5674		-35.156250
5675		-31.250000
5676		-37.109375
5677		-27.343750
5678		-37.109375
5679		-25.390625
5680		-35.156250
5681		-25.390625
5682		-31.250000
5683		-27.343750
5684		-29.296875
5685		-27.343750
5686		-29.296875
5687		-25.390625
5688		-27.343750
5689		-25.390625
5690		-27.343750
5691		-23.437500
5692		-27.343750
5693		-19.531250
5694		-27.343750
5695		-17.578125
5696		-27.343750
5697		-17.578125
5698		-25.390625
5699		-15.625000
5700		-21.484375
5701		-19.531250
5702		-19.531250
5703		-17.578125
5704		-19.531250
5705		-15.625000
5706		-19.531250
5707		-15.625000
5708		-17.578125
5709		-13.671875
5710		-19.531250
5711		-9.765625
5712		-17.578125
5713		-7.812500
5714		-17.578125
5715		-7.812500
5716		-11.718750
5717		-9.765625
5718		-11.718750
5719		-7.812500
5720		-9.765625
5721		-7.812500
5722		-9.765625
5723		-5.859375
5724		-7.812500
5725		-3.906250
5726		-9.765625
5727		0.000000
5728		-7.812500
5729		1.953125
5730		-7.812500
5731		1.953125
5732		-5.859375
5733		1.953125
5734		-1.953125
5735		1.953125
5736		-1.953125
5737		1.953125
5738		0.000000
5739		1.953125
5740		0.000000
5741		3.906250
5742		1.953125
5743		5.859375
5744		1.953125
5745		9.765625
5746		1.953125
5747		9.765625
5748		3.906250
5749		9.765625
5750		5.859375
5751		9.765625
5752		7.812500
5753		9.765625
5754		9.765625
5755		11.718750
5756		9.765625
5757		13.671875
5758		9.765625
5759		13.671875
5760		11.718750
5761		15.625000
5762		11.718750
5763		17.578125
5764		11.718750
5765		19.531250
5766		15.625000
5767		17.578125
5768		15.625000
5769		21.484375
5770		17.578125
5771		19.531250
5772		17.578125
5773		21.484375
5774		19.531250
5775		23.437500
5776		19.531250
5777		25.390625
5778		21.484375
5779		27.343750
5780		21.484375
5781		27.343750
5782		23.437500
5783		27.343750
5784		25.390625
5785		29.296875
5786		25.390625
5787		29.296875
5788		27.343750
5789		29.296875
5790		27.343750
5791		31.250000
5792		29.296875
5793		31.250000
5794		29.296875
5795		33.203125
5796		29.296875
5797		33.203125
5798		31.250000
5799		35.156250
5800		31.250000
5801		35.156250
5802		33.203125
5803		37.109375
5804		35.156250
5805		37.109375
5806		35.156250
5807		37.109375
5808		37.109375
5809		39.062500
5810		37.109375
5811		41.015625
5812		37.109375
5813		41.015625
5814		39.062500
5815		41.015625
5816		39.062500
5817		42.968750
5818		41.015625
5819		42.968750
5820		41.015625
5821		42.968750
5822		41.015625
5823		44.921875
5824		42.968750
5825		44.921875
5826		42.968750
5827		46.875000
5828		42.968750
5829		46.875000
5830		44.921875
5831		46.875000
5832		44.921875
5833		48.828125
5834		46.875000
5835		48.828125
5836		46.875000
5837		50.781250
5838		46.875000
5839		50.781250
5840		48.828125
5841		50.781250
5842		48.828125
5843		52.734375
5844		48.828125
5845		52.734375
5846		48.828125
5847		54.687500
5848		50.781250
5849		54.687500
5850		50.781250
5851		54.687500
5852		50.781250
5853		54.687500
5854		52.734375
5855		56.640625
5856		52.734375
5857		56.640625
5858		54.687500
5859		56.640625
5860		52.734375
5861		58.593750
5862		54.687500
5863		58.593750
5864		56.640625
5865		58.593750
5866		54.687500
5867		60.546875
5868		54.687500
5869		60.546875
5870		56.640625
5871		60.546875
5872		56.640625
5873		60.546875
5874		58.593750
5875		60.546875
5876		58.593750
5877		62.500000
5878		58.593750
5879		62.500000
5880		58.593750
5881		62.500000
5882		58.593750
5883		62.500000
5884		58.593750
5885		62.500000
5886		58.593750
5887		64.453125
5888		60.546875
5889		62.500000
5890		60.546875
5891		62.500000
5892		60.546875
5893		64.453125
5894		60.546875
5895		64.453125
5896		60.546875
5897		64.453125
5898		60.546875
5899		64.453125
5900		60.546875
5901		64.453125
5902		60.546875
5903		66.406250
5904		62.500000
5905		66.406250
5906		62.500000
5907		64.453125
5908		62.500000
5909		64.453125
5910		62.500000
5911		66.406250
5912		62.500000
5913		66.406250
5914		62.500000
5915		66.406250
5916		60.546875
5917		66.406250
5918		62.500000
5919		66.406250
5920		62.500000
5921		66.406250
5922		62.500000
5923		66.406250
5924		62.500000
5925		64.453125
5926		62.500000
5927		66.406250
5928		60.546875
5929		68.359375
5930		62.500000
5931		66.406250
5932		62.500000
5933		66.406250
5934		62.500000
5935		66.406250
5936		62.500000
5937		66.406250
5938		62.500000
5939		64.453125
5940		62.500000
5941		64.453125
5942		62.500000
5943		64.453125
5944		60.546875
5945		66.406250
5946		60.546875
5947		64.453125
5948		60.546875
5949		64.453125
5950		60.546875
5951		64.453125
5952		60.546875
5953		64.453125
5954		60.546875
5955		64.453125
5956		60.546875
5957		62.500000
5958		58.593750
5959		62.500000
5960		58.593750
5961		62.500000
5962		58.593750
5963		62.500000
5964		58.593750
5965		62.500000
5966		58.593750
5967		60.546875
5968		56.640625
5969		62.500000
5970		56.640625
5971		60.546875
5972		56.640625
5973		60.546875
5974		56.640625
5975		58.593750
5976		56.640625
5977		58.593750
5978		52.734375
5979		60.546875
5980		54.687500
5981		58.593750
5982		54.687500
5983		56.640625
5984		52.734375
5985		58.593750
5986		52.734375
5987		56.640625
5988		52.734375
5989		56.640625
5990		52.734375
5991		56.640625
5992		52.734375
5993		54.687500
5994		50.781250
5995		54.687500
5996		50.781250
5997		54.687500
5998		50.781250
5999		52.734375
6000		48.828125
6001		52.734375
6002		48.828125
6003		52.734375
6004		48.828125
6005		50.781250
6006		46.875000
6007		50.781250
6008		46.875000
6009		48.828125
6010		46.875000
6011		48.828125
6012		44.921875
6013		48.828125
6014		44.921875
6015		48.828125
6016		42.968750
6017		46.875000
6018		42.968750
6019		44.921875
6020		41.015625
6021		44.921875
6022		41.015625
6023		44.921875
6024		41.015625
6025		42.968750
6026		39.062500
6027		42.968750
6028		39.062500
6029		41.015625
6030		37.109375
6031		41.015625
6032		37.109375
6033		41.015625
6034		35.156250
6035		39.062500
6036		35.156250
6037		39.062500
6038		35.156250
6039		37.109375
6040		33.203125
6041		35.156250
6042		31.250000
6043		35.156250
6044		31.250000
6045		33.203125
6046		29.296875
6047		33.203125
6048		29.296875
6049		33.203125
6050		29.296875
6051		31.250000
6052		25.390625
6053		31.250000
6054		27.343750
6055		29.296875
6056		25.390625
6057		29.296875
6058		25.390625
6059		29.296875
6060		23.437500
6061		25.390625
6062		21.484375
6063		25.390625
6064		21.484375
6065		25.390625
6066		19.531250
6067		23.437500
6068		19.531250
6069		23.437500
6070		17.578125
6071		21.484375
6072		17.578125
6073		19.531250
6074		15.625000
6075		19.531250
6076		15.625000
6077		17.578125
6078		13.671875
6079		17.578125
6080		11.718750
6081		15.625000
6082		11.718750
6083		13.671875
6084		9.765625
6085		15.625000
6086		9.765625
6087		11.718750
6088		7.812500
6089		11.718750
6090		7.812500
6091		9.765625
6092		5.859375
6093		9.765625
6094		3.906250
6095		7.812500
6096		3.906250
6097		5.859375
6098		1.953125
6099		5.859375
6100		1.953125
6101		5.859375
6102		0.000000
6103		3.906250
6104		0.000000
6105		3.906250
6106		-1.953125
6107		1.953125
6108		-1.953125
6109		1.953125
6110		-3.906250
6111		-1.953125
6112		-5.859375
6113		-1.953125
6114		-5.859375
6115		-1.953125
6116		-7.812500
6117		-3.906250
6118		-9.765625
6119		-3.906250
6120		-9.765625
6121		-5.859375
6122		-9.765625
6123		-7.812500
6124		-11.718750
6125		-7.812500
6126		-11.718750
6127		-9.765625
6128		-15.625000
6129		-9.765625
6130		-15.625000
6131		-11.718750
6132		-15.625000
6133		-13.671875
6134		-17.578125
6135		-13.671875
6136		-19.531250
6137		-15.625000
6138		-19.531250
6139		-17.578125
6140		-21.484375
6141		-17.578125
6142		-21.484375
6143		-19.531250
6144		-23.437500
6145		-19.531250
6146		-25.390625
6147		-19.531250
6148		-25.390625
6149		-21.484375
6150		-27.343750
6151		-23.437500
6152		-27.343750
6153		-23.437500
6154		-29.296875
6155		-25.390625
6156		-29.296875
6157		-25.390625
6158		-31.250000
6159		-27.343750
6160		-31.250000
6161		-27.343750
6162		-33.203125
6163		-29.296875
6164		-33.203125
6165		-29.296875
6166		-35.156250
6167		-31.250000
6168		-35.156250
6169		-33.203125
6170		-37.109375
6171		-33.203125
6172		-37.109375
6173		-35.156250
6174		-39.062500
6175		-35.156250
6176		-39.062500
6177		-37.109375
6178		-41.015625
6179		-37.109375
6180		-42.968750
6181		-37.109375
6182		-42.968750
6183		-37.109375
6184		-42.968750
6185		-41.015625
6186		-44.921875
6187		-41.015625
6188		-44.921875
6189		-42.968750
6190		-44.921875
6191		-42.968750
6192		-46.875000
6193		-42.968750
6194		-46.875000
6195		-44.921875
6196		-48.828125
6197		-44.921875
6198		-50.781250
6199		-44.921875
6200		-50.781250
6201		-44.921875
6202		-50.781250
6203		-48.828125
6204		-52.734375
6205		-48.828125
6206		-52.734375
6207		-48.828125
6208		-54.687500
6209		-50.781250
6210		-52.734375
6211		-50.781250
6212		-54.687500
6213		-52.734375
6214		-58.593750
6215		-50.781250
6216		-56.640625
6217		-50.781250
6218		-56.640625
6219		-54.687500
6220		-56.640625
6221		-54.687500
6222		-58.593750
6223		-54.687500
6224		-58.593750
6225		-54.687500
6226		-58.593750
6227		-54.687500
6228		-60.546875
6229		-56.640625
6230		-62.500000
6231		-56.640625
6232		-62.500000
6233		-56.640625
6234		-62.500000
6235		-58.593750
6236		-62.500000
6237		-58.593750
6238		-62.500000
6239		-60.546875
6240		-62.500000
6241		-60.546875
6242		-62.500000
6243		-60.546875
6244		-64.453125
6245		-60.546875
6246		-64.453125
6247		-62.500000
6248		-66.406250
6249		-60.546875
6250		-66.406250
6251		-60.546875
6252		-66.406250
6253		-62.500000
6254		-66.406250
6255		-62.500000
6256		-66.406250
6257		-62.500000
6258		-66.406250
6259		-62.500000
6260		-66.406250
6261		-64.453125
6262		-66.406250
6263		-64.453125
6264		-68.359375
6265		-62.500000
6266		-68.359375
6267		-64.453125
6268		-68.359375
6269		-64.453125
6270		-68.359375
6271		-66.406250
6272		-68.359375
6273		-66.406250
6274		-68.359375
6275		-64.453125
6276		-68.359375
6277		-66.406250
6278		-68.359375
6279		-66.406250
6280		-70.312500
6281		-64.453125
6282		-70.312500
6283		-64.453125
6284		-70.312500
6285		-64.453125
6286		-70.312500
6287		-64.453125
6288		-68.359375
6289		-66.406250
6290		-68.359375
6291		-66.406250
6292		-70.312500
6293		-66.406250
6294		-68.359375
6295		-66.406250
6296		-68.359375
6297		-64.453125
6298		-70.312500
6299		-64.453125
6300		-70.312500
6301		-64.453125
6302		-68.359375
6303		-64.453125
6304		-68.359375
6305		-66.406250
6306		-68.359375
6307		-66.406250
6308		-68.359375
6309		-64.453125
6310		-68.359375
6311		-64.453125
6312		-68.359375
6313		-64.453125
6314		-68.359375
6315		-62.500000
6316		-68.359375
6317		-62.500000
6318		-66.406250
6319		-64.453125
6320		-66.406250
6321		-62.500000
6322		-66.406250
6323		-62.500000
6324		-66.406250
6325		-62.500000
6326		-64.453125
6327		-62.500000
6328		-64.453125
6329		-62.500000
6330		-66.406250
6331		-60.546875
6332		-66.406250
6333		-58.593750
6334		-64.453125
6335		-58.593750
6336		-64.453125
6337		-58.593750
6338		-62.500000
6339		-60.546875
6340		-62.500000
6341		-58.593750
6342		-62.500000
6343		-58.593750
6344		-60.546875
6345		-58.593750
6346		-60.546875
6347		-56.640625
6348		-60.546875
6349		-56.640625
6350		-60.546875
6351		-54.687500
6352		-58.593750
6353		-56.640625
6354		-58.593750
6355		-54.687500
6356		-58.593750
6357		-54.687500
6358		-56.640625
6359		-54.687500
6360		-56.640625
6361		-52.734375
6362		-54.687500
6363		-52.734375
6364		-54.687500
6365		-52.734375
6366		-54.687500
6367		-50.781250
6368		-52.734375
6369		-50.781250
6370		-52.734375
6371		-48.828125
6372		-50.781250
6373		-48.828125
6374		-50.781250
6375		-46.875000
6376		-50.781250
6377		-46.875000
6378		-48.828125
6379		-46.875000
6380		-48.828125
6381		-44.921875
6382		-48.828125
6383		-44.921875
6384		-46.875000
6385		-42.968750
6386		-44.921875
6387		-42.968750
6388		-44.921875
6389		-41.015625
6390		-42.968750
6391		-41.015625
6392		-42.968750
6393		-39.062500
6394		-42.968750
6395		-39.062500
6396		-41.015625
6397		-37.109375
6398		-39.062500
6399		-35.156250
6400		-41.015625
6401		-35.156250
6402		-37.109375
6403		-35.156250
6404		-37.109375
6405		-33.203125
6406		-37.109375
6407		-33.203125
6408		-35.156250
6409		-31.250000
6410		-33.203125
6411		-31.250000
6412		-33.203125
6413		-29.296875
6414		-31.250000
6415		-29.296875
6416		-31.250000
6417		-27.343750
6418		-29.296875
6419		-25.390625
6420		-29.296875
6421		-25.390625
6422		-27.343750
6423		-25.390625
6424		-27.343750
6425		-23.437500
6426		-25.390625
6427		-23.437500
6428		-25.390625
6429		-21.484375
6430		-23.437500
6431		-19.531250
6432		-23.437500
6433		-19.531250
6434		-21.484375
6435		-17.578125
6436		-21.484375
6437		-17.578125
6438		-19.531250
6439		-15.625000
6440		-17.578125
6441		-15.625000
6442		-17.578125
6443		-13.671875
6444		-15.625000
6445		-11.718750
6446		-13.671875
6447		-11.718750
6448		-13.671875
6449		-9.765625
6450		-11.718750
6451		-9.765625
6452		-11.718750
6453		-7.812500
6454		-9.765625
6455		-5.859375
6456		-9.765625
6457		-5.859375
6458		-7.812500
6459		-3.906250
6460		-7.812500
6461		-3.906250
6462		-5.859375
6463		-1.953125
6464		-5.859375
6465		0.000000
6466		-3.906250
6467		0.000000
6468		-1.953125
6469		0.000000
6470		-1.953125
6471		1.953125
6472		0.000000
6473		1.953125
6474		1.953125
6475		3.906250
6476		1.953125
6477		5.859375
6478		1.953125
6479		5.859375
6480		3.906250
6481		7.812500
6482		5.859375
6483		7.812500
6484		5.859375
6485		9.765625
6486		7.812500
6487		11.718750
6488		7.812500
6489		11.718750
6490		9.765625
6491		13.671875
6492		11.718750
6493		13.671875
6494		11.718750
6495		15.625000
6496		11.718750
6497		15.625000
6498		13.671875
6499		17.578125
6500		15.625000
6501		17.578125
6502		15.625000
6503		19.531250
6504		17.578125
6505		21.484375
6506		19.531250
6507		21.484375
6508		19.531250
6509		23.437500
6510		19.531250
6511		23.437500
6512		21.484375
6513		23.437500
6514		23.437500
6515		25.390625
6516		23.437500
6517		27.343750
6518		25.390625
6519		27.343750
6520		25.390625
6521		29.296875
6522		27.343750
6523		29.296875
6524		27.343750
6525		31.250000
6526		29.296875
6527		31.250000
6528		29.296875
6529		33.203125
6530		31.250000
6531		33.203125
6532		29.296875
6533		35.156250
6534		33.203125
6535		35.156250
6536		33.203125
6537		37.109375
6538		33.203125
6539		37.109375
6540		35.156250
6541		39.062500
6542		35.156250
6543		39.062500
6544		37.109375
6545		39.062500
6546		37.109375
6547		41.015625
6548		39.062500
6549		41.015625
6550		39.062500
6551		42.968750
6552		41.015625
6553		42.968750
6554		41.015625
6555		44.921875
6556		41.015625
6557		44.921875
6558		42.968750
6559		44.921875
6560		42.968750
6561		46.875000
6562		42.968750
6563		46.875000
6564		44.921875
6565		46.875000
6566		44.921875
6567		48.828125
6568		46.875000
6569		48.828125
6570		46.875000
6571		50.781250
6572		46.875000
6573		50.781250
6574		48.828125
6575		50.781250
6576		48.828125
6577		52.734375
6578		50.781250
6579		52.734375
6580		50.781250
6581		54.687500
6582		50.781250
6583		54.687500
6584		50.781250
6585		54.687500
6586		52.734375
6587		56.640625
6588		52.734375
6589		54.687500
6590		52.734375
6591		56.640625
6592		52.734375
6593		58.593750
6594		54.687500
6595		56.640625
6596		54.687500
6597		56.640625
6598		54.687500
6599		58.593750
6600		56.640625
6601		58.593750
6602		56.640625
6603		58.593750
6604		56.640625
6605		60.546875
6606		56.640625
6607		60.546875
6608		58.593750
6609		60.546875
6610		58.593750
6611		60.546875
6612		58.593750
6613		62.500000
6614		58.593750
6615		62.500000
6616		58.593750
6617		62.500000
6618		58.593750
6619		62.500000
6620		60.546875
6621		62.500000
6622		60.546875
6623		62.500000
6624		58.593750
6625		64.453125
6626		60.546875
6627		62.500000
6628		60.546875
6629		64.453125
6630		60.546875
6631		64.453125
6632		60.546875
6633		64.453125
6634		60.546875
6635		64.453125
6636		62.500000
6637		64.453125
6638		60.546875
6639		66.406250
6640		62.500000
6641		64.453125
6642		60.546875
6643		66.406250
6644		62.500000
6645		64.453125
6646		62.500000
6647		64.453125
6648		62.500000
6649		66.406250
6650		62.500000
6651		64.453125
6652		62.500000
6653		64.453125
6654		62.500000
6655		66.406250
6656		62.500000
6657		64.453125
6658		62.500000
6659		64.453125
6660		60.546875
6661		64.453125
6662		62.500000
6663		64.453125
6664		62.500000
6665		64.453125
6666		60.546875
6667		66.406250
6668		62.500000
6669		64.453125
6670		62.500000
6671		64.453125
6672		60.546875
6673		64.453125
6674		62.500000
6675		64.453125
6676		62.500000
6677		64.453125
6678		60.546875
6679		64.453125
6680		60.546875
6681		64.453125
6682		60.546875
6683		62.500000
6684		60.546875
6685		64.453125
6686		60.546875
6687		62.500000
6688		60.546875
6689		62.500000
6690		60.546875
6691		62.500000
6692		58.593750
6693		62.500000
6694		58.593750
6695		60.546875
6696		58.593750
6697		62.500000
6698		58.593750
6699		60.546875
6700		58.593750
6701		60.546875
6702		56.640625
6703		60.546875
6704		56.640625
6705		60.546875
6706		56.640625
6707		58.593750
6708		56.640625
6709		58.593750
6710		56.640625
6711		58.593750
6712		54.687500
6713		58.593750
6714		54.687500
6715		58.593750
6716		54.687500
6717		56.640625
6718		52.734375
6719		56.640625
6720		52.734375
6721		54.687500
6722		52.734375
6723		54.687500
6724		52.734375
6725		54.687500
6726		52.734375
6727		54.687500
6728		50.781250
6729		54.687500
6730		50.781250
6731		52.734375
6732		48.828125
6733		52.734375
6734		48.828125
6735		50.781250
6736		46.875000
6737		52.734375
6738		46.875000
6739		50.781250
6740		46.875000
6741		50.781250
6742		46.875000
6743		48.828125
6744		44.921875
6745		48.828125
6746		44.921875
6747		46.875000
6748		42.968750
6749		46.875000
6750		42.968750
6751		44.921875
6752		41.015625
6753		44.921875
6754		39.062500
6755		44.921875
6756		41.015625
6757		42.968750
6758		39.062500
6759		42.968750
6760		37.109375
6761		41.015625
6762		37.109375
6763		41.015625
6764		37.109375
6765		41.015625
6766		35.156250
6767		39.062500
6768		35.156250
6769		39.062500
6770		35.156250
6771		37.109375
6772		33.203125
6773		37.109375
6774		33.203125
6775		35.156250
6776		31.250000
6777		35.156250
6778		31.250000
6779		35.156250
6780		29.296875
6781		33.203125
6782		27.343750
6783		31.250000
6784		27.343750
6785		31.250000
6786		27.343750
6787		29.296875
6788		25.390625
6789		29.296875
6790		25.390625
6791		27.343750
6792		23.437500
6793		27.343750
6794		23.437500
6795		25.390625
6796		21.484375
6797		25.390625
6798		19.531250
6799		23.437500
6800		19.531250
6801		23.437500
6802		19.531250
6803		21.484375
6804		17.578125
6805		21.484375
6806		15.625000
6807		19.531250
6808		15.625000
6809		17.578125
6810		13.671875
6811		17.578125
6812		13.671875
6813		17.578125
6814		11.718750
6815		15.625000
6816		9.765625
6817		13.671875
6818		9.765625
6819		13.671875
6820		7.812500
6821		11.718750
6822		7.812500
6823		9.765625
6824		5.859375
6825		9.765625
6826		5.859375
6827		7.812500
6828		3.906250
6829		7.812500
6830		1.953125
6831		5.859375
6832		1.953125
6833		5.859375
6834		0.000000
6835		3.906250
6836		-1.953125
6837		1.953125
6838		-1.953125
6839		1.953125
6840		-1.953125
6841		0.000000
6842		-3.906250
6843		0.000000
6844		-5.859375
6845		-1.953125
6846		-5.859375
6847		-3.906250
6848		-7.812500
6849		-3.906250
6850		-7.812500
6851		-5.859375
6852		-9.765625
6853		-5.859375
6854		-9.765625
6855		-7.812500
6856		-11.718750
6857		-7.812500
6858		-13.671875
6859		-9.765625
6860		-13.671875
6861		-11.718750
6862		-15.625000
6863		-11.718750
6864		-15.625000
6865		-13.671875
6866		-17.578125
6867		-13.671875
6868		-19.531250
6869		-15.625000
6870		-19.531250
6871		-15.625000
6872		-21.484375
6873		-17.578125
6874		-21.484375
6875		-17.578125
6876		-23.437500
6877		-19.531250
6878		-23.437500
6879		-21.484375
6880		-25.390625
6881		-21.484375
6882		-25.390625
6883		-21.484375
6884		-27.343750
6885		-23.437500
6886		-27.343750
6887		-25.390625
6888		-29.296875
6889		-25.390625
6890		-31.250000
6891		-27.343750
6892		-31.250000
6893		-27.343750
6894		-33.203125
6895		-29.296875
6896		-33.203125
6897		-31.250000
6898		-35.156250
6899		-31.250000
6900		-35.156250
6901		-33.203125
6902		-37.109375
6903		-33.203125
6904		-37.109375
6905		-33.203125
6906		-39.062500
6907		-35.156250
6908		-41.015625
6909		-37.109375
6910		-41.015625
6911		-37.109375
6912		-41.015625
6913		-39.062500
6914		-42.968750
6915		-39.062500
6916		-42.968750
6917		-41.015625
6918		-44.921875
6919		-41.015625
6920		-44.921875
6921		-41.015625
6922		-44.921875
6923		-42.968750
6924		-46.875000
6925		-42.968750
6926		-48.828125
6927		-44.921875
6928		-48.828125
6929		-44.921875
6930		-48.828125
6931		-46.875000
6932		-50.781250
6933		-46.875000
6934		-50.781250
6935		-48.828125
6936		-50.781250
6937		-48.828125
6938		-52.734375
6939		-48.828125
6940		-52.734375
6941		-50.781250
6942		-54.687500
6943		-50.781250
6944		-54.687500
6945		-52.734375
6946		-54.687500
6947		-52.734375
6948		-56.640625
6949		-52.734375
6950		-56.640625
6951		-54.687500
6952		-58.593750
6953		-54.687500
6954		-58.593750
6955		-54.687500
6956		-58.593750
6957		-56.640625
6958		-60.546875
6959		-56.640625
6960		-60.546875
6961		-56.640625
6962		-60.546875
6963		-58.593750
6964		-60.546875
6965		-56.640625
6966		-60.546875
6967		-58.593750
6968		-62.500000
6969		-58.593750
6970		-62.500000
6971		-58.593750
6972		-62.500000
6973		-60.546875
6974		-62.500000
6975		-60.546875
6976		-64.453125
6977		-60.546875
6978		-64.453125
6979		-60.546875
6980		-64.453125
6981		-62.500000
6982		-64.453125
6983		-62.500000
6984		-66.406250
6985		-62.500000
6986		-66.406250
6987		-62.500000
6988		-66.406250
6989		-62.500000
6990		-66.406250
6991		-64.453125
6992		-66.406250
6993		-64.453125
6994		-66.406250
6995		-64.453125
6996		-66.406250
6997		-64.453125
6998		-68.359375
6999		-64.453125
7000		-68.359375
7001		-64.453125
7002		-68.359375
7003		-66.406250
7004		-68.359375
7005		-64.453125
7006		-68.359375
7007		-66.406250
7008		-68.359375
7009		-66.406250
7010		-68.359375
7011		-66.406250
7012		-68.359375
7013		-66.406250
7014		-70.312500
7015		-66.406250
7016		-68.359375
7017		-66.406250
7018		-68.359375
7019		-66.406250
7020		-70.312500
7021		-66.406250
7022		-68.359375
7023		-66.406250
7024		-68.359375
7025		-66.406250
7026		-68.359375
7027		-66.406250
7028		-68.359375
7029		-66.406250
7030		-70.312500
7031		-64.453125
7032		-68.359375
7033		-66.406250
7034		-68.359375
7035		-66.406250
7036		-68.359375
7037		-64.453125
7038		-68.359375
7039		-64.453125
7040		-68.359375
7041		-66.406250
7042		-68.359375
7043		-64.453125
7044		-66.406250
7045		-64.453125
7046		-68.359375
7047		-64.453125
7048		-68.359375
7049		-64.453125
7050		-66.406250
7051		-64.453125
7052		-66.406250
7053		-64.453125
7054		-66.406250
7055		-62.500000
7056		-66.406250
7057		-62.500000
7058		-66.406250
7059		-62.500000
7060		-66.406250
7061		-60.546875
7062		-64.453125
7063		-62.500000
7064		-64.453125
7065		-60.546875
7066		-64.453125
7067		-60.546875
7068		-62.500000
7069		-60.546875
7070		-62.500000
7071		-60.546875
7072		-62.500000
7073		-60.546875
7074		-62.500000
7075		-58.593750
7076		-62.500000
7077		-58.593750
7078		-60.546875
7079		-58.593750
7080		-60.546875
7081		-56.640625
7082		-58.593750
7083		-56.640625
7084		-58.593750
7085		-56.640625
7086		-58.593750
7087		-54.687500
7088		-56.640625
7089		-54.687500
7090		-56.640625
7091		-52.734375
7092		-56.640625
7093		-52.734375
7094		-54.687500
7095		-52.734375
7096		-54.687500
7097		-52.734375
7098		-52.734375
7099		-50.781250
7100		-52.734375
7101		-48.828125
7102		-52.734375
7103		-48.828125
7104		-50.781250
7105		-48.828125
7106		-50.781250
7107		-46.875000
7108		-48.828125
7109		-46.875000
7110		-48.828125
7111		-46.875000
7112		-48.828125
7113		-44.921875
7114		-48.828125
7115		-44.921875
7116		-46.875000
7117		-44.921875
7118		-46.875000
7119		-41.015625
7120		-44.921875
7121		-41.015625
7122		-44.921875
7123		-41.015625
7124		-44.921875
7125		-39.062500
7126		-42.968750
7127		-39.062500
7128		-41.015625
7129		-39.062500
7130		-41.015625
7131		-37.109375
7132		-39.062500
7133		-37.109375
7134		-37.109375
7135		-35.156250
7136		-37.109375
7137		-33.203125
7138		-37.109375
7139		-33.203125
7140		-35.156250
7141		-31.250000
7142		-33.203125
7143		-31.250000
7144		-33.203125
7145		-29.296875
7146		-33.203125
7147		-29.296875
7148		-31.250000
7149		-29.296875
7150		-29.296875
7151		-27.343750
7152		-29.296875
7153		-27.343750
7154		-27.343750
7155		-25.390625
7156		-27.343750
7157		-23.437500
7158		-25.390625
7159		-23.437500
7160		-25.390625
7161		-21.484375
7162		-23.437500
7163		-19.531250
7164		-23.437500
7165		-19.531250
7166		-21.484375
7167		-17.578125
7168		-21.484375
7169		-17.578125
7170		-19.531250
7171		-15.625000
7172		-17.578125
7173		-15.625000
7174		-17.578125
7175		-13.671875
7176		-15.625000
7177		-11.718750
7178		-15.625000
7179		-11.718750
7180		-13.671875
7181		-9.765625
7182		-13.671875
7183		-9.765625
7184		-11.718750
7185		-7.812500
7186		-9.765625
7187		-7.812500
7188		-9.765625
7189		-5.859375
7190		-7.812500
7191		-5.859375
7192		-7.812500
7193		-3.906250
7194		-5.859375
7195		-3.906250
7196		-5.859375
7197		-1.953125
7198		-5.859375
7199		0.000000
7200		-3.906250
7201		0.000000
7202		-1.953125
7203		1.953125
7204		-1.953125
7205		1.953125
7206		0.000000
7207		3.906250
7208		1.953125
7209		5.859375
7210		1.953125
7211		7.812500
7212		3.906250
7213		7.812500
7214		1.953125
7215		9.765625
7216		5.859375
7217		9.765625
7218		7.812500
7219		9.765625
7220		7.812500
7221		11.718750
7222		9.765625
7223		11.718750
7224		9.765625
7225		13.671875
7226		9.765625
7227		15.625000
7228		11.718750
7229		15.625000
7230		13.671875
7231		19.531250
7232		13.671875
7233		17.578125
7234		13.671875
7235		19.531250
7236		15.625000
7237		19.531250
7238		17.578125
7239		21.484375
7240		17.578125
7241		21.484375
7242		17.578125
7243		25.390625
7244		19.531250
7245		25.390625
7246		21.484375
7247		25.390625
7248		21.484375
7249		27.343750
7250		21.484375
7251		29.296875
7252		25.390625
7253		27.343750
7254		25.390625
7255		29.296875
7256		27.343750
7257		31.250000
7258		27.343750
7259		31.250000
7260		27.343750
7261		33.203125
7262		29.296875
7263		33.203125
7264		29.296875
7265		35.156250
7266		29.296875
7267		35.156250
7268		29.296875
7269		37.109375
7270		33.203125
7271		37.109375
7272		33.203125
7273		37.109375
7274		33.203125
7275		41.015625
7276		35.156250
7277		41.015625
7278		35.156250
7279		41.015625
7280		37.109375
7281		41.015625
7282		37.109375
7283		42.968750
7284		37.109375
7285		44.921875
7286		41.015625
7287		42.968750
7288		39.062500
7289		44.921875
7290		41.015625
7291		44.921875
7292		41.015625
7293		48.828125
7294		42.968750
7295		46.875000
7296		42.968750
7297		46.875000
7298		41.015625
7299		50.781250
7300		44.921875
7301		48.828125
7302		42.968750
7303		50.781250
7304		46.875000
7305		48.828125
7306		46.875000
7307		50.781250
7308		46.875000
7309		54.687500
7310		46.875000
7311		52.734375
7312		48.828125
7313		52.734375
7314		48.828125
7315		54.687500
7316		46.875000
7317		56.640625
7318		46.875000
7319		56.640625
7320		50.781250
7321		56.640625
7322		52.734375
7323		54.687500
7324		52.734375
7325		56.640625
7326		50.781250
7327		60.546875
7328		52.734375
7329		56.640625
7330		54.687500
7331		58.593750
7332		50.781250
7333		60.546875
7334		52.734375
7335		62.500000
7336		54.687500
7337		58.593750
7338		56.640625
7339		58.593750
7340		56.640625
7341		60.546875
7342		54.687500
7343		62.500000
7344		56.640625
7345		62.500000
7346		58.593750
7347		60.546875
7348		56.640625
7349		64.453125
7350		54.687500
7351		64.453125
7352		56.640625
7353		64.453125
7354		60.546875
7355		62.500000
7356		58.593750
7357		62.500000
7358		56.640625
7359		64.453125
7360		56.640625
7361		66.406250
7362		60.546875
7363		64.453125
7364		60.546875
7365		62.500000
7366		58.593750
7367		66.406250
7368		58.593750
7369		66.406250
7370		60.546875
7371		64.453125
7372		60.546875
7373		64.453125
7374		60.546875
7375		64.453125
7376		60.546875
7377		66.406250
7378		58.593750
7379		66.406250
7380		60.546875
7381		64.453125
7382		56.640625
7383		68.359375
7384		60.546875
7385		68.359375
7386		58.593750
7387		66.406250
7388		62.500000
7389		64.453125
7390		62.500000
7391		66.406250
7392		60.546875
7393		68.359375
7394		60.546875
7395		66.406250
7396		62.500000
7397		64.453125
7398		60.546875
7399		66.406250
7400		58.593750
7401		68.359375
7402		58.593750
7403		66.406250
7404		62.500000
7405		64.453125
7406		60.546875
7407		64.453125
7408		58.593750
7409		64.453125
7410		58.593750
7411		66.406250
7412		60.546875
7413		64.453125
7414		60.546875
7415		62.500000
7416		56.640625
7417		66.406250
7418		56.640625
7419		64.453125
7420		60.546875
7421		62.500000
7422		58.593750
7423		62.500000
7424		58.593750
7425		62.500000
7426		56.640625
7427		64.453125
7428		58.593750
7429		62.500000
7430		58.593750
7431		60.546875
7432		54.687500
7433		62.500000
7434		54.687500
7435		62.500000
7436		56.640625
7437		62.500000
7438		56.640625
7439		58.593750
7440		56.640625
7441		58.593750
7442		54.687500
7443		60.546875
7444		52.734375
7445		60.546875
7446		54.687500
7447		58.593750
7448		52.734375
7449		56.640625
7450		50.781250
7451		60.546875
7452		50.781250
7453		56.640625
7454		52.734375
7455		56.640625
7456		52.734375
7457		54.687500
7458		50.781250
7459		54.687500
7460		48.828125
7461		56.640625
7462		48.828125
7463		54.687500
7464		48.828125
7465		52.734375
7466		46.875000
7467		54.687500
7468		46.875000
7469		54.687500
7470		44.921875
7471		52.734375
7472		46.875000
7473		48.828125
7474		46.875000
7475		48.828125
7476		42.968750
7477		50.781250
7478		42.968750
7479		48.828125
7480		42.968750
7481		46.875000
7482		41.015625
7483		46.875000
7484		42.968750
7485		44.921875
7486		39.062500
7487		46.875000
7488		41.015625
7489		44.921875
7490		39.062500
7491		42.968750
7492		39.062500
7493		41.015625
7494		37.109375
7495		42.968750
7496		37.109375
7497		42.968750
7498		35.156250
7499		39.062500
7500		33.203125
7501		41.015625
7502		35.156250
7503		37.109375
7504		33.203125
7505		39.062500
7506		33.203125
7507		35.156250
7508		31.250000
7509		35.156250
7510		31.250000
7511		33.203125
7512		27.343750
7513		33.203125
7514		29.296875
7515		33.203125
7516		25.390625
7517		31.250000
7518		27.343750
7519		29.296875
7520		25.390625
7521		29.296875
7522		25.390625
7523		29.296875
7524		23.437500
7525		27.343750
7526		21.484375
7527		27.343750
7528		21.484375
7529		25.390625
7530		21.484375
7531		23.437500
7532		19.531250
7533		23.437500
7534		19.531250
7535		21.484375
7536		15.625000
7537		21.484375
7538		15.625000
7539		21.484375
7540		15.625000
7541		17.578125
7542		11.718750
7543		17.578125
7544		13.671875
7545		15.625000
7546		11.718750
7547		15.625000
7548		9.765625
7549		15.625000
7550		9.765625
7551		13.671875
7552		9.765625
7553		11.718750
7554		7.812500
7555		11.718750
7556		5.859375
7557		9.765625
7558		5.859375
7559		9.765625
7560		3.906250
7561		7.812500
7562		1.953125
7563		7.812500
7564		0.000000
7565		5.859375
7566		0.000000
7567		5.859375
7568		-1.953125
7569		3.906250
7570		-1.953125
7571		3.906250
7572		-1.953125
7573		0.000000
7574		-3.906250
7575		0.000000
7576		-5.859375
7577		0.000000
7578		-7.812500
7579		-1.953125
7580		-7.812500
7581		-1.953125
7582		-9.765625
7583		-3.906250
7584		-9.765625
7585		-5.859375
7586		-11.718750
7587		-5.859375
7588		-11.718750
7589		-7.812500
7590		-13.671875
7591		-9.765625
7592		-15.625000
7593		-9.765625
7594		-15.625000
7595		-9.765625
7596		-17.578125
7597		-11.718750
7598		-19.531250
7599		-13.671875
7600		-19.531250
7601		-13.671875
7602		-21.484375
7603		-15.625000
7604		-21.484375
7605		-15.625000
7606		-23.437500
7607		-19.531250
7608		-23.437500
7609		-19.531250
7610		-25.390625
7611		-19.531250
7612		-27.343750
7613		-21.484375
7614		-27.343750
7615		-21.484375
7616		-29.296875
7617		-21.484375
7618		-29.296875
7619		-23.437500
7620		-31.250000
7621		-25.390625
7622		-31.250000
7623		-27.343750
7624		-31.250000
7625		-27.343750
7626		-33.203125
7627		-29.296875
7628		-33.203125
7629		-29.296875
7630		-35.156250
7631		-31.250000
7632		-37.109375
7633		-31.250000
7634		-37.109375
7635		-31.250000
7636		-37.109375
7637		-33.203125
7638		-39.062500
7639		-35.156250
7640		-39.062500
7641		-35.156250
7642		-41.015625
7643		-37.109375
7644		-42.968750
7645		-37.109375
7646		-42.968750
7647		-39.062500
7648		-44.921875
7649		-39.062500
7650		-44.921875
7651		-41.015625
7652		-44.921875
7653		-41.015625
7654		-46.875000
7655		-42.968750
7656		-46.875000
7657		-42.968750
7658		-46.875000
7659		-44.921875
7660		-48.828125
7661		-44.921875
7662		-50.781250
7663		-46.875000
7664		-50.781250
7665		-46.875000
7666		-52.734375
7667		-46.875000
7668		-52.734375
7669		-48.828125
7670		-54.687500
7671		-48.828125
7672		-54.687500
7673		-50.781250
7674		-54.687500
7675		-52.734375
7676		-56.640625
7677		-50.781250
7678		-56.640625
7679		-52.734375
7680		-56.640625
7681		-52.734375
7682		-58.593750
7683		-52.734375
7684		-58.593750
7685		-54.687500
7686		-58.593750
7687		-54.687500
7688		-60.546875
7689		-54.687500
7690		-60.546875
7691		-56.640625
7692		-60.546875
7693		-56.640625
7694		-62.500000
7695		-56.640625
7696		-62.500000
7697		-58.593750
7698		-62.500000
7699		-58.593750
7700		-64.453125
7701		-56.640625
7702		-62.500000
7703		-60.546875
7704		-64.453125
7705		-60.546875
7706		-64.453125
7707		-60.546875
7708		-64.453125
7709		-62.500000
7710		-66.406250
7711		-60.546875
7712		-66.406250
7713		-62.500000
7714		-66.406250
7715		-62.500000
7716		-70.312500
7717		-60.546875
7718		-66.406250
7719		-62.500000
7720		-68.359375
7721		-64.453125
7722		-68.359375
7723		-64.453125
7724		-68.359375
7725		-64.453125
7726		-68.359375
7727		-64.453125
7728		-68.359375
7729		-64.453125
7730		-68.359375
7731		-64.453125
7732		-70.312500
7733		-64.453125
7734		-70.312500
7735		-66.406250
7736		-70.312500
7737		-66.406250
7738		-70.312500
7739		-66.406250
7740		-70.312500
7741		-66.406250
7742		-70.312500
7743		-66.406250
7744		-70.312500
7745		-66.406250
7746		-70.312500
7747		-66.406250
7748		-70.312500
7749		-66.406250
7750		-70.312500
7751		-66.406250
7752		-70.312500
7753		-66.406250
7754		-70.312500
7755		-66.406250
7756		-70.312500
7757		-66.406250
7758		-70.312500
7759		-68.359375
7760		-70.312500
7761		-66.406250
7762		-70.312500
7763		-66.406250
7764		-70.312500
7765		-66.406250
7766		-70.312500
7767		-66.406250
7768		-70.312500
7769		-66.406250
7770		-70.312500
7771		-66.406250
7772		-70.312500
7773		-66.406250
7774		-68.359375
7775		-66.406250
7776		-70.312500
7777		-66.406250
7778		-70.312500
7779		-66.406250
7780		-68.359375
7781		-66.406250
7782		-68.359375
7783		-64.453125
7784		-68.359375
7785		-64.453125
7786		-68.359375
7787		-64.453125
7788		-68.359375
7789		-64.453125
7790		-66.406250
7791		-64.453125
7792		-66.406250
7793		-62.500000
7794		-66.406250
7795		-62.500000
7796		-66.406250
7797		-62.500000
7798		-66.406250
7799		-62.500000
7800		-66.406250
7801		-60.546875
7802		-64.453125
7803		-60.546875
7804		-64.453125
7805		-60.546875
7806		-64.453125
7807		-60.546875
7808		-62.500000
7809		-60.546875
7810		-62.500000
7811		-58.593750
7812		-62.500000
7813		-58.593750
7814		-60.546875
7815		-56.640625
7816		-60.546875
7817		-56.640625
7818		-60.546875
7819		-56.640625
7820		-60.546875
7821		-54.687500
7822		-58.593750
7823		-54.687500
7824		-58.593750
7825		-54.687500
7826		-58.593750
7827		-54.687500
7828		-56.640625
7829		-52.734375
7830		-56.640625
7831		-52.734375
7832		-54.687500
7833		-52.734375
7834		-54.687500
7835		-50.781250
7836		-54.687500
7837		-48.828125
7838		-52.734375
7839		-48.828125
7840		-52.734375
7841		-48.828125
7842		-50.781250
7843		-48.828125
7844		-50.781250
7845		-46.875000
7846		-48.828125
7847		-46.875000
7848		-48.828125
7849		-44.921875
7850		-48.828125
7851		-44.921875
7852		-46.875000
7853		-42.968750
7854		-46.875000
7855		-42.968750
7856		-44.921875
7857		-41.015625
7858		-44.921875
7859		-41.015625
7860		-42.968750
7861		-39.062500
7862		-42.968750
7863		-39.062500
7864		-41.015625
7865		-37.109375
7866		-41.015625
7867		-37.109375
7868		-39.062500
7869		-37.109375
7870		-39.062500
7871		-35.156250
7872		-37.109375
7873		-33.203125
7874		-37.109375
7875		-33.203125
7876		-35.156250
7877		-31.250000
7878		-35.156250
7879		-31.250000
7880		-33.203125
7881		-29.296875
7882		-33.203125
7883		-29.296875
7884		-31.250000
7885		-27.343750
7886		-29.296875
7887		-27.343750
7888		-29.296875
7889		-25.390625
7890		-29.296875
7891		-25.390625
7892		-27.343750
7893		-23.437500
7894		-25.390625
7895		-21.484375
7896		-23.437500
7897		-21.484375
7898		-23.437500
7899		-19.531250
7900		-23.437500
7901		-17.578125
7902		-21.484375
7903		-17.578125
7904		-19.531250
7905		-15.625000
7906		-19.531250
7907		-15.625000
7908		-17.578125
7909		-15.625000
7910		-17.578125
7911		-13.671875
7912		-17.578125
7913		-11.718750
7914		-13.671875
7915		-11.718750
7916		-13.671875
7917		-9.765625
7918		-11.718750
7919		-9.765625
7920		-11.718750
7921		-7.812500
7922		-9.765625
7923		-5.859375
7924		-9.765625
7925		-5.859375
7926		-7.812500
7927		-3.906250
7928		-7.812500
7929		-1.953125
7930		-5.859375
7931		-1.953125
7932		-5.859375
7933		-1.953125
7934		-3.906250
7935		0.000000
7936		-1.953125
7937		1.953125
7938		-1.953125
7939		1.953125
7940		0.000000
7941		3.906250
7942		0.000000
7943		3.906250
7944		1.953125
7945		5.859375
7946		3.906250
7947		5.859375
7948		3.906250
7949		7.812500
7950		5.859375
7951		7.812500
7952		5.859375
7953		9.765625
7954		7.812500
7955		11.718750
7956		7.812500
7957		11.718750
7958		7.812500
7959		13.671875
7960		11.718750
7961		13.671875
7962		11.718750
7963		15.625000
7964		11.718750
7965		17.578125
7966		13.671875
7967		17.578125
7968		15.625000
7969		19.531250
7970		15.625000
7971		19.531250
7972		17.578125
7973		19.531250
7974		17.578125
7975		21.484375
7976		19.531250
7977		23.437500
7978		19.531250
7979		23.437500
7980		21.484375
7981		25.390625
7982		21.484375
7983		27.343750
7984		23.437500
7985		27.343750
7986		25.390625
7987		27.343750
7988		25.390625
7989		29.296875
7990		27.343750
7991		31.250000
7992		27.343750
7993		31.250000
7994		27.343750
7995		31.250000
7996		29.296875
7997		33.203125
7998		29.296875
7999		35.156250
8000		31.250000
8001		35.156250
8002		31.250000
8003		35.156250
8004		33.203125
8005		37.109375
8006		33.203125
8007		37.109375
8008		35.156250
8009		37.109375
8010		35.156250
8011		39.062500
8012		35.156250
8013		41.015625
8014		37.109375
8015		41.015625
8016		39.062500
8017		41.015625
8018		39.062500
8019		41.015625
8020		39.062500
8021		42.968750
8022		41.015625
8023		42.968750
8024		41.015625
8025		44.921875
8026		42.968750
8027		44.921875
8028		42.968750
8029		46.875000
8030		42.968750
8031		46.875000
8032		42.968750
8033		46.875000
8034		44.921875
8035		48.828125
8036		44.921875
8037		48.828125
8038		46.875000
8039		50.781250
8040		46.875000
8041		50.781250
8042		46.875000
8043		50.781250
8044		48.828125
8045		50.781250
8046		48.828125
8047		52.734375
8048		48.828125
8049		52.734375
8050		50.781250
8051		52.734375
8052		50.781250
8053		54.687500
8054		50.781250
8055		54.687500
8056		52.734375
8057		54.687500
8058		52.734375
8059		56.640625
8060		52.734375
8061		56.640625
8062		52.734375
8063		58.593750
8064		54.687500
8065		56.640625
8066		54.687500
8067		58.593750
8068		54.687500
8069		58.593750
8070		54.687500
8071		58.593750
8072		54.687500
8073		58.593750
8074		54.687500
8075		60.546875
8076		56.640625
8077		58.593750
8078		56.640625
8079		60.546875
8080		56.640625
8081		60.546875
8082		56.640625
8083		60.546875
8084		56.640625
8085		60.546875
8086		58.593750
8087		60.546875
8088		58.593750
8089		62.500000
8090		58.593750
8091		62.500000
8092		58.593750
8093		62.500000
8094		58.593750
8095		62.500000
8096		60.546875
8097		64.453125
8098		60.546875
8099		62.500000
8100		60.546875
8101		62.500000
8102		60.546875
8103		62.500000
8104		60.546875
8105		64.453125
8106		60.546875
8107		64.453125
8108		60.546875
8109		64.453125
8110		60.546875
8111		64.453125
8112		60.546875
8113		62.500000
8114		60.546875
8115		64.453125
8116		60.546875
8117		64.453125
8118		60.546875
8119		64.453125
8120		60.546875
8121		64.453125
8122		60.546875
8123		64.453125
8124		60.546875
8125		64.453125
8126		60.546875
8127		64.453125
8128		60.546875
8129		64.453125
8130		60.546875
8131		64.453125
8132		60.546875
8133		64.453125
8134		60.546875
8135		64.453125
8136		60.546875
8137		64.453125
8138		60.546875
8139		62.500000
8140		60.546875
8141		64.453125
8142		58.593750
8143		62.500000
8144		60.546875
8145		62.500000
8146		60.546875
8147		62.500000
8148		58.593750
8149		62.500000
8150		58.593750
8151		62.500000
8152		58.593750
8153		62.500000
8154		58.593750
8155		62.500000
8156		58.593750
8157		60.546875
8158		56.640625
8159		62.500000
8160		58.593750
8161		60.546875
8162		56.640625
8163		60.546875
8164		56.640625
8165		60.546875
8166		56.640625
8167		58.593750
8168		56.640625
8169		60.546875
8170		54.687500
8171		58.593750
8172		54.687500
8173		58.593750
8174		54.687500
8175		58.593750
8176		54.687500
8177		58.593750
8178		54.687500
8179		56.640625
8180		52.734375
8181		56.640625
8182		52.734375
8183		56.640625
8184		52.734375
8185		54.687500
8186		50.781250
8187		54.687500
8188		50.781250
8189		54.687500
8190		50.781250
8191		54.687500
8192		48.828125
8193		54.687500
8194		48.828125
8195		52.734375
8196		48.828125
8197		50.781250
8198		46.875000
8199		50.781250
8200		46.875000
8201		50.781250
8202		46.875000
8203		48.828125
8204		44.921875
8205		48.828125
8206		44.921875
8207		48.828125
8208		44.921875
8209		48.828125
8210		42.968750
8211		46.875000
8212		42.968750
8213		44.921875
8214		41.015625
8215		44.921875
8216		41.015625
8217		44.921875
8218		41.015625
8219		44.921875
8220		39.062500
8221		42.968750
8222		39.062500
8223		42.968750
8224		39.062500
8225		41.015625
8226		37.109375
8227		41.015625
8228		37.109375
8229		39.062500
8230		35.156250
8231		39.062500
8232		35.156250
8233		39.062500
8234		33.203125
8235		37.109375
8236		33.203125
8237		37.109375
8238		31.250000
8239		37.109375
8240		31.250000
8241		35.156250
8242		29.296875
8243		35.156250
8244		29.296875
8245		33.203125
8246		27.343750
8247		31.250000
8248		27.343750
8249		31.250000
8250		27.343750
8251		29.296875
8252		23.437500
8253		29.296875
8254		23.437500
8255		27.343750
8256		23.437500
8257		27.343750
8258		21.484375
8259		25.390625
8260		21.484375
8261		25.390625
8262		21.484375
8263		23.437500
8264		17.578125
8265		23.437500
8266		17.578125
8267		21.484375
8268		17.578125
8269		19.531250
8270		15.625000
8271		19.531250
8272		15.625000
8273		17.578125
8274		13.671875
8275		17.578125
8276		13.671875
8277		17.578125
8278		11.718750
8279		13.671875
8280		9.765625
8281		13.671875
8282		9.765625
8283		13.671875
8284		7.812500
8285		11.718750
8286		7.812500
8287		11.718750
8288		5.859375
8289		9.765625
8290		3.906250
8291		7.812500
8292		3.906250
8293		7.812500
8294		1.953125
8295		5.859375
8296		1.953125
8297		5.859375
8298		0.000000
8299		3.906250
8300		0.000000
8301		1.953125
8302		-1.953125
8303		1.953125
8304		-1.953125
8305		0.000000
8306		-3.906250
8307		0.000000
8308		-5.859375
8309		-1.953125
8310		-5.859375
8311		-1.953125
8312		-7.812500
8313		-3.906250
8314		-7.812500
8315		-5.859375
8316		-9.765625
8317		-5.859375
8318		-9.765625
8319		-5.859375
8320		-11.718750
8321		-7.812500
8322		-13.671875
8323		-9.765625
8324		-13.671875
8325		-9.765625
8326		-15.625000
8327		-11.718750
8328		-17.578125
8329		-11.718750
8330		-17.578125
8331		-13.671875
8332		-19.531250
8333		-15.625000
8334		-21.484375
8335		-15.625000
8336		-21.484375
8337		-17.578125
8338		-21.484375
8339		-17.578125
8340		-23.437500
8341		-19.531250
8342		-23.437500
8343		-21.484375
8344		-25.390625
8345		-21.484375
8346		-27.343750
8347		-21.484375
8348		-29.296875
8349		-25.390625
8350		-29.296875
8351		-25.390625
8352		-29.296875
8353		-25.390625
8354		-31.250000
8355		-27.343750
8356		-31.250000
8357		-27.343750
8358		-33.203125
8359		-29.296875
8360		-35.156250
8361		-29.296875
8362		-35.156250
8363		-31.250000
8364		-35.156250
8365		-33.203125
8366		-39.062500
8367		-33.203125
8368		-37.109375
8369		-35.156250
8370		-39.062500
8371		-35.156250
8372		-41.015625
8373		-35.156250
8374		-41.015625
8375		-37.109375
8376		-41.015625
8377		-39.062500
8378		-42.968750
8379		-39.062500
8380		-42.968750
8381		-41.015625
8382		-44.921875
8383		-41.015625
8384		-44.921875
8385		-42.968750
8386		-46.875000
8387		-42.968750
8388		-46.875000
8389		-42.968750
8390		-48.828125
8391		-44.921875
8392		-50.781250
8393		-44.921875
8394		-50.781250
8395		-46.875000
8396		-50.781250
8397		-48.828125
8398		-52.734375
8399		-48.828125
8400		-52.734375
8401		-48.828125
8402		-52.734375
8403		-50.781250
8404		-54.687500
8405		-50.781250
8406		-54.687500
8407		-50.781250
8408		-54.687500
8409		-52.734375
8410		-56.640625
8411		-52.734375
8412		-56.640625
8413		-52.734375
8414		-58.593750
8415		-54.687500
8416		-58.593750
8417		-54.687500
8418		-58.593750
8419		-56.640625
8420		-60.546875
8421		-56.640625
8422		-60.546875
8423		-56.640625
8424		-60.546875
8425		-58.593750
8426		-62.500000
8427		-58.593750
8428		-62.500000
8429		-58.593750
8430		-62.500000
8431		-60.546875
8432		-64.453125
8433		-60.546875
8434		-64.453125
8435		-60.546875
8436		-64.453125
8437		-60.546875
8438		-64.453125
8439		-62.500000
8440		-66.406250
8441		-62.500000
8442		-66.406250
8443		-62.500000
8444		-66.406250
8445		-62.500000
8446		-66.406250
8447		-62.500000
8448		-66.406250
8449		-64.453125
8450		-68.359375
8451		-62.500000
8452		-68.359375
8453		-64.453125
8454		-70.312500
8455		-64.453125
8456		-68.359375
8457		-66.406250
8458		-70.312500
8459		-64.453125
8460		-70.312500
8461		-66.406250
8462		-70.312500
8463		-66.406250
8464		-70.312500
8465		-66.406250
8466		-72.265625
8467		-68.359375
8468		-70.312500
8469		-68.359375
8470		-72.265625
8471		-66.406250
8472		-70.312500
8473		-68.359375
8474		-72.265625
8475		-68.359375
8476		-72.265625
8477		-66.406250
8478		-72.265625
8479		-68.359375
8480		-70.312500
8481		-68.359375
8482		-72.265625
8483		-68.359375
8484		-72.265625
8485		-68.359375
8486		-72.265625
8487		-68.359375
8488		-70.312500
8489		-68.359375
8490		-72.265625
8491		-68.359375
8492		-72.265625
8493		-66.406250
8494		-72.265625
8495		-68.359375
8496		-72.265625
8497		-68.359375
8498		-70.312500
8499		-68.359375
8500		-72.265625
8501		-68.359375
8502		-72.265625
8503		-68.359375
8504		-70.312500
8505		-68.359375
8506		-70.312500
8507		-66.406250
8508		-70.312500
8509		-68.359375
8510		-70.312500
8511		-66.406250
8512		-70.312500
8513		-66.406250
8514		-70.312500
8515		-66.406250
8516		-70.312500
8517		-66.406250
8518		-68.359375
8519		-64.453125
8520		-68.359375
8521		-64.453125
8522		-68.359375
8523		-64.453125
8524		-68.359375
8525		-64.453125
8526		-68.359375
8527		-64.453125
8528		-68.359375
8529		-62.500000
8530		-66.406250
8531		-62.500000
8532		-66.406250
8533		-64.453125
8534		-66.406250
8535		-62.500000
8536		-66.406250
8537		-60.546875
8538		-64.453125
8539		-62.500000
8540		-64.453125
8541		-60.546875
8542		-64.453125
8543		-60.546875
8544		-62.500000
8545		-60.546875
8546		-62.500000
8547		-58.593750
8548		-62.500000
8549		-58.593750
8550		-62.500000
8551		-56.640625
8552		-60.546875
8553		-56.640625
8554		-60.546875
8555		-56.640625
8556		-60.546875
8557		-56.640625
8558		-58.593750
8559		-54.687500
8560		-58.593750
8561		-54.687500
8562		-58.593750
8563		-54.687500
8564		-56.640625
8565		-52.734375
8566		-56.640625
8567		-52.734375
8568		-56.640625
8569		-50.781250
8570		-54.687500
8571		-50.781250
8572		-54.687500
8573		-48.828125
8574		-52.734375
8575		-48.828125
8576		-52.734375
8577		-48.828125
8578		-50.781250
8579		-46.875000
8580		-50.781250
8581		-46.875000
8582		-48.828125
8583		-46.875000
8584		-48.828125
8585		-44.921875
8586		-48.828125
8587		-44.921875
8588		-46.875000
8589		-42.968750
8590		-46.875000
8591		-42.968750
8592		-44.921875
8593		-42.968750
8594		-44.921875
8595		-41.015625
8596		-44.921875
8597		-39.062500
8598		-42.968750
8599		-39.062500
8600		-41.015625
8601		-37.109375
8602		-41.015625
8603		-37.109375
8604		-39.062500
8605		-37.109375
8606		-39.062500
8607		-35.156250
8608		-37.109375
8609		-33.203125
8610		-37.109375
8611		-33.203125
8612		-35.156250
8613		-31.250000
8614		-33.203125
8615		-31.250000
8616		-33.203125
8617		-29.296875
8618		-33.203125
8619		-29.296875
8620		-31.250000
8621		-27.343750
8622		-31.250000
8623		-25.390625
8624		-29.296875
8625		-25.390625
8626		-27.343750
8627		-25.390625
8628		-27.343750
8629		-23.437500
8630		-27.343750
8631		-23.437500
8632		-25.390625
8633		-21.484375
8634		-23.437500
8635		-19.531250
8636		-23.437500
8637		-19.531250
8638		-21.484375
8639		-17.578125
8640		-19.531250
8641		-15.625000
8642		-19.531250
8643		-15.625000
8644		-17.578125
8645		-13.671875
8646		-17.578125
8647		-13.671875
8648		-15.625000
8649		-11.718750
8650		-15.625000
8651		-11.718750
8652		-13.671875
8653		-9.765625
8654		-13.671875
8655		-7.812500
8656		-11.718750
8657		-7.812500
8658		-9.765625
8659		-5.859375
8660		-9.765625
8661		-5.859375
8662		-7.812500
8663		-3.906250
8664		-7.812500
8665		-3.906250
8666		-7.812500
8667		-1.953125
8668		-3.906250
8669		-1.953125
8670		-3.906250
8671		0.000000
8672		-3.906250
8673		1.953125
8674		-1.953125
8675		1.953125
8676		0.000000
8677		3.906250
8678		0.000000
8679		3.906250
8680		1.953125
8681		5.859375
8682		3.906250
8683		5.859375
8684		3.906250
8685		7.812500
8686		3.906250
8687		9.765625
8688		5.859375
8689		9.765625
8690		7.812500
8691		11.718750
8692		9.765625
8693		13.671875
8694		9.765625
8695		13.671875
8696		9.765625
8697		15.625000
8698		11.718750
8699		15.625000
8700		13.671875
8701		15.625000
8702		13.671875
8703		17.578125
8704		13.671875
8705		19.531250
8706		15.625000
8707		19.531250
8708		17.578125
8709		21.484375
8710		17.578125
8711		21.484375
8712		19.531250
8713		23.437500
8714		19.531250
8715		23.437500
8716		21.484375
8717		25.390625
8718		21.484375
8719		27.343750
8720		23.437500
8721		27.343750
8722		23.437500
8723		27.343750
8724		25.390625
8725		29.296875
8726		25.390625
8727		29.296875
8728		27.343750
8729		31.250000
8730		27.343750
8731		31.250000
8732		29.296875
8733		33.203125
8734		31.250000
8735		33.203125
8736		31.250000
8737		35.156250
8738		31.250000
8739		35.156250
8740		33.203125
8741		37.109375
8742		33.203125
8743		37.109375
8744		35.156250
8745		39.062500
8746		35.156250
8747		39.062500
8748		35.156250
8749		39.062500
8750		37.109375
8751		41.015625
8752		37.109375
8753		41.015625
8754		39.062500
8755		42.968750
8756		39.062500
8757		42.968750
8758		41.015625
8759		42.968750
8760		41.015625
8761		44.921875
8762		42.968750
8763		46.875000
8764		42.968750
8765		44.921875
8766		42.968750
8767		46.875000
8768		44.921875
8769		46.875000
8770		44.921875
8771		48.828125
8772		46.875000
8773		48.828125
8774		46.875000
8775		50.781250
8776		46.875000
8777		50.781250
8778		46.875000
8779		50.781250
8780		48.828125
8781		52.734375
8782		48.828125
8783		52.734375
8784		48.828125
8785		52.734375
8786		50.781250
8787		52.734375
8788		50.781250
8789		54.687500
8790		50.781250
8791		54.687500
8792		50.781250
8793		54.687500
8794		52.734375
8795		56.640625
8796		52.734375
8797		56.640625
8798		52.734375
8799		56.640625
8800		54.687500
8801		56.640625
8802		52.734375
8803		58.593750
8804		54.687500
8805		58.593750
8806		54.687500
8807		58.593750
8808		54.687500
8809		58.593750
8810		56.640625
8811		58.593750
8812		56.640625
8813		58.593750
8814		56.640625
8815		60.546875
8816		56.640625
8817		60.546875
8818		58.593750
8819		60.546875
8820		56.640625
8821		60.546875
8822		58.593750
8823		62.500000
8824		58.593750
8825		62.500000
8826		58.593750
8827		60.546875
8828		58.593750
8829		62.500000
8830		58.593750
8831		62.500000
8832		58.593750
8833		62.500000
8834		58.593750
8835		62.500000
8836		58.593750
8837		64.453125
8838		58.593750
8839		62.500000
8840		60.546875
8841		62.500000
8842		60.546875
8843		62.500000
8844		58.593750
8845		62.500000
8846		60.546875
8847		62.500000
8848		60.546875
8849		64.453125
8850		60.546875
8851		62.500000
8852		60.546875
8853		64.453125
8854		60.546875
8855		64.453125
8856		60.546875
8857		64.453125
8858		58.593750
8859		64.453125
8860		60.546875
8861		64.453125
8862		60.546875
8863		62.500000
8864		60.546875
8865		64.453125
8866		60.546875
8867		64.453125
8868		60.546875
8869		62.500000
8870		60.546875
8871		64.453125
8872		58.593750
8873		62.500000
8874		60.546875
8875		62.500000
8876		58.593750
8877		62.500000
8878		58.593750
8879		62.500000
8880		58.593750
8881		62.500000
8882		58.593750
8883		62.500000
8884		58.593750
8885		62.500000
8886		56.640625
8887		62.500000
8888		58.593750
8889		60.546875
8890		56.640625
8891		60.546875
8892		56.640625
8893		60.546875
8894		56.640625
8895		60.546875
8896		56.640625
8897		60.546875
8898		56.640625
8899		60.546875
8900		54.687500
8901		60.546875
8902		54.687500
8903		58.593750
8904		50.781250
8905		58.593750
8906		54.687500
8907		58.593750
8908		52.734375
8909		58.593750
8910		52.734375
8911		56.640625
8912		52.734375
8913		56.640625
8914		52.734375
8915		56.640625
8916		52.734375
8917		54.687500
8918		50.781250
8919		54.687500
8920		50.781250
8921		54.687500
8922		50.781250
8923		54.687500
8924		48.828125
8925		52.734375
8926		48.828125
8927		52.734375
8928		48.828125
8929		52.734375
8930		46.875000
8931		50.781250
8932		46.875000
8933		50.781250
8934		46.875000
8935		48.828125
8936		46.875000
8937		48.828125
8938		44.921875
8939		48.828125
8940		44.921875
8941		48.828125
8942		42.968750
8943		46.875000
8944		42.968750
8945		46.875000
8946		42.968750
8947		44.921875
8948		41.015625
8949		44.921875
8950		41.015625
8951		44.921875
8952		39.062500
8953		42.968750
8954		37.109375
8955		42.968750
8956		37.109375
8957		42.968750
8958		37.109375
8959		41.015625
8960		35.156250
8961		39.062500
8962		35.156250
8963		39.062500
8964		33.203125
8965		39.062500
8966		33.203125
8967		37.109375
8968		33.203125
8969		35.156250
8970		31.250000
8971		35.156250
8972		31.250000
8973		35.156250
8974		29.296875
8975		33.203125
8976		29.296875
8977		31.250000
8978		27.343750
8979		31.250000
8980		27.343750
8981		31.250000
8982		25.390625
8983		29.296875
8984		25.390625
8985		27.343750
8986		23.437500
8987		27.343750
8988		21.484375
8989		27.343750
8990		21.484375
8991		25.390625
8992		21.484375
8993		25.390625
8994		19.531250
8995		23.437500
8996		17.578125
8997		23.437500
8998		17.578125
8999		21.484375
9000		17.578125
9001		19.531250
9002		15.625000
9003		19.531250
9004		13.671875
9005		17.578125
9006		13.671875
9007		17.578125
9008		11.718750
9009		15.625000
9010		11.718750
9011		15.625000
9012		9.765625
9013		13.671875
9014		9.765625
9015		13.671875
9016		7.812500
9017		11.718750
9018		7.812500
9019		9.765625
9020		5.859375
9021		9.765625
9022		3.906250
9023		7.812500
9024		3.906250
9025		7.812500
9026		1.953125
9027		5.859375
9028		0.000000
9029		5.859375
9030		0.000000
9031		3.906250
9032		-1.953125
9033		1.953125
9034		-1.953125
9035		1.953125
9036		-3.906250
9037		0.000000
9038		-3.906250
9039		0.000000
9040		-5.859375
9041		-1.953125
9042		-7.812500
9043		-3.906250
9044		-7.812500
9045		-3.906250
9046		-9.765625
9047		-5.859375
9048		-9.765625
9049		-5.859375
9050		-11.718750
9051		-7.812500
9052		-11.718750
9053		-9.765625
9054		-13.671875
9055		-9.765625
9056		-15.625000
9057		-9.765625
9058		-15.625000
9059		-11.718750
9060		-17.578125
9061		-11.718750
9062		-17.578125
9063		-13.671875
9064		-19.531250
9065		-15.625000
9066		-21.484375
9067		-15.625000
9068		-21.484375
9069		-17.578125
9070		-21.484375
9071		-19.531250
9072		-25.390625
9073		-19.531250
9074		-23.437500
9075		-21.484375
9076		-25.390625
9077		-21.484375
9078		-27.343750
9079		-23.437500
9080		-27.343750
9081		-25.390625
9082		-29.296875
9083		-25.390625
9084		-31.250000
9085		-27.343750
9086		-31.250000
9087		-27.343750
9088		-33.203125
9089		-29.296875
9090		-33.203125
9091		-29.296875
9092		-35.156250
9093		-31.250000
9094		-35.156250
9095		-31.250000
9096		-37.109375
9097		-33.203125
9098		-37.109375
9099		-33.203125
9100		-37.109375
9101		-35.156250
9102		-39.062500
9103		-35.156250
9104		-41.015625
9105		-37.109375
9106		-41.015625
9107		-37.109375
9108		-42.968750
9109		-39.062500
9110		-42.968750
9111		-39.062500
9112		-44.921875
9113		-41.015625
9114		-44.921875
9115		-41.015625
9116		-46.875000
9117		-42.968750
9118		-46.875000
9119		-42.968750
9120		-46.875000
9121		-44.921875
9122		-48.828125
9123		-44.921875
9124		-48.828125
9125		-44.921875
9126		-50.781250
9127		-46.875000
9128		-50.781250
9129		-46.875000
9130		-52.734375
9131		-48.828125
9132		-52.734375
9133		-48.828125
9134		-54.687500
9135		-48.828125
9136		-54.687500
9137		-50.781250
9138		-54.687500
9139		-52.734375
9140		-56.640625
9141		-52.734375
9142		-56.640625
9143		-52.734375
9144		-56.640625
9145		-54.687500
9146		-58.593750
9147		-54.687500
9148		-58.593750
9149		-56.640625
9150		-60.546875
9151		-56.640625
9152		-60.546875
9153		-56.640625
9154		-60.546875
9155		-58.593750
9156		-62.500000
9157		-58.593750
9158		-62.500000
9159		-58.593750
9160		-62.500000
9161		-58.593750
9162		-62.500000
9163		-60.546875
9164		-64.453125
9165		-58.593750
9166		-64.453125
9167		-60.546875
9168		-64.453125
9169		-62.500000
9170		-64.453125
9171		-60.546875
9172		-66.406250
9173		-62.500000
9174		-66.406250
9175		-62.500000
9176		-66.406250
9177		-64.453125
9178		-66.406250
9179		-64.453125
9180		-68.359375
9181		-64.453125
9182		-68.359375
9183		-64.453125
9184		-68.359375
9185		-64.453125
9186		-70.312500
9187		-64.453125
9188		-68.359375
9189		-66.406250
9190		-70.312500
9191		-66.406250
9192		-70.312500
9193		-66.406250
9194		-70.312500
9195		-66.406250
9196		-70.312500
9197		-66.406250
9198		-70.312500
9199		-66.406250
9200		-70.312500
9201		-68.359375
9202		-70.312500
9203		-66.406250
9204		-72.265625
9205		-68.359375
9206		-72.265625
9207		-68.359375
9208		-72.265625
9209		-68.359375
9210		-72.265625
9211		-68.359375
9212		-70.312500
9213		-68.359375
9214		-72.265625
9215		-68.359375
9216		-72.265625
9217		-68.359375
9218		-72.265625
9219		-68.359375
9220		-70.312500
9221		-68.359375
9222		-72.265625
9223		-68.359375
9224		-70.312500
9225		-68.359375
9226		-70.312500
9227		-68.359375
9228		-72.265625
9229		-68.359375
9230		-72.265625
9231		-68.359375
9232		-70.312500
9233		-68.359375
9234		-72.265625
9235		-66.406250
9236		-70.312500
9237		-68.359375
9238		-70.312500
9239		-68.359375
9240		-70.312500
9241		-66.406250
9242		-70.312500
9243		-66.406250
9244		-70.312500
9245		-66.406250
9246		-70.312500
9247		-66.406250
9248		-68.359375
9249		-66.406250
9250		-68.359375
9251		-66.406250
9252		-68.359375
9253		-64.453125
9254		-68.359375
9255		-64.453125
9256		-68.359375
9257		-64.453125
9258		-68.359375
9259		-64.453125
9260		-66.406250
9261		-64.453125
9262		-66.406250
9263		-64.453125
9264		-66.406250
9265		-62.500000
9266		-66.406250
9267		-62.500000
9268		-66.406250
9269		-62.500000
9270		-66.406250
9271		-60.546875
9272		-64.453125
9273		-60.546875
9274		-64.453125
9275		-60.546875
9276		-64.453125
9277		-60.546875
9278		-62.500000
9279		-58.593750
9280		-62.500000
9281		-58.593750
9282		-62.500000
9283		-58.593750
9284		-60.546875
9285		-56.640625
9286		-60.546875
9287		-56.640625
9288		-60.546875
9289		-56.640625
9290		-58.593750
9291		-54.687500
9292		-58.593750
9293		-54.687500
9294		-58.593750
9295		-54.687500
9296		-56.640625
9297		-52.734375
9298		-56.640625
9299		-52.734375
9300		-56.640625
9301		-52.734375
9302		-54.687500
9303		-50.781250
9304		-54.687500
9305		-50.781250
9306		-52.734375
9307		-48.828125
9308		-52.734375
9309		-48.828125
9310		-50.781250
9311		-48.828125
9312		-50.781250
9313		-46.875000
9314		-50.781250
9315		-46.875000
9316		-48.828125
9317		-44.921875
9318		-48.828125
9319		-42.968750
9320		-46.875000
9321		-44.921875
9322		-46.875000
9323		-42.968750
9324		-46.875000
9325		-41.015625
9326		-44.921875
9327		-41.015625
9328		-42.968750
9329		-41.015625
9330		-42.968750
9331		-39.062500
9332		-41.015625
9333		-37.109375
9334		-41.015625
9335		-37.109375
9336		-41.015625
9337		-35.156250
9338		-39.062500
9339		-35.156250
9340		-37.109375
9341		-33.203125
9342		-37.109375
9343		-33.203125
9344		-35.156250
9345		-31.250000
9346		-35.156250
9347		-31.250000
9348		-33.203125
9349		-29.296875
9350		-33.203125
9351		-29.296875
9352		-31.250000
9353		-27.343750
9354		-29.296875
9355		-27.343750
9356		-29.296875
9357		-25.390625
9358		-29.296875
9359		-23.437500
9360		-27.343750
9361		-23.437500
9362		-25.390625
9363		-21.484375
9364		-25.390625
9365		-21.484375
9366		-23.437500
9367		-19.531250
9368		-23.437500
9369		-19.531250
9370		-21.484375
9371		-17.578125
9372		-19.531250
9373		-17.578125
9374		-19.531250
9375		-15.625000
9376		-17.578125
9377		-15.625000
9378		-17.578125
9379		-13.671875
9380		-15.625000
9381		-11.718750
9382		-15.625000
9383		-11.718750
9384		-13.671875
9385		-9.765625
9386		-11.718750
9387		-9.765625
9388		-11.718750
9389		-7.812500
9390		-9.765625
9391		-5.859375
9392		-9.765625
9393		-5.859375
9394		-7.812500
9395		-3.906250
9396		-7.812500
9397		-1.953125
9398		-5.859375
9399		-1.953125
9400		-3.906250
9401		-1.953125
9402		-3.906250
9403		0.000000
9404		-3.906250
9405		0.000000
9406		0.000000
9407		1.953125
9408		0.000000
9409		3.906250
9410		0.000000
9411		3.906250
9412		1.953125
9413		5.859375
9414		1.953125
9415		5.859375
9416		3.906250
9417		7.812500
9418		5.859375
9419		7.812500
9420		5.859375
9421		9.765625
9422		7.812500
9423		9.765625
9424		9.765625
9425		13.671875
9426		7.812500
9427		13.671875
9428		9.765625
9429		13.671875
9430		11.718750
9431		15.625000
9432		13.671875
9433		15.625000
9434		13.671875
9435		17.578125
9436		13.671875
9437		19.531250
9438		15.625000
9439		19.531250
9440		15.625000
9441		21.484375
9442		17.578125
9443		21.484375
9444		19.531250
9445		23.437500
9446		19.531250
9447		23.437500
9448		21.484375
9449		23.437500
9450		21.484375
9451		25.390625
9452		23.437500
9453		27.343750
9454		23.437500
9455		27.343750
9456		25.390625
9457		29.296875
9458		25.390625
9459		29.296875
9460		27.343750
9461		31.250000
9462		27.343750
9463		31.250000
9464		29.296875
9465		31.250000
9466		29.296875
9467		33.203125
9468		29.296875
9469		33.203125
9470		31.250000
9471		35.156250
9472		33.203125
9473		35.156250
9474		33.203125
9475		37.109375
9476		33.203125
9477		37.109375
9478		35.156250
9479		39.062500
9480		35.156250
9481		39.062500
9482		37.109375
9483		39.062500
9484		37.109375
9485		42.968750
9486		39.062500
9487		41.015625
9488		39.062500
9489		42.968750
9490		41.015625
9491		44.921875
9492		41.015625
9493		44.921875
9494		41.015625
9495		44.921875
9496		42.968750
9497		46.875000
9498		42.968750
9499		46.875000
9500		42.968750
9501		46.875000
9502		44.921875
9503		48.828125
9504		44.921875
9505		48.828125
9506		44.921875
9507		48.828125
9508		44.921875
9509		50.781250
9510		46.875000
9511		50.781250
9512		46.875000
9513		52.734375
9514		48.828125
9515		50.781250
9516		48.828125
9517		52.734375
9518		48.828125
9519		52.734375
9520		50.781250
9521		54.687500
9522		50.781250
9523		54.687500
9524		50.781250
9525		54.687500
9526		50.781250
9527		54.687500
9528		52.734375
9529		56.640625
9530		52.734375
9531		56.640625
9532		52.734375
9533		56.640625
9534		54.687500
9535		56.640625
9536		54.687500
9537		56.640625
9538		52.734375
9539		58.593750
9540		54.687500
9541		56.640625
9542		54.687500
9543		58.593750
9544		56.640625
9545		60.546875
9546		56.640625
9547		58.593750
9548		54.687500
9549		60.546875
9550		56.640625
9551		60.546875
9552		56.640625
9553		60.546875
9554		56.640625
9555		60.546875
9556		58.593750
9557		60.546875
9558		58.593750
9559		60.546875
9560		56.640625
9561		62.500000
9562		58.593750
9563		62.500000
9564		58.593750
9565		62.500000
9566		58.593750
9567		62.500000
9568		58.593750
9569		62.500000
9570		58.593750
9571		62.500000
9572		60.546875
9573		62.500000
9574		60.546875
9575		62.500000
9576		58.593750
9577		62.500000
9578		60.546875
9579		62.500000
9580		60.546875
9581		62.500000
9582		58.593750
9583		64.453125
9584		58.593750
9585		62.500000
9586		58.593750
9587		62.500000
9588		60.546875
9589		62.500000
9590		60.546875
9591		62.500000
9592		58.593750
9593		62.500000
9594		60.546875
9595		62.500000
9596		60.546875
9597		62.500000
9598		58.593750
9599		62.500000
9600		60.546875
9601		62.500000
9602		60.546875
9603		62.500000
9604		58.593750
9605		62.500000
9606		60.546875
9607		62.500000
9608		58.593750
9609		62.500000
9610		58.593750
9611		62.500000
9612		58.593750
9613		62.500000
9614		58.593750
9615		62.500000
9616		58.593750
9617		62.500000
9618		58.593750
9619		62.500000
9620		58.593750
9621		60.546875
9622		56.640625
9623		60.546875
9624		58.593750
9625		60.546875
9626		56.640625
9627		60.546875
9628		56.640625
9629		60.546875
9630		56.640625
9631		58.593750
9632		56.640625
9633		58.593750
9634		54.687500
9635		60.546875
9636		54.687500
9637		58.593750
9638		54.687500
9639		58.593750
9640		52.734375
9641		56.640625
9642		52.734375
9643		56.640625
9644		52.734375
9645		56.640625
9646		52.734375
9647		56.640625
9648		52.734375
9649		54.687500
9650		50.781250
9651		54.687500
9652		50.781250
9653		54.687500
9654		50.781250
9655		54.687500
9656		50.781250
9657		54.687500
9658		50.781250
9659		52.734375
9660		48.828125
9661		52.734375
9662		48.828125
9663		50.781250
9664		46.875000
9665		50.781250
9666		46.875000
9667		50.781250
9668		46.875000
9669		48.828125
9670		44.921875
9671		48.828125
9672		44.921875
9673		46.875000
9674		44.921875
9675		46.875000
9676		42.968750
9677		46.875000
9678		42.968750
9679		44.921875
9680		41.015625
9681		44.921875
9682		41.015625
9683		44.921875
9684		41.015625
9685		42.968750
9686		39.062500
9687		42.968750
9688		37.109375
9689		41.015625
9690		37.109375
9691		41.015625
9692		37.109375
9693		39.062500
9694		35.156250
9695		39.062500
9696		35.156250
9697		39.062500
9698		33.203125
9699		37.109375
9700		33.203125
9701		37.109375
9702		31.250000
9703		37.109375
9704		31.250000
9705		35.156250
9706		29.296875
9707		35.156250
9708		29.296875
9709		33.203125
9710		27.343750
9711		31.250000
9712		27.343750
9713		31.250000
9714		25.390625
9715		31.250000
9716		25.390625
9717		29.296875
9718		23.437500
9719		29.296875
9720		23.437500
9721		27.343750
9722		21.484375
9723		27.343750
9724		21.484375
9725		25.390625
9726		21.484375
9727		23.437500
9728		19.531250
9729		23.437500
9730		17.578125
9731		21.484375
9732		17.578125
9733		21.484375
9734		15.625000
9735		19.531250
9736		15.625000
9737		19.531250
9738		13.671875
9739		17.578125
9740		13.671875
9741		17.578125
9742		11.718750
9743		15.625000
9744		11.718750
9745		13.671875
9746		9.765625
9747		13.671875
9748		9.765625
9749		11.718750
9750		5.859375
9751		11.718750
9752		5.859375
9753		9.765625
9754		5.859375
9755		7.812500
9756		3.906250
9757		7.812500
9758		3.906250
9759		5.859375
9760		1.953125
9761		5.859375
9762		0.000000
9763		5.859375
9764		-1.953125
9765		3.906250
9766		-1.953125
9767		1.953125
9768		-3.906250
9769		0.000000
9770		-3.906250
9771		0.000000
9772		-5.859375
9773		-1.953125
9774		-5.859375
9775		-3.906250
9776		-7.812500
9777		-3.906250
9778		-9.765625
9779		-3.906250
9780		-9.765625
9781		-5.859375
9782		-11.718750
9783		-7.812500
9784		-11.718750
9785		-9.765625
9786		-13.671875
9787		-9.765625
9788		-15.625000
9789		-9.765625
9790		-15.625000
9791		-11.718750
9792		-15.625000
9793		-13.671875
9794		-17.578125
9795		-13.671875
9796		-19.531250
9797		-15.625000
9798		-21.484375
9799		-13.671875
9800		-21.484375
9801		-17.578125
9802		-21.484375
9803		-17.578125
9804		-25.390625
9805		-19.531250
9806		-25.390625
9807		-19.531250
9808		-25.390625
9809		-21.484375
9810		-27.343750
9811		-23.437500
9812		-29.296875
9813		-23.437500
9814		-31.250000
9815		-25.390625
9816		-29.296875
9817		-25.390625
9818		-31.250000
9819		-27.343750
9820		-33.203125
9821		-27.343750
9822		-33.203125
9823		-29.296875
9824		-35.156250
9825		-29.296875
9826		-35.156250
9827		-31.250000
9828		-37.109375
9829		-31.250000
9830		-39.062500
9831		-33.203125
9832		-41.015625
9833		-33.203125
9834		-41.015625
9835		-35.156250
9836		-41.015625
9837		-37.109375
9838		-42.968750
9839		-35.156250
9840		-42.968750
9841		-39.062500
9842		-42.968750
9843		-39.062500
9844		-44.921875
9845		-41.015625
9846		-46.875000
9847		-41.015625
9848		-46.875000
9849		-41.015625
9850		-48.828125
9851		-42.968750
9852		-48.828125
9853		-42.968750
9854		-50.781250
9855		-44.921875
9856		-50.781250
9857		-46.875000
9858		-50.781250
9859		-46.875000
9860		-50.781250
9861		-48.828125
9862		-54.687500
9863		-48.828125
9864		-54.687500
9865		-48.828125
9866		-56.640625
9867		-48.828125
9868		-56.640625
9869		-50.781250
9870		-56.640625
9871		-50.781250
9872		-58.593750
9873		-52.734375
9874		-56.640625
9875		-52.734375
9876		-58.593750
9877		-54.687500
9878		-58.593750
9879		-54.687500
9880		-60.546875
9881		-54.687500
9882		-62.500000
9883		-54.687500
9884		-62.500000
9885		-56.640625
9886		-62.500000
9887		-56.640625
9888		-62.500000
9889		-56.640625
9890		-64.453125
9891		-58.593750
9892		-62.500000
9893		-60.546875
9894		-64.453125
9895		-60.546875
9896		-66.406250
9897		-58.593750
9898		-66.406250
9899		-60.546875
9900		-66.406250
9901		-60.546875
9902		-66.406250
9903		-62.500000
9904		-66.406250
9905		-62.500000
9906		-68.359375
9907		-62.500000
9908		-66.406250
9909		-64.453125
9910		-66.406250
9911		-64.453125
9912		-70.312500
9913		-62.500000
9914		-70.312500
9915		-64.453125
9916		-70.312500
9917		-64.453125
9918		-70.312500
9919		-64.453125
9920		-70.312500
9921		-66.406250
9922		-70.312500
9923		-66.406250
9924		-72.265625
9925		-66.406250
9926		-70.312500
9927		-66.406250
9928		-70.312500
9929		-68.359375
9930		-72.265625
9931		-66.406250
9932		-72.265625
9933		-66.406250
9934		-74.218750
9935		-66.406250
9936		-72.265625
9937		-66.406250
9938		-74.218750
9939		-66.406250
9940		-72.265625
9941		-68.359375
9942		-70.312500
9943		-68.359375
9944		-72.265625
9945		-68.359375
9946		-74.218750
9947		-66.406250
9948		-72.265625
9949		-66.406250
9950		-72.265625
9951		-66.406250
9952		-74.218750
9953		-66.406250
9954		-74.218750
9955		-66.406250
9956		-74.218750
9957		-66.406250
9958		-72.265625
9959		-68.359375
9960		-72.265625
9961		-68.359375
9962		-72.265625
9963		-68.359375
9964		-74.218750
9965		-66.406250
9966		-72.265625
9967		-66.406250
9968		-72.265625
9969		-66.406250
9970		-72.265625
9971		-66.406250
9972		-72.265625
9973		-66.406250
9974		-72.265625
9975		-66.406250
9976		-70.312500
9977		-68.359375
9978		-70.312500
9979		-66.406250
9980		-72.265625
9981		-64.453125
9982		-72.265625
9983		-64.453125
9984		-70.312500
9985		-64.453125
9986		-70.312500
9987		-64.453125
9988		-70.312500
9989		-64.453125
9990		-70.312500
9991		-62.500000
9992		-70.312500
9993		-64.453125
9994		-66.406250
9995		-64.453125
9996		-70.312500
9997		-62.500000
9998		-68.359375
9999		-62.500000
10000		-68.359375
