Channel              :		CH1
Frequency            :		681.2Hz
Period               :		1.468ms
PK-PK                :		115.2mV
Probe attenuation    :		1X
Voltage per ADC value:		0.122070mV
Time interval        :		2.00000us

index		CH1_Voltage(mV)
1		46.875000
2		46.875000
3		41.015625
4		46.875000
5		41.015625
6		46.875000
7		42.968750
8		46.875000
9		42.968750
10		46.875000
11		42.968750
12		48.828125
13		42.968750
14		48.828125
15		42.968750
16		48.828125
17		42.968750
18		48.828125
19		42.968750
20		48.828125
21		42.968750
22		48.828125
23		44.921875
24		48.828125
25		46.875000
26		48.828125
27		42.968750
28		50.781250
29		44.921875
30		50.781250
31		44.921875
32		50.781250
33		44.921875
34		50.781250
35		44.921875
36		50.781250
37		44.921875
38		50.781250
39		44.921875
40		50.781250
41		46.875000
42		48.828125
43		46.875000
44		50.781250
45		44.921875
46		50.781250
47		44.921875
48		50.781250
49		44.921875
50		50.781250
51		44.921875
52		50.781250
53		44.921875
54		50.781250
55		44.921875
56		50.781250
57		46.875000
58		50.781250
59		46.875000
60		50.781250
61		44.921875
62		50.781250
63		44.921875
64		50.781250
65		44.921875
66		50.781250
67		44.921875
68		50.781250
69		44.921875
70		50.781250
71		44.921875
72		50.781250
73		42.968750
74		50.781250
75		44.921875
76		48.828125
77		44.921875
78		50.781250
79		44.921875
80		48.828125
81		42.968750
82		50.781250
83		42.968750
84		48.828125
85		42.968750
86		48.828125
87		42.968750
88		48.828125
89		42.968750
90		48.828125
91		42.968750
92		46.875000
93		42.968750
94		48.828125
95		41.015625
96		46.875000
97		41.015625
98		48.828125
99		41.015625
100		46.875000
101		41.015625
102		46.875000
103		41.015625
104		46.875000
105		39.062500
106		46.875000
107		41.015625
108		46.875000
109		41.015625
110		42.968750
111		39.062500
112		44.921875
113		39.062500
114		44.921875
115		37.109375
116		46.875000
117		37.109375
118		42.968750
119		37.109375
120		42.968750
121		35.156250
122		42.968750
123		35.156250
124		41.015625
125		37.109375
126		41.015625
127		35.156250
128		39.062500
129		33.203125
130		41.015625
131		33.203125
132		41.015625
133		33.203125
134		39.062500
135		33.203125
136		39.062500
137		33.203125
138		39.062500
139		31.250000
140		39.062500
141		31.250000
142		35.156250
143		33.203125
144		35.156250
145		29.296875
146		37.109375
147		29.296875
148		35.156250
149		27.343750
150		35.156250
151		27.343750
152		33.203125
153		27.343750
154		35.156250
155		27.343750
156		33.203125
157		25.390625
158		33.203125
159		27.343750
160		29.296875
161		25.390625
162		29.296875
163		23.437500
164		31.250000
165		23.437500
166		29.296875
167		23.437500
168		29.296875
169		21.484375
170		29.296875
171		19.531250
172		27.343750
173		21.484375
174		27.343750
175		21.484375
176		23.437500
177		19.531250
178		23.437500
179		17.578125
180		25.390625
181		15.625000
182		23.437500
183		15.625000
184		23.437500
185		15.625000
186		21.484375
187		15.625000
188		21.484375
189		13.671875
190		21.484375
191		13.671875
192		19.531250
193		13.671875
194		17.578125
195		11.718750
196		17.578125
197		9.765625
198		17.578125
199		9.765625
200		17.578125
201		9.765625
202		15.625000
203		7.812500
204		13.671875
205		7.812500
206		13.671875
207		5.859375
208		13.671875
209		5.859375
210		11.718750
211		5.859375
212		9.765625
213		3.906250
214		9.765625
215		1.953125
216		9.765625
217		1.953125
218		7.812500
219		1.953125
220		7.812500
221		0.000000
222		7.812500
223		-1.953125
224		5.859375
225		0.000000
226		3.906250
227		0.000000
228		3.906250
229		-3.906250
230		1.953125
231		-5.859375
232		3.906250
233		-5.859375
234		0.000000
235		-5.859375
236		0.000000
237		-7.812500
238		0.000000
239		-7.812500
240		0.000000
241		-7.812500
242		-1.953125
243		-7.812500
244		-3.906250
245		-9.765625
246		-3.906250
247		-9.765625
248		-5.859375
249		-13.671875
250		-5.859375
251		-13.671875
252		-5.859375
253		-13.671875
254		-7.812500
255		-15.625000
256		-7.812500
257		-15.625000
258		-9.765625
259		-15.625000
260		-11.718750
261		-15.625000
262		-11.718750
263		-19.531250
264		-13.671875
265		-19.531250
266		-11.718750
267		-19.531250
268		-13.671875
269		-21.484375
270		-13.671875
271		-23.437500
272		-15.625000
273		-23.437500
274		-17.578125
275		-23.437500
276		-17.578125
277		-23.437500
278		-19.531250
279		-25.390625
280		-19.531250
281		-27.343750
282		-19.531250
283		-27.343750
284		-21.484375
285		-29.296875
286		-21.484375
287		-29.296875
288		-21.484375
289		-29.296875
290		-23.437500
291		-31.250000
292		-25.390625
293		-29.296875
294		-27.343750
295		-31.250000
296		-27.343750
297		-33.203125
298		-27.343750
299		-33.203125
300		-27.343750
301		-35.156250
302		-27.343750
303		-35.156250
304		-29.296875
305		-35.156250
306		-29.296875
307		-37.109375
308		-29.296875
309		-35.156250
310		-33.203125
311		-37.109375
312		-33.203125
313		-39.062500
314		-33.203125
315		-39.062500
316		-33.203125
317		-41.015625
318		-33.203125
319		-41.015625
320		-35.156250
321		-41.015625
322		-35.156250
323		-42.968750
324		-37.109375
325		-42.968750
326		-37.109375
327		-42.968750
328		-39.062500
329		-44.921875
330		-39.062500
331		-44.921875
332		-39.062500
333		-44.921875
334		-39.062500
335		-46.875000
336		-39.062500
337		-46.875000
338		-41.015625
339		-48.828125
340		-41.015625
341		-48.828125
342		-42.968750
343		-46.875000
344		-42.968750
345		-46.875000
346		-44.921875
347		-50.781250
348		-44.921875
349		-50.781250
350		-44.921875
351		-50.781250
352		-44.921875
353		-50.781250
354		-44.921875
355		-52.734375
356		-44.921875
357		-52.734375
358		-46.875000
359		-52.734375
360		-46.875000
361		-52.734375
362		-48.828125
363		-54.687500
364		-48.828125
365		-54.687500
366		-46.875000
367		-54.687500
368		-48.828125
369		-54.687500
370		-48.828125
371		-54.687500
372		-48.828125
373		-56.640625
374		-50.781250
375		-56.640625
376		-48.828125
377		-54.687500
378		-52.734375
379		-54.687500
380		-52.734375
381		-58.593750
382		-50.781250
383		-56.640625
384		-50.781250
385		-58.593750
386		-50.781250
387		-58.593750
388		-52.734375
389		-56.640625
390		-50.781250
391		-58.593750
392		-52.734375
393		-56.640625
394		-52.734375
395		-56.640625
396		-54.687500
397		-58.593750
398		-52.734375
399		-58.593750
400		-52.734375
401		-60.546875
402		-52.734375
403		-60.546875
404		-52.734375
405		-60.546875
406		-52.734375
407		-58.593750
408		-52.734375
409		-58.593750
410		-52.734375
411		-58.593750
412		-54.687500
413		-60.546875
414		-54.687500
415		-60.546875
416		-52.734375
417		-60.546875
418		-52.734375
419		-58.593750
420		-52.734375
421		-60.546875
422		-52.734375
423		-60.546875
424		-52.734375
425		-60.546875
426		-52.734375
427		-58.593750
428		-54.687500
429		-58.593750
430		-54.687500
431		-60.546875
432		-52.734375
433		-60.546875
434		-52.734375
435		-58.593750
436		-52.734375
437		-58.593750
438		-52.734375
439		-58.593750
440		-52.734375
441		-58.593750
442		-52.734375
443		-58.593750
444		-52.734375
445		-56.640625
446		-52.734375
447		-56.640625
448		-52.734375
449		-58.593750
450		-50.781250
451		-56.640625
452		-50.781250
453		-56.640625
454		-50.781250
455		-56.640625
456		-50.781250
457		-56.640625
458		-50.781250
459		-54.687500
460		-50.781250
461		-54.687500
462		-50.781250
463		-52.734375
464		-50.781250
465		-54.687500
466		-48.828125
467		-54.687500
468		-46.875000
469		-52.734375
470		-48.828125
471		-54.687500
472		-46.875000
473		-52.734375
474		-46.875000
475		-54.687500
476		-46.875000
477		-50.781250
478		-46.875000
479		-50.781250
480		-46.875000
481		-52.734375
482		-44.921875
483		-50.781250
484		-44.921875
485		-50.781250
486		-42.968750
487		-48.828125
488		-42.968750
489		-48.828125
490		-42.968750
491		-48.828125
492		-42.968750
493		-48.828125
494		-41.015625
495		-44.921875
496		-42.968750
497		-46.875000
498		-41.015625
499		-46.875000
500		-39.062500
501		-46.875000
502		-39.062500
503		-44.921875
504		-39.062500
505		-42.968750
506		-37.109375
507		-42.968750
508		-37.109375
509		-42.968750
510		-35.156250
511		-41.015625
512		-37.109375
513		-41.015625
514		-37.109375
515		-41.015625
516		-33.203125
517		-41.015625
518		-33.203125
519		-39.062500
520		-33.203125
521		-39.062500
522		-31.250000
523		-39.062500
524		-31.250000
525		-37.109375
526		-29.296875
527		-37.109375
528		-31.250000
529		-33.203125
530		-31.250000
531		-33.203125
532		-29.296875
533		-33.203125
534		-27.343750
535		-33.203125
536		-27.343750
537		-33.203125
538		-25.390625
539		-31.250000
540		-25.390625
541		-31.250000
542		-23.437500
543		-31.250000
544		-23.437500
545		-27.343750
546		-25.390625
547		-27.343750
548		-23.437500
549		-27.343750
550		-21.484375
551		-27.343750
552		-19.531250
553		-25.390625
554		-19.531250
555		-25.390625
556		-17.578125
557		-25.390625
558		-17.578125
559		-23.437500
560		-17.578125
561		-21.484375
562		-17.578125
563		-19.531250
564		-17.578125
565		-21.484375
566		-15.625000
567		-19.531250
568		-13.671875
569		-19.531250
570		-11.718750
571		-19.531250
572		-11.718750
573		-17.578125
574		-11.718750
575		-17.578125
576		-9.765625
577		-15.625000
578		-9.765625
579		-13.671875
580		-9.765625
581		-11.718750
582		-5.859375
583		-13.671875
584		-5.859375
585		-11.718750
586		-5.859375
587		-11.718750
588		-3.906250
589		-9.765625
590		-1.953125
591		-9.765625
592		-1.953125
593		-7.812500
594		-1.953125
595		-5.859375
596		-1.953125
597		-3.906250
598		-1.953125
599		-5.859375
600		0.000000
601		-5.859375
602		1.953125
603		-3.906250
604		1.953125
605		-3.906250
606		3.906250
607		-1.953125
608		3.906250
609		-1.953125
610		5.859375
611		0.000000
612		5.859375
613		1.953125
614		5.859375
615		1.953125
616		7.812500
617		1.953125
618		7.812500
619		1.953125
620		9.765625
621		3.906250
622		11.718750
623		3.906250
624		11.718750
625		5.859375
626		11.718750
627		7.812500
628		13.671875
629		9.765625
630		11.718750
631		9.765625
632		13.671875
633		9.765625
634		15.625000
635		9.765625
636		17.578125
637		9.765625
638		17.578125
639		11.718750
640		19.531250
641		11.718750
642		19.531250
643		13.671875
644		19.531250
645		15.625000
646		19.531250
647		17.578125
648		19.531250
649		15.625000
650		21.484375
651		15.625000
652		23.437500
653		17.578125
654		23.437500
655		17.578125
656		25.390625
657		19.531250
658		25.390625
659		19.531250
660		25.390625
661		19.531250
662		27.343750
663		23.437500
664		25.390625
665		23.437500
666		27.343750
667		21.484375
668		29.296875
669		23.437500
670		31.250000
671		23.437500
672		31.250000
673		25.390625
674		31.250000
675		25.390625
676		31.250000
677		25.390625
678		33.203125
679		29.296875
680		31.250000
681		29.296875
682		31.250000
683		29.296875
684		35.156250
685		29.296875
686		35.156250
687		29.296875
688		35.156250
689		31.250000
690		37.109375
691		31.250000
692		37.109375
693		31.250000
694		37.109375
695		33.203125
696		37.109375
697		35.156250
698		37.109375
699		33.203125
700		39.062500
701		35.156250
702		41.015625
703		35.156250
704		41.015625
705		35.156250
706		41.015625
707		35.156250
708		41.015625
709		35.156250
710		42.968750
711		37.109375
712		42.968750
713		39.062500
714		41.015625
715		39.062500
716		42.968750
717		37.109375
718		44.921875
719		37.109375
720		44.921875
721		39.062500
722		44.921875
723		39.062500
724		44.921875
725		39.062500
726		46.875000
727		39.062500
728		46.875000
729		41.015625
730		44.921875
731		42.968750
732		44.921875
733		41.015625
734		46.875000
735		41.015625
736		46.875000
737		42.968750
738		48.828125
739		42.968750
740		48.828125
741		42.968750
742		48.828125
743		42.968750
744		48.828125
745		42.968750
746		48.828125
747		44.921875
748		48.828125
749		44.921875
750		48.828125
751		44.921875
752		48.828125
753		42.968750
754		50.781250
755		42.968750
756		50.781250
757		44.921875
758		50.781250
759		44.921875
760		50.781250
761		44.921875
762		50.781250
763		46.875000
764		48.828125
765		46.875000
766		48.828125
767		44.921875
768		50.781250
769		44.921875
770		50.781250
771		44.921875
772		52.734375
773		44.921875
774		50.781250
775		44.921875
776		50.781250
777		46.875000
778		50.781250
779		46.875000
780		50.781250
781		46.875000
782		50.781250
783		46.875000
784		50.781250
785		44.921875
786		52.734375
787		46.875000
788		52.734375
789		46.875000
790		50.781250
791		44.921875
792		52.734375
793		44.921875
794		50.781250
795		44.921875
796		50.781250
797		46.875000
798		50.781250
799		46.875000
800		48.828125
801		44.921875
802		50.781250
803		44.921875
804		50.781250
805		44.921875
806		50.781250
807		42.968750
808		50.781250
809		42.968750
810		50.781250
811		44.921875
812		50.781250
813		44.921875
814		48.828125
815		44.921875
816		48.828125
817		44.921875
818		48.828125
819		42.968750
820		50.781250
821		42.968750
822		48.828125
823		42.968750
824		48.828125
825		42.968750
826		48.828125
827		41.015625
828		48.828125
829		41.015625
830		48.828125
831		42.968750
832		44.921875
833		42.968750
834		44.921875
835		41.015625
836		46.875000
837		39.062500
838		46.875000
839		39.062500
840		46.875000
841		39.062500
842		46.875000
843		39.062500
844		44.921875
845		39.062500
846		44.921875
847		39.062500
848		42.968750
849		39.062500
850		42.968750
851		37.109375
852		44.921875
853		37.109375
854		42.968750
855		37.109375
856		42.968750
857		35.156250
858		42.968750
859		35.156250
860		41.015625
861		35.156250
862		41.015625
863		35.156250
864		41.015625
865		35.156250
866		39.062500
867		33.203125
868		39.062500
869		33.203125
870		39.062500
871		33.203125
872		39.062500
873		31.250000
874		37.109375
875		31.250000
876		37.109375
877		29.296875
878		37.109375
879		29.296875
880		35.156250
881		31.250000
882		33.203125
883		31.250000
884		33.203125
885		27.343750
886		35.156250
887		27.343750
888		33.203125
889		25.390625
890		33.203125
891		25.390625
892		33.203125
893		25.390625
894		31.250000
895		25.390625
896		31.250000
897		25.390625
898		29.296875
899		25.390625
900		27.343750
901		23.437500
902		27.343750
903		21.484375
904		27.343750
905		21.484375
906		27.343750
907		19.531250
908		27.343750
909		19.531250
910		25.390625
911		17.578125
912		25.390625
913		17.578125
914		25.390625
915		19.531250
916		21.484375
917		15.625000
918		21.484375
919		15.625000
920		21.484375
921		15.625000
922		21.484375
923		13.671875
924		21.484375
925		13.671875
926		19.531250
927		11.718750
928		19.531250
929		11.718750
930		17.578125
931		11.718750
932		15.625000
933		11.718750
934		15.625000
935		9.765625
936		15.625000
937		7.812500
938		13.671875
939		7.812500
940		13.671875
941		5.859375
942		13.671875
943		5.859375
944		11.718750
945		5.859375
946		11.718750
947		3.906250
948		11.718750
949		3.906250
950		7.812500
951		1.953125
952		7.812500
953		1.953125
954		7.812500
955		1.953125
956		7.812500
957		0.000000
958		5.859375
959		-1.953125
960		5.859375
961		-1.953125
962		3.906250
963		-3.906250
964		3.906250
965		-1.953125
966		1.953125
967		-3.906250
968		0.000000
969		-5.859375
970		0.000000
971		-7.812500
972		0.000000
973		-5.859375
974		-1.953125
975		-7.812500
976		-1.953125
977		-9.765625
978		-1.953125
979		-11.718750
980		-3.906250
981		-11.718750
982		-5.859375
983		-11.718750
984		-7.812500
985		-11.718750
986		-7.812500
987		-13.671875
988		-7.812500
989		-13.671875
990		-9.765625
991		-15.625000
992		-9.765625
993		-15.625000
994		-9.765625
995		-17.578125
996		-11.718750
997		-17.578125
998		-13.671875
999		-17.578125
1000		-15.625000
1001		-19.531250
1002		-15.625000
1003		-19.531250
1004		-15.625000
1005		-23.437500
1006		-15.625000
1007		-23.437500
1008		-15.625000
1009		-23.437500
1010		-17.578125
1011		-23.437500
1012		-17.578125
1013		-25.390625
1014		-17.578125
1015		-25.390625
1016		-19.531250
1017		-25.390625
1018		-21.484375
1019		-27.343750
1020		-21.484375
1021		-29.296875
1022		-21.484375
1023		-29.296875
1024		-23.437500
1025		-31.250000
1026		-23.437500
1027		-31.250000
1028		-25.390625
1029		-31.250000
1030		-25.390625
1031		-33.203125
1032		-25.390625
1033		-31.250000
1034		-29.296875
1035		-33.203125
1036		-29.296875
1037		-35.156250
1038		-29.296875
1039		-35.156250
1040		-29.296875
1041		-37.109375
1042		-31.250000
1043		-39.062500
1044		-31.250000
1045		-39.062500
1046		-31.250000
1047		-39.062500
1048		-33.203125
1049		-39.062500
1050		-35.156250
1051		-39.062500
1052		-35.156250
1053		-41.015625
1054		-35.156250
1055		-41.015625
1056		-35.156250
1057		-42.968750
1058		-35.156250
1059		-42.968750
1060		-37.109375
1061		-42.968750
1062		-39.062500
1063		-44.921875
1064		-37.109375
1065		-44.921875
1066		-39.062500
1067		-44.921875
1068		-41.015625
1069		-44.921875
1070		-41.015625
1071		-46.875000
1072		-41.015625
1073		-46.875000
1074		-41.015625
1075		-48.828125
1076		-41.015625
1077		-48.828125
1078		-41.015625
1079		-48.828125
1080		-42.968750
1081		-48.828125
1082		-44.921875
1083		-48.828125
1084		-44.921875
1085		-48.828125
1086		-46.875000
1087		-50.781250
1088		-44.921875
1089		-52.734375
1090		-46.875000
1091		-52.734375
1092		-44.921875
1093		-52.734375
1094		-46.875000
1095		-54.687500
1096		-46.875000
1097		-52.734375
1098		-46.875000
1099		-52.734375
1100		-48.828125
1101		-52.734375
1102		-48.828125
1103		-54.687500
1104		-48.828125
1105		-54.687500
1106		-48.828125
1107		-54.687500
1108		-48.828125
1109		-56.640625
1110		-48.828125
1111		-56.640625
1112		-48.828125
1113		-56.640625
1114		-50.781250
1115		-56.640625
1116		-50.781250
1117		-54.687500
1118		-52.734375
1119		-56.640625
1120		-52.734375
1121		-56.640625
1122		-50.781250
1123		-56.640625
1124		-52.734375
1125		-58.593750
1126		-50.781250
1127		-58.593750
1128		-52.734375
1129		-58.593750
1130		-52.734375
1131		-58.593750
1132		-52.734375
1133		-56.640625
1134		-54.687500
1135		-56.640625
1136		-54.687500
1137		-56.640625
1138		-52.734375
1139		-56.640625
1140		-54.687500
1141		-56.640625
1142		-52.734375
1143		-58.593750
1144		-52.734375
1145		-58.593750
1146		-52.734375
1147		-58.593750
1148		-54.687500
1149		-58.593750
1150		-52.734375
1151		-56.640625
1152		-54.687500
1153		-58.593750
1154		-54.687500
1155		-58.593750
1156		-52.734375
1157		-56.640625
1158		-54.687500
1159		-56.640625
1160		-52.734375
1161		-58.593750
1162		-52.734375
1163		-56.640625
1164		-54.687500
1165		-58.593750
1166		-52.734375
1167		-56.640625
1168		-54.687500
1169		-56.640625
1170		-52.734375
1171		-56.640625
1172		-52.734375
1173		-56.640625
1174		-52.734375
1175		-56.640625
1176		-52.734375
1177		-54.687500
1178		-52.734375
1179		-54.687500
1180		-52.734375
1181		-56.640625
1182		-52.734375
1183		-54.687500
1184		-52.734375
1185		-54.687500
1186		-50.781250
1187		-54.687500
1188		-50.781250
1189		-54.687500
1190		-50.781250
1191		-54.687500
1192		-48.828125
1193		-52.734375
1194		-50.781250
1195		-54.687500
1196		-48.828125
1197		-52.734375
1198		-50.781250
1199		-52.734375
1200		-48.828125
1201		-52.734375
1202		-48.828125
1203		-52.734375
1204		-46.875000
1205		-50.781250
1206		-46.875000
1207		-50.781250
1208		-46.875000
1209		-50.781250
1210		-46.875000
1211		-50.781250
1212		-44.921875
1213		-48.828125
1214		-46.875000
1215		-48.828125
1216		-44.921875
1217		-48.828125
1218		-44.921875
1219		-48.828125
1220		-44.921875
1221		-46.875000
1222		-44.921875
1223		-46.875000
1224		-42.968750
1225		-46.875000
1226		-42.968750
1227		-46.875000
1228		-42.968750
1229		-44.921875
1230		-41.015625
1231		-44.921875
1232		-41.015625
1233		-44.921875
1234		-39.062500
1235		-42.968750
1236		-41.015625
1237		-42.968750
1238		-39.062500
1239		-42.968750
1240		-37.109375
1241		-42.968750
1242		-37.109375
1243		-41.015625
1244		-37.109375
1245		-41.015625
1246		-37.109375
1247		-39.062500
1248		-35.156250
1249		-39.062500
1250		-35.156250
1251		-37.109375
1252		-35.156250
1253		-37.109375
1254		-33.203125
1255		-37.109375
1256		-33.203125
1257		-35.156250
1258		-31.250000
1259		-35.156250
1260		-31.250000
1261		-33.203125
1262		-31.250000
1263		-33.203125
1264		-29.296875
1265		-33.203125
1266		-29.296875
1267		-33.203125
1268		-29.296875
1269		-31.250000
1270		-27.343750
1271		-29.296875
1272		-27.343750
1273		-29.296875
1274		-25.390625
1275		-29.296875
1276		-25.390625
1277		-27.343750
1278		-23.437500
1279		-27.343750
1280		-23.437500
1281		-27.343750
1282		-23.437500
1283		-25.390625
1284		-21.484375
1285		-25.390625
1286		-21.484375
1287		-23.437500
1288		-19.531250
1289		-23.437500
1290		-19.531250
1291		-21.484375
1292		-17.578125
1293		-21.484375
1294		-17.578125
1295		-21.484375
1296		-15.625000
1297		-19.531250
1298		-15.625000
1299		-19.531250
1300		-13.671875
1301		-17.578125
1302		-13.671875
1303		-17.578125
1304		-13.671875
1305		-17.578125
1306		-11.718750
1307		-15.625000
1308		-11.718750
1309		-13.671875
1310		-9.765625
1311		-13.671875
1312		-9.765625
1313		-11.718750
1314		-7.812500
1315		-11.718750
1316		-7.812500
1317		-9.765625
1318		-7.812500
1319		-9.765625
1320		-5.859375
1321		-9.765625
1322		-3.906250
1323		-7.812500
1324		-3.906250
1325		-5.859375
1326		-1.953125
1327		-5.859375
1328		-1.953125
1329		-5.859375
1330		0.000000
1331		-3.906250
1332		0.000000
1333		-3.906250
1334		1.953125
1335		-1.953125
1336		1.953125
1337		-1.953125
1338		1.953125
1339		0.000000
1340		3.906250
1341		0.000000
1342		3.906250
1343		1.953125
1344		5.859375
1345		1.953125
1346		5.859375
1347		3.906250
1348		5.859375
1349		3.906250
1350		7.812500
1351		3.906250
1352		7.812500
1353		5.859375
1354		9.765625
1355		5.859375
1356		11.718750
1357		7.812500
1358		11.718750
1359		7.812500
1360		13.671875
1361		9.765625
1362		13.671875
1363		9.765625
1364		13.671875
1365		9.765625
1366		15.625000
1367		11.718750
1368		15.625000
1369		13.671875
1370		15.625000
1371		13.671875
1372		17.578125
1373		15.625000
1374		17.578125
1375		15.625000
1376		19.531250
1377		15.625000
1378		19.531250
1379		17.578125
1380		21.484375
1381		17.578125
1382		21.484375
1383		17.578125
1384		23.437500
1385		19.531250
1386		23.437500
1387		19.531250
1388		23.437500
1389		21.484375
1390		25.390625
1391		21.484375
1392		25.390625
1393		23.437500
1394		25.390625
1395		23.437500
1396		27.343750
1397		23.437500
1398		27.343750
1399		25.390625
1400		27.343750
1401		25.390625
1402		29.296875
1403		27.343750
1404		29.296875
1405		27.343750
1406		31.250000
1407		27.343750
1408		31.250000
1409		27.343750
1410		33.203125
1411		29.296875
1412		31.250000
1413		29.296875
1414		33.203125
1415		31.250000
1416		33.203125
1417		31.250000
1418		35.156250
1419		31.250000
1420		35.156250
1421		33.203125
1422		35.156250
1423		31.250000
1424		37.109375
1425		33.203125
1426		37.109375
1427		33.203125
1428		37.109375
1429		35.156250
1430		39.062500
1431		35.156250
1432		39.062500
1433		35.156250
1434		39.062500
1435		35.156250
1436		41.015625
1437		37.109375
1438		39.062500
1439		37.109375
1440		41.015625
1441		39.062500
1442		41.015625
1443		37.109375
1444		41.015625
1445		37.109375
1446		42.968750
1447		39.062500
1448		42.968750
1449		39.062500
1450		42.968750
1451		41.015625
1452		42.968750
1453		41.015625
1454		42.968750
1455		41.015625
1456		44.921875
1457		41.015625
1458		44.921875
1459		41.015625
1460		44.921875
1461		42.968750
1462		44.921875
1463		42.968750
1464		46.875000
1465		42.968750
1466		46.875000
1467		42.968750
1468		46.875000
1469		42.968750
1470		46.875000
1471		42.968750
1472		46.875000
1473		44.921875
1474		48.828125
1475		42.968750
1476		48.828125
1477		44.921875
1478		48.828125
1479		44.921875
1480		48.828125
1481		44.921875
1482		48.828125
1483		44.921875
1484		48.828125
1485		44.921875
1486		50.781250
1487		46.875000
1488		48.828125
1489		46.875000
1490		50.781250
1491		46.875000
1492		50.781250
1493		46.875000
1494		48.828125
1495		44.921875
1496		50.781250
1497		46.875000
1498		50.781250
1499		46.875000
1500		50.781250
1501		46.875000
1502		50.781250
1503		46.875000
1504		50.781250
1505		46.875000
1506		50.781250
1507		46.875000
1508		50.781250
1509		46.875000
1510		50.781250
1511		46.875000
1512		52.734375
1513		46.875000
1514		50.781250
1515		48.828125
1516		50.781250
1517		46.875000
1518		52.734375
1519		48.828125
1520		50.781250
1521		48.828125
1522		50.781250
1523		46.875000
1524		50.781250
1525		48.828125
1526		50.781250
1527		46.875000
1528		50.781250
1529		46.875000
1530		50.781250
1531		46.875000
1532		50.781250
1533		46.875000
1534		50.781250
1535		46.875000
1536		50.781250
1537		46.875000
1538		50.781250
1539		46.875000
1540		50.781250
1541		46.875000
1542		50.781250
1543		46.875000
1544		50.781250
1545		46.875000
1546		48.828125
1547		44.921875
1548		48.828125
1549		46.875000
1550		48.828125
1551		44.921875
1552		50.781250
1553		44.921875
1554		48.828125
1555		44.921875
1556		48.828125
1557		44.921875
1558		48.828125
1559		44.921875
1560		48.828125
1561		44.921875
1562		46.875000
1563		42.968750
1564		46.875000
1565		42.968750
1566		46.875000
1567		42.968750
1568		46.875000
1569		42.968750
1570		46.875000
1571		42.968750
1572		44.921875
1573		41.015625
1574		46.875000
1575		41.015625
1576		44.921875
1577		41.015625
1578		44.921875
1579		41.015625
1580		44.921875
1581		41.015625
1582		42.968750
1583		39.062500
1584		42.968750
1585		39.062500
1586		42.968750
1587		39.062500
1588		41.015625
1589		39.062500
1590		41.015625
1591		37.109375
1592		42.968750
1593		37.109375
1594		41.015625
1595		35.156250
1596		41.015625
1597		37.109375
1598		41.015625
1599		35.156250
1600		41.015625
1601		33.203125
1602		39.062500
1603		35.156250
1604		37.109375
1605		33.203125
1606		37.109375
1607		33.203125
1608		37.109375
1609		33.203125
1610		37.109375
1611		31.250000
1612		35.156250
1613		31.250000
1614		35.156250
1615		31.250000
1616		35.156250
1617		31.250000
1618		33.203125
1619		29.296875
1620		33.203125
1621		29.296875
1622		31.250000
1623		29.296875
1624		31.250000
1625		27.343750
1626		31.250000
1627		27.343750
1628		31.250000
1629		25.390625
1630		29.296875
1631		25.390625
1632		29.296875
1633		23.437500
1634		29.296875
1635		23.437500
1636		27.343750
1637		23.437500
1638		27.343750
1639		23.437500
1640		25.390625
1641		21.484375
1642		25.390625
1643		21.484375
1644		25.390625
1645		21.484375
1646		23.437500
1647		19.531250
1648		23.437500
1649		19.531250
1650		23.437500
1651		17.578125
1652		21.484375
1653		17.578125
1654		21.484375
1655		15.625000
1656		19.531250
1657		15.625000
1658		19.531250
1659		15.625000
1660		17.578125
1661		13.671875
1662		17.578125
1663		11.718750
1664		15.625000
1665		11.718750
1666		15.625000
1667		11.718750
1668		15.625000
1669		9.765625
1670		13.671875
1671		9.765625
1672		13.671875
1673		9.765625
1674		11.718750
1675		5.859375
1676		11.718750
1677		7.812500
1678		9.765625
1679		5.859375
1680		9.765625
1681		5.859375
1682		9.765625
1683		3.906250
1684		7.812500
1685		3.906250
1686		7.812500
1687		1.953125
1688		5.859375
1689		1.953125
1690		5.859375
1691		0.000000
1692		5.859375
1693		0.000000
1694		3.906250
1695		-1.953125
1696		3.906250
1697		-1.953125
1698		1.953125
1699		-3.906250
1700		1.953125
1701		-3.906250
1702		0.000000
1703		-3.906250
1704		0.000000
1705		-5.859375
1706		-1.953125
1707		-5.859375
1708		-1.953125
1709		-7.812500
1710		-3.906250
1711		-7.812500
1712		-3.906250
1713		-9.765625
1714		-5.859375
1715		-9.765625
1716		-5.859375
1717		-11.718750
1718		-7.812500
1719		-11.718750
1720		-7.812500
1721		-11.718750
1722		-7.812500
1723		-13.671875
1724		-9.765625
1725		-15.625000
1726		-9.765625
1727		-15.625000
1728		-11.718750
1729		-15.625000
1730		-13.671875
1731		-17.578125
1732		-13.671875
1733		-17.578125
1734		-15.625000
1735		-19.531250
1736		-15.625000
1737		-19.531250
1738		-15.625000
1739		-21.484375
1740		-17.578125
1741		-21.484375
1742		-17.578125
1743		-21.484375
1744		-17.578125
1745		-23.437500
1746		-19.531250
1747		-23.437500
1748		-21.484375
1749		-25.390625
1750		-21.484375
1751		-25.390625
1752		-21.484375
1753		-27.343750
1754		-23.437500
1755		-27.343750
1756		-23.437500
1757		-27.343750
1758		-25.390625
1759		-29.296875
1760		-25.390625
1761		-29.296875
1762		-25.390625
1763		-31.250000
1764		-27.343750
1765		-31.250000
1766		-27.343750
1767		-31.250000
1768		-29.296875
1769		-33.203125
1770		-29.296875
1771		-33.203125
1772		-29.296875
1773		-35.156250
1774		-31.250000
1775		-35.156250
1776		-31.250000
1777		-35.156250
1778		-33.203125
1779		-37.109375
1780		-33.203125
1781		-37.109375
1782		-33.203125
1783		-39.062500
1784		-35.156250
1785		-39.062500
1786		-35.156250
1787		-39.062500
1788		-35.156250
1789		-41.015625
1790		-37.109375
1791		-41.015625
1792		-37.109375
1793		-41.015625
1794		-37.109375
1795		-41.015625
1796		-39.062500
1797		-42.968750
1798		-39.062500
1799		-42.968750
1800		-39.062500
1801		-44.921875
1802		-41.015625
1803		-44.921875
1804		-41.015625
1805		-44.921875
1806		-41.015625
1807		-46.875000
1808		-42.968750
1809		-46.875000
1810		-42.968750
1811		-48.828125
1812		-42.968750
1813		-46.875000
1814		-44.921875
1815		-46.875000
1816		-44.921875
1817		-48.828125
1818		-44.921875
1819		-48.828125
1820		-44.921875
1821		-50.781250
1822		-44.921875
1823		-50.781250
1824		-46.875000
1825		-50.781250
1826		-46.875000
1827		-50.781250
1828		-46.875000
1829		-50.781250
1830		-48.828125
1831		-50.781250
1832		-48.828125
1833		-52.734375
1834		-46.875000
1835		-52.734375
1836		-48.828125
1837		-52.734375
1838		-48.828125
1839		-52.734375
1840		-48.828125
1841		-52.734375
1842		-50.781250
1843		-52.734375
1844		-50.781250
1845		-54.687500
1846		-50.781250
1847		-54.687500
1848		-50.781250
1849		-54.687500
1850		-50.781250
1851		-54.687500
1852		-50.781250
1853		-54.687500
1854		-50.781250
1855		-54.687500
1856		-50.781250
1857		-56.640625
1858		-52.734375
1859		-56.640625
1860		-50.781250
1861		-56.640625
1862		-52.734375
1863		-56.640625
1864		-52.734375
1865		-56.640625
1866		-52.734375
1867		-56.640625
1868		-52.734375
1869		-56.640625
1870		-52.734375
1871		-58.593750
1872		-52.734375
1873		-56.640625
1874		-54.687500
1875		-58.593750
1876		-52.734375
1877		-56.640625
1878		-52.734375
1879		-56.640625
1880		-52.734375
1881		-56.640625
1882		-54.687500
1883		-58.593750
1884		-52.734375
1885		-58.593750
1886		-52.734375
1887		-56.640625
1888		-54.687500
1889		-58.593750
1890		-52.734375
1891		-56.640625
1892		-52.734375
1893		-56.640625
1894		-52.734375
1895		-56.640625
1896		-52.734375
1897		-56.640625
1898		-52.734375
1899		-56.640625
1900		-52.734375
1901		-56.640625
1902		-52.734375
1903		-56.640625
1904		-52.734375
1905		-56.640625
1906		-52.734375
1907		-56.640625
1908		-52.734375
1909		-56.640625
1910		-52.734375
1911		-54.687500
1912		-52.734375
1913		-54.687500
1914		-52.734375
1915		-54.687500
1916		-50.781250
1917		-54.687500
1918		-50.781250
1919		-54.687500
1920		-50.781250
1921		-54.687500
1922		-50.781250
1923		-52.734375
1924		-50.781250
1925		-52.734375
1926		-50.781250
1927		-54.687500
1928		-50.781250
1929		-52.734375
1930		-48.828125
1931		-52.734375
1932		-48.828125
1933		-52.734375
1934		-48.828125
1935		-52.734375
1936		-48.828125
1937		-50.781250
1938		-46.875000
1939		-50.781250
1940		-46.875000
1941		-50.781250
1942		-46.875000
1943		-50.781250
1944		-46.875000
1945		-48.828125
1946		-46.875000
1947		-48.828125
1948		-44.921875
1949		-48.828125
1950		-44.921875
1951		-48.828125
1952		-44.921875
1953		-48.828125
1954		-42.968750
1955		-46.875000
1956		-42.968750
1957		-44.921875
1958		-42.968750
1959		-46.875000
1960		-42.968750
1961		-44.921875
1962		-41.015625
1963		-44.921875
1964		-41.015625
1965		-44.921875
1966		-41.015625
1967		-42.968750
1968		-41.015625
1969		-42.968750
1970		-39.062500
1971		-42.968750
1972		-39.062500
1973		-42.968750
1974		-37.109375
1975		-41.015625
1976		-37.109375
1977		-41.015625
1978		-37.109375
1979		-39.062500
1980		-35.156250
1981		-39.062500
1982		-35.156250
1983		-37.109375
1984		-35.156250
1985		-37.109375
1986		-33.203125
1987		-37.109375
1988		-33.203125
1989		-35.156250
1990		-31.250000
1991		-35.156250
1992		-31.250000
1993		-33.203125
1994		-31.250000
1995		-33.203125
1996		-29.296875
1997		-33.203125
1998		-29.296875
1999		-31.250000
2000		-27.343750
2001		-31.250000
2002		-27.343750
2003		-31.250000
2004		-27.343750
2005		-29.296875
2006		-25.390625
2007		-29.296875
2008		-25.390625
2009		-29.296875
2010		-23.437500
2011		-27.343750
2012		-23.437500
2013		-27.343750
2014		-21.484375
2015		-25.390625
2016		-21.484375
2017		-23.437500
2018		-21.484375
2019		-23.437500
2020		-19.531250
2021		-23.437500
2022		-19.531250
2023		-21.484375
2024		-19.531250
2025		-21.484375
2026		-17.578125
2027		-21.484375
2028		-15.625000
2029		-19.531250
2030		-15.625000
2031		-17.578125
2032		-15.625000
2033		-17.578125
2034		-13.671875
2035		-17.578125
2036		-13.671875
2037		-15.625000
2038		-11.718750
2039		-15.625000
2040		-9.765625
2041		-13.671875
2042		-9.765625
2043		-13.671875
2044		-9.765625
2045		-11.718750
2046		-7.812500
2047		-11.718750
2048		-7.812500
2049		-11.718750
2050		-5.859375
2051		-9.765625
2052		-5.859375
2053		-9.765625
2054		-5.859375
2055		-7.812500
2056		-3.906250
2057		-7.812500
2058		-3.906250
2059		-5.859375
2060		-1.953125
2061		-5.859375
2062		-1.953125
2063		-3.906250
2064		0.000000
2065		-3.906250
2066		0.000000
2067		-1.953125
2068		1.953125
2069		-1.953125
2070		1.953125
2071		0.000000
2072		3.906250
2073		0.000000
2074		3.906250
2075		1.953125
2076		3.906250
2077		1.953125
2078		5.859375
2079		1.953125
2080		7.812500
2081		3.906250
2082		7.812500
2083		3.906250
2084		7.812500
2085		5.859375
2086		7.812500
2087		5.859375
2088		9.765625
2089		5.859375
2090		11.718750
2091		7.812500
2092		11.718750
2093		7.812500
2094		13.671875
2095		9.765625
2096		13.671875
2097		9.765625
2098		13.671875
2099		11.718750
2100		15.625000
2101		11.718750
2102		15.625000
2103		13.671875
2104		17.578125
2105		13.671875
2106		17.578125
2107		13.671875
2108		19.531250
2109		15.625000
2110		19.531250
2111		17.578125
2112		21.484375
2113		17.578125
2114		21.484375
2115		17.578125
2116		21.484375
2117		19.531250
2118		21.484375
2119		19.531250
2120		23.437500
2121		19.531250
2122		23.437500
2123		21.484375
2124		25.390625
2125		21.484375
2126		25.390625
2127		23.437500
2128		25.390625
2129		23.437500
2130		27.343750
2131		23.437500
2132		27.343750
2133		25.390625
2134		29.296875
2135		25.390625
2136		29.296875
2137		27.343750
2138		29.296875
2139		27.343750
2140		31.250000
2141		29.296875
2142		31.250000
2143		29.296875
2144		31.250000
2145		29.296875
2146		33.203125
2147		29.296875
2148		33.203125
2149		31.250000
2150		33.203125
2151		31.250000
2152		35.156250
2153		31.250000
2154		35.156250
2155		33.203125
2156		37.109375
2157		33.203125
2158		37.109375
2159		33.203125
2160		37.109375
2161		35.156250
2162		37.109375
2163		33.203125
2164		39.062500
2165		35.156250
2166		39.062500
2167		35.156250
2168		41.015625
2169		37.109375
2170		39.062500
2171		37.109375
2172		41.015625
2173		37.109375
2174		41.015625
2175		37.109375
2176		41.015625
2177		39.062500
2178		42.968750
2179		39.062500
2180		42.968750
2181		39.062500
2182		42.968750
2183		39.062500
2184		44.921875
2185		41.015625
2186		44.921875
2187		41.015625
2188		44.921875
2189		41.015625
2190		44.921875
2191		41.015625
2192		46.875000
2193		42.968750
2194		44.921875
2195		42.968750
2196		46.875000
2197		42.968750
2198		46.875000
2199		42.968750
2200		46.875000
2201		42.968750
2202		48.828125
2203		44.921875
2204		46.875000
2205		44.921875
2206		46.875000
2207		44.921875
2208		48.828125
2209		44.921875
2210		48.828125
2211		44.921875
2212		48.828125
2213		44.921875
2214		48.828125
2215		46.875000
2216		48.828125
2217		46.875000
2218		50.781250
2219		46.875000
2220		48.828125
2221		46.875000
2222		50.781250
2223		46.875000
2224		50.781250
2225		46.875000
2226		50.781250
2227		46.875000
2228		50.781250
2229		46.875000
2230		50.781250
2231		48.828125
2232		50.781250
2233		46.875000
2234		50.781250
2235		46.875000
2236		50.781250
2237		48.828125
2238		50.781250
2239		48.828125
2240		50.781250
2241		46.875000
2242		50.781250
2243		48.828125
2244		50.781250
2245		46.875000
2246		50.781250
2247		48.828125
2248		52.734375
2249		48.828125
2250		50.781250
2251		46.875000
2252		50.781250
2253		48.828125
2254		50.781250
2255		48.828125
2256		50.781250
2257		46.875000
2258		50.781250
2259		46.875000
2260		52.734375
2261		46.875000
2262		50.781250
2263		46.875000
2264		50.781250
2265		48.828125
2266		50.781250
2267		46.875000
2268		50.781250
2269		48.828125
2270		50.781250
2271		46.875000
2272		50.781250
2273		46.875000
2274		50.781250
2275		46.875000
2276		50.781250
2277		46.875000
2278		50.781250
2279		46.875000
2280		50.781250
2281		46.875000
2282		48.828125
2283		44.921875
2284		50.781250
2285		46.875000
2286		48.828125
2287		44.921875
2288		48.828125
2289		44.921875
2290		48.828125
2291		44.921875
2292		48.828125
2293		44.921875
2294		48.828125
2295		44.921875
2296		46.875000
2297		44.921875
2298		46.875000
2299		42.968750
2300		48.828125
2301		42.968750
2302		46.875000
2303		42.968750
2304		46.875000
2305		42.968750
2306		46.875000
2307		42.968750
2308		44.921875
2309		41.015625
2310		44.921875
2311		41.015625
2312		44.921875
2313		41.015625
2314		44.921875
2315		41.015625
2316		42.968750
2317		39.062500
2318		42.968750
2319		39.062500
2320		42.968750
2321		39.062500
2322		42.968750
2323		39.062500
2324		42.968750
2325		37.109375
2326		42.968750
2327		37.109375
2328		42.968750
2329		37.109375
2330		41.015625
2331		37.109375
2332		41.015625
2333		35.156250
2334		39.062500
2335		35.156250
2336		39.062500
2337		33.203125
2338		39.062500
2339		35.156250
2340		37.109375
2341		33.203125
2342		37.109375
2343		33.203125
2344		37.109375
2345		33.203125
2346		35.156250
2347		31.250000
2348		35.156250
2349		31.250000
2350		35.156250
2351		31.250000
2352		35.156250
2353		29.296875
2354		33.203125
2355		29.296875
2356		33.203125
2357		29.296875
2358		31.250000
2359		27.343750
2360		33.203125
2361		27.343750
2362		29.296875
2363		25.390625
2364		29.296875
2365		25.390625
2366		29.296875
2367		25.390625
2368		29.296875
2369		23.437500
2370		27.343750
2371		23.437500
2372		27.343750
2373		23.437500
2374		27.343750
2375		21.484375
2376		27.343750
2377		21.484375
2378		25.390625
2379		21.484375
2380		23.437500
2381		19.531250
2382		23.437500
2383		19.531250
2384		21.484375
2385		17.578125
2386		21.484375
2387		17.578125
2388		21.484375
2389		17.578125
2390		19.531250
2391		15.625000
2392		19.531250
2393		15.625000
2394		19.531250
2395		13.671875
2396		17.578125
2397		11.718750
2398		17.578125
2399		11.718750
2400		15.625000
2401		11.718750
2402		15.625000
2403		7.812500
2404		15.625000
2405		9.765625
2406		13.671875
2407		9.765625
2408		11.718750
2409		7.812500
2410		11.718750
2411		7.812500
2412		11.718750
2413		5.859375
2414		9.765625
2415		5.859375
2416		9.765625
2417		5.859375
2418		7.812500
2419		3.906250
2420		7.812500
2421		3.906250
2422		5.859375
2423		1.953125
2424		5.859375
2425		0.000000
2426		3.906250
2427		0.000000
2428		3.906250
2429		0.000000
2430		3.906250
2431		-1.953125
2432		3.906250
2433		-1.953125
2434		1.953125
2435		-1.953125
2436		0.000000
2437		-3.906250
2438		0.000000
2439		-5.859375
2440		-1.953125
2441		-5.859375
2442		-1.953125
2443		-7.812500
2444		-1.953125
2445		-7.812500
2446		-3.906250
2447		-9.765625
2448		-5.859375
2449		-9.765625
2450		-5.859375
2451		-11.718750
2452		-7.812500
2453		-11.718750
2454		-7.812500
2455		-13.671875
2456		-7.812500
2457		-13.671875
2458		-9.765625
2459		-13.671875
2460		-11.718750
2461		-15.625000
2462		-11.718750
2463		-15.625000
2464		-13.671875
2465		-17.578125
2466		-13.671875
2467		-17.578125
2468		-13.671875
2469		-19.531250
2470		-15.625000
2471		-19.531250
2472		-15.625000
2473		-21.484375
2474		-13.671875
2475		-21.484375
2476		-17.578125
2477		-23.437500
2478		-17.578125
2479		-23.437500
2480		-19.531250
2481		-25.390625
2482		-21.484375
2483		-25.390625
2484		-19.531250
2485		-25.390625
2486		-21.484375
2487		-27.343750
2488		-21.484375
2489		-27.343750
2490		-23.437500
2491		-27.343750
2492		-23.437500
2493		-29.296875
2494		-25.390625
2495		-29.296875
2496		-27.343750
2497		-31.250000
2498		-27.343750
2499		-31.250000
2500		-27.343750
2501		-33.203125
2502		-29.296875
2503		-33.203125
2504		-29.296875
2505		-33.203125
2506		-29.296875
2507		-33.203125
2508		-31.250000
2509		-35.156250
2510		-31.250000
2511		-37.109375
2512		-31.250000
2513		-37.109375
2514		-33.203125
2515		-37.109375
2516		-33.203125
2517		-39.062500
2518		-33.203125
2519		-39.062500
2520		-35.156250
2521		-39.062500
2522		-35.156250
2523		-41.015625
2524		-35.156250
2525		-41.015625
2526		-37.109375
2527		-42.968750
2528		-37.109375
2529		-41.015625
2530		-39.062500
2531		-42.968750
2532		-39.062500
2533		-42.968750
2534		-39.062500
2535		-44.921875
2536		-41.015625
2537		-44.921875
2538		-41.015625
2539		-46.875000
2540		-41.015625
2541		-44.921875
2542		-42.968750
2543		-46.875000
2544		-42.968750
2545		-46.875000
2546		-42.968750
2547		-46.875000
2548		-44.921875
2549		-48.828125
2550		-44.921875
2551		-48.828125
2552		-44.921875
2553		-48.828125
2554		-44.921875
2555		-48.828125
2556		-44.921875
2557		-48.828125
2558		-46.875000
2559		-50.781250
2560		-46.875000
2561		-50.781250
2562		-46.875000
2563		-50.781250
2564		-48.828125
2565		-52.734375
2566		-48.828125
2567		-52.734375
2568		-48.828125
2569		-52.734375
2570		-48.828125
2571		-52.734375
2572		-48.828125
2573		-52.734375
2574		-48.828125
2575		-52.734375
2576		-48.828125
2577		-52.734375
2578		-50.781250
2579		-54.687500
2580		-50.781250
2581		-54.687500
2582		-50.781250
2583		-54.687500
2584		-50.781250
2585		-54.687500
2586		-50.781250
2587		-54.687500
2588		-52.734375
2589		-54.687500
2590		-50.781250
2591		-54.687500
2592		-50.781250
2593		-56.640625
2594		-52.734375
2595		-56.640625
2596		-50.781250
2597		-54.687500
2598		-52.734375
2599		-56.640625
2600		-52.734375
2601		-56.640625
2602		-52.734375
2603		-56.640625
2604		-52.734375
2605		-56.640625
2606		-52.734375
2607		-56.640625
2608		-52.734375
2609		-56.640625
2610		-52.734375
2611		-56.640625
2612		-52.734375
2613		-56.640625
2614		-52.734375
2615		-56.640625
2616		-52.734375
2617		-58.593750
2618		-52.734375
2619		-56.640625
2620		-52.734375
2621		-56.640625
2622		-52.734375
2623		-56.640625
2624		-52.734375
2625		-56.640625
2626		-52.734375
2627		-56.640625
2628		-52.734375
2629		-56.640625
2630		-52.734375
2631		-56.640625
2632		-52.734375
2633		-56.640625
2634		-52.734375
2635		-56.640625
2636		-52.734375
2637		-56.640625
2638		-52.734375
2639		-56.640625
2640		-52.734375
2641		-56.640625
2642		-52.734375
2643		-54.687500
2644		-52.734375
2645		-54.687500
2646		-50.781250
2647		-54.687500
2648		-50.781250
2649		-54.687500
2650		-50.781250
2651		-54.687500
2652		-50.781250
2653		-54.687500
2654		-48.828125
2655		-52.734375
2656		-50.781250
2657		-52.734375
2658		-48.828125
2659		-52.734375
2660		-48.828125
2661		-52.734375
2662		-48.828125
2663		-52.734375
2664		-48.828125
2665		-50.781250
2666		-48.828125
2667		-50.781250
2668		-48.828125
2669		-52.734375
2670		-46.875000
2671		-50.781250
2672		-46.875000
2673		-50.781250
2674		-44.921875
2675		-48.828125
2676		-46.875000
2677		-48.828125
2678		-44.921875
2679		-50.781250
2680		-44.921875
2681		-48.828125
2682		-44.921875
2683		-46.875000
2684		-44.921875
2685		-46.875000
2686		-42.968750
2687		-46.875000
2688		-42.968750
2689		-46.875000
2690		-42.968750
2691		-44.921875
2692		-41.015625
2693		-44.921875
2694		-41.015625
2695		-42.968750
2696		-41.015625
2697		-42.968750
2698		-41.015625
2699		-42.968750
2700		-39.062500
2701		-42.968750
2702		-39.062500
2703		-41.015625
2704		-37.109375
2705		-41.015625
2706		-37.109375
2707		-41.015625
2708		-37.109375
2709		-39.062500
2710		-37.109375
2711		-39.062500
2712		-35.156250
2713		-39.062500
2714		-35.156250
2715		-37.109375
2716		-33.203125
2717		-37.109375
2718		-33.203125
2719		-37.109375
2720		-33.203125
2721		-35.156250
2722		-31.250000
2723		-35.156250
2724		-31.250000
2725		-35.156250
2726		-29.296875
2727		-33.203125
2728		-29.296875
2729		-33.203125
2730		-29.296875
2731		-31.250000
2732		-27.343750
2733		-31.250000
2734		-27.343750
2735		-29.296875
2736		-27.343750
2737		-29.296875
2738		-25.390625
2739		-29.296875
2740		-25.390625
2741		-27.343750
2742		-23.437500
2743		-27.343750
2744		-23.437500
2745		-27.343750
2746		-21.484375
2747		-25.390625
2748		-21.484375
2749		-23.437500
2750		-21.484375
2751		-25.390625
2752		-19.531250
2753		-23.437500
2754		-19.531250
2755		-21.484375
2756		-17.578125
2757		-21.484375
2758		-17.578125
2759		-19.531250
2760		-15.625000
2761		-19.531250
2762		-15.625000
2763		-17.578125
2764		-15.625000
2765		-17.578125
2766		-13.671875
2767		-15.625000
2768		-11.718750
2769		-15.625000
2770		-11.718750
2771		-15.625000
2772		-11.718750
2773		-13.671875
2774		-9.765625
2775		-13.671875
2776		-7.812500
2777		-11.718750
2778		-7.812500
2779		-11.718750
2780		-7.812500
2781		-9.765625
2782		-7.812500
2783		-9.765625
2784		-5.859375
2785		-9.765625
2786		-3.906250
2787		-7.812500
2788		-3.906250
2789		-7.812500
2790		-1.953125
2791		-5.859375
2792		-1.953125
2793		-5.859375
2794		0.000000
2795		-3.906250
2796		0.000000
2797		-3.906250
2798		0.000000
2799		-1.953125
2800		1.953125
2801		-1.953125
2802		1.953125
2803		0.000000
2804		3.906250
2805		0.000000
2806		3.906250
2807		1.953125
2808		5.859375
2809		1.953125
2810		5.859375
2811		3.906250
2812		5.859375
2813		3.906250
2814		7.812500
2815		3.906250
2816		9.765625
2817		5.859375
2818		9.765625
2819		7.812500
2820		11.718750
2821		7.812500
2822		11.718750
2823		7.812500
2824		11.718750
2825		7.812500
2826		13.671875
2827		9.765625
2828		13.671875
2829		9.765625
2830		15.625000
2831		11.718750
2832		15.625000
2833		13.671875
2834		15.625000
2835		13.671875
2836		17.578125
2837		13.671875
2838		17.578125
2839		15.625000
2840		19.531250
2841		15.625000
2842		19.531250
2843		17.578125
2844		21.484375
2845		17.578125
2846		21.484375
2847		17.578125
2848		23.437500
2849		19.531250
2850		23.437500
2851		19.531250
2852		23.437500
2853		21.484375
2854		25.390625
2855		21.484375
2856		25.390625
2857		23.437500
2858		25.390625
2859		23.437500
2860		27.343750
2861		23.437500
2862		29.296875
2863		25.390625
2864		27.343750
2865		25.390625
2866		29.296875
2867		27.343750
2868		29.296875
2869		27.343750
2870		31.250000
2871		27.343750
2872		31.250000
2873		27.343750
2874		31.250000
2875		27.343750
2876		33.203125
2877		29.296875
2878		33.203125
2879		31.250000
2880		35.156250
2881		31.250000
2882		35.156250
2883		31.250000
2884		35.156250
2885		31.250000
2886		37.109375
2887		33.203125
2888		37.109375
2889		33.203125
2890		37.109375
2891		33.203125
2892		37.109375
2893		35.156250
2894		39.062500
2895		35.156250
2896		39.062500
2897		37.109375
2898		39.062500
2899		37.109375
2900		41.015625
2901		37.109375
2902		41.015625
2903		37.109375
2904		41.015625
2905		39.062500
2906		41.015625
2907		39.062500
2908		42.968750
2909		39.062500
2910		42.968750
2911		39.062500
2912		42.968750
2913		39.062500
2914		42.968750
2915		41.015625
2916		42.968750
2917		41.015625
2918		44.921875
2919		41.015625
2920		44.921875
2921		41.015625
2922		44.921875
2923		41.015625
2924		46.875000
2925		42.968750
2926		46.875000
2927		42.968750
2928		46.875000
2929		42.968750
2930		46.875000
2931		42.968750
2932		46.875000
2933		44.921875
2934		46.875000
2935		44.921875
2936		48.828125
2937		44.921875
2938		48.828125
2939		44.921875
2940		48.828125
2941		44.921875
2942		48.828125
2943		46.875000
2944		48.828125
2945		44.921875
2946		50.781250
2947		46.875000
2948		48.828125
2949		46.875000
2950		50.781250
2951		46.875000
2952		50.781250
2953		46.875000
2954		50.781250
2955		46.875000
2956		50.781250
2957		46.875000
2958		50.781250
2959		46.875000
2960		50.781250
2961		46.875000
2962		50.781250
2963		46.875000
2964		50.781250
2965		48.828125
2966		50.781250
2967		46.875000
2968		50.781250
2969		48.828125
2970		52.734375
2971		48.828125
2972		52.734375
2973		48.828125
2974		52.734375
2975		48.828125
2976		50.781250
2977		48.828125
2978		52.734375
2979		48.828125
2980		52.734375
2981		48.828125
2982		52.734375
2983		48.828125
2984		52.734375
2985		46.875000
2986		52.734375
2987		48.828125
2988		52.734375
2989		48.828125
2990		52.734375
2991		48.828125
2992		50.781250
2993		46.875000
2994		52.734375
2995		48.828125
2996		52.734375
2997		48.828125
2998		52.734375
2999		48.828125
3000		50.781250
3001		48.828125
3002		50.781250
3003		46.875000
3004		50.781250
3005		46.875000
3006		52.734375
3007		46.875000
3008		50.781250
3009		46.875000
3010		50.781250
3011		46.875000
3012		50.781250
3013		46.875000
3014		50.781250
3015		46.875000
3016		50.781250
3017		46.875000
3018		50.781250
3019		44.921875
3020		50.781250
3021		44.921875
3022		48.828125
3023		46.875000
3024		50.781250
3025		44.921875
3026		48.828125
3027		44.921875
3028		48.828125
3029		44.921875
3030		48.828125
3031		44.921875
3032		48.828125
3033		44.921875
3034		46.875000
3035		44.921875
3036		48.828125
3037		42.968750
3038		46.875000
3039		42.968750
3040		46.875000
3041		42.968750
3042		44.921875
3043		42.968750
3044		44.921875
3045		41.015625
3046		44.921875
3047		41.015625
3048		44.921875
3049		41.015625
3050		44.921875
3051		41.015625
3052		44.921875
3053		39.062500
3054		44.921875
3055		39.062500
3056		42.968750
3057		39.062500
3058		42.968750
3059		39.062500
3060		42.968750
3061		37.109375
3062		41.015625
3063		37.109375
3064		41.015625
3065		35.156250
3066		41.015625
3067		37.109375
3068		41.015625
3069		35.156250
3070		39.062500
3071		35.156250
3072		39.062500
3073		35.156250
3074		39.062500
3075		35.156250
3076		37.109375
3077		33.203125
3078		37.109375
3079		33.203125
3080		37.109375
3081		31.250000
3082		35.156250
3083		31.250000
3084		35.156250
3085		31.250000
3086		35.156250
3087		31.250000
3088		33.203125
3089		29.296875
3090		33.203125
3091		29.296875
3092		33.203125
3093		29.296875
3094		31.250000
3095		27.343750
3096		33.203125
3097		27.343750
3098		31.250000
3099		27.343750
3100		29.296875
3101		25.390625
3102		29.296875
3103		23.437500
3104		29.296875
3105		23.437500
3106		27.343750
3107		23.437500
3108		27.343750
3109		23.437500
3110		25.390625
3111		21.484375
3112		25.390625
3113		21.484375
3114		25.390625
3115		19.531250
3116		25.390625
3117		19.531250
3118		23.437500
3119		19.531250
3120		21.484375
3121		17.578125
3122		21.484375
3123		17.578125
3124		21.484375
3125		15.625000
3126		21.484375
3127		15.625000
3128		19.531250
3129		15.625000
3130		17.578125
3131		13.671875
3132		17.578125
3133		11.718750
3134		17.578125
3135		11.718750
3136		15.625000
3137		11.718750
3138		15.625000
3139		9.765625
3140		13.671875
3141		9.765625
3142		13.671875
3143		9.765625
3144		13.671875
3145		7.812500
3146		11.718750
3147		7.812500
3148		9.765625
3149		5.859375
3150		9.765625
3151		5.859375
3152		7.812500
3153		3.906250
3154		7.812500
3155		1.953125
3156		7.812500
3157		1.953125
3158		5.859375
3159		1.953125
3160		5.859375
3161		0.000000
3162		3.906250
3163		0.000000
3164		3.906250
3165		-1.953125
3166		1.953125
3167		-1.953125
3168		1.953125
3169		-3.906250
3170		0.000000
3171		-3.906250
3172		0.000000
3173		-3.906250
3174		0.000000
3175		-5.859375
3176		-1.953125
3177		-7.812500
3178		-1.953125
3179		-7.812500
3180		-3.906250
3181		-7.812500
3182		-3.906250
3183		-9.765625
3184		-5.859375
3185		-9.765625
3186		-7.812500
3187		-11.718750
3188		-7.812500
3189		-11.718750
3190		-7.812500
3191		-13.671875
3192		-7.812500
3193		-13.671875
3194		-9.765625
3195		-15.625000
3196		-11.718750
3197		-15.625000
3198		-11.718750
3199		-17.578125
3200		-13.671875
3201		-17.578125
3202		-13.671875
3203		-17.578125
3204		-13.671875
3205		-19.531250
3206		-15.625000
3207		-19.531250
3208		-15.625000
3209		-21.484375
3210		-17.578125
3211		-21.484375
3212		-17.578125
3213		-23.437500
3214		-19.531250
3215		-23.437500
3216		-19.531250
3217		-25.390625
3218		-19.531250
3219		-25.390625
3220		-21.484375
3221		-25.390625
3222		-23.437500
3223		-27.343750
3224		-23.437500
3225		-27.343750
3226		-23.437500
3227		-29.296875
3228		-25.390625
3229		-29.296875
3230		-25.390625
3231		-29.296875
3232		-27.343750
3233		-31.250000
3234		-27.343750
3235		-31.250000
3236		-29.296875
3237		-33.203125
3238		-27.343750
3239		-33.203125
3240		-29.296875
3241		-33.203125
3242		-29.296875
3243		-35.156250
3244		-29.296875
3245		-35.156250
3246		-33.203125
3247		-37.109375
3248		-33.203125
3249		-37.109375
3250		-33.203125
3251		-37.109375
3252		-35.156250
3253		-37.109375
3254		-35.156250
3255		-39.062500
3256		-35.156250
3257		-41.015625
3258		-35.156250
3259		-41.015625
3260		-37.109375
3261		-41.015625
3262		-37.109375
3263		-41.015625
3264		-39.062500
3265		-42.968750
3266		-39.062500
3267		-42.968750
3268		-39.062500
3269		-42.968750
3270		-41.015625
3271		-44.921875
3272		-39.062500
3273		-44.921875
3274		-41.015625
3275		-44.921875
3276		-41.015625
3277		-46.875000
3278		-42.968750
3279		-46.875000
3280		-42.968750
3281		-46.875000
3282		-42.968750
3283		-48.828125
3284		-42.968750
3285		-46.875000
3286		-44.921875
3287		-48.828125
3288		-44.921875
3289		-50.781250
3290		-44.921875
3291		-48.828125
3292		-44.921875
3293		-48.828125
3294		-46.875000
3295		-50.781250
3296		-44.921875
3297		-50.781250
3298		-46.875000
3299		-50.781250
3300		-46.875000
3301		-52.734375
3302		-46.875000
3303		-50.781250
3304		-48.828125
3305		-52.734375
3306		-48.828125
3307		-52.734375
3308		-48.828125
3309		-52.734375
3310		-48.828125
3311		-52.734375
3312		-48.828125
3313		-54.687500
3314		-48.828125
3315		-52.734375
3316		-50.781250
3317		-54.687500
3318		-50.781250
3319		-54.687500
3320		-50.781250
3321		-54.687500
3322		-50.781250
3323		-54.687500
3324		-50.781250
3325		-54.687500
3326		-50.781250
3327		-54.687500
3328		-52.734375
3329		-54.687500
3330		-52.734375
3331		-56.640625
3332		-50.781250
3333		-56.640625
3334		-52.734375
3335		-54.687500
3336		-52.734375
3337		-54.687500
3338		-52.734375
3339		-56.640625
3340		-50.781250
3341		-56.640625
3342		-52.734375
3343		-56.640625
3344		-52.734375
3345		-56.640625
3346		-50.781250
3347		-56.640625
3348		-52.734375
3349		-56.640625
3350		-52.734375
3351		-56.640625
3352		-52.734375
3353		-56.640625
3354		-52.734375
3355		-56.640625
3356		-52.734375
3357		-56.640625
3358		-52.734375
3359		-56.640625
3360		-52.734375
3361		-56.640625
3362		-52.734375
3363		-56.640625
3364		-52.734375
3365		-54.687500
3366		-52.734375
3367		-56.640625
3368		-52.734375
3369		-54.687500
3370		-52.734375
3371		-56.640625
3372		-50.781250
3373		-54.687500
3374		-50.781250
3375		-54.687500
3376		-50.781250
3377		-54.687500
3378		-50.781250
3379		-54.687500
3380		-50.781250
3381		-54.687500
3382		-50.781250
3383		-54.687500
3384		-50.781250
3385		-52.734375
3386		-48.828125
3387		-52.734375
3388		-50.781250
3389		-52.734375
3390		-48.828125
3391		-52.734375
3392		-48.828125
3393		-52.734375
3394		-48.828125
3395		-52.734375
3396		-46.875000
3397		-52.734375
3398		-46.875000
3399		-50.781250
3400		-46.875000
3401		-50.781250
3402		-46.875000
3403		-50.781250
3404		-46.875000
3405		-48.828125
3406		-46.875000
3407		-50.781250
3408		-44.921875
3409		-48.828125
3410		-44.921875
3411		-48.828125
3412		-44.921875
3413		-48.828125
3414		-44.921875
3415		-46.875000
3416		-42.968750
3417		-46.875000
3418		-42.968750
3419		-46.875000
3420		-42.968750
3421		-44.921875
3422		-42.968750
3423		-44.921875
3424		-42.968750
3425		-44.921875
3426		-41.015625
3427		-44.921875
3428		-41.015625
3429		-44.921875
3430		-39.062500
3431		-42.968750
3432		-39.062500
3433		-42.968750
3434		-39.062500
3435		-42.968750
3436		-37.109375
3437		-41.015625
3438		-37.109375
3439		-41.015625
3440		-35.156250
3441		-41.015625
3442		-35.156250
3443		-41.015625
3444		-35.156250
3445		-39.062500
3446		-33.203125
3447		-39.062500
3448		-33.203125
3449		-37.109375
3450		-33.203125
3451		-37.109375
3452		-31.250000
3453		-35.156250
3454		-33.203125
3455		-35.156250
3456		-31.250000
3457		-35.156250
3458		-29.296875
3459		-33.203125
3460		-29.296875
3461		-33.203125
3462		-27.343750
3463		-33.203125
3464		-27.343750
3465		-33.203125
3466		-27.343750
3467		-31.250000
3468		-25.390625
3469		-29.296875
3470		-25.390625
3471		-29.296875
3472		-25.390625
3473		-29.296875
3474		-23.437500
3475		-27.343750
3476		-21.484375
3477		-27.343750
3478		-21.484375
3479		-25.390625
3480		-21.484375
3481		-25.390625
3482		-19.531250
3483		-25.390625
3484		-19.531250
3485		-23.437500
3486		-19.531250
3487		-21.484375
3488		-19.531250
3489		-21.484375
3490		-17.578125
3491		-21.484375
3492		-15.625000
3493		-21.484375
3494		-15.625000
3495		-19.531250
3496		-13.671875
3497		-19.531250
3498		-13.671875
3499		-17.578125
3500		-11.718750
3501		-15.625000
3502		-11.718750
3503		-15.625000
3504		-11.718750
3505		-13.671875
3506		-11.718750
3507		-13.671875
3508		-9.765625
3509		-13.671875
3510		-9.765625
3511		-11.718750
3512		-7.812500
3513		-9.765625
3514		-5.859375
3515		-9.765625
3516		-5.859375
3517		-7.812500
3518		-5.859375
3519		-7.812500
3520		-3.906250
3521		-7.812500
3522		-3.906250
3523		-5.859375
3524		-1.953125
3525		-5.859375
3526		0.000000
3527		-3.906250
3528		-1.953125
3529		-3.906250
3530		0.000000
3531		-1.953125
3532		0.000000
3533		-1.953125
3534		1.953125
3535		0.000000
3536		3.906250
3537		0.000000
3538		3.906250
3539		1.953125
3540		3.906250
3541		1.953125
3542		5.859375
3543		3.906250
3544		5.859375
3545		3.906250
3546		7.812500
3547		3.906250
3548		7.812500
3549		5.859375
3550		7.812500
3551		5.859375
3552		9.765625
3553		7.812500
3554		9.765625
3555		7.812500
3556		11.718750
3557		7.812500
3558		11.718750
3559		9.765625
3560		13.671875
3561		11.718750
3562		15.625000
3563		11.718750
3564		15.625000
3565		13.671875
3566		15.625000
3567		13.671875
3568		17.578125
3569		15.625000
3570		17.578125
3571		15.625000
3572		17.578125
3573		15.625000
3574		19.531250
3575		17.578125
3576		19.531250
3577		17.578125
3578		21.484375
3579		17.578125
3580		21.484375
3581		19.531250
3582		21.484375
3583		19.531250
3584		23.437500
3585		21.484375
3586		23.437500
3587		21.484375
3588		25.390625
3589		21.484375
3590		25.390625
3591		23.437500
3592		25.390625
3593		23.437500
3594		27.343750
3595		25.390625
3596		29.296875
3597		25.390625
3598		29.296875
3599		25.390625
3600		29.296875
3601		27.343750
3602		31.250000
3603		27.343750
3604		31.250000
3605		27.343750
3606		31.250000
3607		27.343750
3608		35.156250
3609		27.343750
3610		35.156250
3611		27.343750
3612		35.156250
3613		27.343750
3614		37.109375
3615		31.250000
3616		35.156250
3617		31.250000
3618		35.156250
3619		33.203125
3620		35.156250
3621		33.203125
3622		37.109375
3623		33.203125
3624		37.109375
3625		31.250000
3626		41.015625
3627		31.250000
3628		41.015625
3629		33.203125
3630		42.968750
3631		37.109375
3632		41.015625
3633		37.109375
3634		39.062500
3635		37.109375
3636		41.015625
3637		37.109375
3638		42.968750
3639		39.062500
3640		41.015625
3641		35.156250
3642		44.921875
3643		37.109375
3644		44.921875
3645		37.109375
3646		46.875000
3647		37.109375
3648		46.875000
3649		41.015625
3650		42.968750
3651		41.015625
3652		44.921875
3653		41.015625
3654		44.921875
3655		42.968750
3656		44.921875
3657		41.015625
3658		46.875000
3659		39.062500
3660		48.828125
3661		39.062500
3662		48.828125
3663		41.015625
3664		50.781250
3665		44.921875
3666		46.875000
3667		44.921875
3668		46.875000
3669		44.921875
3670		48.828125
3671		44.921875
3672		48.828125
3673		44.921875
3674		48.828125
3675		41.015625
3676		52.734375
3677		42.968750
3678		52.734375
3679		42.968750
3680		52.734375
3681		46.875000
3682		50.781250
3683		46.875000
3684		48.828125
3685		46.875000
3686		50.781250
3687		46.875000
3688		50.781250
3689		46.875000
3690		50.781250
3691		46.875000
3692		52.734375
3693		44.921875
3694		54.687500
3695		44.921875
3696		54.687500
3697		42.968750
3698		54.687500
3699		48.828125
3700		50.781250
3701		48.828125
3702		50.781250
3703		48.828125
3704		50.781250
3705		48.828125
3706		52.734375
3707		48.828125
3708		50.781250
3709		44.921875
3710		54.687500
3711		44.921875
3712		54.687500
3713		44.921875
3714		54.687500
3715		48.828125
3716		52.734375
3717		48.828125
3718		50.781250
3719		48.828125
3720		50.781250
3721		46.875000
3722		50.781250
3723		48.828125
3724		50.781250
3725		44.921875
3726		54.687500
3727		44.921875
3728		54.687500
3729		44.921875
3730		54.687500
3731		44.921875
3732		54.687500
3733		48.828125
3734		50.781250
3735		46.875000
3736		50.781250
3737		46.875000
3738		50.781250
3739		46.875000
3740		50.781250
3741		46.875000
3742		50.781250
3743		44.921875
3744		54.687500
3745		42.968750
3746		52.734375
3747		44.921875
3748		52.734375
3749		46.875000
3750		48.828125
3751		46.875000
3752		48.828125
3753		46.875000
3754		48.828125
3755		44.921875
3756		48.828125
3757		44.921875
3758		48.828125
3759		41.015625
3760		50.781250
3761		41.015625
3762		50.781250
3763		41.015625
3764		50.781250
3765		44.921875
3766		46.875000
3767		42.968750
3768		46.875000
3769		42.968750
3770		46.875000
3771		42.968750
3772		44.921875
3773		42.968750
3774		44.921875
3775		41.015625
3776		46.875000
3777		39.062500
3778		48.828125
3779		37.109375
3780		48.828125
3781		37.109375
3782		46.875000
3783		41.015625
3784		44.921875
3785		39.062500
3786		42.968750
3787		39.062500
3788		42.968750
3789		39.062500
3790		42.968750
3791		37.109375
3792		41.015625
3793		37.109375
3794		41.015625
3795		35.156250
3796		42.968750
3797		35.156250
3798		41.015625
3799		37.109375
3800		39.062500
3801		35.156250
3802		39.062500
3803		35.156250
3804		37.109375
3805		35.156250
3806		37.109375
3807		33.203125
3808		37.109375
3809		33.203125
3810		35.156250
3811		31.250000
3812		37.109375
3813		29.296875
3814		39.062500
3815		31.250000
3816		33.203125
3817		31.250000
3818		33.203125
3819		29.296875
3820		33.203125
3821		29.296875
3822		33.203125
3823		27.343750
3824		31.250000
3825		27.343750
3826		31.250000
3827		27.343750
3828		31.250000
3829		25.390625
3830		31.250000
3831		25.390625
3832		31.250000
3833		25.390625
3834		29.296875
3835		23.437500
3836		27.343750
3837		23.437500
3838		27.343750
3839		23.437500
3840		27.343750
3841		21.484375
3842		25.390625
3843		21.484375
3844		25.390625
3845		21.484375
3846		23.437500
3847		19.531250
3848		23.437500
3849		19.531250
3850		21.484375
3851		17.578125
3852		21.484375
3853		17.578125
3854		21.484375
3855		15.625000
3856		19.531250
3857		15.625000
3858		19.531250
3859		15.625000
3860		17.578125
3861		13.671875
3862		17.578125
3863		13.671875
3864		17.578125
3865		11.718750
3866		15.625000
3867		11.718750
3868		13.671875
3869		11.718750
3870		13.671875
3871		9.765625
3872		13.671875
3873		9.765625
3874		11.718750
3875		7.812500
3876		11.718750
3877		7.812500
3878		11.718750
3879		5.859375
3880		9.765625
3881		3.906250
3882		9.765625
3883		3.906250
3884		7.812500
3885		3.906250
3886		7.812500
3887		1.953125
3888		5.859375
3889		1.953125
3890		5.859375
3891		1.953125
3892		3.906250
3893		0.000000
3894		3.906250
3895		-1.953125
3896		3.906250
3897		-3.906250
3898		1.953125
3899		-1.953125
3900		0.000000
3901		-3.906250
3902		0.000000
3903		-5.859375
3904		0.000000
3905		-5.859375
3906		-1.953125
3907		-5.859375
3908		-1.953125
3909		-7.812500
3910		-3.906250
3911		-7.812500
3912		-3.906250
3913		-9.765625
3914		-3.906250
3915		-9.765625
3916		-5.859375
3917		-11.718750
3918		-7.812500
3919		-11.718750
3920		-7.812500
3921		-11.718750
3922		-9.765625
3923		-13.671875
3924		-9.765625
3925		-13.671875
3926		-11.718750
3927		-15.625000
3928		-11.718750
3929		-15.625000
3930		-11.718750
3931		-17.578125
3932		-13.671875
3933		-17.578125
3934		-13.671875
3935		-19.531250
3936		-13.671875
3937		-19.531250
3938		-15.625000
3939		-19.531250
3940		-17.578125
3941		-21.484375
3942		-17.578125
3943		-23.437500
3944		-17.578125
3945		-23.437500
3946		-19.531250
3947		-25.390625
3948		-19.531250
3949		-23.437500
3950		-21.484375
3951		-25.390625
3952		-21.484375
3953		-25.390625
3954		-21.484375
3955		-27.343750
3956		-23.437500
3957		-27.343750
3958		-25.390625
3959		-29.296875
3960		-25.390625
3961		-31.250000
3962		-25.390625
3963		-31.250000
3964		-27.343750
3965		-31.250000
3966		-27.343750
3967		-33.203125
3968		-27.343750
3969		-33.203125
3970		-29.296875
3971		-33.203125
3972		-29.296875
3973		-33.203125
3974		-31.250000
3975		-35.156250
3976		-31.250000
3977		-37.109375
3978		-31.250000
3979		-37.109375
3980		-31.250000
3981		-37.109375
3982		-33.203125
3983		-39.062500
3984		-35.156250
3985		-39.062500
3986		-35.156250
3987		-39.062500
3988		-35.156250
3989		-39.062500
3990		-37.109375
3991		-41.015625
3992		-37.109375
3993		-41.015625
3994		-39.062500
3995		-42.968750
3996		-37.109375
3997		-42.968750
3998		-39.062500
3999		-42.968750
4000		-39.062500
4001		-42.968750
4002		-41.015625
4003		-44.921875
4004		-41.015625
4005		-44.921875
4006		-41.015625
4007		-44.921875
4008		-41.015625
4009		-44.921875
4010		-42.968750
4011		-48.828125
4012		-41.015625
4013		-46.875000
4014		-42.968750
4015		-46.875000
4016		-44.921875
4017		-48.828125
4018		-42.968750
4019		-48.828125
4020		-44.921875
4021		-48.828125
4022		-46.875000
4023		-48.828125
4024		-46.875000
4025		-48.828125
4026		-46.875000
4027		-52.734375
4028		-46.875000
4029		-50.781250
4030		-46.875000
4031		-50.781250
4032		-46.875000
4033		-50.781250
4034		-48.828125
4035		-52.734375
4036		-48.828125
4037		-52.734375
4038		-48.828125
4039		-52.734375
4040		-50.781250
4041		-52.734375
4042		-50.781250
4043		-52.734375
4044		-50.781250
4045		-56.640625
4046		-50.781250
4047		-54.687500
4048		-50.781250
4049		-54.687500
4050		-50.781250
4051		-54.687500
4052		-50.781250
4053		-56.640625
4054		-50.781250
4055		-54.687500
4056		-52.734375
4057		-54.687500
4058		-52.734375
4059		-56.640625
4060		-50.781250
4061		-56.640625
4062		-52.734375
4063		-56.640625
4064		-52.734375
4065		-56.640625
4066		-52.734375
4067		-56.640625
4068		-52.734375
4069		-56.640625
4070		-52.734375
4071		-56.640625
4072		-52.734375
4073		-56.640625
4074		-54.687500
4075		-56.640625
4076		-52.734375
4077		-56.640625
4078		-52.734375
4079		-56.640625
4080		-52.734375
4081		-58.593750
4082		-52.734375
4083		-56.640625
4084		-54.687500
4085		-56.640625
4086		-54.687500
4087		-56.640625
4088		-52.734375
4089		-56.640625
4090		-52.734375
4091		-56.640625
4092		-52.734375
4093		-56.640625
4094		-54.687500
4095		-56.640625
4096		-52.734375
4097		-56.640625
4098		-52.734375
4099		-56.640625
4100		-52.734375
4101		-56.640625
4102		-52.734375
4103		-56.640625
4104		-52.734375
4105		-56.640625
4106		-52.734375
4107		-56.640625
4108		-52.734375
4109		-54.687500
4110		-52.734375
4111		-54.687500
4112		-50.781250
4113		-54.687500
4114		-52.734375
4115		-54.687500
4116		-50.781250
4117		-54.687500
4118		-50.781250
4119		-54.687500
4120		-50.781250
4121		-52.734375
4122		-50.781250
4123		-54.687500
4124		-48.828125
4125		-52.734375
4126		-50.781250
4127		-52.734375
4128		-50.781250
4129		-52.734375
4130		-48.828125
4131		-52.734375
4132		-48.828125
4133		-50.781250
4134		-48.828125
4135		-52.734375
4136		-46.875000
4137		-50.781250
4138		-46.875000
4139		-50.781250
4140		-46.875000
4141		-48.828125
4142		-46.875000
4143		-48.828125
4144		-46.875000
4145		-48.828125
4146		-44.921875
4147		-48.828125
4148		-44.921875
4149		-46.875000
4150		-44.921875
4151		-46.875000
4152		-42.968750
4153		-46.875000
4154		-42.968750
4155		-46.875000
4156		-42.968750
4157		-44.921875
4158		-42.968750
4159		-44.921875
4160		-41.015625
4161		-44.921875
4162		-41.015625
4163		-42.968750
4164		-39.062500
4165		-42.968750
4166		-41.015625
4167		-42.968750
4168		-39.062500
4169		-41.015625
4170		-39.062500
4171		-41.015625
4172		-39.062500
4173		-41.015625
4174		-37.109375
4175		-39.062500
4176		-37.109375
4177		-39.062500
4178		-35.156250
4179		-39.062500
4180		-35.156250
4181		-37.109375
4182		-35.156250
4183		-37.109375
4184		-33.203125
4185		-37.109375
4186		-33.203125
4187		-35.156250
4188		-33.203125
4189		-35.156250
4190		-31.250000
4191		-33.203125
4192		-31.250000
4193		-33.203125
4194		-29.296875
4195		-33.203125
4196		-29.296875
4197		-33.203125
4198		-29.296875
4199		-31.250000
4200		-27.343750
4201		-31.250000
4202		-27.343750
4203		-29.296875
4204		-27.343750
4205		-29.296875
4206		-25.390625
4207		-27.343750
4208		-25.390625
4209		-27.343750
4210		-23.437500
4211		-27.343750
4212		-21.484375
4213		-25.390625
4214		-21.484375
4215		-25.390625
4216		-21.484375
4217		-23.437500
4218		-19.531250
4219		-23.437500
4220		-19.531250
4221		-21.484375
4222		-19.531250
4223		-21.484375
4224		-17.578125
4225		-21.484375
4226		-17.578125
4227		-19.531250
4228		-15.625000
4229		-19.531250
4230		-13.671875
4231		-17.578125
4232		-13.671875
4233		-15.625000
4234		-13.671875
4235		-15.625000
4236		-13.671875
4237		-15.625000
4238		-11.718750
4239		-13.671875
4240		-11.718750
4241		-13.671875
4242		-9.765625
4243		-11.718750
4244		-9.765625
4245		-11.718750
4246		-7.812500
4247		-13.671875
4248		-5.859375
4249		-11.718750
4250		-5.859375
4251		-9.765625
4252		-5.859375
4253		-7.812500
4254		-3.906250
4255		-7.812500
4256		-3.906250
4257		-5.859375
4258		-3.906250
4259		-5.859375
4260		-1.953125
4261		-5.859375
4262		-1.953125
4263		-3.906250
4264		1.953125
4265		-3.906250
4266		1.953125
4267		-1.953125
4268		1.953125
4269		0.000000
4270		1.953125
4271		0.000000
4272		3.906250
4273		0.000000
4274		3.906250
4275		1.953125
4276		5.859375
4277		3.906250
4278		7.812500
4279		3.906250
4280		7.812500
4281		1.953125
4282		9.765625
4283		3.906250
4284		9.765625
4285		5.859375
4286		9.765625
4287		7.812500
4288		9.765625
4289		7.812500
4290		11.718750
4291		7.812500
4292		11.718750
4293		9.765625
4294		13.671875
4295		9.765625
4296		13.671875
4297		9.765625
4298		15.625000
4299		11.718750
4300		17.578125
4301		13.671875
4302		17.578125
4303		13.671875
4304		17.578125
4305		15.625000
4306		17.578125
4307		15.625000
4308		19.531250
4309		17.578125
4310		19.531250
4311		17.578125
4312		19.531250
4313		15.625000
4314		23.437500
4315		17.578125
4316		23.437500
4317		17.578125
4318		23.437500
4319		21.484375
4320		23.437500
4321		21.484375
4322		23.437500
4323		21.484375
4324		25.390625
4325		23.437500
4326		25.390625
4327		23.437500
4328		27.343750
4329		23.437500
4330		29.296875
4331		23.437500
4332		29.296875
4333		23.437500
4334		31.250000
4335		27.343750
4336		29.296875
4337		27.343750
4338		31.250000
4339		27.343750
4340		31.250000
4341		29.296875
4342		31.250000
4343		29.296875
4344		31.250000
4345		31.250000
4346		33.203125
4347		29.296875
4348		35.156250
4349		29.296875
4350		35.156250
4351		31.250000
4352		35.156250
4353		33.203125
4354		35.156250
4355		33.203125
4356		35.156250
4357		33.203125
4358		37.109375
4359		35.156250
4360		37.109375
4361		35.156250
4362		39.062500
4363		35.156250
4364		39.062500
4365		35.156250
4366		41.015625
4367		35.156250
4368		41.015625
4369		37.109375
4370		41.015625
4371		37.109375
4372		41.015625
4373		39.062500
4374		41.015625
4375		39.062500
4376		42.968750
4377		39.062500
4378		42.968750
4379		39.062500
4380		42.968750
4381		39.062500
4382		44.921875
4383		39.062500
4384		44.921875
4385		41.015625
4386		42.968750
4387		41.015625
4388		44.921875
4389		42.968750
4390		44.921875
4391		42.968750
4392		44.921875
4393		42.968750
4394		44.921875
4395		42.968750
4396		46.875000
4397		42.968750
4398		46.875000
4399		42.968750
4400		48.828125
4401		42.968750
4402		48.828125
4403		44.921875
4404		46.875000
4405		44.921875
4406		48.828125
4407		44.921875
4408		48.828125
4409		44.921875
4410		48.828125
4411		44.921875
4412		48.828125
4413		46.875000
4414		48.828125
4415		46.875000
4416		50.781250
4417		46.875000
4418		50.781250
4419		46.875000
4420		48.828125
4421		46.875000
4422		50.781250
4423		46.875000
4424		50.781250
4425		46.875000
4426		50.781250
4427		46.875000
4428		50.781250
4429		48.828125
4430		50.781250
4431		46.875000
4432		52.734375
4433		48.828125
4434		50.781250
4435		48.828125
4436		50.781250
4437		46.875000
4438		52.734375
4439		48.828125
4440		50.781250
4441		48.828125
4442		50.781250
4443		48.828125
4444		50.781250
4445		48.828125
4446		50.781250
4447		48.828125
4448		50.781250
4449		46.875000
4450		52.734375
4451		48.828125
4452		52.734375
4453		48.828125
4454		50.781250
4455		48.828125
4456		50.781250
4457		48.828125
4458		50.781250
4459		48.828125
4460		50.781250
4461		48.828125
4462		50.781250
4463		46.875000
4464		50.781250
4465		48.828125
4466		50.781250
4467		48.828125
4468		50.781250
4469		46.875000
4470		50.781250
4471		46.875000
4472		50.781250
4473		46.875000
4474		50.781250
4475		46.875000
4476		50.781250
4477		46.875000
4478		50.781250
4479		46.875000
4480		48.828125
4481		46.875000
4482		50.781250
4483		46.875000
4484		48.828125
4485		44.921875
4486		48.828125
4487		44.921875
4488		48.828125
4489		44.921875
4490		48.828125
4491		44.921875
4492		48.828125
4493		44.921875
4494		48.828125
4495		44.921875
4496		46.875000
4497		42.968750
4498		46.875000
4499		44.921875
4500		46.875000
4501		42.968750
4502		46.875000
4503		42.968750
4504		46.875000
4505		42.968750
4506		44.921875
4507		41.015625
4508		44.921875
4509		41.015625
4510		44.921875
4511		41.015625
4512		44.921875
4513		41.015625
4514		44.921875
4515		41.015625
4516		42.968750
4517		41.015625
4518		42.968750
4519		39.062500
4520		42.968750
4521		39.062500
4522		42.968750
4523		39.062500
4524		42.968750
4525		39.062500
4526		41.015625
4527		37.109375
4528		41.015625
4529		37.109375
4530		39.062500
4531		37.109375
4532		39.062500
4533		35.156250
4534		39.062500
4535		35.156250
4536		37.109375
4537		35.156250
4538		37.109375
4539		33.203125
4540		37.109375
4541		33.203125
4542		37.109375
4543		33.203125
4544		35.156250
4545		31.250000
4546		35.156250
4547		31.250000
4548		35.156250
4549		31.250000
4550		35.156250
4551		29.296875
4552		35.156250
4553		29.296875
4554		33.203125
4555		29.296875
4556		31.250000
4557		27.343750
4558		31.250000
4559		27.343750
4560		31.250000
4561		25.390625
4562		31.250000
4563		27.343750
4564		29.296875
4565		25.390625
4566		29.296875
4567		23.437500
4568		29.296875
4569		23.437500
4570		27.343750
4571		23.437500
4572		27.343750
4573		21.484375
4574		27.343750
4575		21.484375
4576		25.390625
4577		19.531250
4578		25.390625
4579		19.531250
4580		23.437500
4581		19.531250
4582		21.484375
4583		19.531250
4584		23.437500
4585		17.578125
4586		21.484375
4587		17.578125
4588		19.531250
4589		15.625000
4590		21.484375
4591		15.625000
4592		17.578125
4593		15.625000
4594		19.531250
4595		13.671875
4596		17.578125
4597		13.671875
4598		15.625000
4599		11.718750
4600		15.625000
4601		11.718750
4602		13.671875
4603		9.765625
4604		13.671875
4605		9.765625
4606		11.718750
4607		9.765625
4608		11.718750
4609		7.812500
4610		11.718750
4611		5.859375
4612		9.765625
4613		5.859375
4614		9.765625
4615		5.859375
4616		7.812500
4617		3.906250
4618		7.812500
4619		3.906250
4620		5.859375
4621		1.953125
4622		5.859375
4623		1.953125
4624		5.859375
4625		1.953125
4626		3.906250
4627		0.000000
4628		3.906250
4629		-1.953125
4630		1.953125
4631		-1.953125
4632		1.953125
4633		-3.906250
4634		0.000000
4635		-3.906250
4636		0.000000
4637		-3.906250
4638		-1.953125
4639		-5.859375
4640		-1.953125
4641		-5.859375
4642		-1.953125
4643		-7.812500
4644		-3.906250
4645		-9.765625
4646		-5.859375
4647		-9.765625
4648		-5.859375
4649		-9.765625
4650		-7.812500
4651		-11.718750
4652		-7.812500
4653		-11.718750
4654		-7.812500
4655		-13.671875
4656		-9.765625
4657		-13.671875
4658		-9.765625
4659		-13.671875
4660		-11.718750
4661		-17.578125
4662		-11.718750
4663		-15.625000
4664		-13.671875
4665		-17.578125
4666		-13.671875
4667		-17.578125
4668		-13.671875
4669		-19.531250
4670		-15.625000
4671		-21.484375
4672		-15.625000
4673		-19.531250
4674		-17.578125
4675		-21.484375
4676		-17.578125
4677		-23.437500
4678		-19.531250
4679		-23.437500
4680		-19.531250
4681		-23.437500
4682		-21.484375
4683		-25.390625
4684		-21.484375
4685		-25.390625
4686		-23.437500
4687		-27.343750
4688		-23.437500
4689		-27.343750
4690		-23.437500
4691		-27.343750
4692		-25.390625
4693		-29.296875
4694		-25.390625
4695		-29.296875
4696		-27.343750
4697		-31.250000
4698		-27.343750
4699		-31.250000
4700		-27.343750
4701		-33.203125
4702		-29.296875
4703		-33.203125
4704		-29.296875
4705		-35.156250
4706		-29.296875
4707		-35.156250
4708		-31.250000
4709		-35.156250
4710		-31.250000
4711		-35.156250
4712		-31.250000
4713		-37.109375
4714		-33.203125
4715		-37.109375
4716		-35.156250
4717		-37.109375
4718		-35.156250
4719		-39.062500
4720		-37.109375
4721		-39.062500
4722		-37.109375
4723		-39.062500
4724		-37.109375
4725		-41.015625
4726		-37.109375
4727		-41.015625
4728		-39.062500
4729		-42.968750
4730		-39.062500
4731		-42.968750
4732		-39.062500
4733		-44.921875
4734		-41.015625
4735		-42.968750
4736		-41.015625
4737		-44.921875
4738		-41.015625
4739		-44.921875
4740		-41.015625
4741		-44.921875
4742		-42.968750
4743		-46.875000
4744		-42.968750
4745		-46.875000
4746		-42.968750
4747		-46.875000
4748		-44.921875
4749		-48.828125
4750		-44.921875
4751		-48.828125
4752		-44.921875
4753		-48.828125
4754		-44.921875
4755		-48.828125
4756		-46.875000
4757		-48.828125
4758		-46.875000
4759		-50.781250
4760		-46.875000
4761		-50.781250
4762		-48.828125
4763		-50.781250
4764		-48.828125
4765		-50.781250
4766		-46.875000
4767		-50.781250
4768		-48.828125
4769		-52.734375
4770		-48.828125
4771		-52.734375
4772		-48.828125
4773		-52.734375
4774		-50.781250
4775		-54.687500
4776		-50.781250
4777		-52.734375
4778		-50.781250
4779		-52.734375
4780		-50.781250
4781		-54.687500
4782		-48.828125
4783		-54.687500
4784		-50.781250
4785		-54.687500
4786		-52.734375
4787		-54.687500
4788		-50.781250
4789		-56.640625
4790		-52.734375
4791		-54.687500
4792		-52.734375
4793		-56.640625
4794		-52.734375
4795		-54.687500
4796		-52.734375
4797		-56.640625
4798		-52.734375
4799		-56.640625
4800		-52.734375
4801		-56.640625
4802		-52.734375
4803		-56.640625
4804		-52.734375
4805		-56.640625
4806		-52.734375
4807		-56.640625
4808		-52.734375
4809		-56.640625
4810		-52.734375
4811		-56.640625
4812		-54.687500
4813		-56.640625
4814		-52.734375
4815		-56.640625
4816		-52.734375
4817		-56.640625
4818		-54.687500
4819		-56.640625
4820		-54.687500
4821		-56.640625
4822		-52.734375
4823		-56.640625
4824		-54.687500
4825		-56.640625
4826		-52.734375
4827		-56.640625
4828		-54.687500
4829		-56.640625
4830		-52.734375
4831		-56.640625
4832		-52.734375
4833		-56.640625
4834		-52.734375
4835		-56.640625
4836		-52.734375
4837		-56.640625
4838		-52.734375
4839		-54.687500
4840		-52.734375
4841		-56.640625
4842		-52.734375
4843		-54.687500
4844		-52.734375
4845		-54.687500
4846		-50.781250
4847		-54.687500
4848		-52.734375
4849		-54.687500
4850		-52.734375
4851		-54.687500
4852		-50.781250
4853		-54.687500
4854		-50.781250
4855		-52.734375
4856		-50.781250
4857		-52.734375
4858		-50.781250
4859		-52.734375
4860		-50.781250
4861		-52.734375
4862		-48.828125
4863		-52.734375
4864		-48.828125
4865		-50.781250
4866		-48.828125
4867		-50.781250
4868		-46.875000
4869		-50.781250
4870		-48.828125
4871		-50.781250
4872		-46.875000
4873		-50.781250
4874		-46.875000
4875		-48.828125
4876		-46.875000
4877		-48.828125
4878		-46.875000
4879		-48.828125
4880		-44.921875
4881		-48.828125
4882		-44.921875
4883		-46.875000
4884		-42.968750
4885		-46.875000
4886		-44.921875
4887		-46.875000
4888		-42.968750
4889		-46.875000
4890		-42.968750
4891		-44.921875
4892		-42.968750
4893		-44.921875
4894		-41.015625
4895		-44.921875
4896		-41.015625
4897		-42.968750
4898		-41.015625
4899		-42.968750
4900		-39.062500
4901		-42.968750
4902		-39.062500
4903		-41.015625
4904		-39.062500
4905		-41.015625
4906		-39.062500
4907		-41.015625
4908		-37.109375
4909		-39.062500
4910		-35.156250
4911		-39.062500
4912		-37.109375
4913		-39.062500
4914		-35.156250
4915		-39.062500
4916		-33.203125
4917		-37.109375
4918		-35.156250
4919		-37.109375
4920		-33.203125
4921		-35.156250
4922		-31.250000
4923		-35.156250
4924		-31.250000
4925		-35.156250
4926		-31.250000
4927		-33.203125
4928		-31.250000
4929		-33.203125
4930		-29.296875
4931		-33.203125
4932		-29.296875
4933		-31.250000
4934		-29.296875
4935		-31.250000
4936		-27.343750
4937		-29.296875
4938		-27.343750
4939		-29.296875
4940		-25.390625
4941		-29.296875
4942		-25.390625
4943		-27.343750
4944		-23.437500
4945		-27.343750
4946		-23.437500
4947		-25.390625
4948		-23.437500
4949		-25.390625
4950		-21.484375
4951		-25.390625
4952		-19.531250
4953		-23.437500
4954		-19.531250
4955		-21.484375
4956		-19.531250
4957		-21.484375
4958		-17.578125
4959		-19.531250
4960		-17.578125
4961		-19.531250
4962		-15.625000
4963		-19.531250
4964		-15.625000
4965		-17.578125
4966		-15.625000
4967		-17.578125
4968		-13.671875
4969		-15.625000
4970		-13.671875
4971		-15.625000
4972		-11.718750
4973		-13.671875
4974		-11.718750
4975		-13.671875
4976		-9.765625
4977		-11.718750
4978		-9.765625
4979		-11.718750
4980		-7.812500
4981		-9.765625
4982		-7.812500
4983		-9.765625
4984		-5.859375
4985		-7.812500
4986		-5.859375
4987		-7.812500
4988		-3.906250
4989		-7.812500
4990		-3.906250
4991		-5.859375
4992		-1.953125
4993		-5.859375
4994		-1.953125
4995		-3.906250
4996		-1.953125
4997		-3.906250
4998		0.000000
4999		-1.953125
5000		1.953125
5001		-1.953125
5002		1.953125
5003		0.000000
5004		1.953125
5005		0.000000
5006		3.906250
5007		1.953125
5008		3.906250
5009		1.953125
5010		5.859375
5011		1.953125
5012		5.859375
5013		3.906250
5014		7.812500
5015		5.859375
5016		7.812500
5017		3.906250
5018		9.765625
5019		7.812500
5020		9.765625
5021		7.812500
5022		9.765625
5023		7.812500
5024		11.718750
5025		9.765625
5026		11.718750
5027		9.765625
5028		13.671875
5029		11.718750
5030		13.671875
5031		11.718750
5032		15.625000
5033		11.718750
5034		15.625000
5035		13.671875
5036		15.625000
5037		13.671875
5038		17.578125
5039		15.625000
5040		19.531250
5041		15.625000
5042		19.531250
5043		15.625000
5044		21.484375
5045		17.578125
5046		19.531250
5047		17.578125
5048		21.484375
5049		17.578125
5050		23.437500
5051		19.531250
5052		23.437500
5053		19.531250
5054		23.437500
5055		21.484375
5056		23.437500
5057		21.484375
5058		27.343750
5059		23.437500
5060		25.390625
5061		23.437500
5062		27.343750
5063		25.390625
5064		27.343750
5065		25.390625
5066		27.343750
5067		25.390625
5068		29.296875
5069		27.343750
5070		29.296875
5071		27.343750
5072		31.250000
5073		27.343750
5074		31.250000
5075		29.296875
5076		33.203125
5077		29.296875
5078		33.203125
5079		29.296875
5080		33.203125
5081		31.250000
5082		35.156250
5083		31.250000
5084		33.203125
5085		31.250000
5086		35.156250
5087		31.250000
5088		35.156250
5089		33.203125
5090		35.156250
5091		33.203125
5092		37.109375
5093		35.156250
5094		37.109375
5095		35.156250
5096		37.109375
5097		35.156250
5098		39.062500
5099		37.109375
5100		39.062500
5101		37.109375
5102		39.062500
5103		37.109375
5104		41.015625
5105		37.109375
5106		41.015625
5107		39.062500
5108		41.015625
5109		39.062500
5110		41.015625
5111		39.062500
5112		42.968750
5113		39.062500
5114		42.968750
5115		39.062500
5116		42.968750
5117		41.015625
5118		44.921875
5119		41.015625
5120		42.968750
5121		41.015625
5122		44.921875
5123		41.015625
5124		44.921875
5125		42.968750
5126		44.921875
5127		42.968750
5128		44.921875
5129		42.968750
5130		44.921875
5131		42.968750
5132		46.875000
5133		42.968750
5134		46.875000
5135		44.921875
5136		46.875000
5137		44.921875
5138		46.875000
5139		44.921875
5140		46.875000
5141		44.921875
5142		48.828125
5143		44.921875
5144		46.875000
5145		44.921875
5146		48.828125
5147		44.921875
5148		48.828125
5149		46.875000
5150		48.828125
5151		44.921875
5152		48.828125
5153		46.875000
5154		48.828125
5155		46.875000
5156		48.828125
5157		46.875000
5158		50.781250
5159		46.875000
5160		48.828125
5161		46.875000
5162		50.781250
5163		46.875000
5164		50.781250
5165		46.875000
5166		50.781250
5167		46.875000
5168		50.781250
5169		46.875000
5170		50.781250
5171		46.875000
5172		50.781250
5173		46.875000
5174		50.781250
5175		46.875000
5176		50.781250
5177		46.875000
5178		50.781250
5179		46.875000
5180		50.781250
5181		46.875000
5182		50.781250
5183		48.828125
5184		50.781250
5185		46.875000
5186		52.734375
5187		46.875000
5188		50.781250
5189		46.875000
5190		50.781250
5191		46.875000
5192		50.781250
5193		46.875000
5194		50.781250
5195		46.875000
5196		50.781250
5197		46.875000
5198		50.781250
5199		46.875000
5200		50.781250
5201		46.875000
5202		48.828125
5203		46.875000
5204		50.781250
5205		46.875000
5206		48.828125
5207		46.875000
5208		48.828125
5209		46.875000
5210		48.828125
5211		46.875000
5212		48.828125
5213		44.921875
5214		50.781250
5215		44.921875
5216		48.828125
5217		44.921875
5218		48.828125
5219		44.921875
5220		48.828125
5221		44.921875
5222		46.875000
5223		44.921875
5224		46.875000
5225		42.968750
5226		46.875000
5227		44.921875
5228		46.875000
5229		42.968750
5230		46.875000
5231		42.968750
5232		46.875000
5233		42.968750
5234		46.875000
5235		42.968750
5236		44.921875
5237		42.968750
5238		44.921875
5239		42.968750
5240		44.921875
5241		41.015625
5242		44.921875
5243		41.015625
5244		44.921875
5245		41.015625
5246		42.968750
5247		39.062500
5248		44.921875
5249		39.062500
5250		42.968750
5251		39.062500
5252		41.015625
5253		39.062500
5254		42.968750
5255		37.109375
5256		41.015625
5257		37.109375
5258		41.015625
5259		35.156250
5260		41.015625
5261		37.109375
5262		39.062500
5263		35.156250
5264		39.062500
5265		35.156250
5266		39.062500
5267		35.156250
5268		37.109375
5269		33.203125
5270		37.109375
5271		33.203125
5272		37.109375
5273		31.250000
5274		37.109375
5275		31.250000
5276		37.109375
5277		31.250000
5278		37.109375
5279		31.250000
5280		35.156250
5281		29.296875
5282		35.156250
5283		27.343750
5284		35.156250
5285		29.296875
5286		33.203125
5287		29.296875
5288		31.250000
5289		27.343750
5290		31.250000
5291		27.343750
5292		31.250000
5293		27.343750
5294		31.250000
5295		25.390625
5296		29.296875
5297		25.390625
5298		29.296875
5299		23.437500
5300		27.343750
5301		21.484375
5302		29.296875
5303		23.437500
5304		25.390625
5305		21.484375
5306		25.390625
5307		19.531250
5308		25.390625
5309		21.484375
5310		25.390625
5311		19.531250
5312		25.390625
5313		17.578125
5314		23.437500
5315		17.578125
5316		23.437500
5317		17.578125
5318		21.484375
5319		17.578125
5320		19.531250
5321		15.625000
5322		19.531250
5323		13.671875
5324		19.531250
5325		13.671875
5326		19.531250
5327		11.718750
5328		17.578125
5329		11.718750
5330		15.625000
5331		9.765625
5332		15.625000
5333		9.765625
5334		15.625000
5335		7.812500
5336		15.625000
5337		9.765625
5338		13.671875
5339		7.812500
5340		11.718750
5341		5.859375
5342		13.671875
5343		5.859375
5344		11.718750
5345		5.859375
5346		9.765625
5347		1.953125
5348		9.765625
5349		1.953125
5350		9.765625
5351		0.000000
5352		9.765625
5353		1.953125
5354		5.859375
5355		0.000000
5356		3.906250
5357		-1.953125
5358		5.859375
5359		-1.953125
5360		3.906250
5361		-1.953125
5362		1.953125
5363		-3.906250
5364		1.953125
5365		-5.859375
5366		1.953125
5367		-5.859375
5368		1.953125
5369		-5.859375
5370		-1.953125
5371		-5.859375
5372		-1.953125
5373		-7.812500
5374		-3.906250
5375		-11.718750
5376		-1.953125
5377		-9.765625
5378		-3.906250
5379		-9.765625
5380		-5.859375
5381		-13.671875
5382		-3.906250
5383		-11.718750
5384		-5.859375
5385		-15.625000
5386		-5.859375
5387		-13.671875
5388		-7.812500
5389		-15.625000
5390		-9.765625
5391		-17.578125
5392		-9.765625
5393		-17.578125
5394		-9.765625
5395		-17.578125
5396		-13.671875
5397		-17.578125
5398		-15.625000
5399		-21.484375
5400		-11.718750
5401		-23.437500
5402		-13.671875
5403		-19.531250
5404		-17.578125
5405		-21.484375
5406		-17.578125
5407		-23.437500
5408		-17.578125
5409		-27.343750
5410		-15.625000
5411		-25.390625
5412		-19.531250
5413		-25.390625
5414		-21.484375
5415		-29.296875
5416		-19.531250
5417		-29.296875
5418		-19.531250
5419		-29.296875
5420		-21.484375
5421		-29.296875
5422		-23.437500
5423		-29.296875
5424		-25.390625
5425		-33.203125
5426		-23.437500
5427		-31.250000
5428		-25.390625
5429		-31.250000
5430		-27.343750
5431		-33.203125
5432		-27.343750
5433		-37.109375
5434		-27.343750
5435		-37.109375
5436		-27.343750
5437		-35.156250
5438		-31.250000
5439		-35.156250
5440		-33.203125
5441		-37.109375
5442		-31.250000
5443		-39.062500
5444		-29.296875
5445		-37.109375
5446		-33.203125
5447		-39.062500
5448		-35.156250
5449		-41.015625
5450		-31.250000
5451		-41.015625
5452		-35.156250
5453		-41.015625
5454		-37.109375
5455		-41.015625
5456		-37.109375
5457		-42.968750
5458		-37.109375
5459		-44.921875
5460		-35.156250
5461		-42.968750
5462		-39.062500
5463		-44.921875
5464		-39.062500
5465		-46.875000
5466		-39.062500
5467		-46.875000
5468		-39.062500
5469		-46.875000
5470		-41.015625
5471		-44.921875
5472		-42.968750
5473		-46.875000
5474		-42.968750
5475		-48.828125
5476		-41.015625
5477		-50.781250
5478		-42.968750
5479		-48.828125
5480		-44.921875
5481		-48.828125
5482		-44.921875
5483		-52.734375
5484		-42.968750
5485		-52.734375
5486		-42.968750
5487		-50.781250
5488		-44.921875
5489		-50.781250
5490		-46.875000
5491		-52.734375
5492		-46.875000
5493		-52.734375
5494		-44.921875
5495		-52.734375
5496		-46.875000
5497		-52.734375
5498		-48.828125
5499		-54.687500
5500		-46.875000
5501		-54.687500
5502		-46.875000
5503		-56.640625
5504		-48.828125
5505		-52.734375
5506		-50.781250
5507		-54.687500
5508		-50.781250
5509		-56.640625
5510		-48.828125
5511		-54.687500
5512		-50.781250
5513		-54.687500
5514		-52.734375
5515		-56.640625
5516		-50.781250
5517		-58.593750
5518		-48.828125
5519		-56.640625
5520		-50.781250
5521		-56.640625
5522		-52.734375
5523		-56.640625
5524		-52.734375
5525		-56.640625
5526		-52.734375
5527		-58.593750
5528		-50.781250
5529		-56.640625
5530		-52.734375
5531		-56.640625
5532		-52.734375
5533		-58.593750
5534		-52.734375
5535		-60.546875
5536		-52.734375
5537		-58.593750
5538		-54.687500
5539		-58.593750
5540		-54.687500
5541		-56.640625
5542		-54.687500
5543		-60.546875
5544		-52.734375
5545		-58.593750
5546		-52.734375
5547		-56.640625
5548		-54.687500
5549		-58.593750
5550		-52.734375
5551		-58.593750
5552		-54.687500
5553		-58.593750
5554		-52.734375
5555		-56.640625
5556		-54.687500
5557		-58.593750
5558		-54.687500
5559		-58.593750
5560		-54.687500
5561		-58.593750
5562		-52.734375
5563		-58.593750
5564		-54.687500
5565		-56.640625
5566		-52.734375
5567		-58.593750
5568		-52.734375
5569		-56.640625
5570		-54.687500
5571		-56.640625
5572		-52.734375
5573		-56.640625
5574		-52.734375
5575		-56.640625
5576		-52.734375
5577		-56.640625
5578		-52.734375
5579		-54.687500
5580		-52.734375
5581		-56.640625
5582		-52.734375
5583		-54.687500
5584		-52.734375
5585		-54.687500
5586		-52.734375
5587		-54.687500
5588		-50.781250
5589		-54.687500
5590		-50.781250
5591		-54.687500
5592		-50.781250
5593		-52.734375
5594		-50.781250
5595		-52.734375
5596		-48.828125
5597		-52.734375
5598		-48.828125
5599		-52.734375
5600		-48.828125
5601		-52.734375
5602		-48.828125
5603		-52.734375
5604		-48.828125
5605		-50.781250
5606		-48.828125
5607		-50.781250
5608		-46.875000
5609		-50.781250
5610		-46.875000
5611		-50.781250
5612		-44.921875
5613		-50.781250
5614		-44.921875
5615		-50.781250
5616		-44.921875
5617		-48.828125
5618		-42.968750
5619		-48.828125
5620		-42.968750
5621		-46.875000
5622		-42.968750
5623		-46.875000
5624		-42.968750
5625		-46.875000
5626		-41.015625
5627		-46.875000
5628		-41.015625
5629		-46.875000
5630		-41.015625
5631		-46.875000
5632		-39.062500
5633		-44.921875
5634		-39.062500
5635		-42.968750
5636		-39.062500
5637		-42.968750
5638		-37.109375
5639		-41.015625
5640		-39.062500
5641		-41.015625
5642		-37.109375
5643		-41.015625
5644		-35.156250
5645		-41.015625
5646		-35.156250
5647		-41.015625
5648		-35.156250
5649		-39.062500
5650		-33.203125
5651		-39.062500
5652		-33.203125
5653		-37.109375
5654		-31.250000
5655		-35.156250
5656		-33.203125
5657		-35.156250
5658		-33.203125
5659		-35.156250
5660		-31.250000
5661		-35.156250
5662		-29.296875
5663		-33.203125
5664		-29.296875
5665		-33.203125
5666		-27.343750
5667		-33.203125
5668		-27.343750
5669		-31.250000
5670		-25.390625
5671		-31.250000
5672		-25.390625
5673		-29.296875
5674		-25.390625
5675		-29.296875
5676		-25.390625
5677		-27.343750
5678		-23.437500
5679		-27.343750
5680		-23.437500
5681		-27.343750
5682		-21.484375
5683		-25.390625
5684		-21.484375
5685		-25.390625
5686		-19.531250
5687		-23.437500
5688		-19.531250
5689		-23.437500
5690		-17.578125
5691		-21.484375
5692		-17.578125
5693		-21.484375
5694		-17.578125
5695		-21.484375
5696		-15.625000
5697		-19.531250
5698		-15.625000
5699		-19.531250
5700		-13.671875
5701		-17.578125
5702		-11.718750
5703		-17.578125
5704		-11.718750
5705		-15.625000
5706		-11.718750
5707		-13.671875
5708		-11.718750
5709		-13.671875
5710		-9.765625
5711		-13.671875
5712		-7.812500
5713		-11.718750
5714		-7.812500
5715		-11.718750
5716		-5.859375
5717		-9.765625
5718		-5.859375
5719		-7.812500
5720		-5.859375
5721		-7.812500
5722		-3.906250
5723		-7.812500
5724		-3.906250
5725		-5.859375
5726		-3.906250
5727		-5.859375
5728		-1.953125
5729		-3.906250
5730		0.000000
5731		-3.906250
5732		1.953125
5733		-3.906250
5734		1.953125
5735		-1.953125
5736		1.953125
5737		-1.953125
5738		3.906250
5739		0.000000
5740		3.906250
5741		1.953125
5742		3.906250
5743		1.953125
5744		5.859375
5745		1.953125
5746		5.859375
5747		1.953125
5748		7.812500
5749		1.953125
5750		9.765625
5751		5.859375
5752		9.765625
5753		5.859375
5754		9.765625
5755		5.859375
5756		9.765625
5757		7.812500
5758		11.718750
5759		7.812500
5760		13.671875
5761		9.765625
5762		13.671875
5763		9.765625
5764		13.671875
5765		9.765625
5766		15.625000
5767		11.718750
5768		15.625000
5769		11.718750
5770		15.625000
5771		13.671875
5772		17.578125
5773		15.625000
5774		19.531250
5775		15.625000
5776		17.578125
5777		15.625000
5778		19.531250
5779		17.578125
5780		19.531250
5781		17.578125
5782		21.484375
5783		15.625000
5784		23.437500
5785		19.531250
5786		23.437500
5787		19.531250
5788		23.437500
5789		19.531250
5790		23.437500
5791		21.484375
5792		25.390625
5793		21.484375
5794		25.390625
5795		23.437500
5796		25.390625
5797		23.437500
5798		27.343750
5799		23.437500
5800		27.343750
5801		25.390625
5802		29.296875
5803		25.390625
5804		29.296875
5805		27.343750
5806		31.250000
5807		27.343750
5808		31.250000
5809		27.343750
5810		31.250000
5811		27.343750
5812		33.203125
5813		29.296875
5814		33.203125
5815		31.250000
5816		33.203125
5817		29.296875
5818		35.156250
5819		31.250000
5820		35.156250
5821		31.250000
5822		35.156250
5823		33.203125
5824		37.109375
5825		33.203125
5826		37.109375
5827		33.203125
5828		37.109375
5829		33.203125
5830		37.109375
5831		35.156250
5832		39.062500
5833		35.156250
5834		39.062500
5835		35.156250
5836		39.062500
5837		35.156250
5838		41.015625
5839		37.109375
5840		41.015625
5841		37.109375
5842		41.015625
5843		39.062500
5844		41.015625
5845		39.062500
5846		42.968750
5847		39.062500
5848		42.968750
5849		39.062500
5850		44.921875
5851		41.015625
5852		42.968750
5853		41.015625
5854		44.921875
5855		41.015625
5856		44.921875
5857		41.015625
5858		44.921875
5859		41.015625
5860		44.921875
5861		41.015625
5862		44.921875
5863		42.968750
5864		46.875000
5865		42.968750
5866		46.875000
5867		42.968750
5868		46.875000
5869		42.968750
5870		46.875000
5871		44.921875
5872		46.875000
5873		44.921875
5874		46.875000
5875		44.921875
5876		48.828125
5877		44.921875
5878		48.828125
5879		44.921875
5880		48.828125
5881		44.921875
5882		48.828125
5883		44.921875
5884		48.828125
5885		44.921875
5886		48.828125
5887		44.921875
5888		48.828125
5889		46.875000
5890		50.781250
5891		46.875000
5892		48.828125
5893		46.875000
5894		48.828125
5895		46.875000
5896		50.781250
5897		46.875000
5898		50.781250
5899		46.875000
5900		50.781250
5901		46.875000
5902		50.781250
5903		46.875000
5904		50.781250
5905		46.875000
5906		50.781250
5907		46.875000
5908		50.781250
5909		46.875000
5910		50.781250
5911		46.875000
5912		50.781250
5913		46.875000
5914		50.781250
5915		46.875000
5916		50.781250
5917		46.875000
5918		50.781250
5919		46.875000
5920		50.781250
5921		46.875000
5922		50.781250
5923		46.875000
5924		50.781250
5925		46.875000
5926		50.781250
5927		46.875000
5928		50.781250
5929		46.875000
5930		50.781250
5931		46.875000
5932		50.781250
5933		46.875000
5934		48.828125
5935		46.875000
5936		50.781250
5937		46.875000
5938		48.828125
5939		46.875000
5940		50.781250
5941		44.921875
5942		48.828125
5943		46.875000
5944		48.828125
5945		44.921875
5946		48.828125
5947		44.921875
5948		48.828125
5949		44.921875
5950		48.828125
5951		44.921875
5952		48.828125
5953		42.968750
5954		48.828125
5955		44.921875
5956		46.875000
5957		42.968750
5958		48.828125
5959		44.921875
5960		46.875000
5961		42.968750
5962		48.828125
5963		42.968750
5964		46.875000
5965		42.968750
5966		44.921875
5967		42.968750
5968		44.921875
5969		41.015625
5970		44.921875
5971		41.015625
5972		44.921875
5973		41.015625
5974		44.921875
5975		41.015625
5976		44.921875
5977		41.015625
5978		42.968750
5979		39.062500
5980		42.968750
5981		39.062500
5982		42.968750
5983		39.062500
5984		42.968750
5985		37.109375
5986		42.968750
5987		39.062500
5988		41.015625
5989		37.109375
5990		41.015625
5991		37.109375
5992		41.015625
5993		37.109375
5994		39.062500
5995		35.156250
5996		39.062500
5997		35.156250
5998		39.062500
5999		35.156250
6000		39.062500
6001		33.203125
6002		39.062500
6003		33.203125
6004		37.109375
6005		33.203125
6006		37.109375
6007		33.203125
6008		37.109375
6009		33.203125
6010		35.156250
6011		31.250000
6012		35.156250
6013		31.250000
6014		33.203125
6015		29.296875
6016		33.203125
6017		29.296875
6018		33.203125
6019		29.296875
6020		33.203125
6021		27.343750
6022		31.250000
6023		27.343750
6024		31.250000
6025		27.343750
6026		29.296875
6027		25.390625
6028		29.296875
6029		25.390625
6030		29.296875
6031		25.390625
6032		27.343750
6033		23.437500
6034		27.343750
6035		23.437500
6036		25.390625
6037		21.484375
6038		25.390625
6039		21.484375
6040		25.390625
6041		19.531250
6042		25.390625
6043		19.531250
6044		23.437500
6045		19.531250
6046		23.437500
6047		17.578125
6048		21.484375
6049		17.578125
6050		21.484375
6051		17.578125
6052		19.531250
6053		15.625000
6054		19.531250
6055		15.625000
6056		19.531250
6057		13.671875
6058		17.578125
6059		13.671875
6060		17.578125
6061		13.671875
6062		15.625000
6063		11.718750
6064		15.625000
6065		9.765625
6066		13.671875
6067		9.765625
6068		13.671875
6069		9.765625
6070		11.718750
6071		7.812500
6072		11.718750
6073		7.812500
6074		11.718750
6075		5.859375
6076		11.718750
6077		5.859375
6078		9.765625
6079		3.906250
6080		7.812500
6081		3.906250
6082		9.765625
6083		3.906250
6084		5.859375
6085		1.953125
6086		5.859375
6087		1.953125
6088		5.859375
6089		0.000000
6090		3.906250
6091		0.000000
6092		3.906250
6093		0.000000
6094		1.953125
6095		-1.953125
6096		1.953125
6097		-3.906250
6098		0.000000
6099		-3.906250
6100		0.000000
6101		-3.906250
6102		-1.953125
6103		-5.859375
6104		-1.953125
6105		-7.812500
6106		-1.953125
6107		-7.812500
6108		-3.906250
6109		-7.812500
6110		-5.859375
6111		-11.718750
6112		-5.859375
6113		-9.765625
6114		-5.859375
6115		-11.718750
6116		-7.812500
6117		-11.718750
6118		-7.812500
6119		-13.671875
6120		-9.765625
6121		-13.671875
6122		-9.765625
6123		-15.625000
6124		-9.765625
6125		-15.625000
6126		-11.718750
6127		-17.578125
6128		-13.671875
6129		-17.578125
6130		-13.671875
6131		-19.531250
6132		-15.625000
6133		-19.531250
6134		-15.625000
6135		-19.531250
6136		-15.625000
6137		-21.484375
6138		-17.578125
6139		-21.484375
6140		-17.578125
6141		-21.484375
6142		-19.531250
6143		-23.437500
6144		-19.531250
6145		-23.437500
6146		-21.484375
6147		-25.390625
6148		-21.484375
6149		-25.390625
6150		-21.484375
6151		-27.343750
6152		-23.437500
6153		-27.343750
6154		-23.437500
6155		-29.296875
6156		-25.390625
6157		-31.250000
6158		-25.390625
6159		-29.296875
6160		-27.343750
6161		-31.250000
6162		-27.343750
6163		-31.250000
6164		-27.343750
6165		-33.203125
6166		-29.296875
6167		-33.203125
6168		-29.296875
6169		-35.156250
6170		-31.250000
6171		-37.109375
6172		-31.250000
6173		-37.109375
6174		-31.250000
6175		-37.109375
6176		-33.203125
6177		-37.109375
6178		-33.203125
6179		-37.109375
6180		-33.203125
6181		-39.062500
6182		-35.156250
6183		-39.062500
6184		-35.156250
6185		-39.062500
6186		-37.109375
6187		-41.015625
6188		-37.109375
6189		-42.968750
6190		-37.109375
6191		-42.968750
6192		-39.062500
6193		-42.968750
6194		-39.062500
6195		-42.968750
6196		-39.062500
6197		-44.921875
6198		-41.015625
6199		-44.921875
6200		-41.015625
6201		-44.921875
6202		-41.015625
6203		-46.875000
6204		-42.968750
6205		-46.875000
6206		-42.968750
6207		-46.875000
6208		-42.968750
6209		-46.875000
6210		-42.968750
6211		-48.828125
6212		-44.921875
6213		-50.781250
6214		-44.921875
6215		-48.828125
6216		-44.921875
6217		-48.828125
6218		-46.875000
6219		-50.781250
6220		-46.875000
6221		-50.781250
6222		-46.875000
6223		-50.781250
6224		-48.828125
6225		-50.781250
6226		-48.828125
6227		-52.734375
6228		-48.828125
6229		-52.734375
6230		-48.828125
6231		-52.734375
6232		-48.828125
6233		-54.687500
6234		-48.828125
6235		-52.734375
6236		-50.781250
6237		-54.687500
6238		-50.781250
6239		-54.687500
6240		-50.781250
6241		-54.687500
6242		-50.781250
6243		-56.640625
6244		-52.734375
6245		-54.687500
6246		-52.734375
6247		-56.640625
6248		-52.734375
6249		-56.640625
6250		-52.734375
6251		-56.640625
6252		-52.734375
6253		-56.640625
6254		-52.734375
6255		-56.640625
6256		-52.734375
6257		-56.640625
6258		-54.687500
6259		-58.593750
6260		-52.734375
6261		-56.640625
6262		-54.687500
6263		-58.593750
6264		-54.687500
6265		-58.593750
6266		-54.687500
6267		-58.593750
6268		-54.687500
6269		-58.593750
6270		-54.687500
6271		-56.640625
6272		-54.687500
6273		-58.593750
6274		-54.687500
6275		-58.593750
6276		-54.687500
6277		-56.640625
6278		-54.687500
6279		-58.593750
6280		-54.687500
6281		-58.593750
6282		-54.687500
6283		-58.593750
6284		-54.687500
6285		-58.593750
6286		-54.687500
6287		-58.593750
6288		-54.687500
6289		-58.593750
6290		-54.687500
6291		-58.593750
6292		-54.687500
6293		-58.593750
6294		-52.734375
6295		-56.640625
6296		-54.687500
6297		-58.593750
6298		-52.734375
6299		-56.640625
6300		-54.687500
6301		-56.640625
6302		-52.734375
6303		-56.640625
6304		-54.687500
6305		-56.640625
6306		-52.734375
6307		-56.640625
6308		-52.734375
6309		-56.640625
6310		-52.734375
6311		-56.640625
6312		-52.734375
6313		-56.640625
6314		-52.734375
6315		-56.640625
6316		-52.734375
6317		-54.687500
6318		-52.734375
6319		-56.640625
6320		-50.781250
6321		-54.687500
6322		-50.781250
6323		-54.687500
6324		-50.781250
6325		-54.687500
6326		-50.781250
6327		-54.687500
6328		-50.781250
6329		-52.734375
6330		-50.781250
6331		-52.734375
6332		-48.828125
6333		-52.734375
6334		-48.828125
6335		-52.734375
6336		-48.828125
6337		-52.734375
6338		-48.828125
6339		-50.781250
6340		-48.828125
6341		-50.781250
6342		-46.875000
6343		-50.781250
6344		-46.875000
6345		-48.828125
6346		-44.921875
6347		-48.828125
6348		-46.875000
6349		-48.828125
6350		-44.921875
6351		-48.828125
6352		-44.921875
6353		-46.875000
6354		-44.921875
6355		-46.875000
6356		-42.968750
6357		-46.875000
6358		-42.968750
6359		-46.875000
6360		-42.968750
6361		-44.921875
6362		-42.968750
6363		-44.921875
6364		-41.015625
6365		-44.921875
6366		-41.015625
6367		-42.968750
6368		-39.062500
6369		-42.968750
6370		-39.062500
6371		-42.968750
6372		-39.062500
6373		-41.015625
6374		-37.109375
6375		-41.015625
6376		-37.109375
6377		-41.015625
6378		-37.109375
6379		-41.015625
6380		-35.156250
6381		-39.062500
6382		-35.156250
6383		-37.109375
6384		-35.156250
6385		-37.109375
6386		-33.203125
6387		-37.109375
6388		-33.203125
6389		-37.109375
6390		-33.203125
6391		-37.109375
6392		-31.250000
6393		-35.156250
6394		-31.250000
6395		-33.203125
6396		-31.250000
6397		-33.203125
6398		-29.296875
6399		-31.250000
6400		-29.296875
6401		-31.250000
6402		-29.296875
6403		-31.250000
6404		-27.343750
6405		-29.296875
6406		-27.343750
6407		-29.296875
6408		-25.390625
6409		-27.343750
6410		-25.390625
6411		-27.343750
6412		-23.437500
6413		-27.343750
6414		-23.437500
6415		-25.390625
6416		-21.484375
6417		-25.390625
6418		-21.484375
6419		-23.437500
6420		-19.531250
6421		-23.437500
6422		-19.531250
6423		-21.484375
6424		-19.531250
6425		-21.484375
6426		-17.578125
6427		-19.531250
6428		-17.578125
6429		-19.531250
6430		-15.625000
6431		-17.578125
6432		-15.625000
6433		-19.531250
6434		-13.671875
6435		-17.578125
6436		-13.671875
6437		-15.625000
6438		-13.671875
6439		-15.625000
6440		-11.718750
6441		-15.625000
6442		-9.765625
6443		-13.671875
6444		-9.765625
6445		-13.671875
6446		-9.765625
6447		-11.718750
6448		-7.812500
6449		-9.765625
6450		-7.812500
6451		-9.765625
6452		-5.859375
6453		-9.765625
6454		-5.859375
6455		-7.812500
6456		-5.859375
6457		-5.859375
6458		-3.906250
6459		-5.859375
6460		-1.953125
6461		-5.859375
6462		-1.953125
6463		-3.906250
6464		-1.953125
6465		-3.906250
6466		1.953125
6467		-1.953125
6468		1.953125
6469		-1.953125
6470		1.953125
6471		0.000000
6472		1.953125
6473		0.000000
6474		3.906250
6475		1.953125
6476		3.906250
6477		0.000000
6478		5.859375
6479		1.953125
6480		5.859375
6481		3.906250
6482		7.812500
6483		3.906250
6484		7.812500
6485		3.906250
6486		9.765625
6487		5.859375
6488		9.765625
6489		5.859375
6490		11.718750
6491		7.812500
6492		11.718750
6493		7.812500
6494		13.671875
6495		9.765625
6496		13.671875
6497		11.718750
6498		13.671875
6499		11.718750
6500		15.625000
6501		11.718750
6502		15.625000
6503		11.718750
6504		17.578125
6505		13.671875
6506		17.578125
6507		15.625000
6508		17.578125
6509		15.625000
6510		19.531250
6511		15.625000
6512		19.531250
6513		17.578125
6514		19.531250
6515		17.578125
6516		21.484375
6517		17.578125
6518		21.484375
6519		19.531250
6520		23.437500
6521		21.484375
6522		23.437500
6523		21.484375
6524		25.390625
6525		21.484375
6526		25.390625
6527		23.437500
6528		25.390625
6529		21.484375
6530		27.343750
6531		25.390625
6532		27.343750
6533		25.390625
6534		29.296875
6535		25.390625
6536		29.296875
6537		27.343750
6538		29.296875
6539		27.343750
6540		31.250000
6541		27.343750
6542		31.250000
6543		27.343750
6544		31.250000
6545		29.296875
6546		33.203125
6547		29.296875
6548		33.203125
6549		29.296875
6550		35.156250
6551		31.250000
6552		35.156250
6553		31.250000
6554		35.156250
6555		31.250000
6556		35.156250
6557		33.203125
6558		37.109375
6559		33.203125
6560		37.109375
6561		33.203125
6562		37.109375
6563		35.156250
6564		39.062500
6565		35.156250
6566		39.062500
6567		35.156250
6568		39.062500
6569		35.156250
6570		39.062500
6571		37.109375
6572		39.062500
6573		37.109375
6574		41.015625
6575		37.109375
6576		42.968750
6577		39.062500
6578		41.015625
6579		37.109375
6580		42.968750
6581		39.062500
6582		42.968750
6583		39.062500
6584		42.968750
6585		41.015625
6586		42.968750
6587		41.015625
6588		44.921875
6589		41.015625
6590		44.921875
6591		41.015625
6592		44.921875
6593		41.015625
6594		44.921875
6595		41.015625
6596		46.875000
6597		42.968750
6598		46.875000
6599		42.968750
6600		46.875000
6601		42.968750
6602		46.875000
6603		42.968750
6604		46.875000
6605		42.968750
6606		46.875000
6607		44.921875
6608		46.875000
6609		42.968750
6610		48.828125
6611		44.921875
6612		48.828125
6613		44.921875
6614		48.828125
6615		44.921875
6616		48.828125
6617		44.921875
6618		48.828125
6619		44.921875
6620		48.828125
6621		44.921875
6622		48.828125
6623		46.875000
6624		50.781250
6625		44.921875
6626		50.781250
6627		46.875000
6628		50.781250
6629		46.875000
6630		50.781250
6631		46.875000
6632		50.781250
6633		44.921875
6634		50.781250
6635		46.875000
6636		50.781250
6637		46.875000
6638		50.781250
6639		46.875000
6640		50.781250
6641		46.875000
6642		50.781250
6643		46.875000
6644		50.781250
6645		46.875000
6646		50.781250
6647		46.875000
6648		50.781250
6649		46.875000
6650		50.781250
6651		46.875000
6652		50.781250
6653		46.875000
6654		50.781250
6655		46.875000
6656		50.781250
6657		46.875000
6658		50.781250
6659		46.875000
6660		50.781250
6661		46.875000
6662		50.781250
6663		46.875000
6664		50.781250
6665		46.875000
6666		48.828125
6667		46.875000
6668		50.781250
6669		44.921875
6670		50.781250
6671		44.921875
6672		48.828125
6673		46.875000
6674		48.828125
6675		44.921875
6676		48.828125
6677		44.921875
6678		48.828125
6679		44.921875
6680		48.828125
6681		44.921875
6682		48.828125
6683		44.921875
6684		46.875000
6685		44.921875
6686		46.875000
6687		42.968750
6688		46.875000
6689		44.921875
6690		46.875000
6691		42.968750
6692		46.875000
6693		42.968750
6694		46.875000
6695		42.968750
6696		46.875000
6697		42.968750
6698		46.875000
6699		41.015625
6700		44.921875
6701		41.015625
6702		44.921875
6703		41.015625
6704		44.921875
6705		41.015625
6706		44.921875
6707		41.015625
6708		42.968750
6709		41.015625
6710		42.968750
6711		39.062500
6712		42.968750
6713		39.062500
6714		42.968750
6715		39.062500
6716		42.968750
6717		37.109375
6718		41.015625
6719		37.109375
6720		41.015625
6721		37.109375
6722		41.015625
6723		37.109375
6724		41.015625
6725		37.109375
6726		41.015625
6727		35.156250
6728		39.062500
6729		35.156250
6730		39.062500
6731		35.156250
6732		39.062500
6733		33.203125
6734		37.109375
6735		33.203125
6736		37.109375
6737		33.203125
6738		37.109375
6739		33.203125
6740		35.156250
6741		31.250000
6742		35.156250
6743		31.250000
6744		35.156250
6745		31.250000
6746		33.203125
6747		29.296875
6748		35.156250
6749		29.296875
6750		33.203125
6751		27.343750
6752		33.203125
6753		27.343750
6754		33.203125
6755		27.343750
6756		31.250000
6757		27.343750
6758		29.296875
6759		25.390625
6760		29.296875
6761		25.390625
6762		27.343750
6763		25.390625
6764		29.296875
6765		23.437500
6766		27.343750
6767		23.437500
6768		25.390625
6769		21.484375
6770		27.343750
6771		21.484375
6772		25.390625
6773		21.484375
6774		23.437500
6775		19.531250
6776		23.437500
6777		17.578125
6778		23.437500
6779		17.578125
6780		23.437500
6781		17.578125
6782		21.484375
6783		15.625000
6784		19.531250
6785		15.625000
6786		19.531250
6787		15.625000
6788		19.531250
6789		13.671875
6790		17.578125
6791		13.671875
6792		17.578125
6793		13.671875
6794		17.578125
6795		11.718750
6796		15.625000
6797		9.765625
6798		15.625000
6799		11.718750
6800		13.671875
6801		9.765625
6802		13.671875
6803		7.812500
6804		11.718750
6805		7.812500
6806		11.718750
6807		5.859375
6808		11.718750
6809		5.859375
6810		9.765625
6811		3.906250
6812		9.765625
6813		3.906250
6814		7.812500
6815		3.906250
6816		5.859375
6817		3.906250
6818		5.859375
6819		1.953125
6820		5.859375
6821		0.000000
6822		3.906250
6823		0.000000
6824		3.906250
6825		-1.953125
6826		3.906250
6827		-1.953125
6828		1.953125
6829		-3.906250
6830		0.000000
6831		-3.906250
6832		0.000000
6833		-3.906250
6834		-1.953125
6835		-5.859375
6836		-1.953125
6837		-5.859375
6838		-1.953125
6839		-7.812500
6840		-3.906250
6841		-9.765625
6842		-3.906250
6843		-9.765625
6844		-5.859375
6845		-9.765625
6846		-5.859375
6847		-11.718750
6848		-7.812500
6849		-11.718750
6850		-7.812500
6851		-11.718750
6852		-9.765625
6853		-13.671875
6854		-7.812500
6855		-15.625000
6856		-11.718750
6857		-15.625000
6858		-11.718750
6859		-15.625000
6860		-11.718750
6861		-17.578125
6862		-13.671875
6863		-17.578125
6864		-13.671875
6865		-19.531250
6866		-13.671875
6867		-19.531250
6868		-17.578125
6869		-19.531250
6870		-17.578125
6871		-21.484375
6872		-17.578125
6873		-23.437500
6874		-19.531250
6875		-23.437500
6876		-19.531250
6877		-23.437500
6878		-21.484375
6879		-25.390625
6880		-21.484375
6881		-25.390625
6882		-21.484375
6883		-27.343750
6884		-23.437500
6885		-27.343750
6886		-23.437500
6887		-27.343750
6888		-25.390625
6889		-29.296875
6890		-25.390625
6891		-31.250000
6892		-25.390625
6893		-31.250000
6894		-27.343750
6895		-33.203125
6896		-27.343750
6897		-33.203125
6898		-29.296875
6899		-33.203125
6900		-29.296875
6901		-35.156250
6902		-29.296875
6903		-35.156250
6904		-31.250000
6905		-35.156250
6906		-33.203125
6907		-37.109375
6908		-33.203125
6909		-37.109375
6910		-33.203125
6911		-39.062500
6912		-33.203125
6913		-39.062500
6914		-35.156250
6915		-39.062500
6916		-35.156250
6917		-41.015625
6918		-37.109375
6919		-41.015625
6920		-37.109375
6921		-41.015625
6922		-37.109375
6923		-42.968750
6924		-37.109375
6925		-42.968750
6926		-39.062500
6927		-42.968750
6928		-39.062500
6929		-42.968750
6930		-39.062500
6931		-44.921875
6932		-41.015625
6933		-44.921875
6934		-41.015625
6935		-44.921875
6936		-42.968750
6937		-46.875000
6938		-42.968750
6939		-46.875000
6940		-42.968750
6941		-46.875000
6942		-42.968750
6943		-48.828125
6944		-44.921875
6945		-48.828125
6946		-44.921875
6947		-48.828125
6948		-44.921875
6949		-48.828125
6950		-44.921875
6951		-50.781250
6952		-44.921875
6953		-50.781250
6954		-46.875000
6955		-50.781250
6956		-46.875000
6957		-52.734375
6958		-48.828125
6959		-52.734375
6960		-48.828125
6961		-52.734375
6962		-48.828125
6963		-52.734375
6964		-48.828125
6965		-52.734375
6966		-48.828125
6967		-52.734375
6968		-50.781250
6969		-54.687500
6970		-48.828125
6971		-54.687500
6972		-50.781250
6973		-54.687500
6974		-50.781250
6975		-54.687500
6976		-50.781250
6977		-54.687500
6978		-52.734375
6979		-54.687500
6980		-50.781250
6981		-56.640625
6982		-52.734375
6983		-56.640625
6984		-52.734375
6985		-56.640625
6986		-52.734375
6987		-56.640625
6988		-52.734375
6989		-56.640625
6990		-52.734375
6991		-56.640625
6992		-52.734375
6993		-56.640625
6994		-52.734375
6995		-56.640625
6996		-54.687500
6997		-58.593750
6998		-52.734375
6999		-56.640625
7000		-54.687500
7001		-58.593750
7002		-54.687500
7003		-58.593750
7004		-54.687500
7005		-58.593750
7006		-54.687500
7007		-58.593750
7008		-54.687500
7009		-58.593750
7010		-54.687500
7011		-58.593750
7012		-54.687500
7013		-58.593750
7014		-54.687500
7015		-58.593750
7016		-54.687500
7017		-58.593750
7018		-54.687500
7019		-58.593750
7020		-54.687500
7021		-58.593750
7022		-54.687500
7023		-56.640625
7024		-54.687500
7025		-58.593750
7026		-54.687500
7027		-56.640625
7028		-54.687500
7029		-56.640625
7030		-54.687500
7031		-58.593750
7032		-52.734375
7033		-56.640625
7034		-52.734375
7035		-56.640625
7036		-52.734375
7037		-58.593750
7038		-52.734375
7039		-56.640625
7040		-52.734375
7041		-56.640625
7042		-52.734375
7043		-56.640625
7044		-52.734375
7045		-56.640625
7046		-52.734375
7047		-56.640625
7048		-52.734375
7049		-54.687500
7050		-52.734375
7051		-54.687500
7052		-52.734375
7053		-54.687500
7054		-50.781250
7055		-56.640625
7056		-50.781250
7057		-54.687500
7058		-50.781250
7059		-54.687500
7060		-48.828125
7061		-52.734375
7062		-50.781250
7063		-52.734375
7064		-48.828125
7065		-52.734375
7066		-48.828125
7067		-52.734375
7068		-48.828125
7069		-50.781250
7070		-48.828125
7071		-52.734375
7072		-46.875000
7073		-50.781250
7074		-46.875000
7075		-50.781250
7076		-46.875000
7077		-50.781250
7078		-46.875000
7079		-48.828125
7080		-46.875000
7081		-48.828125
7082		-44.921875
7083		-48.828125
7084		-44.921875
7085		-46.875000
7086		-44.921875
7087		-46.875000
7088		-42.968750
7089		-46.875000
7090		-42.968750
7091		-46.875000
7092		-42.968750
7093		-46.875000
7094		-41.015625
7095		-44.921875
7096		-41.015625
7097		-44.921875
7098		-41.015625
7099		-44.921875
7100		-41.015625
7101		-42.968750
7102		-41.015625
7103		-42.968750
7104		-39.062500
7105		-42.968750
7106		-39.062500
7107		-41.015625
7108		-37.109375
7109		-41.015625
7110		-37.109375
7111		-39.062500
7112		-37.109375
7113		-39.062500
7114		-35.156250
7115		-39.062500
7116		-35.156250
7117		-37.109375
7118		-33.203125
7119		-37.109375
7120		-33.203125
7121		-37.109375
7122		-31.250000
7123		-35.156250
7124		-33.203125
7125		-35.156250
7126		-31.250000
7127		-35.156250
7128		-29.296875
7129		-35.156250
7130		-29.296875
7131		-33.203125
7132		-29.296875
7133		-31.250000
7134		-27.343750
7135		-31.250000
7136		-27.343750
7137		-29.296875
7138		-27.343750
7139		-29.296875
7140		-25.390625
7141		-29.296875
7142		-25.390625
7143		-27.343750
7144		-25.390625
7145		-27.343750
7146		-23.437500
7147		-25.390625
7148		-21.484375
7149		-25.390625
7150		-21.484375
7151		-25.390625
7152		-21.484375
7153		-23.437500
7154		-19.531250
7155		-21.484375
7156		-19.531250
7157		-21.484375
7158		-17.578125
7159		-21.484375
7160		-17.578125
7161		-19.531250
7162		-15.625000
7163		-19.531250
7164		-15.625000
7165		-17.578125
7166		-15.625000
7167		-17.578125
7168		-13.671875
7169		-15.625000
7170		-13.671875
7171		-15.625000
7172		-11.718750
7173		-13.671875
7174		-9.765625
7175		-13.671875
7176		-9.765625
7177		-11.718750
7178		-9.765625
7179		-11.718750
7180		-7.812500
7181		-11.718750
7182		-7.812500
7183		-9.765625
7184		-5.859375
7185		-9.765625
7186		-5.859375
7187		-7.812500
7188		-5.859375
7189		-7.812500
7190		-1.953125
7191		-7.812500
7192		-1.953125
7193		-5.859375
7194		-1.953125
7195		-3.906250
7196		0.000000
7197		-3.906250
7198		0.000000
7199		-1.953125
7200		0.000000
7201		-3.906250
7202		1.953125
7203		0.000000
7204		1.953125
7205		0.000000
7206		3.906250
7207		0.000000
7208		3.906250
7209		1.953125
7210		3.906250
7211		1.953125
7212		5.859375
7213		3.906250
7214		5.859375
7215		3.906250
7216		7.812500
7217		3.906250
7218		9.765625
7219		5.859375
7220		9.765625
7221		7.812500
7222		9.765625
7223		7.812500
7224		11.718750
7225		7.812500
7226		11.718750
7227		9.765625
7228		13.671875
7229		9.765625
7230		13.671875
7231		11.718750
7232		13.671875
7233		11.718750
7234		15.625000
7235		11.718750
7236		17.578125
7237		13.671875
7238		17.578125
7239		13.671875
7240		19.531250
7241		15.625000
7242		19.531250
7243		15.625000
7244		19.531250
7245		15.625000
7246		21.484375
7247		17.578125
7248		21.484375
7249		19.531250
7250		21.484375
7251		19.531250
7252		23.437500
7253		21.484375
7254		23.437500
7255		21.484375
7256		25.390625
7257		21.484375
7258		25.390625
7259		23.437500
7260		25.390625
7261		23.437500
7262		27.343750
7263		23.437500
7264		27.343750
7265		23.437500
7266		29.296875
7267		25.390625
7268		29.296875
7269		25.390625
7270		29.296875
7271		27.343750
7272		31.250000
7273		27.343750
7274		31.250000
7275		27.343750
7276		31.250000
7277		29.296875
7278		31.250000
7279		29.296875
7280		33.203125
7281		29.296875
7282		35.156250
7283		31.250000
7284		33.203125
7285		29.296875
7286		35.156250
7287		33.203125
7288		35.156250
7289		33.203125
7290		37.109375
7291		33.203125
7292		37.109375
7293		35.156250
7294		37.109375
7295		35.156250
7296		37.109375
7297		35.156250
7298		39.062500
7299		35.156250
7300		39.062500
7301		35.156250
7302		39.062500
7303		37.109375
7304		39.062500
7305		37.109375
7306		41.015625
7307		37.109375
7308		41.015625
7309		37.109375
7310		41.015625
7311		39.062500
7312		42.968750
7313		39.062500
7314		42.968750
7315		39.062500
7316		42.968750
7317		39.062500
7318		42.968750
7319		41.015625
7320		44.921875
7321		41.015625
7322		44.921875
7323		41.015625
7324		44.921875
7325		41.015625
7326		44.921875
7327		42.968750
7328		44.921875
7329		42.968750
7330		44.921875
7331		42.968750
7332		46.875000
7333		42.968750
7334		46.875000
7335		42.968750
7336		46.875000
7337		44.921875
7338		46.875000
7339		42.968750
7340		48.828125
7341		44.921875
7342		46.875000
7343		42.968750
7344		48.828125
7345		44.921875
7346		46.875000
7347		44.921875
7348		48.828125
7349		44.921875
7350		48.828125
7351		44.921875
7352		48.828125
7353		44.921875
7354		50.781250
7355		46.875000
7356		48.828125
7357		46.875000
7358		48.828125
7359		44.921875
7360		50.781250
7361		46.875000
7362		48.828125
7363		44.921875
7364		50.781250
7365		46.875000
7366		50.781250
7367		46.875000
7368		50.781250
7369		46.875000
7370		50.781250
7371		46.875000
7372		48.828125
7373		46.875000
7374		50.781250
7375		46.875000
7376		50.781250
7377		46.875000
7378		50.781250
7379		46.875000
7380		50.781250
7381		46.875000
7382		50.781250
7383		46.875000
7384		50.781250
7385		46.875000
7386		50.781250
7387		46.875000
7388		50.781250
7389		46.875000
7390		50.781250
7391		46.875000
7392		50.781250
7393		46.875000
7394		50.781250
7395		46.875000
7396		50.781250
7397		46.875000
7398		50.781250
7399		46.875000
7400		50.781250
7401		46.875000
7402		50.781250
7403		46.875000
7404		48.828125
7405		46.875000
7406		48.828125
7407		44.921875
7408		48.828125
7409		46.875000
7410		48.828125
7411		44.921875
7412		48.828125
7413		44.921875
7414		48.828125
7415		44.921875
7416		48.828125
7417		44.921875
7418		48.828125
7419		42.968750
7420		48.828125
7421		44.921875
7422		46.875000
7423		42.968750
7424		46.875000
7425		42.968750
7426		46.875000
7427		42.968750
7428		46.875000
7429		42.968750
7430		46.875000
7431		42.968750
7432		46.875000
7433		41.015625
7434		46.875000
7435		41.015625
7436		44.921875
7437		42.968750
7438		44.921875
7439		41.015625
7440		44.921875
7441		41.015625
7442		44.921875
7443		41.015625
7444		44.921875
7445		39.062500
7446		42.968750
7447		39.062500
7448		42.968750
7449		39.062500
7450		42.968750
7451		37.109375
7452		42.968750
7453		39.062500
7454		41.015625
7455		37.109375
7456		41.015625
7457		37.109375
7458		41.015625
7459		37.109375
7460		39.062500
7461		35.156250
7462		39.062500
7463		35.156250
7464		39.062500
7465		35.156250
7466		39.062500
7467		35.156250
7468		37.109375
7469		33.203125
7470		37.109375
7471		33.203125
7472		37.109375
7473		33.203125
7474		35.156250
7475		31.250000
7476		37.109375
7477		31.250000
7478		35.156250
7479		29.296875
7480		35.156250
7481		29.296875
7482		33.203125
7483		29.296875
7484		33.203125
7485		27.343750
7486		33.203125
7487		27.343750
7488		31.250000
7489		27.343750
7490		31.250000
7491		27.343750
7492		29.296875
7493		25.390625
7494		29.296875
7495		25.390625
7496		29.296875
7497		23.437500
7498		27.343750
7499		23.437500
7500		27.343750
7501		23.437500
7502		25.390625
7503		21.484375
7504		25.390625
7505		21.484375
7506		25.390625
7507		21.484375
7508		23.437500
7509		19.531250
7510		23.437500
7511		19.531250
7512		23.437500
7513		17.578125
7514		21.484375
7515		17.578125
7516		21.484375
7517		15.625000
7518		19.531250
7519		15.625000
7520		19.531250
7521		15.625000
7522		17.578125
7523		13.671875
7524		17.578125
7525		13.671875
7526		17.578125
7527		11.718750
7528		15.625000
7529		11.718750
7530		15.625000
7531		11.718750
7532		15.625000
7533		9.765625
7534		13.671875
7535		9.765625
7536		11.718750
7537		7.812500
7538		11.718750
7539		7.812500
7540		9.765625
7541		5.859375
7542		9.765625
7543		5.859375
7544		9.765625
7545		3.906250
7546		7.812500
7547		3.906250
7548		7.812500
7549		3.906250
7550		5.859375
7551		1.953125
7552		5.859375
7553		0.000000
7554		5.859375
7555		0.000000
7556		3.906250
7557		0.000000
7558		3.906250
7559		-1.953125
7560		1.953125
7561		-1.953125
7562		1.953125
7563		-3.906250
7564		0.000000
7565		-3.906250
7566		0.000000
7567		-5.859375
7568		-1.953125
7569		-5.859375
7570		-1.953125
7571		-7.812500
7572		-3.906250
7573		-7.812500
7574		-3.906250
7575		-7.812500
7576		-5.859375
7577		-9.765625
7578		-5.859375
7579		-9.765625
7580		-7.812500
7581		-11.718750
7582		-7.812500
7583		-13.671875
7584		-9.765625
7585		-13.671875
7586		-9.765625
7587		-15.625000
7588		-9.765625
7589		-15.625000
7590		-11.718750
7591		-15.625000
7592		-11.718750
7593		-17.578125
7594		-13.671875
7595		-17.578125
7596		-13.671875
7597		-19.531250
7598		-13.671875
7599		-19.531250
7600		-15.625000
7601		-21.484375
7602		-15.625000
7603		-21.484375
7604		-17.578125
7605		-21.484375
7606		-19.531250
7607		-23.437500
7608		-19.531250
7609		-25.390625
7610		-19.531250
7611		-25.390625
7612		-21.484375
7613		-25.390625
7614		-21.484375
7615		-25.390625
7616		-23.437500
7617		-27.343750
7618		-23.437500
7619		-27.343750
7620		-23.437500
7621		-29.296875
7622		-25.390625
7623		-29.296875
7624		-25.390625
7625		-31.250000
7626		-27.343750
7627		-31.250000
7628		-27.343750
7629		-33.203125
7630		-29.296875
7631		-33.203125
7632		-29.296875
7633		-33.203125
7634		-29.296875
7635		-35.156250
7636		-29.296875
7637		-35.156250
7638		-31.250000
7639		-35.156250
7640		-33.203125
7641		-37.109375
7642		-33.203125
7643		-37.109375
7644		-33.203125
7645		-39.062500
7646		-33.203125
7647		-39.062500
7648		-35.156250
7649		-39.062500
7650		-37.109375
7651		-41.015625
7652		-37.109375
7653		-41.015625
7654		-37.109375
7655		-41.015625
7656		-37.109375
7657		-42.968750
7658		-39.062500
7659		-42.968750
7660		-39.062500
7661		-42.968750
7662		-41.015625
7663		-44.921875
7664		-41.015625
7665		-44.921875
7666		-41.015625
7667		-44.921875
7668		-41.015625
7669		-46.875000
7670		-42.968750
7671		-46.875000
7672		-42.968750
7673		-46.875000
7674		-44.921875
7675		-48.828125
7676		-42.968750
7677		-48.828125
7678		-44.921875
7679		-48.828125
7680		-44.921875
7681		-50.781250
7682		-46.875000
7683		-50.781250
7684		-46.875000
7685		-50.781250
7686		-46.875000
7687		-52.734375
7688		-46.875000
7689		-50.781250
7690		-46.875000
7691		-50.781250
7692		-48.828125
7693		-52.734375
7694		-48.828125
7695		-52.734375
7696		-48.828125
7697		-52.734375
7698		-48.828125
7699		-54.687500
7700		-50.781250
7701		-54.687500
7702		-50.781250
7703		-54.687500
7704		-50.781250
7705		-54.687500
7706		-50.781250
7707		-54.687500
7708		-52.734375
7709		-54.687500
7710		-50.781250
7711		-56.640625
7712		-50.781250
7713		-54.687500
7714		-52.734375
7715		-56.640625
7716		-52.734375
7717		-56.640625
7718		-52.734375
7719		-56.640625
7720		-50.781250
7721		-56.640625
7722		-52.734375
7723		-56.640625
7724		-54.687500
7725		-56.640625
7726		-52.734375
7727		-58.593750
7728		-54.687500
7729		-58.593750
7730		-52.734375
7731		-58.593750
7732		-54.687500
7733		-58.593750
7734		-54.687500
7735		-56.640625
7736		-54.687500
7737		-58.593750
7738		-54.687500
7739		-58.593750
7740		-54.687500
7741		-58.593750
7742		-54.687500
7743		-58.593750
7744		-54.687500
7745		-58.593750
7746		-54.687500
7747		-58.593750
7748		-54.687500
7749		-58.593750
7750		-54.687500
7751		-58.593750
7752		-54.687500
7753		-58.593750
7754		-54.687500
7755		-58.593750
7756		-54.687500
7757		-58.593750
7758		-54.687500
7759		-58.593750
7760		-54.687500
7761		-58.593750
7762		-54.687500
7763		-58.593750
7764		-54.687500
7765		-58.593750
7766		-54.687500
7767		-58.593750
7768		-54.687500
7769		-56.640625
7770		-54.687500
7771		-56.640625
7772		-52.734375
7773		-58.593750
7774		-52.734375
7775		-56.640625
7776		-52.734375
7777		-56.640625
7778		-52.734375
7779		-56.640625
7780		-52.734375
7781		-56.640625
7782		-52.734375
7783		-56.640625
7784		-52.734375
7785		-56.640625
7786		-50.781250
7787		-54.687500
7788		-52.734375
7789		-54.687500
7790		-50.781250
7791		-54.687500
7792		-50.781250
7793		-54.687500
7794		-50.781250
7795		-54.687500
7796		-50.781250
7797		-54.687500
7798		-50.781250
7799		-52.734375
7800		-48.828125
7801		-52.734375
7802		-48.828125
7803		-52.734375
7804		-48.828125
7805		-52.734375
7806		-48.828125
7807		-52.734375
7808		-48.828125
7809		-50.781250
7810		-46.875000
7811		-50.781250
7812		-46.875000
7813		-50.781250
7814		-46.875000
7815		-50.781250
7816		-44.921875
7817		-50.781250
7818		-44.921875
7819		-48.828125
7820		-44.921875
7821		-48.828125
7822		-44.921875
7823		-48.828125
7824		-42.968750
7825		-46.875000
7826		-42.968750
7827		-46.875000
7828		-42.968750
7829		-46.875000
7830		-41.015625
7831		-44.921875
7832		-41.015625
7833		-44.921875
7834		-41.015625
7835		-44.921875
7836		-41.015625
7837		-42.968750
7838		-39.062500
7839		-42.968750
7840		-37.109375
7841		-41.015625
7842		-39.062500
7843		-41.015625
7844		-37.109375
7845		-41.015625
7846		-35.156250
7847		-39.062500
7848		-37.109375
7849		-39.062500
7850		-35.156250
7851		-39.062500
7852		-33.203125
7853		-37.109375
7854		-33.203125
7855		-37.109375
7856		-33.203125
7857		-37.109375
7858		-33.203125
7859		-35.156250
7860		-31.250000
7861		-35.156250
7862		-31.250000
7863		-33.203125
7864		-29.296875
7865		-33.203125
7866		-29.296875
7867		-33.203125
7868		-29.296875
7869		-31.250000
7870		-27.343750
7871		-31.250000
7872		-27.343750
7873		-29.296875
7874		-25.390625
7875		-29.296875
7876		-25.390625
7877		-29.296875
7878		-23.437500
7879		-27.343750
7880		-23.437500
7881		-27.343750
7882		-23.437500
7883		-25.390625
7884		-23.437500
7885		-25.390625
7886		-21.484375
7887		-23.437500
7888		-19.531250
7889		-23.437500
7890		-17.578125
7891		-21.484375
7892		-19.531250
7893		-21.484375
7894		-17.578125
7895		-21.484375
7896		-15.625000
7897		-19.531250
7898		-15.625000
7899		-19.531250
7900		-15.625000
7901		-17.578125
7902		-13.671875
7903		-17.578125
7904		-13.671875
7905		-15.625000
7906		-13.671875
7907		-15.625000
7908		-11.718750
7909		-13.671875
7910		-11.718750
7911		-13.671875
7912		-9.765625
7913		-11.718750
7914		-9.765625
7915		-11.718750
7916		-7.812500
7917		-11.718750
7918		-5.859375
7919		-9.765625
7920		-5.859375
7921		-9.765625
7922		-5.859375
7923		-7.812500
7924		-3.906250
7925		-5.859375
7926		-3.906250
7927		-5.859375
7928		-1.953125
7929		-5.859375
7930		-1.953125
7931		-3.906250
7932		0.000000
7933		-3.906250
7934		0.000000
7935		-1.953125
7936		1.953125
7937		-1.953125
7938		1.953125
7939		0.000000
7940		1.953125
7941		0.000000
7942		3.906250
7943		1.953125
7944		3.906250
7945		1.953125
7946		5.859375
7947		1.953125
7948		5.859375
7949		3.906250
7950		7.812500
7951		3.906250
7952		7.812500
7953		5.859375
7954		9.765625
7955		5.859375
7956		9.765625
7957		7.812500
7958		11.718750
7959		7.812500
7960		11.718750
7961		7.812500
7962		13.671875
7963		9.765625
7964		13.671875
7965		11.718750
7966		13.671875
7967		11.718750
7968		15.625000
7969		11.718750
7970		15.625000
7971		13.671875
7972		15.625000
7973		13.671875
7974		17.578125
7975		13.671875
7976		17.578125
7977		15.625000
7978		19.531250
7979		15.625000
7980		21.484375
7981		17.578125
7982		19.531250
7983		17.578125
7984		21.484375
7985		17.578125
7986		21.484375
7987		19.531250
7988		23.437500
7989		19.531250
7990		23.437500
7991		21.484375
7992		25.390625
7993		21.484375
7994		25.390625
7995		21.484375
7996		25.390625
7997		23.437500
7998		27.343750
7999		23.437500
8000		27.343750
8001		23.437500
8002		27.343750
8003		25.390625
8004		29.296875
8005		25.390625
8006		29.296875
8007		27.343750
8008		31.250000
8009		27.343750
8010		31.250000
8011		27.343750
8012		31.250000
8013		27.343750
8014		33.203125
8015		29.296875
8016		35.156250
8017		29.296875
8018		33.203125
8019		29.296875
8020		35.156250
8021		31.250000
8022		35.156250
8023		31.250000
8024		35.156250
8025		33.203125
8026		35.156250
8027		33.203125
8028		37.109375
8029		33.203125
8030		37.109375
8031		33.203125
8032		37.109375
8033		35.156250
8034		39.062500
8035		35.156250
8036		39.062500
8037		37.109375
8038		39.062500
8039		35.156250
8040		41.015625
8041		37.109375
8042		41.015625
8043		37.109375
8044		41.015625
8045		39.062500
8046		41.015625
8047		37.109375
8048		42.968750
8049		37.109375
8050		42.968750
8051		39.062500
8052		42.968750
8053		39.062500
8054		42.968750
8055		39.062500
8056		42.968750
8057		39.062500
8058		44.921875
8059		41.015625
8060		44.921875
8061		41.015625
8062		44.921875
8063		41.015625
8064		46.875000
8065		41.015625
8066		46.875000
8067		42.968750
8068		46.875000
8069		42.968750
8070		46.875000
8071		42.968750
8072		46.875000
8073		42.968750
8074		46.875000
8075		42.968750
8076		46.875000
8077		42.968750
8078		46.875000
8079		42.968750
8080		46.875000
8081		42.968750
8082		48.828125
8083		42.968750
8084		48.828125
8085		44.921875
8086		48.828125
8087		42.968750
8088		48.828125
8089		42.968750
8090		50.781250
8091		42.968750
8092		48.828125
8093		44.921875
8094		48.828125
8095		44.921875
8096		48.828125
8097		44.921875
8098		50.781250
8099		42.968750
8100		48.828125
8101		42.968750
8102		50.781250
8103		44.921875
8104		50.781250
8105		46.875000
8106		48.828125
8107		44.921875
8108		50.781250
8109		44.921875
8110		48.828125
8111		46.875000
8112		48.828125
8113		42.968750
8114		50.781250
8115		44.921875
8116		50.781250
8117		44.921875
8118		50.781250
8119		44.921875
8120		50.781250
8121		44.921875
8122		50.781250
8123		44.921875
8124		50.781250
8125		44.921875
8126		50.781250
8127		46.875000
8128		48.828125
8129		44.921875
8130		48.828125
8131		44.921875
8132		48.828125
8133		44.921875
8134		48.828125
8135		44.921875
8136		48.828125
8137		44.921875
8138		48.828125
8139		42.968750
8140		48.828125
8141		44.921875
8142		48.828125
8143		44.921875
8144		48.828125
8145		44.921875
8146		46.875000
8147		42.968750
8148		48.828125
8149		42.968750
8150		48.828125
8151		41.015625
8152		48.828125
8153		42.968750
8154		48.828125
8155		41.015625
8156		48.828125
8157		41.015625
8158		46.875000
8159		42.968750
8160		44.921875
8161		42.968750
8162		44.921875
8163		41.015625
8164		44.921875
8165		41.015625
8166		46.875000
8167		41.015625
8168		44.921875
8169		39.062500
8170		44.921875
8171		39.062500
8172		44.921875
8173		37.109375
8174		44.921875
8175		37.109375
8176		44.921875
8177		39.062500
8178		42.968750
8179		37.109375
8180		42.968750
8181		37.109375
8182		42.968750
8183		35.156250
8184		42.968750
8185		37.109375
8186		41.015625
8187		35.156250
8188		41.015625
8189		35.156250
8190		41.015625
8191		33.203125
8192		41.015625
8193		33.203125
8194		39.062500
8195		35.156250
8196		37.109375
8197		33.203125
8198		39.062500
8199		31.250000
8200		37.109375
8201		31.250000
8202		37.109375
8203		31.250000
8204		37.109375
8205		31.250000
8206		37.109375
8207		29.296875
8208		35.156250
8209		29.296875
8210		35.156250
8211		29.296875
8212		33.203125
8213		29.296875
8214		33.203125
8215		27.343750
8216		33.203125
8217		25.390625
8218		33.203125
8219		25.390625
8220		33.203125
8221		25.390625
8222		31.250000
8223		25.390625
8224		31.250000
8225		23.437500
8226		31.250000
8227		25.390625
8228		27.343750
8229		23.437500
8230		27.343750
8231		21.484375
8232		27.343750
8233		21.484375
8234		27.343750
8235		19.531250
8236		27.343750
8237		19.531250
8238		25.390625
8239		17.578125
8240		25.390625
8241		17.578125
8242		23.437500
8243		17.578125
8244		23.437500
8245		17.578125
8246		21.484375
8247		15.625000
8248		21.484375
8249		15.625000
8250		21.484375
8251		13.671875
8252		21.484375
8253		13.671875
8254		19.531250
8255		11.718750
8256		17.578125
8257		11.718750
8258		19.531250
8259		9.765625
8260		17.578125
8261		11.718750
8262		13.671875
8263		9.765625
8264		13.671875
8265		7.812500
8266		15.625000
8267		7.812500
8268		13.671875
8269		5.859375
8270		13.671875
8271		5.859375
8272		11.718750
8273		5.859375
8274		11.718750
8275		3.906250
8276		9.765625
8277		3.906250
8278		9.765625
8279		3.906250
8280		7.812500
8281		0.000000
8282		5.859375
8283		-1.953125
8284		5.859375
8285		-1.953125
8286		5.859375
8287		-1.953125
8288		5.859375
8289		-1.953125
8290		3.906250
8291		-3.906250
8292		3.906250
8293		-3.906250
8294		1.953125
8295		-3.906250
8296		0.000000
8297		-5.859375
8298		0.000000
8299		-7.812500
8300		0.000000
8301		-7.812500
8302		-1.953125
8303		-7.812500
8304		-1.953125
8305		-9.765625
8306		-3.906250
8307		-11.718750
8308		-3.906250
8309		-11.718750
8310		-3.906250
8311		-11.718750
8312		-5.859375
8313		-11.718750
8314		-7.812500
8315		-15.625000
8316		-7.812500
8317		-15.625000
8318		-9.765625
8319		-15.625000
8320		-9.765625
8321		-17.578125
8322		-9.765625
8323		-17.578125
8324		-11.718750
8325		-19.531250
8326		-13.671875
8327		-17.578125
8328		-13.671875
8329		-19.531250
8330		-15.625000
8331		-19.531250
8332		-15.625000
8333		-21.484375
8334		-15.625000
8335		-23.437500
8336		-15.625000
8337		-23.437500
8338		-17.578125
8339		-25.390625
8340		-17.578125
8341		-25.390625
8342		-19.531250
8343		-25.390625
8344		-19.531250
8345		-25.390625
8346		-23.437500
8347		-27.343750
8348		-23.437500
8349		-29.296875
8350		-23.437500
8351		-29.296875
8352		-23.437500
8353		-31.250000
8354		-23.437500
8355		-31.250000
8356		-25.390625
8357		-33.203125
8358		-27.343750
8359		-33.203125
8360		-27.343750
8361		-33.203125
8362		-27.343750
8363		-33.203125
8364		-29.296875
8365		-37.109375
8366		-29.296875
8367		-37.109375
8368		-29.296875
8369		-37.109375
8370		-31.250000
8371		-37.109375
8372		-31.250000
8373		-39.062500
8374		-33.203125
8375		-39.062500
8376		-33.203125
8377		-41.015625
8378		-33.203125
8379		-39.062500
8380		-37.109375
8381		-41.015625
8382		-37.109375
8383		-42.968750
8384		-35.156250
8385		-42.968750
8386		-37.109375
8387		-44.921875
8388		-37.109375
8389		-44.921875
8390		-39.062500
8391		-46.875000
8392		-39.062500
8393		-44.921875
8394		-39.062500
8395		-46.875000
8396		-41.015625
8397		-46.875000
8398		-42.968750
8399		-46.875000
8400		-41.015625
8401		-48.828125
8402		-41.015625
8403		-48.828125
8404		-42.968750
8405		-50.781250
8406		-42.968750
8407		-50.781250
8408		-44.921875
8409		-50.781250
8410		-44.921875
8411		-50.781250
8412		-44.921875
8413		-50.781250
8414		-46.875000
8415		-50.781250
8416		-46.875000
8417		-52.734375
8418		-46.875000
8419		-52.734375
8420		-46.875000
8421		-52.734375
8422		-46.875000
8423		-54.687500
8424		-46.875000
8425		-54.687500
8426		-46.875000
8427		-54.687500
8428		-46.875000
8429		-54.687500
8430		-50.781250
8431		-54.687500
8432		-50.781250
8433		-56.640625
8434		-50.781250
8435		-56.640625
8436		-50.781250
8437		-56.640625
8438		-50.781250
8439		-56.640625
8440		-50.781250
8441		-58.593750
8442		-50.781250
8443		-58.593750
8444		-50.781250
8445		-58.593750
8446		-52.734375
8447		-56.640625
8448		-52.734375
8449		-58.593750
8450		-52.734375
8451		-58.593750
8452		-52.734375
8453		-58.593750
8454		-52.734375
8455		-58.593750
8456		-52.734375
8457		-58.593750
8458		-52.734375
8459		-58.593750
8460		-52.734375
8461		-58.593750
8462		-52.734375
8463		-58.593750
8464		-54.687500
8465		-58.593750
8466		-54.687500
8467		-60.546875
8468		-52.734375
8469		-60.546875
8470		-52.734375
8471		-60.546875
8472		-54.687500
8473		-60.546875
8474		-52.734375
8475		-60.546875
8476		-54.687500
8477		-60.546875
8478		-54.687500
8479		-58.593750
8480		-54.687500
8481		-58.593750
8482		-56.640625
8483		-60.546875
8484		-54.687500
8485		-60.546875
8486		-54.687500
8487		-60.546875
8488		-52.734375
8489		-60.546875
8490		-52.734375
8491		-60.546875
8492		-52.734375
8493		-60.546875
8494		-54.687500
8495		-60.546875
8496		-54.687500
8497		-58.593750
8498		-54.687500
8499		-58.593750
8500		-54.687500
8501		-60.546875
8502		-52.734375
8503		-60.546875
8504		-52.734375
8505		-58.593750
8506		-52.734375
8507		-58.593750
8508		-52.734375
8509		-58.593750
8510		-52.734375
8511		-58.593750
8512		-50.781250
8513		-56.640625
8514		-52.734375
8515		-56.640625
8516		-52.734375
8517		-56.640625
8518		-50.781250
8519		-56.640625
8520		-50.781250
8521		-56.640625
8522		-50.781250
8523		-56.640625
8524		-48.828125
8525		-54.687500
8526		-50.781250
8527		-56.640625
8528		-48.828125
8529		-54.687500
8530		-50.781250
8531		-52.734375
8532		-50.781250
8533		-54.687500
8534		-48.828125
8535		-54.687500
8536		-48.828125
8537		-52.734375
8538		-46.875000
8539		-54.687500
8540		-46.875000
8541		-52.734375
8542		-46.875000
8543		-52.734375
8544		-46.875000
8545		-52.734375
8546		-44.921875
8547		-50.781250
8548		-46.875000
8549		-48.828125
8550		-46.875000
8551		-50.781250
8552		-42.968750
8553		-50.781250
8554		-42.968750
8555		-48.828125
8556		-42.968750
8557		-48.828125
8558		-42.968750
8559		-48.828125
8560		-41.015625
8561		-46.875000
8562		-41.015625
8563		-44.921875
8564		-41.015625
8565		-44.921875
8566		-41.015625
8567		-44.921875
8568		-39.062500
8569		-44.921875
8570		-39.062500
8571		-44.921875
8572		-37.109375
8573		-44.921875
8574		-37.109375
8575		-42.968750
8576		-37.109375
8577		-42.968750
8578		-35.156250
8579		-41.015625
8580		-35.156250
8581		-39.062500
8582		-37.109375
8583		-39.062500
8584		-33.203125
8585		-39.062500
8586		-33.203125
8587		-39.062500
8588		-33.203125
8589		-39.062500
8590		-31.250000
8591		-37.109375
8592		-31.250000
8593		-37.109375
8594		-29.296875
8595		-35.156250
8596		-29.296875
8597		-33.203125
8598		-29.296875
8599		-33.203125
8600		-29.296875
8601		-35.156250
8602		-25.390625
8603		-33.203125
8604		-25.390625
8605		-31.250000
8606		-25.390625
8607		-31.250000
8608		-23.437500
8609		-29.296875
8610		-23.437500
8611		-29.296875
8612		-23.437500
8613		-29.296875
8614		-21.484375
8615		-25.390625
8616		-23.437500
8617		-25.390625
8618		-19.531250
8619		-27.343750
8620		-19.531250
8621		-25.390625
8622		-17.578125
8623		-23.437500
8624		-17.578125
8625		-23.437500
8626		-15.625000
8627		-23.437500
8628		-15.625000
8629		-21.484375
8630		-15.625000
8631		-19.531250
8632		-15.625000
8633		-19.531250
8634		-13.671875
8635		-19.531250
8636		-11.718750
8637		-17.578125
8638		-11.718750
8639		-17.578125
8640		-9.765625
8641		-15.625000
8642		-9.765625
8643		-15.625000
8644		-7.812500
8645		-13.671875
8646		-7.812500
8647		-11.718750
8648		-7.812500
8649		-11.718750
8650		-7.812500
8651		-11.718750
8652		-5.859375
8653		-9.765625
8654		-3.906250
8655		-9.765625
8656		-3.906250
8657		-9.765625
8658		-1.953125
8659		-7.812500
8660		-1.953125
8661		-7.812500
8662		0.000000
8663		-5.859375
8664		0.000000
8665		-3.906250
8666		0.000000
8667		-3.906250
8668		1.953125
8669		-3.906250
8670		3.906250
8671		-3.906250
8672		3.906250
8673		-1.953125
8674		5.859375
8675		-1.953125
8676		5.859375
8677		0.000000
8678		7.812500
8679		0.000000
8680		7.812500
8681		3.906250
8682		5.859375
8683		3.906250
8684		7.812500
8685		3.906250
8686		9.765625
8687		3.906250
8688		11.718750
8689		3.906250
8690		11.718750
8691		5.859375
8692		11.718750
8693		7.812500
8694		13.671875
8695		7.812500
8696		15.625000
8697		9.765625
8698		15.625000
8699		11.718750
8700		15.625000
8701		11.718750
8702		17.578125
8703		11.718750
8704		17.578125
8705		11.718750
8706		19.531250
8707		11.718750
8708		19.531250
8709		13.671875
8710		19.531250
8711		13.671875
8712		21.484375
8713		15.625000
8714		21.484375
8715		17.578125
8716		21.484375
8717		19.531250
8718		21.484375
8719		17.578125
8720		25.390625
8721		19.531250
8722		25.390625
8723		19.531250
8724		25.390625
8725		19.531250
8726		27.343750
8727		19.531250
8728		27.343750
8729		21.484375
8730		27.343750
8731		21.484375
8732		29.296875
8733		25.390625
8734		27.343750
8735		23.437500
8736		29.296875
8737		23.437500
8738		31.250000
8739		25.390625
8740		31.250000
8741		25.390625
8742		33.203125
8743		25.390625
8744		33.203125
8745		27.343750
8746		33.203125
8747		27.343750
8748		33.203125
8749		27.343750
8750		33.203125
8751		31.250000
8752		35.156250
8753		29.296875
8754		35.156250
8755		29.296875
8756		37.109375
8757		31.250000
8758		37.109375
8759		31.250000
8760		37.109375
8761		33.203125
8762		39.062500
8763		33.203125
8764		39.062500
8765		33.203125
8766		37.109375
8767		35.156250
8768		39.062500
8769		35.156250
8770		41.015625
8771		35.156250
8772		41.015625
8773		35.156250
8774		41.015625
8775		35.156250
8776		42.968750
8777		37.109375
8778		42.968750
8779		37.109375
8780		42.968750
8781		39.062500
8782		42.968750
8783		39.062500
8784		42.968750
8785		39.062500
8786		44.921875
8787		39.062500
8788		44.921875
8789		39.062500
8790		44.921875
8791		39.062500
8792		44.921875
8793		39.062500
8794		46.875000
8795		39.062500
8796		46.875000
8797		39.062500
8798		46.875000
8799		41.015625
8800		46.875000
8801		42.968750
8802		44.921875
8803		41.015625
8804		46.875000
8805		41.015625
8806		48.828125
8807		42.968750
8808		48.828125
8809		41.015625
8810		50.781250
8811		42.968750
8812		48.828125
8813		41.015625
8814		48.828125
8815		42.968750
8816		48.828125
8817		44.921875
8818		46.875000
8819		42.968750
8820		50.781250
8821		42.968750
8822		50.781250
8823		44.921875
8824		50.781250
8825		44.921875
8826		50.781250
8827		44.921875
8828		50.781250
8829		42.968750
8830		50.781250
8831		44.921875
8832		50.781250
8833		46.875000
8834		48.828125
8835		44.921875
8836		50.781250
8837		44.921875
8838		50.781250
8839		44.921875
8840		50.781250
8841		42.968750
8842		50.781250
8843		44.921875
8844		50.781250
8845		44.921875
8846		50.781250
8847		44.921875
8848		50.781250
8849		44.921875
8850		50.781250
8851		46.875000
8852		50.781250
8853		44.921875
8854		52.734375
8855		44.921875
8856		50.781250
8857		44.921875
8858		50.781250
8859		44.921875
8860		50.781250
8861		42.968750
8862		50.781250
8863		42.968750
8864		50.781250
8865		44.921875
8866		50.781250
8867		44.921875
8868		48.828125
8869		44.921875
8870		50.781250
8871		44.921875
8872		50.781250
8873		44.921875
8874		50.781250
8875		42.968750
8876		48.828125
8877		42.968750
8878		50.781250
8879		42.968750
8880		50.781250
8881		42.968750
8882		48.828125
8883		42.968750
8884		48.828125
8885		44.921875
8886		46.875000
8887		41.015625
8888		48.828125
8889		41.015625
8890		46.875000
8891		41.015625
8892		46.875000
8893		41.015625
8894		48.828125
8895		41.015625
8896		46.875000
8897		39.062500
8898		46.875000
8899		41.015625
8900		46.875000
8901		41.015625
8902		44.921875
8903		39.062500
8904		44.921875
8905		39.062500
8906		44.921875
8907		37.109375
8908		44.921875
8909		37.109375
8910		44.921875
8911		37.109375
8912		42.968750
8913		37.109375
8914		42.968750
8915		37.109375
8916		42.968750
8917		39.062500
8918		41.015625
8919		37.109375
8920		41.015625
8921		35.156250
8922		41.015625
8923		35.156250
8924		41.015625
8925		33.203125
8926		41.015625
8927		33.203125
8928		41.015625
8929		33.203125
8930		39.062500
8931		31.250000
8932		39.062500
8933		33.203125
8934		37.109375
8935		33.203125
8936		37.109375
8937		31.250000
8938		37.109375
8939		29.296875
8940		37.109375
8941		29.296875
8942		37.109375
8943		29.296875
8944		35.156250
8945		27.343750
8946		35.156250
8947		27.343750
8948		33.203125
8949		27.343750
8950		33.203125
8951		27.343750
8952		31.250000
8953		25.390625
8954		31.250000
8955		23.437500
8956		31.250000
8957		23.437500
8958		31.250000
8959		23.437500
8960		29.296875
8961		23.437500
8962		29.296875
8963		21.484375
8964		29.296875
8965		21.484375
8966		27.343750
8967		23.437500
8968		25.390625
8969		21.484375
8970		25.390625
8971		19.531250
8972		25.390625
8973		17.578125
8974		25.390625
8975		17.578125
8976		25.390625
8977		17.578125
8978		23.437500
8979		13.671875
8980		23.437500
8981		13.671875
8982		21.484375
8983		15.625000
8984		21.484375
8985		13.671875
8986		19.531250
8987		13.671875
8988		17.578125
8989		11.718750
8990		17.578125
8991		11.718750
8992		17.578125
8993		9.765625
8994		17.578125
8995		9.765625
8996		15.625000
8997		7.812500
8998		15.625000
8999		7.812500
9000		13.671875
9001		7.812500
9002		11.718750
9003		7.812500
9004		11.718750
9005		5.859375
9006		11.718750
9007		3.906250
9008		11.718750
9009		3.906250
9010		9.765625
9011		1.953125
9012		9.765625
9013		1.953125
9014		9.765625
9015		1.953125
9016		7.812500
9017		1.953125
9018		5.859375
9019		0.000000
9020		3.906250
9021		-1.953125
9022		3.906250
9023		-1.953125
9024		3.906250
9025		-3.906250
9026		3.906250
9027		-3.906250
9028		1.953125
9029		-5.859375
9030		1.953125
9031		-5.859375
9032		0.000000
9033		-5.859375
9034		0.000000
9035		-5.859375
9036		-1.953125
9037		-9.765625
9038		-3.906250
9039		-9.765625
9040		-1.953125
9041		-9.765625
9042		-3.906250
9043		-11.718750
9044		-3.906250
9045		-13.671875
9046		-5.859375
9047		-13.671875
9048		-5.859375
9049		-13.671875
9050		-7.812500
9051		-13.671875
9052		-9.765625
9053		-13.671875
9054		-11.718750
9055		-17.578125
9056		-9.765625
9057		-17.578125
9058		-11.718750
9059		-17.578125
9060		-11.718750
9061		-19.531250
9062		-13.671875
9063		-21.484375
9064		-13.671875
9065		-21.484375
9066		-13.671875
9067		-21.484375
9068		-15.625000
9069		-21.484375
9070		-17.578125
9071		-23.437500
9072		-17.578125
9073		-25.390625
9074		-17.578125
9075		-25.390625
9076		-19.531250
9077		-27.343750
9078		-19.531250
9079		-27.343750
9080		-21.484375
9081		-29.296875
9082		-21.484375
9083		-29.296875
9084		-21.484375
9085		-27.343750
9086		-25.390625
9087		-29.296875
9088		-25.390625
9089		-31.250000
9090		-25.390625
9091		-33.203125
9092		-25.390625
9093		-33.203125
9094		-27.343750
9095		-35.156250
9096		-27.343750
9097		-35.156250
9098		-29.296875
9099		-35.156250
9100		-29.296875
9101		-35.156250
9102		-31.250000
9103		-35.156250
9104		-31.250000
9105		-39.062500
9106		-31.250000
9107		-37.109375
9108		-31.250000
9109		-39.062500
9110		-33.203125
9111		-41.015625
9112		-33.203125
9113		-41.015625
9114		-33.203125
9115		-41.015625
9116		-35.156250
9117		-42.968750
9118		-35.156250
9119		-41.015625
9120		-39.062500
9121		-42.968750
9122		-39.062500
9123		-44.921875
9124		-37.109375
9125		-44.921875
9126		-37.109375
9127		-44.921875
9128		-39.062500
9129		-46.875000
9130		-39.062500
9131		-48.828125
9132		-41.015625
9133		-46.875000
9134		-41.015625
9135		-46.875000
9136		-42.968750
9137		-46.875000
9138		-44.921875
9139		-48.828125
9140		-42.968750
9141		-50.781250
9142		-42.968750
9143		-50.781250
9144		-44.921875
9145		-50.781250
9146		-44.921875
9147		-50.781250
9148		-44.921875
9149		-52.734375
9150		-44.921875
9151		-52.734375
9152		-46.875000
9153		-50.781250
9154		-46.875000
9155		-52.734375
9156		-46.875000
9157		-52.734375
9158		-46.875000
9159		-54.687500
9160		-46.875000
9161		-54.687500
9162		-48.828125
9163		-54.687500
9164		-48.828125
9165		-54.687500
9166		-48.828125
9167		-54.687500
9168		-48.828125
9169		-54.687500
9170		-50.781250
9171		-54.687500
9172		-52.734375
9173		-56.640625
9174		-50.781250
9175		-56.640625
9176		-50.781250
9177		-56.640625
9178		-50.781250
9179		-56.640625
9180		-50.781250
9181		-58.593750
9182		-50.781250
9183		-58.593750
9184		-50.781250
9185		-56.640625
9186		-54.687500
9187		-56.640625
9188		-54.687500
9189		-58.593750
9190		-52.734375
9191		-58.593750
9192		-52.734375
9193		-58.593750
9194		-52.734375
9195		-58.593750
9196		-54.687500
9197		-60.546875
9198		-52.734375
9199		-60.546875
9200		-54.687500
9201		-60.546875
9202		-52.734375
9203		-58.593750
9204		-56.640625
9205		-58.593750
9206		-54.687500
9207		-60.546875
9208		-52.734375
9209		-60.546875
9210		-54.687500
9211		-60.546875
9212		-54.687500
9213		-58.593750
9214		-54.687500
9215		-58.593750
9216		-54.687500
9217		-60.546875
9218		-54.687500
9219		-58.593750
9220		-56.640625
9221		-58.593750
9222		-54.687500
9223		-60.546875
9224		-54.687500
9225		-60.546875
9226		-54.687500
9227		-60.546875
9228		-52.734375
9229		-60.546875
9230		-52.734375
9231		-60.546875
9232		-52.734375
9233		-58.593750
9234		-52.734375
9235		-58.593750
9236		-52.734375
9237		-58.593750
9238		-54.687500
9239		-58.593750
9240		-52.734375
9241		-58.593750
9242		-52.734375
9243		-58.593750
9244		-52.734375
9245		-58.593750
9246		-52.734375
9247		-58.593750
9248		-52.734375
9249		-58.593750
9250		-52.734375
9251		-56.640625
9252		-52.734375
9253		-54.687500
9254		-52.734375
9255		-56.640625
9256		-50.781250
9257		-56.640625
9258		-50.781250
9259		-56.640625
9260		-48.828125
9261		-54.687500
9262		-48.828125
9263		-54.687500
9264		-48.828125
9265		-56.640625
9266		-48.828125
9267		-54.687500
9268		-48.828125
9269		-52.734375
9270		-48.828125
9271		-52.734375
9272		-48.828125
9273		-52.734375
9274		-46.875000
9275		-52.734375
9276		-46.875000
9277		-52.734375
9278		-44.921875
9279		-52.734375
9280		-44.921875
9281		-50.781250
9282		-44.921875
9283		-50.781250
9284		-44.921875
9285		-50.781250
9286		-44.921875
9287		-46.875000
9288		-44.921875
9289		-46.875000
9290		-42.968750
9291		-48.828125
9292		-41.015625
9293		-48.828125
9294		-41.015625
9295		-46.875000
9296		-41.015625
9297		-46.875000
9298		-39.062500
9299		-46.875000
9300		-39.062500
9301		-44.921875
9302		-39.062500
9303		-42.968750
9304		-39.062500
9305		-42.968750
9306		-39.062500
9307		-42.968750
9308		-37.109375
9309		-42.968750
9310		-37.109375
9311		-42.968750
9312		-35.156250
9313		-41.015625
9314		-35.156250
9315		-41.015625
9316		-33.203125
9317		-39.062500
9318		-33.203125
9319		-37.109375
9320		-33.203125
9321		-37.109375
9322		-33.203125
9323		-37.109375
9324		-31.250000
9325		-37.109375
9326		-29.296875
9327		-37.109375
9328		-29.296875
9329		-35.156250
9330		-29.296875
9331		-33.203125
9332		-27.343750
9333		-33.203125
9334		-27.343750
9335		-33.203125
9336		-25.390625
9337		-31.250000
9338		-27.343750
9339		-29.296875
9340		-25.390625
9341		-31.250000
9342		-23.437500
9343		-29.296875
9344		-23.437500
9345		-29.296875
9346		-21.484375
9347		-27.343750
9348		-21.484375
9349		-27.343750
9350		-19.531250
9351		-25.390625
9352		-19.531250
9353		-25.390625
9354		-19.531250
9355		-21.484375
9356		-19.531250
9357		-23.437500
9358		-17.578125
9359		-21.484375
9360		-15.625000
9361		-21.484375
9362		-15.625000
9363		-21.484375
9364		-13.671875
9365		-19.531250
9366		-13.671875
9367		-19.531250
9368		-11.718750
9369		-17.578125
9370		-11.718750
9371		-15.625000
9372		-11.718750
9373		-15.625000
9374		-11.718750
9375		-15.625000
9376		-7.812500
9377		-15.625000
9378		-7.812500
9379		-13.671875
9380		-7.812500
9381		-13.671875
9382		-5.859375
9383		-11.718750
9384		-5.859375
9385		-11.718750
9386		-3.906250
9387		-7.812500
9388		-5.859375
9389		-7.812500
9390		-3.906250
9391		-7.812500
9392		-1.953125
9393		-7.812500
9394		0.000000
9395		-7.812500
9396		0.000000
9397		-5.859375
9398		1.953125
9399		-3.906250
9400		1.953125
9401		-3.906250
9402		1.953125
9403		-3.906250
9404		3.906250
9405		0.000000
9406		3.906250
9407		0.000000
9408		5.859375
9409		0.000000
9410		7.812500
9411		0.000000
9412		7.812500
9413		1.953125
9414		9.765625
9415		1.953125
9416		9.765625
9417		3.906250
9418		11.718750
9419		3.906250
9420		11.718750
9421		5.859375
9422		9.765625
9423		7.812500
9424		11.718750
9425		7.812500
9426		13.671875
9427		7.812500
9428		13.671875
9429		7.812500
9430		15.625000
9431		9.765625
9432		15.625000
9433		9.765625
9434		17.578125
9435		11.718750
9436		17.578125
9437		11.718750
9438		17.578125
9439		13.671875
9440		17.578125
9441		15.625000
9442		21.484375
9443		13.671875
9444		21.484375
9445		15.625000
9446		21.484375
9447		15.625000
9448		21.484375
9449		17.578125
9450		23.437500
9451		17.578125
9452		23.437500
9453		17.578125
9454		25.390625
9455		21.484375
9456		23.437500
9457		19.531250
9458		25.390625
9459		21.484375
9460		27.343750
9461		19.531250
9462		27.343750
9463		21.484375
9464		27.343750
9465		23.437500
9466		29.296875
9467		23.437500
9468		29.296875
9469		23.437500
9470		31.250000
9471		27.343750
9472		29.296875
9473		27.343750
9474		29.296875
9475		27.343750
9476		33.203125
9477		27.343750
9478		33.203125
9479		27.343750
9480		33.203125
9481		27.343750
9482		35.156250
9483		29.296875
9484		35.156250
9485		29.296875
9486		35.156250
9487		31.250000
9488		35.156250
9489		33.203125
9490		35.156250
9491		31.250000
9492		37.109375
9493		31.250000
9494		37.109375
9495		33.203125
9496		39.062500
9497		33.203125
9498		39.062500
9499		33.203125
9500		39.062500
9501		33.203125
9502		41.015625
9503		35.156250
9504		41.015625
9505		37.109375
9506		41.015625
9507		37.109375
9508		41.015625
9509		35.156250
9510		42.968750
9511		35.156250
9512		42.968750
9513		35.156250
9514		42.968750
9515		39.062500
9516		44.921875
9517		39.062500
9518		44.921875
9519		39.062500
9520		44.921875
9521		39.062500
9522		44.921875
9523		41.015625
9524		44.921875
9525		39.062500
9526		44.921875
9527		39.062500
9528		46.875000
9529		41.015625
9530		46.875000
9531		41.015625
9532		46.875000
9533		41.015625
9534		46.875000
9535		42.968750
9536		48.828125
9537		42.968750
9538		48.828125
9539		42.968750
9540		46.875000
9541		42.968750
9542		46.875000
9543		42.968750
9544		48.828125
9545		42.968750
9546		48.828125
9547		42.968750
9548		48.828125
9549		42.968750
9550		50.781250
9551		42.968750
9552		50.781250
9553		42.968750
9554		50.781250
9555		44.921875
9556		48.828125
9557		44.921875
9558		48.828125
9559		44.921875
9560		50.781250
9561		44.921875
9562		50.781250
9563		44.921875
9564		50.781250
9565		44.921875
9566		50.781250
9567		44.921875
9568		50.781250
9569		42.968750
9570		50.781250
9571		44.921875
9572		50.781250
9573		44.921875
9574		50.781250
9575		44.921875
9576		50.781250
9577		44.921875
9578		50.781250
9579		44.921875
9580		50.781250
9581		44.921875
9582		50.781250
9583		44.921875
9584		50.781250
9585		44.921875
9586		50.781250
9587		44.921875
9588		50.781250
9589		46.875000
9590		48.828125
9591		46.875000
9592		48.828125
9593		44.921875
9594		50.781250
9595		42.968750
9596		50.781250
9597		42.968750
9598		50.781250
9599		42.968750
9600		50.781250
9601		44.921875
9602		50.781250
9603		42.968750
9604		50.781250
9605		42.968750
9606		50.781250
9607		44.921875
9608		46.875000
9609		42.968750
9610		48.828125
9611		42.968750
9612		48.828125
9613		42.968750
9614		48.828125
9615		42.968750
9616		48.828125
9617		41.015625
9618		48.828125
9619		42.968750
9620		48.828125
9621		42.968750
9622		48.828125
9623		41.015625
9624		46.875000
9625		42.968750
9626		44.921875
9627		41.015625
9628		46.875000
9629		41.015625
9630		46.875000
9631		39.062500
9632		46.875000
9633		39.062500
9634		46.875000
9635		39.062500
9636		44.921875
9637		39.062500
9638		44.921875
9639		39.062500
9640		44.921875
9641		41.015625
9642		42.968750
9643		37.109375
9644		44.921875
9645		37.109375
9646		44.921875
9647		37.109375
9648		42.968750
9649		37.109375
9650		42.968750
9651		37.109375
9652		42.968750
9653		35.156250
9654		42.968750
9655		35.156250
9656		42.968750
9657		37.109375
9658		39.062500
9659		33.203125
9660		39.062500
9661		33.203125
9662		39.062500
9663		33.203125
9664		39.062500
9665		31.250000
9666		39.062500
9667		31.250000
9668		39.062500
9669		31.250000
9670		37.109375
9671		29.296875
9672		37.109375
9673		31.250000
9674		35.156250
9675		31.250000
9676		35.156250
9677		27.343750
9678		35.156250
9679		27.343750
9680		35.156250
9681		27.343750
9682		33.203125
9683		25.390625
9684		33.203125
9685		25.390625
9686		31.250000
9687		25.390625
9688		31.250000
9689		25.390625
9690		31.250000
9691		25.390625
9692		29.296875
9693		25.390625
9694		29.296875
9695		21.484375
9696		29.296875
9697		21.484375
9698		27.343750
9699		21.484375
9700		27.343750
9701		19.531250
9702		27.343750
9703		19.531250
9704		25.390625
9705		19.531250
9706		25.390625
9707		19.531250
9708		23.437500
9709		19.531250
9710		23.437500
9711		17.578125
9712		23.437500
9713		15.625000
9714		23.437500
9715		13.671875
9716		21.484375
9717		13.671875
9718		21.484375
9719		13.671875
9720		19.531250
9721		11.718750
9722		19.531250
9723		13.671875
9724		17.578125
9725		13.671875
9726		15.625000
9727		9.765625
9728		15.625000
9729		9.765625
9730		15.625000
9731		7.812500
9732		15.625000
9733		5.859375
9734		13.671875
9735		5.859375
9736		13.671875
9737		5.859375
9738		13.671875
9739		5.859375
9740		11.718750
9741		5.859375
9742		7.812500
9743		1.953125
9744		9.765625
9745		1.953125
9746		7.812500
9747		0.000000
9748		7.812500
9749		0.000000
9750		7.812500
9751		0.000000
9752		5.859375
9753		-1.953125
9754		5.859375
9755		-1.953125
9756		3.906250
9757		-1.953125
9758		1.953125
9759		-3.906250
9760		1.953125
9761		-5.859375
9762		1.953125
9763		-5.859375
9764		0.000000
9765		-5.859375
9766		0.000000
9767		-7.812500
9768		0.000000
9769		-7.812500
9770		-1.953125
9771		-9.765625
9772		-1.953125
9773		-9.765625
9774		-3.906250
9775		-9.765625
9776		-5.859375
9777		-11.718750
9778		-5.859375
9779		-13.671875
9780		-5.859375
9781		-15.625000
9782		-7.812500
9783		-15.625000
9784		-7.812500
9785		-15.625000
9786		-9.765625
9787		-17.578125
9788		-9.765625
9789		-15.625000
9790		-9.765625
9791		-17.578125
9792		-13.671875
9793		-17.578125
9794		-13.671875
9795		-19.531250
9796		-13.671875
9797		-19.531250
9798		-13.671875
9799		-21.484375
9800		-15.625000
9801		-23.437500
9802		-15.625000
9803		-25.390625
9804		-17.578125
9805		-25.390625
9806		-17.578125
9807		-23.437500
9808		-19.531250
9809		-25.390625
9810		-21.484375
9811		-25.390625
9812		-21.484375
9813		-27.343750
9814		-21.484375
9815		-27.343750
9816		-23.437500
9817		-29.296875
9818		-23.437500
9819		-29.296875
9820		-25.390625
9821		-31.250000
9822		-25.390625
9823		-31.250000
9824		-25.390625
9825		-31.250000
9826		-27.343750
9827		-33.203125
9828		-27.343750
9829		-35.156250
9830		-27.343750
9831		-35.156250
9832		-29.296875
9833		-37.109375
9834		-29.296875
9835		-37.109375
9836		-29.296875
9837		-37.109375
9838		-31.250000
9839		-39.062500
9840		-31.250000
9841		-37.109375
9842		-35.156250
9843		-39.062500
9844		-33.203125
9845		-41.015625
9846		-35.156250
9847		-42.968750
9848		-35.156250
9849		-42.968750
9850		-35.156250
9851		-42.968750
9852		-35.156250
9853		-42.968750
9854		-37.109375
9855		-42.968750
9856		-39.062500
9857		-42.968750
9858		-39.062500
9859		-42.968750
9860		-41.015625
9861		-44.921875
9862		-39.062500
9863		-46.875000
9864		-41.015625
9865		-46.875000
9866		-41.015625
9867		-46.875000
9868		-41.015625
9869		-48.828125
9870		-41.015625
9871		-48.828125
9872		-42.968750
9873		-48.828125
9874		-42.968750
9875		-48.828125
9876		-44.921875
9877		-48.828125
9878		-44.921875
9879		-50.781250
9880		-44.921875
9881		-50.781250
9882		-46.875000
9883		-50.781250
9884		-46.875000
9885		-52.734375
9886		-46.875000
9887		-52.734375
9888		-46.875000
9889		-54.687500
9890		-46.875000
9891		-52.734375
9892		-48.828125
9893		-52.734375
9894		-48.828125
9895		-54.687500
9896		-48.828125
9897		-54.687500
9898		-48.828125
9899		-56.640625
9900		-48.828125
9901		-54.687500
9902		-50.781250
9903		-56.640625
9904		-50.781250
9905		-56.640625
9906		-50.781250
9907		-56.640625
9908		-50.781250
9909		-56.640625
9910		-52.734375
9911		-56.640625
9912		-52.734375
9913		-56.640625
9914		-50.781250
9915		-58.593750
9916		-50.781250
9917		-58.593750
9918		-52.734375
9919		-58.593750
9920		-52.734375
9921		-58.593750
9922		-52.734375
9923		-58.593750
9924		-54.687500
9925		-56.640625
9926		-52.734375
9927		-56.640625
9928		-54.687500
9929		-58.593750
9930		-54.687500
9931		-58.593750
9932		-54.687500
9933		-60.546875
9934		-52.734375
9935		-60.546875
9936		-52.734375
9937		-60.546875
9938		-52.734375
9939		-60.546875
9940		-54.687500
9941		-60.546875
9942		-52.734375
9943		-58.593750
9944		-54.687500
9945		-60.546875
9946		-54.687500
9947		-58.593750
9948		-54.687500
9949		-58.593750
9950		-54.687500
9951		-60.546875
9952		-52.734375
9953		-60.546875
9954		-52.734375
9955		-60.546875
9956		-52.734375
9957		-58.593750
9958		-54.687500
9959		-58.593750
9960		-54.687500
9961		-58.593750
9962		-54.687500
9963		-58.593750
9964		-54.687500
9965		-58.593750
9966		-54.687500
9967		-58.593750
9968		-54.687500
9969		-58.593750
9970		-52.734375
9971		-58.593750
9972		-52.734375
9973		-56.640625
9974		-54.687500
9975		-56.640625
9976		-52.734375
9977		-56.640625
9978		-54.687500
9979		-56.640625
9980		-52.734375
9981		-56.640625
9982		-52.734375
9983		-56.640625
9984		-52.734375
9985		-56.640625
9986		-50.781250
9987		-56.640625
9988		-50.781250
9989		-54.687500
9990		-50.781250
9991		-54.687500
9992		-50.781250
9993		-54.687500
9994		-48.828125
9995		-52.734375
9996		-50.781250
9997		-54.687500
9998		-50.781250
9999		-54.687500
10000		-48.828125
