Channel              :		CH1
Frequency            :		681.2Hz
Period               :		1.468ms
PK-PK                :		109.4mV
Probe attenuation    :		1X
Voltage per ADC value:		0.122070mV
Time interval        :		2.00000us

index		CH1_Voltage(mV)
1		42.968750
2		42.968750
3		44.921875
4		42.968750
5		46.875000
6		42.968750
7		46.875000
8		44.921875
9		46.875000
10		42.968750
11		48.828125
12		44.921875
13		46.875000
14		44.921875
15		48.828125
16		44.921875
17		48.828125
18		44.921875
19		48.828125
20		44.921875
21		48.828125
22		44.921875
23		48.828125
24		44.921875
25		48.828125
26		46.875000
27		48.828125
28		44.921875
29		48.828125
30		44.921875
31		50.781250
32		46.875000
33		48.828125
34		46.875000
35		50.781250
36		46.875000
37		48.828125
38		44.921875
39		50.781250
40		46.875000
41		50.781250
42		46.875000
43		48.828125
44		46.875000
45		50.781250
46		46.875000
47		50.781250
48		46.875000
49		50.781250
50		46.875000
51		50.781250
52		46.875000
53		50.781250
54		46.875000
55		50.781250
56		46.875000
57		50.781250
58		46.875000
59		50.781250
60		46.875000
61		50.781250
62		46.875000
63		50.781250
64		46.875000
65		50.781250
66		46.875000
67		48.828125
68		46.875000
69		48.828125
70		46.875000
71		50.781250
72		44.921875
73		50.781250
74		46.875000
75		48.828125
76		46.875000
77		48.828125
78		44.921875
79		48.828125
80		44.921875
81		48.828125
82		44.921875
83		50.781250
84		44.921875
85		48.828125
86		42.968750
87		48.828125
88		44.921875
89		48.828125
90		44.921875
91		46.875000
92		44.921875
93		48.828125
94		42.968750
95		46.875000
96		42.968750
97		46.875000
98		42.968750
99		46.875000
100		42.968750
101		46.875000
102		42.968750
103		44.921875
104		42.968750
105		46.875000
106		41.015625
107		44.921875
108		41.015625
109		44.921875
110		41.015625
111		44.921875
112		41.015625
113		44.921875
114		39.062500
115		44.921875
116		39.062500
117		42.968750
118		39.062500
119		42.968750
120		39.062500
121		42.968750
122		39.062500
123		42.968750
124		37.109375
125		41.015625
126		37.109375
127		41.015625
128		37.109375
129		41.015625
130		37.109375
131		41.015625
132		37.109375
133		39.062500
134		35.156250
135		39.062500
136		35.156250
137		39.062500
138		35.156250
139		37.109375
140		33.203125
141		37.109375
142		33.203125
143		37.109375
144		33.203125
145		37.109375
146		31.250000
147		37.109375
148		31.250000
149		35.156250
150		31.250000
151		35.156250
152		29.296875
153		33.203125
154		29.296875
155		33.203125
156		29.296875
157		33.203125
158		29.296875
159		31.250000
160		27.343750
161		31.250000
162		27.343750
163		31.250000
164		27.343750
165		29.296875
166		25.390625
167		29.296875
168		25.390625
169		27.343750
170		25.390625
171		29.296875
172		23.437500
173		27.343750
174		23.437500
175		27.343750
176		23.437500
177		25.390625
178		19.531250
179		25.390625
180		21.484375
181		23.437500
182		19.531250
183		23.437500
184		19.531250
185		23.437500
186		17.578125
187		21.484375
188		17.578125
189		21.484375
190		17.578125
191		21.484375
192		17.578125
193		19.531250
194		15.625000
195		19.531250
196		13.671875
197		17.578125
198		13.671875
199		17.578125
200		13.671875
201		17.578125
202		11.718750
203		15.625000
204		11.718750
205		13.671875
206		9.765625
207		13.671875
208		9.765625
209		13.671875
210		7.812500
211		13.671875
212		7.812500
213		11.718750
214		7.812500
215		9.765625
216		5.859375
217		9.765625
218		5.859375
219		9.765625
220		3.906250
221		7.812500
222		3.906250
223		7.812500
224		1.953125
225		5.859375
226		1.953125
227		5.859375
228		1.953125
229		3.906250
230		0.000000
231		3.906250
232		0.000000
233		1.953125
234		-1.953125
235		1.953125
236		-1.953125
237		1.953125
238		-3.906250
239		0.000000
240		-5.859375
241		0.000000
242		-3.906250
243		-1.953125
244		-7.812500
245		-1.953125
246		-7.812500
247		-3.906250
248		-7.812500
249		-3.906250
250		-9.765625
251		-5.859375
252		-9.765625
253		-5.859375
254		-9.765625
255		-7.812500
256		-11.718750
257		-7.812500
258		-11.718750
259		-7.812500
260		-11.718750
261		-9.765625
262		-13.671875
263		-9.765625
264		-15.625000
265		-9.765625
266		-17.578125
267		-11.718750
268		-15.625000
269		-13.671875
270		-17.578125
271		-13.671875
272		-17.578125
273		-13.671875
274		-19.531250
275		-15.625000
276		-19.531250
277		-17.578125
278		-19.531250
279		-17.578125
280		-21.484375
281		-17.578125
282		-23.437500
283		-19.531250
284		-23.437500
285		-19.531250
286		-23.437500
287		-21.484375
288		-25.390625
289		-21.484375
290		-25.390625
291		-21.484375
292		-27.343750
293		-21.484375
294		-27.343750
295		-23.437500
296		-27.343750
297		-23.437500
298		-29.296875
299		-25.390625
300		-29.296875
301		-25.390625
302		-31.250000
303		-27.343750
304		-31.250000
305		-27.343750
306		-31.250000
307		-27.343750
308		-33.203125
309		-29.296875
310		-33.203125
311		-29.296875
312		-33.203125
313		-31.250000
314		-35.156250
315		-31.250000
316		-35.156250
317		-31.250000
318		-35.156250
319		-33.203125
320		-37.109375
321		-33.203125
322		-37.109375
323		-33.203125
324		-39.062500
325		-35.156250
326		-39.062500
327		-35.156250
328		-39.062500
329		-37.109375
330		-41.015625
331		-35.156250
332		-41.015625
333		-37.109375
334		-41.015625
335		-37.109375
336		-41.015625
337		-37.109375
338		-42.968750
339		-37.109375
340		-42.968750
341		-39.062500
342		-44.921875
343		-39.062500
344		-42.968750
345		-41.015625
346		-44.921875
347		-41.015625
348		-44.921875
349		-41.015625
350		-44.921875
351		-42.968750
352		-44.921875
353		-42.968750
354		-46.875000
355		-42.968750
356		-46.875000
357		-42.968750
358		-48.828125
359		-42.968750
360		-48.828125
361		-42.968750
362		-48.828125
363		-44.921875
364		-48.828125
365		-44.921875
366		-48.828125
367		-46.875000
368		-48.828125
369		-46.875000
370		-50.781250
371		-46.875000
372		-50.781250
373		-46.875000
374		-52.734375
375		-46.875000
376		-50.781250
377		-46.875000
378		-50.781250
379		-48.828125
380		-52.734375
381		-48.828125
382		-52.734375
383		-48.828125
384		-52.734375
385		-48.828125
386		-52.734375
387		-48.828125
388		-52.734375
389		-48.828125
390		-54.687500
391		-50.781250
392		-52.734375
393		-50.781250
394		-52.734375
395		-50.781250
396		-54.687500
397		-50.781250
398		-54.687500
399		-50.781250
400		-54.687500
401		-50.781250
402		-54.687500
403		-50.781250
404		-54.687500
405		-50.781250
406		-54.687500
407		-50.781250
408		-54.687500
409		-50.781250
410		-54.687500
411		-50.781250
412		-54.687500
413		-50.781250
414		-54.687500
415		-50.781250
416		-54.687500
417		-52.734375
418		-56.640625
419		-50.781250
420		-54.687500
421		-52.734375
422		-54.687500
423		-50.781250
424		-54.687500
425		-50.781250
426		-54.687500
427		-50.781250
428		-54.687500
429		-52.734375
430		-54.687500
431		-50.781250
432		-54.687500
433		-50.781250
434		-54.687500
435		-50.781250
436		-54.687500
437		-50.781250
438		-54.687500
439		-50.781250
440		-54.687500
441		-50.781250
442		-54.687500
443		-50.781250
444		-52.734375
445		-50.781250
446		-54.687500
447		-50.781250
448		-52.734375
449		-50.781250
450		-52.734375
451		-50.781250
452		-52.734375
453		-48.828125
454		-52.734375
455		-48.828125
456		-52.734375
457		-48.828125
458		-52.734375
459		-48.828125
460		-50.781250
461		-46.875000
462		-50.781250
463		-46.875000
464		-52.734375
465		-46.875000
466		-50.781250
467		-46.875000
468		-50.781250
469		-46.875000
470		-50.781250
471		-46.875000
472		-48.828125
473		-46.875000
474		-48.828125
475		-44.921875
476		-48.828125
477		-44.921875
478		-48.828125
479		-44.921875
480		-46.875000
481		-42.968750
482		-46.875000
483		-42.968750
484		-46.875000
485		-42.968750
486		-46.875000
487		-42.968750
488		-44.921875
489		-42.968750
490		-46.875000
491		-41.015625
492		-44.921875
493		-41.015625
494		-44.921875
495		-41.015625
496		-42.968750
497		-41.015625
498		-42.968750
499		-39.062500
500		-42.968750
501		-39.062500
502		-41.015625
503		-37.109375
504		-41.015625
505		-37.109375
506		-41.015625
507		-37.109375
508		-41.015625
509		-37.109375
510		-41.015625
511		-35.156250
512		-39.062500
513		-35.156250
514		-37.109375
515		-35.156250
516		-37.109375
517		-33.203125
518		-37.109375
519		-33.203125
520		-37.109375
521		-33.203125
522		-35.156250
523		-31.250000
524		-35.156250
525		-29.296875
526		-33.203125
527		-29.296875
528		-33.203125
529		-29.296875
530		-33.203125
531		-29.296875
532		-31.250000
533		-27.343750
534		-31.250000
535		-27.343750
536		-31.250000
537		-27.343750
538		-29.296875
539		-25.390625
540		-29.296875
541		-25.390625
542		-27.343750
543		-23.437500
544		-27.343750
545		-23.437500
546		-25.390625
547		-23.437500
548		-25.390625
549		-21.484375
550		-23.437500
551		-21.484375
552		-23.437500
553		-21.484375
554		-23.437500
555		-19.531250
556		-21.484375
557		-19.531250
558		-21.484375
559		-17.578125
560		-21.484375
561		-15.625000
562		-19.531250
563		-15.625000
564		-17.578125
565		-15.625000
566		-17.578125
567		-13.671875
568		-17.578125
569		-13.671875
570		-15.625000
571		-13.671875
572		-15.625000
573		-11.718750
574		-13.671875
575		-11.718750
576		-13.671875
577		-9.765625
578		-13.671875
579		-9.765625
580		-11.718750
581		-7.812500
582		-11.718750
583		-7.812500
584		-9.765625
585		-5.859375
586		-7.812500
587		-5.859375
588		-9.765625
589		-3.906250
590		-7.812500
591		-3.906250
592		-5.859375
593		-3.906250
594		-5.859375
595		-1.953125
596		-3.906250
597		-1.953125
598		-3.906250
599		0.000000
600		-3.906250
601		1.953125
602		-1.953125
603		1.953125
604		-1.953125
605		1.953125
606		-1.953125
607		3.906250
608		0.000000
609		3.906250
610		1.953125
611		5.859375
612		1.953125
613		5.859375
614		3.906250
615		5.859375
616		3.906250
617		7.812500
618		3.906250
619		7.812500
620		5.859375
621		9.765625
622		5.859375
623		9.765625
624		7.812500
625		11.718750
626		7.812500
627		11.718750
628		7.812500
629		11.718750
630		9.765625
631		13.671875
632		9.765625
633		13.671875
634		11.718750
635		15.625000
636		11.718750
637		15.625000
638		13.671875
639		15.625000
640		13.671875
641		17.578125
642		15.625000
643		19.531250
644		15.625000
645		19.531250
646		15.625000
647		21.484375
648		17.578125
649		19.531250
650		17.578125
651		21.484375
652		17.578125
653		23.437500
654		19.531250
655		23.437500
656		19.531250
657		23.437500
658		21.484375
659		25.390625
660		21.484375
661		25.390625
662		21.484375
663		25.390625
664		23.437500
665		25.390625
666		23.437500
667		27.343750
668		23.437500
669		27.343750
670		25.390625
671		29.296875
672		25.390625
673		29.296875
674		27.343750
675		31.250000
676		27.343750
677		31.250000
678		27.343750
679		31.250000
680		29.296875
681		31.250000
682		29.296875
683		33.203125
684		29.296875
685		33.203125
686		31.250000
687		33.203125
688		31.250000
689		35.156250
690		31.250000
691		35.156250
692		33.203125
693		35.156250
694		33.203125
695		37.109375
696		33.203125
697		37.109375
698		33.203125
699		39.062500
700		35.156250
701		39.062500
702		35.156250
703		39.062500
704		35.156250
705		39.062500
706		37.109375
707		39.062500
708		37.109375
709		41.015625
710		37.109375
711		41.015625
712		37.109375
713		41.015625
714		39.062500
715		42.968750
716		39.062500
717		42.968750
718		39.062500
719		42.968750
720		39.062500
721		42.968750
722		41.015625
723		44.921875
724		41.015625
725		42.968750
726		41.015625
727		44.921875
728		41.015625
729		44.921875
730		41.015625
731		44.921875
732		42.968750
733		46.875000
734		41.015625
735		46.875000
736		42.968750
737		46.875000
738		42.968750
739		46.875000
740		42.968750
741		46.875000
742		42.968750
743		46.875000
744		42.968750
745		46.875000
746		44.921875
747		48.828125
748		44.921875
749		48.828125
750		44.921875
751		48.828125
752		44.921875
753		48.828125
754		44.921875
755		48.828125
756		44.921875
757		48.828125
758		46.875000
759		48.828125
760		44.921875
761		48.828125
762		44.921875
763		50.781250
764		46.875000
765		48.828125
766		46.875000
767		50.781250
768		46.875000
769		50.781250
770		46.875000
771		50.781250
772		46.875000
773		50.781250
774		46.875000
775		50.781250
776		46.875000
777		50.781250
778		46.875000
779		50.781250
780		46.875000
781		50.781250
782		46.875000
783		50.781250
784		46.875000
785		50.781250
786		46.875000
787		50.781250
788		46.875000
789		50.781250
790		46.875000
791		50.781250
792		46.875000
793		50.781250
794		46.875000
795		50.781250
796		46.875000
797		50.781250
798		46.875000
799		50.781250
800		46.875000
801		50.781250
802		46.875000
803		50.781250
804		46.875000
805		50.781250
806		46.875000
807		48.828125
808		46.875000
809		48.828125
810		44.921875
811		48.828125
812		46.875000
813		48.828125
814		44.921875
815		48.828125
816		46.875000
817		48.828125
818		44.921875
819		48.828125
820		44.921875
821		48.828125
822		44.921875
823		48.828125
824		44.921875
825		46.875000
826		42.968750
827		48.828125
828		44.921875
829		46.875000
830		42.968750
831		46.875000
832		42.968750
833		46.875000
834		42.968750
835		46.875000
836		42.968750
837		44.921875
838		41.015625
839		46.875000
840		42.968750
841		44.921875
842		41.015625
843		44.921875
844		41.015625
845		44.921875
846		41.015625
847		44.921875
848		41.015625
849		42.968750
850		39.062500
851		42.968750
852		39.062500
853		42.968750
854		39.062500
855		42.968750
856		39.062500
857		42.968750
858		39.062500
859		41.015625
860		37.109375
861		41.015625
862		37.109375
863		41.015625
864		37.109375
865		39.062500
866		35.156250
867		39.062500
868		33.203125
869		39.062500
870		35.156250
871		39.062500
872		35.156250
873		39.062500
874		35.156250
875		37.109375
876		33.203125
877		37.109375
878		33.203125
879		37.109375
880		31.250000
881		35.156250
882		31.250000
883		35.156250
884		31.250000
885		35.156250
886		31.250000
887		35.156250
888		29.296875
889		33.203125
890		29.296875
891		33.203125
892		27.343750
893		33.203125
894		27.343750
895		31.250000
896		27.343750
897		31.250000
898		25.390625
899		31.250000
900		25.390625
901		29.296875
902		25.390625
903		29.296875
904		23.437500
905		27.343750
906		23.437500
907		27.343750
908		23.437500
909		25.390625
910		21.484375
911		25.390625
912		21.484375
913		25.390625
914		19.531250
915		25.390625
916		19.531250
917		23.437500
918		19.531250
919		21.484375
920		19.531250
921		21.484375
922		17.578125
923		21.484375
924		17.578125
925		19.531250
926		15.625000
927		19.531250
928		13.671875
929		19.531250
930		13.671875
931		17.578125
932		13.671875
933		15.625000
934		11.718750
935		17.578125
936		11.718750
937		15.625000
938		11.718750
939		15.625000
940		9.765625
941		13.671875
942		9.765625
943		11.718750
944		7.812500
945		11.718750
946		7.812500
947		11.718750
948		7.812500
949		9.765625
950		5.859375
951		7.812500
952		3.906250
953		7.812500
954		3.906250
955		7.812500
956		3.906250
957		5.859375
958		1.953125
959		5.859375
960		1.953125
961		5.859375
962		0.000000
963		3.906250
964		-1.953125
965		3.906250
966		-1.953125
967		1.953125
968		-1.953125
969		1.953125
970		-3.906250
971		1.953125
972		-3.906250
973		0.000000
974		-3.906250
975		-1.953125
976		-5.859375
977		-1.953125
978		-5.859375
979		-3.906250
980		-7.812500
981		-3.906250
982		-7.812500
983		-3.906250
984		-7.812500
985		-5.859375
986		-9.765625
987		-5.859375
988		-9.765625
989		-5.859375
990		-11.718750
991		-7.812500
992		-11.718750
993		-9.765625
994		-13.671875
995		-9.765625
996		-13.671875
997		-9.765625
998		-15.625000
999		-11.718750
1000		-15.625000
1001		-11.718750
1002		-15.625000
1003		-13.671875
1004		-17.578125
1005		-13.671875
1006		-17.578125
1007		-15.625000
1008		-19.531250
1009		-15.625000
1010		-19.531250
1011		-15.625000
1012		-21.484375
1013		-17.578125
1014		-21.484375
1015		-17.578125
1016		-23.437500
1017		-19.531250
1018		-23.437500
1019		-19.531250
1020		-25.390625
1021		-19.531250
1022		-25.390625
1023		-21.484375
1024		-25.390625
1025		-21.484375
1026		-25.390625
1027		-23.437500
1028		-27.343750
1029		-23.437500
1030		-27.343750
1031		-25.390625
1032		-29.296875
1033		-25.390625
1034		-31.250000
1035		-25.390625
1036		-31.250000
1037		-25.390625
1038		-31.250000
1039		-27.343750
1040		-31.250000
1041		-27.343750
1042		-31.250000
1043		-29.296875
1044		-33.203125
1045		-29.296875
1046		-35.156250
1047		-29.296875
1048		-35.156250
1049		-31.250000
1050		-35.156250
1051		-33.203125
1052		-37.109375
1053		-33.203125
1054		-37.109375
1055		-33.203125
1056		-37.109375
1057		-33.203125
1058		-39.062500
1059		-33.203125
1060		-39.062500
1061		-35.156250
1062		-39.062500
1063		-35.156250
1064		-41.015625
1065		-35.156250
1066		-39.062500
1067		-37.109375
1068		-41.015625
1069		-37.109375
1070		-41.015625
1071		-37.109375
1072		-42.968750
1073		-39.062500
1074		-42.968750
1075		-39.062500
1076		-42.968750
1077		-39.062500
1078		-42.968750
1079		-39.062500
1080		-44.921875
1081		-41.015625
1082		-44.921875
1083		-41.015625
1084		-44.921875
1085		-42.968750
1086		-46.875000
1087		-42.968750
1088		-46.875000
1089		-42.968750
1090		-46.875000
1091		-42.968750
1092		-46.875000
1093		-42.968750
1094		-48.828125
1095		-44.921875
1096		-48.828125
1097		-44.921875
1098		-48.828125
1099		-44.921875
1100		-48.828125
1101		-44.921875
1102		-48.828125
1103		-46.875000
1104		-50.781250
1105		-46.875000
1106		-50.781250
1107		-46.875000
1108		-50.781250
1109		-46.875000
1110		-50.781250
1111		-46.875000
1112		-52.734375
1113		-46.875000
1114		-50.781250
1115		-46.875000
1116		-52.734375
1117		-48.828125
1118		-52.734375
1119		-48.828125
1120		-52.734375
1121		-48.828125
1122		-52.734375
1123		-48.828125
1124		-52.734375
1125		-48.828125
1126		-52.734375
1127		-48.828125
1128		-52.734375
1129		-48.828125
1130		-52.734375
1131		-48.828125
1132		-54.687500
1133		-48.828125
1134		-52.734375
1135		-50.781250
1136		-52.734375
1137		-50.781250
1138		-54.687500
1139		-50.781250
1140		-54.687500
1141		-50.781250
1142		-54.687500
1143		-50.781250
1144		-54.687500
1145		-50.781250
1146		-54.687500
1147		-50.781250
1148		-54.687500
1149		-50.781250
1150		-54.687500
1151		-50.781250
1152		-54.687500
1153		-50.781250
1154		-54.687500
1155		-50.781250
1156		-54.687500
1157		-50.781250
1158		-54.687500
1159		-50.781250
1160		-54.687500
1161		-50.781250
1162		-54.687500
1163		-50.781250
1164		-52.734375
1165		-50.781250
1166		-54.687500
1167		-50.781250
1168		-52.734375
1169		-50.781250
1170		-54.687500
1171		-48.828125
1172		-52.734375
1173		-48.828125
1174		-52.734375
1175		-48.828125
1176		-52.734375
1177		-48.828125
1178		-52.734375
1179		-48.828125
1180		-52.734375
1181		-48.828125
1182		-52.734375
1183		-48.828125
1184		-52.734375
1185		-48.828125
1186		-50.781250
1187		-48.828125
1188		-52.734375
1189		-46.875000
1190		-50.781250
1191		-46.875000
1192		-50.781250
1193		-48.828125
1194		-50.781250
1195		-46.875000
1196		-50.781250
1197		-46.875000
1198		-48.828125
1199		-46.875000
1200		-50.781250
1201		-46.875000
1202		-48.828125
1203		-46.875000
1204		-48.828125
1205		-44.921875
1206		-48.828125
1207		-44.921875
1208		-46.875000
1209		-44.921875
1210		-46.875000
1211		-42.968750
1212		-46.875000
1213		-42.968750
1214		-46.875000
1215		-42.968750
1216		-46.875000
1217		-41.015625
1218		-44.921875
1219		-42.968750
1220		-44.921875
1221		-41.015625
1222		-44.921875
1223		-41.015625
1224		-44.921875
1225		-41.015625
1226		-42.968750
1227		-39.062500
1228		-42.968750
1229		-39.062500
1230		-42.968750
1231		-39.062500
1232		-42.968750
1233		-37.109375
1234		-41.015625
1235		-39.062500
1236		-41.015625
1237		-37.109375
1238		-41.015625
1239		-37.109375
1240		-39.062500
1241		-35.156250
1242		-39.062500
1243		-35.156250
1244		-37.109375
1245		-35.156250
1246		-37.109375
1247		-35.156250
1248		-37.109375
1249		-33.203125
1250		-37.109375
1251		-33.203125
1252		-35.156250
1253		-33.203125
1254		-35.156250
1255		-31.250000
1256		-33.203125
1257		-31.250000
1258		-33.203125
1259		-29.296875
1260		-33.203125
1261		-29.296875
1262		-33.203125
1263		-29.296875
1264		-31.250000
1265		-27.343750
1266		-31.250000
1267		-25.390625
1268		-29.296875
1269		-27.343750
1270		-29.296875
1271		-25.390625
1272		-29.296875
1273		-25.390625
1274		-27.343750
1275		-23.437500
1276		-27.343750
1277		-23.437500
1278		-27.343750
1279		-21.484375
1280		-25.390625
1281		-21.484375
1282		-25.390625
1283		-21.484375
1284		-23.437500
1285		-19.531250
1286		-21.484375
1287		-19.531250
1288		-23.437500
1289		-17.578125
1290		-21.484375
1291		-17.578125
1292		-19.531250
1293		-15.625000
1294		-19.531250
1295		-15.625000
1296		-17.578125
1297		-15.625000
1298		-17.578125
1299		-13.671875
1300		-17.578125
1301		-13.671875
1302		-15.625000
1303		-11.718750
1304		-15.625000
1305		-9.765625
1306		-15.625000
1307		-9.765625
1308		-13.671875
1309		-9.765625
1310		-11.718750
1311		-9.765625
1312		-11.718750
1313		-7.812500
1314		-11.718750
1315		-7.812500
1316		-9.765625
1317		-5.859375
1318		-7.812500
1319		-5.859375
1320		-7.812500
1321		-3.906250
1322		-7.812500
1323		-3.906250
1324		-7.812500
1325		-1.953125
1326		-5.859375
1327		-1.953125
1328		-3.906250
1329		0.000000
1330		-3.906250
1331		0.000000
1332		-1.953125
1333		0.000000
1334		-1.953125
1335		1.953125
1336		-1.953125
1337		1.953125
1338		0.000000
1339		3.906250
1340		0.000000
1341		5.859375
1342		0.000000
1343		5.859375
1344		1.953125
1345		5.859375
1346		3.906250
1347		7.812500
1348		3.906250
1349		7.812500
1350		3.906250
1351		9.765625
1352		5.859375
1353		9.765625
1354		7.812500
1355		9.765625
1356		5.859375
1357		11.718750
1358		5.859375
1359		13.671875
1360		9.765625
1361		11.718750
1362		9.765625
1363		13.671875
1364		9.765625
1365		15.625000
1366		9.765625
1367		15.625000
1368		13.671875
1369		17.578125
1370		13.671875
1371		15.625000
1372		13.671875
1373		19.531250
1374		15.625000
1375		19.531250
1376		13.671875
1377		21.484375
1378		15.625000
1379		21.484375
1380		15.625000
1381		23.437500
1382		17.578125
1383		23.437500
1384		17.578125
1385		23.437500
1386		19.531250
1387		23.437500
1388		21.484375
1389		25.390625
1390		19.531250
1391		25.390625
1392		21.484375
1393		25.390625
1394		23.437500
1395		27.343750
1396		23.437500
1397		27.343750
1398		23.437500
1399		29.296875
1400		23.437500
1401		29.296875
1402		25.390625
1403		29.296875
1404		27.343750
1405		29.296875
1406		25.390625
1407		31.250000
1408		25.390625
1409		31.250000
1410		27.343750
1411		31.250000
1412		27.343750
1413		33.203125
1414		29.296875
1415		35.156250
1416		27.343750
1417		35.156250
1418		29.296875
1419		35.156250
1420		31.250000
1421		35.156250
1422		31.250000
1423		37.109375
1424		31.250000
1425		37.109375
1426		31.250000
1427		39.062500
1428		31.250000
1429		39.062500
1430		33.203125
1431		39.062500
1432		33.203125
1433		39.062500
1434		35.156250
1435		39.062500
1436		37.109375
1437		41.015625
1438		37.109375
1439		39.062500
1440		37.109375
1441		42.968750
1442		37.109375
1443		42.968750
1444		37.109375
1445		42.968750
1446		37.109375
1447		42.968750
1448		37.109375
1449		44.921875
1450		39.062500
1451		44.921875
1452		41.015625
1453		42.968750
1454		41.015625
1455		42.968750
1456		39.062500
1457		44.921875
1458		39.062500
1459		46.875000
1460		41.015625
1461		46.875000
1462		41.015625
1463		46.875000
1464		41.015625
1465		48.828125
1466		41.015625
1467		46.875000
1468		41.015625
1469		46.875000
1470		44.921875
1471		46.875000
1472		44.921875
1473		48.828125
1474		42.968750
1475		48.828125
1476		42.968750
1477		50.781250
1478		42.968750
1479		48.828125
1480		42.968750
1481		48.828125
1482		42.968750
1483		50.781250
1484		42.968750
1485		50.781250
1486		44.921875
1487		48.828125
1488		46.875000
1489		48.828125
1490		44.921875
1491		50.781250
1492		44.921875
1493		52.734375
1494		44.921875
1495		52.734375
1496		44.921875
1497		50.781250
1498		44.921875
1499		52.734375
1500		46.875000
1501		52.734375
1502		46.875000
1503		52.734375
1504		46.875000
1505		50.781250
1506		46.875000
1507		52.734375
1508		46.875000
1509		52.734375
1510		44.921875
1511		52.734375
1512		44.921875
1513		52.734375
1514		44.921875
1515		52.734375
1516		46.875000
1517		52.734375
1518		46.875000
1519		52.734375
1520		46.875000
1521		50.781250
1522		48.828125
1523		50.781250
1524		46.875000
1525		52.734375
1526		46.875000
1527		52.734375
1528		44.921875
1529		52.734375
1530		44.921875
1531		52.734375
1532		44.921875
1533		52.734375
1534		44.921875
1535		52.734375
1536		46.875000
1537		52.734375
1538		46.875000
1539		50.781250
1540		44.921875
1541		52.734375
1542		44.921875
1543		52.734375
1544		44.921875
1545		50.781250
1546		44.921875
1547		52.734375
1548		44.921875
1549		50.781250
1550		44.921875
1551		50.781250
1552		42.968750
1553		50.781250
1554		44.921875
1555		48.828125
1556		44.921875
1557		48.828125
1558		42.968750
1559		50.781250
1560		42.968750
1561		48.828125
1562		42.968750
1563		48.828125
1564		42.968750
1565		48.828125
1566		42.968750
1567		48.828125
1568		41.015625
1569		48.828125
1570		42.968750
1571		46.875000
1572		42.968750
1573		44.921875
1574		41.015625
1575		46.875000
1576		41.015625
1577		46.875000
1578		39.062500
1579		46.875000
1580		39.062500
1581		44.921875
1582		39.062500
1583		44.921875
1584		39.062500
1585		44.921875
1586		39.062500
1587		44.921875
1588		39.062500
1589		42.968750
1590		37.109375
1591		42.968750
1592		37.109375
1593		42.968750
1594		35.156250
1595		42.968750
1596		35.156250
1597		42.968750
1598		35.156250
1599		41.015625
1600		35.156250
1601		41.015625
1602		35.156250
1603		41.015625
1604		35.156250
1605		39.062500
1606		35.156250
1607		37.109375
1608		33.203125
1609		39.062500
1610		31.250000
1611		39.062500
1612		31.250000
1613		39.062500
1614		31.250000
1615		37.109375
1616		31.250000
1617		37.109375
1618		29.296875
1619		37.109375
1620		29.296875
1621		35.156250
1622		29.296875
1623		33.203125
1624		27.343750
1625		33.203125
1626		27.343750
1627		33.203125
1628		27.343750
1629		33.203125
1630		25.390625
1631		33.203125
1632		23.437500
1633		31.250000
1634		25.390625
1635		29.296875
1636		23.437500
1637		29.296875
1638		25.390625
1639		27.343750
1640		23.437500
1641		27.343750
1642		21.484375
1643		27.343750
1644		21.484375
1645		27.343750
1646		19.531250
1647		27.343750
1648		19.531250
1649		25.390625
1650		19.531250
1651		25.390625
1652		17.578125
1653		25.390625
1654		17.578125
1655		23.437500
1656		17.578125
1657		21.484375
1658		15.625000
1659		21.484375
1660		13.671875
1661		21.484375
1662		13.671875
1663		21.484375
1664		13.671875
1665		19.531250
1666		13.671875
1667		17.578125
1668		11.718750
1669		17.578125
1670		11.718750
1671		15.625000
1672		11.718750
1673		15.625000
1674		9.765625
1675		13.671875
1676		7.812500
1677		15.625000
1678		5.859375
1679		13.671875
1680		5.859375
1681		13.671875
1682		5.859375
1683		11.718750
1684		5.859375
1685		11.718750
1686		3.906250
1687		9.765625
1688		3.906250
1689		7.812500
1690		3.906250
1691		5.859375
1692		1.953125
1693		7.812500
1694		1.953125
1695		7.812500
1696		0.000000
1697		5.859375
1698		-1.953125
1699		3.906250
1700		-1.953125
1701		3.906250
1702		-3.906250
1703		3.906250
1704		-3.906250
1705		1.953125
1706		-3.906250
1707		0.000000
1708		-5.859375
1709		0.000000
1710		-5.859375
1711		0.000000
1712		-7.812500
1713		0.000000
1714		-7.812500
1715		-1.953125
1716		-9.765625
1717		-3.906250
1718		-9.765625
1719		-3.906250
1720		-11.718750
1721		-3.906250
1722		-9.765625
1723		-7.812500
1724		-11.718750
1725		-7.812500
1726		-13.671875
1727		-7.812500
1728		-15.625000
1729		-7.812500
1730		-15.625000
1731		-7.812500
1732		-15.625000
1733		-9.765625
1734		-17.578125
1735		-11.718750
1736		-19.531250
1737		-11.718750
1738		-17.578125
1739		-13.671875
1740		-17.578125
1741		-13.671875
1742		-19.531250
1743		-13.671875
1744		-21.484375
1745		-15.625000
1746		-23.437500
1747		-15.625000
1748		-23.437500
1749		-15.625000
1750		-23.437500
1751		-17.578125
1752		-23.437500
1753		-17.578125
1754		-25.390625
1755		-19.531250
1756		-25.390625
1757		-21.484375
1758		-25.390625
1759		-23.437500
1760		-27.343750
1761		-21.484375
1762		-29.296875
1763		-21.484375
1764		-29.296875
1765		-23.437500
1766		-29.296875
1767		-23.437500
1768		-31.250000
1769		-25.390625
1770		-31.250000
1771		-25.390625
1772		-31.250000
1773		-27.343750
1774		-31.250000
1775		-29.296875
1776		-33.203125
1777		-27.343750
1778		-35.156250
1779		-27.343750
1780		-35.156250
1781		-29.296875
1782		-37.109375
1783		-29.296875
1784		-37.109375
1785		-29.296875
1786		-37.109375
1787		-31.250000
1788		-37.109375
1789		-31.250000
1790		-37.109375
1791		-35.156250
1792		-41.015625
1793		-33.203125
1794		-41.015625
1795		-33.203125
1796		-41.015625
1797		-35.156250
1798		-41.015625
1799		-35.156250
1800		-42.968750
1801		-35.156250
1802		-42.968750
1803		-35.156250
1804		-42.968750
1805		-37.109375
1806		-41.015625
1807		-39.062500
1808		-42.968750
1809		-39.062500
1810		-44.921875
1811		-39.062500
1812		-44.921875
1813		-39.062500
1814		-46.875000
1815		-39.062500
1816		-46.875000
1817		-41.015625
1818		-46.875000
1819		-41.015625
1820		-48.828125
1821		-41.015625
1822		-46.875000
1823		-42.968750
1824		-46.875000
1825		-42.968750
1826		-48.828125
1827		-42.968750
1828		-48.828125
1829		-42.968750
1830		-50.781250
1831		-42.968750
1832		-50.781250
1833		-44.921875
1834		-50.781250
1835		-44.921875
1836		-50.781250
1837		-44.921875
1838		-50.781250
1839		-44.921875
1840		-50.781250
1841		-46.875000
1842		-50.781250
1843		-46.875000
1844		-52.734375
1845		-44.921875
1846		-52.734375
1847		-46.875000
1848		-52.734375
1849		-46.875000
1850		-52.734375
1851		-46.875000
1852		-52.734375
1853		-46.875000
1854		-54.687500
1855		-46.875000
1856		-52.734375
1857		-48.828125
1858		-52.734375
1859		-48.828125
1860		-54.687500
1861		-48.828125
1862		-54.687500
1863		-48.828125
1864		-54.687500
1865		-48.828125
1866		-54.687500
1867		-48.828125
1868		-54.687500
1869		-48.828125
1870		-56.640625
1871		-48.828125
1872		-56.640625
1873		-48.828125
1874		-54.687500
1875		-50.781250
1876		-56.640625
1877		-48.828125
1878		-54.687500
1879		-48.828125
1880		-56.640625
1881		-48.828125
1882		-56.640625
1883		-50.781250
1884		-56.640625
1885		-48.828125
1886		-56.640625
1887		-48.828125
1888		-56.640625
1889		-48.828125
1890		-54.687500
1891		-50.781250
1892		-54.687500
1893		-50.781250
1894		-56.640625
1895		-48.828125
1896		-56.640625
1897		-48.828125
1898		-54.687500
1899		-48.828125
1900		-56.640625
1901		-48.828125
1902		-56.640625
1903		-48.828125
1904		-54.687500
1905		-48.828125
1906		-54.687500
1907		-48.828125
1908		-52.734375
1909		-50.781250
1910		-54.687500
1911		-48.828125
1912		-54.687500
1913		-46.875000
1914		-54.687500
1915		-46.875000
1916		-54.687500
1917		-46.875000
1918		-52.734375
1919		-46.875000
1920		-54.687500
1921		-46.875000
1922		-52.734375
1923		-46.875000
1924		-50.781250
1925		-46.875000
1926		-50.781250
1927		-46.875000
1928		-50.781250
1929		-44.921875
1930		-50.781250
1931		-42.968750
1932		-52.734375
1933		-44.921875
1934		-50.781250
1935		-44.921875
1936		-50.781250
1937		-44.921875
1938		-50.781250
1939		-42.968750
1940		-48.828125
1941		-44.921875
1942		-46.875000
1943		-44.921875
1944		-48.828125
1945		-42.968750
1946		-48.828125
1947		-42.968750
1948		-48.828125
1949		-42.968750
1950		-48.828125
1951		-41.015625
1952		-46.875000
1953		-41.015625
1954		-46.875000
1955		-41.015625
1956		-44.921875
1957		-39.062500
1958		-42.968750
1959		-41.015625
1960		-44.921875
1961		-39.062500
1962		-44.921875
1963		-37.109375
1964		-44.921875
1965		-37.109375
1966		-42.968750
1967		-37.109375
1968		-42.968750
1969		-37.109375
1970		-42.968750
1971		-35.156250
1972		-41.015625
1973		-35.156250
1974		-39.062500
1975		-37.109375
1976		-39.062500
1977		-35.156250
1978		-39.062500
1979		-33.203125
1980		-39.062500
1981		-33.203125
1982		-39.062500
1983		-31.250000
1984		-39.062500
1985		-31.250000
1986		-37.109375
1987		-31.250000
1988		-35.156250
1989		-29.296875
1990		-35.156250
1991		-29.296875
1992		-33.203125
1993		-31.250000
1994		-33.203125
1995		-27.343750
1996		-31.250000
1997		-27.343750
1998		-33.203125
1999		-25.390625
2000		-31.250000
2001		-25.390625
2002		-31.250000
2003		-25.390625
2004		-31.250000
2005		-23.437500
2006		-29.296875
2007		-23.437500
2008		-27.343750
2009		-23.437500
2010		-27.343750
2011		-23.437500
2012		-27.343750
2013		-21.484375
2014		-25.390625
2015		-19.531250
2016		-25.390625
2017		-19.531250
2018		-25.390625
2019		-19.531250
2020		-25.390625
2021		-17.578125
2022		-23.437500
2023		-17.578125
2024		-21.484375
2025		-17.578125
2026		-19.531250
2027		-17.578125
2028		-21.484375
2029		-13.671875
2030		-21.484375
2031		-13.671875
2032		-19.531250
2033		-13.671875
2034		-17.578125
2035		-11.718750
2036		-17.578125
2037		-11.718750
2038		-17.578125
2039		-9.765625
2040		-15.625000
2041		-9.765625
2042		-13.671875
2043		-9.765625
2044		-13.671875
2045		-7.812500
2046		-13.671875
2047		-5.859375
2048		-13.671875
2049		-5.859375
2050		-11.718750
2051		-3.906250
2052		-11.718750
2053		-3.906250
2054		-9.765625
2055		-3.906250
2056		-7.812500
2057		-1.953125
2058		-5.859375
2059		-1.953125
2060		-5.859375
2061		-1.953125
2062		-5.859375
2063		0.000000
2064		-5.859375
2065		1.953125
2066		-5.859375
2067		1.953125
2068		-3.906250
2069		3.906250
2070		-1.953125
2071		3.906250
2072		0.000000
2073		3.906250
2074		0.000000
2075		3.906250
2076		1.953125
2077		3.906250
2078		1.953125
2079		7.812500
2080		1.953125
2081		9.765625
2082		3.906250
2083		9.765625
2084		3.906250
2085		9.765625
2086		3.906250
2087		11.718750
2088		3.906250
2089		11.718750
2090		5.859375
2091		11.718750
2092		7.812500
2093		11.718750
2094		7.812500
2095		13.671875
2096		7.812500
2097		15.625000
2098		7.812500
2099		15.625000
2100		9.765625
2101		15.625000
2102		11.718750
2103		17.578125
2104		11.718750
2105		19.531250
2106		11.718750
2107		19.531250
2108		15.625000
2109		17.578125
2110		15.625000
2111		19.531250
2112		15.625000
2113		21.484375
2114		15.625000
2115		21.484375
2116		15.625000
2117		23.437500
2118		17.578125
2119		23.437500
2120		19.531250
2121		25.390625
2122		19.531250
2123		25.390625
2124		19.531250
2125		25.390625
2126		21.484375
2127		25.390625
2128		21.484375
2129		27.343750
2130		21.484375
2131		27.343750
2132		21.484375
2133		29.296875
2134		23.437500
2135		29.296875
2136		23.437500
2137		29.296875
2138		23.437500
2139		31.250000
2140		25.390625
2141		31.250000
2142		27.343750
2143		31.250000
2144		29.296875
2145		31.250000
2146		27.343750
2147		33.203125
2148		27.343750
2149		35.156250
2150		29.296875
2151		35.156250
2152		29.296875
2153		37.109375
2154		29.296875
2155		37.109375
2156		31.250000
2157		37.109375
2158		31.250000
2159		37.109375
2160		33.203125
2161		35.156250
2162		33.203125
2163		39.062500
2164		33.203125
2165		39.062500
2166		33.203125
2167		39.062500
2168		35.156250
2169		41.015625
2170		35.156250
2171		41.015625
2172		35.156250
2173		41.015625
2174		35.156250
2175		41.015625
2176		37.109375
2177		41.015625
2178		39.062500
2179		41.015625
2180		37.109375
2181		42.968750
2182		37.109375
2183		42.968750
2184		37.109375
2185		44.921875
2186		39.062500
2187		44.921875
2188		39.062500
2189		44.921875
2190		39.062500
2191		44.921875
2192		41.015625
2193		44.921875
2194		41.015625
2195		44.921875
2196		41.015625
2197		46.875000
2198		41.015625
2199		46.875000
2200		41.015625
2201		46.875000
2202		41.015625
2203		46.875000
2204		41.015625
2205		48.828125
2206		41.015625
2207		48.828125
2208		42.968750
2209		48.828125
2210		44.921875
2211		46.875000
2212		44.921875
2213		48.828125
2214		42.968750
2215		48.828125
2216		42.968750
2217		48.828125
2218		44.921875
2219		50.781250
2220		42.968750
2221		50.781250
2222		42.968750
2223		50.781250
2224		44.921875
2225		50.781250
2226		46.875000
2227		48.828125
2228		44.921875
2229		50.781250
2230		44.921875
2231		50.781250
2232		44.921875
2233		50.781250
2234		44.921875
2235		52.734375
2236		44.921875
2237		50.781250
2238		44.921875
2239		52.734375
2240		46.875000
2241		52.734375
2242		44.921875
2243		52.734375
2244		46.875000
2245		50.781250
2246		44.921875
2247		52.734375
2248		44.921875
2249		52.734375
2250		44.921875
2251		52.734375
2252		44.921875
2253		52.734375
2254		44.921875
2255		52.734375
2256		44.921875
2257		52.734375
2258		44.921875
2259		52.734375
2260		46.875000
2261		50.781250
2262		48.828125
2263		50.781250
2264		44.921875
2265		52.734375
2266		44.921875
2267		52.734375
2268		46.875000
2269		52.734375
2270		44.921875
2271		50.781250
2272		44.921875
2273		52.734375
2274		44.921875
2275		50.781250
2276		46.875000
2277		50.781250
2278		46.875000
2279		48.828125
2280		44.921875
2281		50.781250
2282		42.968750
2283		50.781250
2284		42.968750
2285		50.781250
2286		42.968750
2287		50.781250
2288		44.921875
2289		48.828125
2290		42.968750
2291		48.828125
2292		42.968750
2293		48.828125
2294		44.921875
2295		46.875000
2296		42.968750
2297		48.828125
2298		41.015625
2299		48.828125
2300		41.015625
2301		48.828125
2302		41.015625
2303		46.875000
2304		41.015625
2305		46.875000
2306		39.062500
2307		46.875000
2308		41.015625
2309		46.875000
2310		41.015625
2311		44.921875
2312		41.015625
2313		44.921875
2314		39.062500
2315		44.921875
2316		39.062500
2317		44.921875
2318		37.109375
2319		44.921875
2320		37.109375
2321		44.921875
2322		37.109375
2323		42.968750
2324		37.109375
2325		42.968750
2326		37.109375
2327		42.968750
2328		37.109375
2329		41.015625
2330		35.156250
2331		41.015625
2332		35.156250
2333		41.015625
2334		35.156250
2335		41.015625
2336		35.156250
2337		41.015625
2338		33.203125
2339		39.062500
2340		31.250000
2341		39.062500
2342		31.250000
2343		39.062500
2344		33.203125
2345		37.109375
2346		33.203125
2347		37.109375
2348		29.296875
2349		37.109375
2350		29.296875
2351		37.109375
2352		29.296875
2353		35.156250
2354		29.296875
2355		35.156250
2356		29.296875
2357		35.156250
2358		27.343750
2359		35.156250
2360		27.343750
2361		31.250000
2362		27.343750
2363		31.250000
2364		27.343750
2365		31.250000
2366		25.390625
2367		31.250000
2368		23.437500
2369		29.296875
2370		23.437500
2371		29.296875
2372		21.484375
2373		29.296875
2374		21.484375
2375		29.296875
2376		21.484375
2377		27.343750
2378		21.484375
2379		25.390625
2380		21.484375
2381		25.390625
2382		19.531250
2383		25.390625
2384		17.578125
2385		25.390625
2386		17.578125
2387		23.437500
2388		15.625000
2389		23.437500
2390		15.625000
2391		23.437500
2392		15.625000
2393		21.484375
2394		15.625000
2395		19.531250
2396		15.625000
2397		19.531250
2398		11.718750
2399		19.531250
2400		11.718750
2401		17.578125
2402		11.718750
2403		17.578125
2404		9.765625
2405		15.625000
2406		7.812500
2407		15.625000
2408		7.812500
2409		15.625000
2410		7.812500
2411		13.671875
2412		7.812500
2413		11.718750
2414		5.859375
2415		11.718750
2416		3.906250
2417		11.718750
2418		3.906250
2419		9.765625
2420		3.906250
2421		9.765625
2422		3.906250
2423		9.765625
2424		0.000000
2425		7.812500
2426		0.000000
2427		7.812500
2428		1.953125
2429		3.906250
2430		0.000000
2431		3.906250
2432		-1.953125
2433		3.906250
2434		-3.906250
2435		3.906250
2436		-3.906250
2437		1.953125
2438		-5.859375
2439		1.953125
2440		-5.859375
2441		1.953125
2442		-5.859375
2443		0.000000
2444		-5.859375
2445		-1.953125
2446		-7.812500
2447		-3.906250
2448		-9.765625
2449		-3.906250
2450		-9.765625
2451		-3.906250
2452		-9.765625
2453		-3.906250
2454		-11.718750
2455		-5.859375
2456		-13.671875
2457		-5.859375
2458		-13.671875
2459		-7.812500
2460		-13.671875
2461		-7.812500
2462		-15.625000
2463		-9.765625
2464		-15.625000
2465		-11.718750
2466		-17.578125
2467		-9.765625
2468		-17.578125
2469		-11.718750
2470		-19.531250
2471		-11.718750
2472		-19.531250
2473		-11.718750
2474		-21.484375
2475		-13.671875
2476		-21.484375
2477		-13.671875
2478		-21.484375
2479		-17.578125
2480		-21.484375
2481		-17.578125
2482		-23.437500
2483		-17.578125
2484		-25.390625
2485		-17.578125
2486		-25.390625
2487		-17.578125
2488		-25.390625
2489		-19.531250
2490		-27.343750
2491		-21.484375
2492		-27.343750
2493		-21.484375
2494		-27.343750
2495		-21.484375
2496		-27.343750
2497		-25.390625
2498		-29.296875
2499		-23.437500
2500		-31.250000
2501		-23.437500
2502		-31.250000
2503		-25.390625
2504		-31.250000
2505		-25.390625
2506		-33.203125
2507		-25.390625
2508		-33.203125
2509		-25.390625
2510		-35.156250
2511		-27.343750
2512		-33.203125
2513		-29.296875
2514		-35.156250
2515		-29.296875
2516		-37.109375
2517		-29.296875
2518		-37.109375
2519		-31.250000
2520		-37.109375
2521		-31.250000
2522		-39.062500
2523		-31.250000
2524		-39.062500
2525		-31.250000
2526		-39.062500
2527		-33.203125
2528		-39.062500
2529		-35.156250
2530		-39.062500
2531		-37.109375
2532		-42.968750
2533		-35.156250
2534		-42.968750
2535		-35.156250
2536		-42.968750
2537		-37.109375
2538		-42.968750
2539		-37.109375
2540		-44.921875
2541		-37.109375
2542		-44.921875
2543		-39.062500
2544		-44.921875
2545		-39.062500
2546		-44.921875
2547		-41.015625
2548		-44.921875
2549		-41.015625
2550		-46.875000
2551		-41.015625
2552		-46.875000
2553		-41.015625
2554		-46.875000
2555		-41.015625
2556		-48.828125
2557		-41.015625
2558		-48.828125
2559		-42.968750
2560		-48.828125
2561		-42.968750
2562		-46.875000
2563		-44.921875
2564		-48.828125
2565		-44.921875
2566		-50.781250
2567		-44.921875
2568		-50.781250
2569		-44.921875
2570		-50.781250
2571		-44.921875
2572		-52.734375
2573		-44.921875
2574		-52.734375
2575		-46.875000
2576		-52.734375
2577		-46.875000
2578		-52.734375
2579		-46.875000
2580		-52.734375
2581		-48.828125
2582		-52.734375
2583		-46.875000
2584		-54.687500
2585		-46.875000
2586		-54.687500
2587		-48.828125
2588		-54.687500
2589		-46.875000
2590		-54.687500
2591		-46.875000
2592		-54.687500
2593		-48.828125
2594		-54.687500
2595		-48.828125
2596		-52.734375
2597		-50.781250
2598		-54.687500
2599		-48.828125
2600		-56.640625
2601		-48.828125
2602		-56.640625
2603		-48.828125
2604		-54.687500
2605		-48.828125
2606		-56.640625
2607		-48.828125
2608		-56.640625
2609		-48.828125
2610		-56.640625
2611		-48.828125
2612		-54.687500
2613		-50.781250
2614		-54.687500
2615		-50.781250
2616		-54.687500
2617		-50.781250
2618		-56.640625
2619		-48.828125
2620		-56.640625
2621		-48.828125
2622		-56.640625
2623		-48.828125
2624		-56.640625
2625		-48.828125
2626		-56.640625
2627		-48.828125
2628		-56.640625
2629		-48.828125
2630		-52.734375
2631		-50.781250
2632		-54.687500
2633		-48.828125
2634		-54.687500
2635		-48.828125
2636		-54.687500
2637		-48.828125
2638		-54.687500
2639		-48.828125
2640		-54.687500
2641		-48.828125
2642		-54.687500
2643		-48.828125
2644		-54.687500
2645		-48.828125
2646		-52.734375
2647		-48.828125
2648		-52.734375
2649		-48.828125
2650		-54.687500
2651		-46.875000
2652		-54.687500
2653		-46.875000
2654		-54.687500
2655		-46.875000
2656		-52.734375
2657		-46.875000
2658		-52.734375
2659		-46.875000
2660		-52.734375
2661		-46.875000
2662		-50.781250
2663		-46.875000
2664		-50.781250
2665		-46.875000
2666		-50.781250
2667		-44.921875
2668		-50.781250
2669		-44.921875
2670		-50.781250
2671		-44.921875
2672		-50.781250
2673		-44.921875
2674		-50.781250
2675		-42.968750
2676		-48.828125
2677		-42.968750
2678		-48.828125
2679		-42.968750
2680		-46.875000
2681		-42.968750
2682		-46.875000
2683		-42.968750
2684		-46.875000
2685		-41.015625
2686		-46.875000
2687		-41.015625
2688		-46.875000
2689		-39.062500
2690		-46.875000
2691		-39.062500
2692		-44.921875
2693		-39.062500
2694		-44.921875
2695		-39.062500
2696		-42.968750
2697		-39.062500
2698		-42.968750
2699		-39.062500
2700		-42.968750
2701		-37.109375
2702		-42.968750
2703		-37.109375
2704		-41.015625
2705		-35.156250
2706		-41.015625
2707		-35.156250
2708		-41.015625
2709		-35.156250
2710		-41.015625
2711		-33.203125
2712		-39.062500
2713		-31.250000
2714		-37.109375
2715		-33.203125
2716		-37.109375
2717		-33.203125
2718		-39.062500
2719		-31.250000
2720		-37.109375
2721		-31.250000
2722		-35.156250
2723		-29.296875
2724		-35.156250
2725		-29.296875
2726		-35.156250
2727		-27.343750
2728		-35.156250
2729		-27.343750
2730		-31.250000
2731		-27.343750
2732		-31.250000
2733		-27.343750
2734		-31.250000
2735		-25.390625
2736		-31.250000
2737		-25.390625
2738		-31.250000
2739		-23.437500
2740		-29.296875
2741		-23.437500
2742		-27.343750
2743		-21.484375
2744		-27.343750
2745		-21.484375
2746		-27.343750
2747		-21.484375
2748		-23.437500
2749		-21.484375
2750		-23.437500
2751		-19.531250
2752		-23.437500
2753		-17.578125
2754		-23.437500
2755		-17.578125
2756		-23.437500
2757		-15.625000
2758		-21.484375
2759		-15.625000
2760		-21.484375
2761		-15.625000
2762		-19.531250
2763		-13.671875
2764		-17.578125
2765		-15.625000
2766		-15.625000
2767		-13.671875
2768		-17.578125
2769		-9.765625
2770		-15.625000
2771		-9.765625
2772		-15.625000
2773		-9.765625
2774		-15.625000
2775		-7.812500
2776		-13.671875
2777		-7.812500
2778		-13.671875
2779		-7.812500
2780		-11.718750
2781		-7.812500
2782		-9.765625
2783		-5.859375
2784		-11.718750
2785		-3.906250
2786		-9.765625
2787		-3.906250
2788		-7.812500
2789		-1.953125
2790		-7.812500
2791		-1.953125
2792		-7.812500
2793		0.000000
2794		-7.812500
2795		0.000000
2796		-5.859375
2797		1.953125
2798		-3.906250
2799		0.000000
2800		-1.953125
2801		1.953125
2802		-3.906250
2803		3.906250
2804		-1.953125
2805		5.859375
2806		-1.953125
2807		5.859375
2808		0.000000
2809		5.859375
2810		1.953125
2811		5.859375
2812		1.953125
2813		7.812500
2814		3.906250
2815		7.812500
2816		3.906250
2817		7.812500
2818		3.906250
2819		9.765625
2820		3.906250
2821		11.718750
2822		5.859375
2823		11.718750
2824		5.859375
2825		13.671875
2826		7.812500
2827		13.671875
2828		9.765625
2829		15.625000
2830		9.765625
2831		15.625000
2832		11.718750
2833		15.625000
2834		11.718750
2835		17.578125
2836		11.718750
2837		19.531250
2838		13.671875
2839		19.531250
2840		13.671875
2841		19.531250
2842		13.671875
2843		21.484375
2844		15.625000
2845		21.484375
2846		15.625000
2847		21.484375
2848		17.578125
2849		21.484375
2850		19.531250
2851		21.484375
2852		17.578125
2853		25.390625
2854		17.578125
2855		25.390625
2856		19.531250
2857		25.390625
2858		21.484375
2859		27.343750
2860		21.484375
2861		27.343750
2862		21.484375
2863		27.343750
2864		21.484375
2865		29.296875
2866		25.390625
2867		27.343750
2868		23.437500
2869		31.250000
2870		23.437500
2871		31.250000
2872		25.390625
2873		31.250000
2874		25.390625
2875		31.250000
2876		27.343750
2877		33.203125
2878		27.343750
2879		33.203125
2880		27.343750
2881		33.203125
2882		29.296875
2883		33.203125
2884		31.250000
2885		33.203125
2886		29.296875
2887		37.109375
2888		29.296875
2889		37.109375
2890		31.250000
2891		37.109375
2892		31.250000
2893		39.062500
2894		33.203125
2895		39.062500
2896		33.203125
2897		39.062500
2898		35.156250
2899		39.062500
2900		35.156250
2901		39.062500
2902		33.203125
2903		41.015625
2904		35.156250
2905		42.968750
2906		35.156250
2907		41.015625
2908		35.156250
2909		42.968750
2910		37.109375
2911		42.968750
2912		37.109375
2913		42.968750
2914		37.109375
2915		42.968750
2916		39.062500
2917		42.968750
2918		39.062500
2919		44.921875
2920		39.062500
2921		44.921875
2922		39.062500
2923		44.921875
2924		39.062500
2925		46.875000
2926		39.062500
2927		46.875000
2928		39.062500
2929		46.875000
2930		41.015625
2931		46.875000
2932		42.968750
2933		44.921875
2934		42.968750
2935		46.875000
2936		42.968750
2937		48.828125
2938		42.968750
2939		48.828125
2940		42.968750
2941		48.828125
2942		42.968750
2943		48.828125
2944		42.968750
2945		48.828125
2946		42.968750
2947		50.781250
2948		42.968750
2949		50.781250
2950		46.875000
2951		48.828125
2952		44.921875
2953		48.828125
2954		44.921875
2955		50.781250
2956		44.921875
2957		50.781250
2958		44.921875
2959		50.781250
2960		44.921875
2961		52.734375
2962		44.921875
2963		50.781250
2964		44.921875
2965		52.734375
2966		46.875000
2967		50.781250
2968		46.875000
2969		50.781250
2970		46.875000
2971		52.734375
2972		44.921875
2973		52.734375
2974		44.921875
2975		52.734375
2976		44.921875
2977		52.734375
2978		46.875000
2979		52.734375
2980		44.921875
2981		52.734375
2982		46.875000
2983		50.781250
2984		46.875000
2985		50.781250
2986		46.875000
2987		52.734375
2988		46.875000
2989		52.734375
2990		46.875000
2991		52.734375
2992		44.921875
2993		52.734375
2994		46.875000
2995		52.734375
2996		46.875000
2997		52.734375
2998		46.875000
2999		52.734375
3000		48.828125
3001		50.781250
3002		46.875000
3003		50.781250
3004		46.875000
3005		52.734375
3006		44.921875
3007		52.734375
3008		44.921875
3009		52.734375
3010		44.921875
3011		50.781250
3012		44.921875
3013		50.781250
3014		44.921875
3015		50.781250
3016		46.875000
3017		48.828125
3018		44.921875
3019		50.781250
3020		44.921875
3021		50.781250
3022		44.921875
3023		50.781250
3024		42.968750
3025		50.781250
3026		42.968750
3027		48.828125
3028		42.968750
3029		48.828125
3030		42.968750
3031		48.828125
3032		42.968750
3033		48.828125
3034		42.968750
3035		46.875000
3036		41.015625
3037		46.875000
3038		41.015625
3039		46.875000
3040		41.015625
3041		48.828125
3042		41.015625
3043		46.875000
3044		41.015625
3045		46.875000
3046		39.062500
3047		46.875000
3048		39.062500
3049		46.875000
3050		41.015625
3051		44.921875
3052		39.062500
3053		44.921875
3054		39.062500
3055		44.921875
3056		37.109375
3057		44.921875
3058		37.109375
3059		44.921875
3060		37.109375
3061		42.968750
3062		37.109375
3063		42.968750
3064		35.156250
3065		42.968750
3066		37.109375
3067		41.015625
3068		37.109375
3069		39.062500
3070		35.156250
3071		41.015625
3072		35.156250
3073		39.062500
3074		35.156250
3075		39.062500
3076		33.203125
3077		39.062500
3078		33.203125
3079		37.109375
3080		31.250000
3081		37.109375
3082		33.203125
3083		35.156250
3084		31.250000
3085		35.156250
3086		31.250000
3087		35.156250
3088		29.296875
3089		35.156250
3090		29.296875
3091		33.203125
3092		27.343750
3093		33.203125
3094		27.343750
3095		33.203125
3096		25.390625
3097		33.203125
3098		25.390625
3099		33.203125
3100		27.343750
3101		31.250000
3102		25.390625
3103		29.296875
3104		23.437500
3105		29.296875
3106		23.437500
3107		29.296875
3108		21.484375
3109		29.296875
3110		21.484375
3111		27.343750
3112		19.531250
3113		25.390625
3114		21.484375
3115		25.390625
3116		19.531250
3117		25.390625
3118		19.531250
3119		23.437500
3120		17.578125
3121		23.437500
3122		17.578125
3123		23.437500
3124		15.625000
3125		23.437500
3126		15.625000
3127		21.484375
3128		13.671875
3129		21.484375
3130		13.671875
3131		19.531250
3132		11.718750
3133		19.531250
3134		13.671875
3135		17.578125
3136		11.718750
3137		15.625000
3138		9.765625
3139		15.625000
3140		9.765625
3141		15.625000
3142		9.765625
3143		15.625000
3144		7.812500
3145		13.671875
3146		5.859375
3147		13.671875
3148		5.859375
3149		11.718750
3150		5.859375
3151		11.718750
3152		5.859375
3153		7.812500
3154		3.906250
3155		7.812500
3156		1.953125
3157		9.765625
3158		3.906250
3159		5.859375
3160		1.953125
3161		7.812500
3162		1.953125
3163		5.859375
3164		-1.953125
3165		5.859375
3166		0.000000
3167		3.906250
3168		-1.953125
3169		1.953125
3170		-3.906250
3171		1.953125
3172		-3.906250
3173		0.000000
3174		-3.906250
3175		0.000000
3176		-7.812500
3177		0.000000
3178		-7.812500
3179		0.000000
3180		-7.812500
3181		-1.953125
3182		-7.812500
3183		-1.953125
3184		-7.812500
3185		-5.859375
3186		-7.812500
3187		-5.859375
3188		-9.765625
3189		-5.859375
3190		-11.718750
3191		-7.812500
3192		-11.718750
3193		-7.812500
3194		-11.718750
3195		-7.812500
3196		-13.671875
3197		-9.765625
3198		-13.671875
3199		-11.718750
3200		-15.625000
3201		-9.765625
3202		-15.625000
3203		-13.671875
3204		-17.578125
3205		-13.671875
3206		-17.578125
3207		-13.671875
3208		-19.531250
3209		-13.671875
3210		-19.531250
3211		-15.625000
3212		-19.531250
3213		-17.578125
3214		-21.484375
3215		-17.578125
3216		-21.484375
3217		-17.578125
3218		-21.484375
3219		-19.531250
3220		-23.437500
3221		-19.531250
3222		-25.390625
3223		-19.531250
3224		-25.390625
3225		-21.484375
3226		-25.390625
3227		-21.484375
3228		-27.343750
3229		-23.437500
3230		-27.343750
3231		-23.437500
3232		-27.343750
3233		-25.390625
3234		-27.343750
3235		-25.390625
3236		-29.296875
3237		-25.390625
3238		-31.250000
3239		-27.343750
3240		-31.250000
3241		-27.343750
3242		-31.250000
3243		-27.343750
3244		-33.203125
3245		-29.296875
3246		-33.203125
3247		-29.296875
3248		-33.203125
3249		-29.296875
3250		-35.156250
3251		-31.250000
3252		-35.156250
3253		-31.250000
3254		-37.109375
3255		-31.250000
3256		-35.156250
3257		-33.203125
3258		-37.109375
3259		-33.203125
3260		-37.109375
3261		-33.203125
3262		-39.062500
3263		-35.156250
3264		-39.062500
3265		-35.156250
3266		-41.015625
3267		-35.156250
3268		-41.015625
3269		-37.109375
3270		-41.015625
3271		-37.109375
3272		-41.015625
3273		-37.109375
3274		-42.968750
3275		-39.062500
3276		-42.968750
3277		-39.062500
3278		-42.968750
3279		-39.062500
3280		-44.921875
3281		-41.015625
3282		-44.921875
3283		-41.015625
3284		-44.921875
3285		-41.015625
3286		-44.921875
3287		-42.968750
3288		-46.875000
3289		-42.968750
3290		-46.875000
3291		-41.015625
3292		-46.875000
3293		-42.968750
3294		-46.875000
3295		-42.968750
3296		-48.828125
3297		-44.921875
3298		-48.828125
3299		-42.968750
3300		-48.828125
3301		-44.921875
3302		-48.828125
3303		-44.921875
3304		-48.828125
3305		-44.921875
3306		-48.828125
3307		-44.921875
3308		-48.828125
3309		-46.875000
3310		-50.781250
3311		-46.875000
3312		-50.781250
3313		-46.875000
3314		-50.781250
3315		-48.828125
3316		-50.781250
3317		-46.875000
3318		-50.781250
3319		-48.828125
3320		-50.781250
3321		-48.828125
3322		-52.734375
3323		-48.828125
3324		-52.734375
3325		-48.828125
3326		-52.734375
3327		-48.828125
3328		-52.734375
3329		-48.828125
3330		-52.734375
3331		-48.828125
3332		-52.734375
3333		-48.828125
3334		-54.687500
3335		-48.828125
3336		-52.734375
3337		-50.781250
3338		-54.687500
3339		-50.781250
3340		-52.734375
3341		-48.828125
3342		-52.734375
3343		-48.828125
3344		-52.734375
3345		-50.781250
3346		-52.734375
3347		-50.781250
3348		-52.734375
3349		-48.828125
3350		-54.687500
3351		-50.781250
3352		-52.734375
3353		-50.781250
3354		-54.687500
3355		-50.781250
3356		-52.734375
3357		-50.781250
3358		-52.734375
3359		-50.781250
3360		-52.734375
3361		-48.828125
3362		-52.734375
3363		-50.781250
3364		-52.734375
3365		-48.828125
3366		-52.734375
3367		-48.828125
3368		-52.734375
3369		-48.828125
3370		-52.734375
3371		-48.828125
3372		-52.734375
3373		-48.828125
3374		-52.734375
3375		-48.828125
3376		-52.734375
3377		-48.828125
3378		-52.734375
3379		-48.828125
3380		-52.734375
3381		-48.828125
3382		-50.781250
3383		-48.828125
3384		-50.781250
3385		-48.828125
3386		-50.781250
3387		-46.875000
3388		-50.781250
3389		-46.875000
3390		-50.781250
3391		-46.875000
3392		-50.781250
3393		-46.875000
3394		-48.828125
3395		-46.875000
3396		-48.828125
3397		-46.875000
3398		-48.828125
3399		-46.875000
3400		-48.828125
3401		-44.921875
3402		-48.828125
3403		-44.921875
3404		-46.875000
3405		-44.921875
3406		-46.875000
3407		-42.968750
3408		-46.875000
3409		-42.968750
3410		-46.875000
3411		-44.921875
3412		-46.875000
3413		-42.968750
3414		-44.921875
3415		-42.968750
3416		-44.921875
3417		-42.968750
3418		-44.921875
3419		-41.015625
3420		-44.921875
3421		-41.015625
3422		-42.968750
3423		-41.015625
3424		-44.921875
3425		-39.062500
3426		-42.968750
3427		-41.015625
3428		-42.968750
3429		-39.062500
3430		-41.015625
3431		-39.062500
3432		-41.015625
3433		-37.109375
3434		-41.015625
3435		-37.109375
3436		-41.015625
3437		-37.109375
3438		-39.062500
3439		-37.109375
3440		-39.062500
3441		-35.156250
3442		-39.062500
3443		-33.203125
3444		-37.109375
3445		-35.156250
3446		-37.109375
3447		-33.203125
3448		-37.109375
3449		-33.203125
3450		-35.156250
3451		-31.250000
3452		-35.156250
3453		-33.203125
3454		-35.156250
3455		-31.250000
3456		-35.156250
3457		-29.296875
3458		-33.203125
3459		-29.296875
3460		-33.203125
3461		-29.296875
3462		-33.203125
3463		-27.343750
3464		-31.250000
3465		-27.343750
3466		-31.250000
3467		-27.343750
3468		-29.296875
3469		-25.390625
3470		-27.343750
3471		-25.390625
3472		-27.343750
3473		-23.437500
3474		-27.343750
3475		-23.437500
3476		-27.343750
3477		-21.484375
3478		-25.390625
3479		-21.484375
3480		-25.390625
3481		-21.484375
3482		-23.437500
3483		-19.531250
3484		-23.437500
3485		-19.531250
3486		-23.437500
3487		-19.531250
3488		-21.484375
3489		-17.578125
3490		-19.531250
3491		-17.578125
3492		-19.531250
3493		-15.625000
3494		-19.531250
3495		-15.625000
3496		-17.578125
3497		-15.625000
3498		-17.578125
3499		-13.671875
3500		-17.578125
3501		-13.671875
3502		-15.625000
3503		-11.718750
3504		-13.671875
3505		-11.718750
3506		-13.671875
3507		-9.765625
3508		-13.671875
3509		-9.765625
3510		-11.718750
3511		-7.812500
3512		-11.718750
3513		-7.812500
3514		-9.765625
3515		-5.859375
3516		-9.765625
3517		-5.859375
3518		-7.812500
3519		-3.906250
3520		-7.812500
3521		-3.906250
3522		-5.859375
3523		-3.906250
3524		-5.859375
3525		-1.953125
3526		-5.859375
3527		-1.953125
3528		-3.906250
3529		0.000000
3530		-3.906250
3531		0.000000
3532		-1.953125
3533		0.000000
3534		-1.953125
3535		1.953125
3536		-1.953125
3537		3.906250
3538		0.000000
3539		3.906250
3540		1.953125
3541		5.859375
3542		1.953125
3543		5.859375
3544		1.953125
3545		5.859375
3546		3.906250
3547		7.812500
3548		3.906250
3549		7.812500
3550		5.859375
3551		7.812500
3552		5.859375
3553		9.765625
3554		7.812500
3555		9.765625
3556		7.812500
3557		11.718750
3558		9.765625
3559		11.718750
3560		9.765625
3561		11.718750
3562		9.765625
3563		13.671875
3564		11.718750
3565		13.671875
3566		11.718750
3567		15.625000
3568		13.671875
3569		17.578125
3570		13.671875
3571		17.578125
3572		15.625000
3573		17.578125
3574		15.625000
3575		19.531250
3576		15.625000
3577		19.531250
3578		15.625000
3579		19.531250
3580		17.578125
3581		21.484375
3582		19.531250
3583		21.484375
3584		19.531250
3585		23.437500
3586		19.531250
3587		23.437500
3588		21.484375
3589		23.437500
3590		21.484375
3591		25.390625
3592		21.484375
3593		25.390625
3594		23.437500
3595		27.343750
3596		23.437500
3597		27.343750
3598		23.437500
3599		27.343750
3600		25.390625
3601		29.296875
3602		25.390625
3603		29.296875
3604		25.390625
3605		29.296875
3606		27.343750
3607		31.250000
3608		27.343750
3609		31.250000
3610		27.343750
3611		31.250000
3612		29.296875
3613		33.203125
3614		29.296875
3615		33.203125
3616		31.250000
3617		33.203125
3618		31.250000
3619		35.156250
3620		31.250000
3621		35.156250
3622		33.203125
3623		35.156250
3624		33.203125
3625		37.109375
3626		33.203125
3627		37.109375
3628		35.156250
3629		37.109375
3630		35.156250
3631		39.062500
3632		35.156250
3633		39.062500
3634		35.156250
3635		41.015625
3636		35.156250
3637		41.015625
3638		37.109375
3639		39.062500
3640		37.109375
3641		41.015625
3642		37.109375
3643		41.015625
3644		39.062500
3645		41.015625
3646		39.062500
3647		42.968750
3648		39.062500
3649		42.968750
3650		39.062500
3651		44.921875
3652		41.015625
3653		42.968750
3654		41.015625
3655		44.921875
3656		41.015625
3657		44.921875
3658		41.015625
3659		44.921875
3660		42.968750
3661		44.921875
3662		41.015625
3663		46.875000
3664		42.968750
3665		46.875000
3666		42.968750
3667		46.875000
3668		42.968750
3669		46.875000
3670		42.968750
3671		46.875000
3672		42.968750
3673		48.828125
3674		44.921875
3675		48.828125
3676		44.921875
3677		48.828125
3678		44.921875
3679		48.828125
3680		44.921875
3681		48.828125
3682		44.921875
3683		48.828125
3684		44.921875
3685		50.781250
3686		46.875000
3687		48.828125
3688		46.875000
3689		50.781250
3690		46.875000
3691		50.781250
3692		46.875000
3693		50.781250
3694		46.875000
3695		50.781250
3696		46.875000
3697		50.781250
3698		46.875000
3699		50.781250
3700		46.875000
3701		50.781250
3702		46.875000
3703		50.781250
3704		46.875000
3705		52.734375
3706		48.828125
3707		50.781250
3708		46.875000
3709		50.781250
3710		48.828125
3711		50.781250
3712		46.875000
3713		52.734375
3714		48.828125
3715		50.781250
3716		46.875000
3717		50.781250
3718		48.828125
3719		50.781250
3720		48.828125
3721		50.781250
3722		48.828125
3723		52.734375
3724		48.828125
3725		50.781250
3726		46.875000
3727		52.734375
3728		48.828125
3729		50.781250
3730		48.828125
3731		50.781250
3732		46.875000
3733		52.734375
3734		46.875000
3735		50.781250
3736		46.875000
3737		50.781250
3738		46.875000
3739		50.781250
3740		46.875000
3741		50.781250
3742		46.875000
3743		50.781250
3744		46.875000
3745		50.781250
3746		46.875000
3747		50.781250
3748		44.921875
3749		50.781250
3750		46.875000
3751		48.828125
3752		46.875000
3753		48.828125
3754		44.921875
3755		48.828125
3756		44.921875
3757		48.828125
3758		44.921875
3759		48.828125
3760		44.921875
3761		48.828125
3762		44.921875
3763		48.828125
3764		44.921875
3765		46.875000
3766		42.968750
3767		46.875000
3768		44.921875
3769		46.875000
3770		42.968750
3771		46.875000
3772		42.968750
3773		46.875000
3774		42.968750
3775		44.921875
3776		42.968750
3777		46.875000
3778		41.015625
3779		44.921875
3780		41.015625
3781		44.921875
3782		41.015625
3783		44.921875
3784		41.015625
3785		44.921875
3786		41.015625
3787		42.968750
3788		39.062500
3789		42.968750
3790		39.062500
3791		42.968750
3792		39.062500
3793		42.968750
3794		39.062500
3795		41.015625
3796		37.109375
3797		41.015625
3798		37.109375
3799		41.015625
3800		37.109375
3801		41.015625
3802		37.109375
3803		41.015625
3804		35.156250
3805		39.062500
3806		35.156250
3807		39.062500
3808		35.156250
3809		37.109375
3810		35.156250
3811		37.109375
3812		33.203125
3813		37.109375
3814		33.203125
3815		37.109375
3816		31.250000
3817		37.109375
3818		31.250000
3819		35.156250
3820		31.250000
3821		35.156250
3822		31.250000
3823		35.156250
3824		29.296875
3825		33.203125
3826		29.296875
3827		33.203125
3828		27.343750
3829		33.203125
3830		27.343750
3831		31.250000
3832		27.343750
3833		31.250000
3834		25.390625
3835		29.296875
3836		25.390625
3837		29.296875
3838		25.390625
3839		29.296875
3840		25.390625
3841		29.296875
3842		23.437500
3843		27.343750
3844		21.484375
3845		27.343750
3846		21.484375
3847		25.390625
3848		21.484375
3849		25.390625
3850		19.531250
3851		23.437500
3852		19.531250
3853		23.437500
3854		19.531250
3855		23.437500
3856		19.531250
3857		23.437500
3858		17.578125
3859		21.484375
3860		15.625000
3861		21.484375
3862		15.625000
3863		19.531250
3864		15.625000
3865		17.578125
3866		13.671875
3867		17.578125
3868		13.671875
3869		17.578125
3870		11.718750
3871		15.625000
3872		11.718750
3873		15.625000
3874		11.718750
3875		13.671875
3876		9.765625
3877		13.671875
3878		9.765625
3879		11.718750
3880		7.812500
3881		11.718750
3882		7.812500
3883		11.718750
3884		7.812500
3885		9.765625
3886		5.859375
3887		9.765625
3888		3.906250
3889		7.812500
3890		3.906250
3891		7.812500
3892		3.906250
3893		5.859375
3894		1.953125
3895		5.859375
3896		0.000000
3897		5.859375
3898		0.000000
3899		3.906250
3900		-1.953125
3901		3.906250
3902		-1.953125
3903		1.953125
3904		-1.953125
3905		1.953125
3906		-3.906250
3907		0.000000
3908		-3.906250
3909		0.000000
3910		-5.859375
3911		-1.953125
3912		-5.859375
3913		-1.953125
3914		-5.859375
3915		-3.906250
3916		-7.812500
3917		-3.906250
3918		-7.812500
3919		-5.859375
3920		-9.765625
3921		-5.859375
3922		-9.765625
3923		-7.812500
3924		-9.765625
3925		-7.812500
3926		-11.718750
3927		-7.812500
3928		-13.671875
3929		-9.765625
3930		-13.671875
3931		-9.765625
3932		-15.625000
3933		-9.765625
3934		-15.625000
3935		-11.718750
3936		-15.625000
3937		-11.718750
3938		-17.578125
3939		-11.718750
3940		-17.578125
3941		-13.671875
3942		-17.578125
3943		-15.625000
3944		-19.531250
3945		-15.625000
3946		-19.531250
3947		-15.625000
3948		-21.484375
3949		-17.578125
3950		-21.484375
3951		-17.578125
3952		-23.437500
3953		-19.531250
3954		-23.437500
3955		-19.531250
3956		-25.390625
3957		-19.531250
3958		-25.390625
3959		-21.484375
3960		-25.390625
3961		-21.484375
3962		-25.390625
3963		-23.437500
3964		-27.343750
3965		-23.437500
3966		-27.343750
3967		-25.390625
3968		-29.296875
3969		-25.390625
3970		-29.296875
3971		-25.390625
3972		-31.250000
3973		-27.343750
3974		-31.250000
3975		-27.343750
3976		-31.250000
3977		-29.296875
3978		-31.250000
3979		-29.296875
3980		-35.156250
3981		-29.296875
3982		-33.203125
3983		-31.250000
3984		-35.156250
3985		-31.250000
3986		-35.156250
3987		-31.250000
3988		-37.109375
3989		-33.203125
3990		-37.109375
3991		-33.203125
3992		-37.109375
3993		-33.203125
3994		-39.062500
3995		-35.156250
3996		-39.062500
3997		-35.156250
3998		-39.062500
3999		-35.156250
4000		-39.062500
4001		-37.109375
4002		-41.015625
4003		-37.109375
4004		-41.015625
4005		-37.109375
4006		-42.968750
4007		-37.109375
4008		-41.015625
4009		-39.062500
4010		-42.968750
4011		-41.015625
4012		-44.921875
4013		-39.062500
4014		-42.968750
4015		-41.015625
4016		-44.921875
4017		-41.015625
4018		-44.921875
4019		-41.015625
4020		-44.921875
4021		-41.015625
4022		-46.875000
4023		-42.968750
4024		-46.875000
4025		-42.968750
4026		-46.875000
4027		-42.968750
4028		-46.875000
4029		-42.968750
4030		-48.828125
4031		-44.921875
4032		-48.828125
4033		-44.921875
4034		-48.828125
4035		-44.921875
4036		-48.828125
4037		-44.921875
4038		-48.828125
4039		-46.875000
4040		-50.781250
4041		-44.921875
4042		-48.828125
4043		-46.875000
4044		-50.781250
4045		-46.875000
4046		-50.781250
4047		-46.875000
4048		-50.781250
4049		-46.875000
4050		-50.781250
4051		-48.828125
4052		-52.734375
4053		-48.828125
4054		-52.734375
4055		-48.828125
4056		-52.734375
4057		-48.828125
4058		-52.734375
4059		-48.828125
4060		-52.734375
4061		-48.828125
4062		-52.734375
4063		-48.828125
4064		-52.734375
4065		-48.828125
4066		-52.734375
4067		-50.781250
4068		-52.734375
4069		-48.828125
4070		-52.734375
4071		-50.781250
4072		-52.734375
4073		-50.781250
4074		-54.687500
4075		-48.828125
4076		-52.734375
4077		-50.781250
4078		-54.687500
4079		-48.828125
4080		-54.687500
4081		-48.828125
4082		-52.734375
4083		-50.781250
4084		-54.687500
4085		-50.781250
4086		-52.734375
4087		-50.781250
4088		-54.687500
4089		-48.828125
4090		-54.687500
4091		-50.781250
4092		-52.734375
4093		-48.828125
4094		-52.734375
4095		-50.781250
4096		-52.734375
4097		-48.828125
4098		-52.734375
4099		-50.781250
4100		-52.734375
4101		-48.828125
4102		-52.734375
4103		-48.828125
4104		-52.734375
4105		-48.828125
4106		-54.687500
4107		-48.828125
4108		-52.734375
4109		-48.828125
4110		-50.781250
4111		-48.828125
4112		-52.734375
4113		-48.828125
4114		-50.781250
4115		-48.828125
4116		-50.781250
4117		-48.828125
4118		-52.734375
4119		-46.875000
4120		-50.781250
4121		-46.875000
4122		-50.781250
4123		-46.875000
4124		-50.781250
4125		-46.875000
4126		-50.781250
4127		-46.875000
4128		-48.828125
4129		-46.875000
4130		-50.781250
4131		-46.875000
4132		-48.828125
4133		-44.921875
4134		-48.828125
4135		-44.921875
4136		-48.828125
4137		-44.921875
4138		-46.875000
4139		-44.921875
4140		-46.875000
4141		-44.921875
4142		-46.875000
4143		-42.968750
4144		-46.875000
4145		-42.968750
4146		-46.875000
4147		-41.015625
4148		-46.875000
4149		-42.968750
4150		-44.921875
4151		-42.968750
4152		-44.921875
4153		-41.015625
4154		-44.921875
4155		-41.015625
4156		-44.921875
4157		-39.062500
4158		-42.968750
4159		-41.015625
4160		-42.968750
4161		-39.062500
4162		-42.968750
4163		-37.109375
4164		-41.015625
4165		-37.109375
4166		-41.015625
4167		-37.109375
4168		-41.015625
4169		-37.109375
4170		-41.015625
4171		-37.109375
4172		-39.062500
4173		-35.156250
4174		-39.062500
4175		-35.156250
4176		-39.062500
4177		-35.156250
4178		-37.109375
4179		-35.156250
4180		-37.109375
4181		-33.203125
4182		-37.109375
4183		-31.250000
4184		-35.156250
4185		-31.250000
4186		-35.156250
4187		-31.250000
4188		-35.156250
4189		-31.250000
4190		-33.203125
4191		-29.296875
4192		-33.203125
4193		-29.296875
4194		-33.203125
4195		-27.343750
4196		-31.250000
4197		-27.343750
4198		-29.296875
4199		-27.343750
4200		-29.296875
4201		-25.390625
4202		-29.296875
4203		-25.390625
4204		-27.343750
4205		-25.390625
4206		-27.343750
4207		-25.390625
4208		-27.343750
4209		-23.437500
4210		-25.390625
4211		-21.484375
4212		-25.390625
4213		-21.484375
4214		-25.390625
4215		-21.484375
4216		-23.437500
4217		-19.531250
4218		-21.484375
4219		-19.531250
4220		-21.484375
4221		-17.578125
4222		-21.484375
4223		-17.578125
4224		-21.484375
4225		-15.625000
4226		-19.531250
4227		-15.625000
4228		-17.578125
4229		-15.625000
4230		-17.578125
4231		-13.671875
4232		-17.578125
4233		-13.671875
4234		-17.578125
4235		-11.718750
4236		-15.625000
4237		-11.718750
4238		-13.671875
4239		-11.718750
4240		-13.671875
4241		-9.765625
4242		-13.671875
4243		-9.765625
4244		-11.718750
4245		-7.812500
4246		-11.718750
4247		-5.859375
4248		-9.765625
4249		-5.859375
4250		-9.765625
4251		-5.859375
4252		-7.812500
4253		-3.906250
4254		-7.812500
4255		-3.906250
4256		-5.859375
4257		-1.953125
4258		-5.859375
4259		-1.953125
4260		-3.906250
4261		-1.953125
4262		-3.906250
4263		0.000000
4264		-3.906250
4265		1.953125
4266		-1.953125
4267		1.953125
4268		0.000000
4269		1.953125
4270		0.000000
4271		3.906250
4272		0.000000
4273		3.906250
4274		1.953125
4275		3.906250
4276		1.953125
4277		5.859375
4278		3.906250
4279		5.859375
4280		3.906250
4281		7.812500
4282		3.906250
4283		9.765625
4284		5.859375
4285		9.765625
4286		5.859375
4287		9.765625
4288		7.812500
4289		11.718750
4290		7.812500
4291		13.671875
4292		9.765625
4293		11.718750
4294		9.765625
4295		13.671875
4296		11.718750
4297		13.671875
4298		11.718750
4299		15.625000
4300		11.718750
4301		15.625000
4302		13.671875
4303		17.578125
4304		13.671875
4305		17.578125
4306		15.625000
4307		17.578125
4308		15.625000
4309		19.531250
4310		13.671875
4311		19.531250
4312		17.578125
4313		19.531250
4314		17.578125
4315		21.484375
4316		19.531250
4317		21.484375
4318		19.531250
4319		23.437500
4320		19.531250
4321		23.437500
4322		21.484375
4323		25.390625
4324		21.484375
4325		25.390625
4326		21.484375
4327		25.390625
4328		23.437500
4329		25.390625
4330		23.437500
4331		27.343750
4332		23.437500
4333		27.343750
4334		25.390625
4335		29.296875
4336		25.390625
4337		29.296875
4338		27.343750
4339		29.296875
4340		27.343750
4341		31.250000
4342		27.343750
4343		31.250000
4344		29.296875
4345		31.250000
4346		29.296875
4347		33.203125
4348		29.296875
4349		33.203125
4350		31.250000
4351		33.203125
4352		31.250000
4353		35.156250
4354		33.203125
4355		35.156250
4356		31.250000
4357		37.109375
4358		33.203125
4359		37.109375
4360		33.203125
4361		37.109375
4362		33.203125
4363		37.109375
4364		35.156250
4365		39.062500
4366		35.156250
4367		39.062500
4368		35.156250
4369		41.015625
4370		37.109375
4371		39.062500
4372		37.109375
4373		41.015625
4374		37.109375
4375		41.015625
4376		37.109375
4377		41.015625
4378		39.062500
4379		42.968750
4380		39.062500
4381		42.968750
4382		39.062500
4383		42.968750
4384		39.062500
4385		42.968750
4386		41.015625
4387		42.968750
4388		41.015625
4389		44.921875
4390		41.015625
4391		44.921875
4392		41.015625
4393		44.921875
4394		41.015625
4395		44.921875
4396		42.968750
4397		44.921875
4398		42.968750
4399		46.875000
4400		42.968750
4401		46.875000
4402		44.921875
4403		46.875000
4404		44.921875
4405		46.875000
4406		44.921875
4407		48.828125
4408		44.921875
4409		48.828125
4410		44.921875
4411		48.828125
4412		44.921875
4413		48.828125
4414		44.921875
4415		48.828125
4416		46.875000
4417		48.828125
4418		44.921875
4419		50.781250
4420		46.875000
4421		50.781250
4422		46.875000
4423		50.781250
4424		46.875000
4425		50.781250
4426		46.875000
4427		50.781250
4428		46.875000
4429		50.781250
4430		46.875000
4431		50.781250
4432		46.875000
4433		50.781250
4434		46.875000
4435		50.781250
4436		46.875000
4437		50.781250
4438		46.875000
4439		50.781250
4440		46.875000
4441		50.781250
4442		48.828125
4443		50.781250
4444		46.875000
4445		50.781250
4446		46.875000
4447		50.781250
4448		48.828125
4449		50.781250
4450		48.828125
4451		50.781250
4452		48.828125
4453		50.781250
4454		48.828125
4455		50.781250
4456		48.828125
4457		50.781250
4458		48.828125
4459		50.781250
4460		48.828125
4461		50.781250
4462		48.828125
4463		50.781250
4464		46.875000
4465		50.781250
4466		46.875000
4467		50.781250
4468		46.875000
4469		50.781250
4470		46.875000
4471		50.781250
4472		46.875000
4473		50.781250
4474		46.875000
4475		50.781250
4476		46.875000
4477		50.781250
4478		46.875000
4479		50.781250
4480		46.875000
4481		50.781250
4482		46.875000
4483		50.781250
4484		46.875000
4485		48.828125
4486		46.875000
4487		50.781250
4488		44.921875
4489		48.828125
4490		44.921875
4491		48.828125
4492		44.921875
4493		48.828125
4494		44.921875
4495		48.828125
4496		44.921875
4497		48.828125
4498		44.921875
4499		48.828125
4500		44.921875
4501		46.875000
4502		42.968750
4503		46.875000
4504		42.968750
4505		46.875000
4506		42.968750
4507		46.875000
4508		42.968750
4509		46.875000
4510		42.968750
4511		44.921875
4512		42.968750
4513		44.921875
4514		41.015625
4515		44.921875
4516		41.015625
4517		44.921875
4518		41.015625
4519		44.921875
4520		41.015625
4521		42.968750
4522		39.062500
4523		42.968750
4524		39.062500
4525		42.968750
4526		39.062500
4527		42.968750
4528		39.062500
4529		42.968750
4530		39.062500
4531		41.015625
4532		37.109375
4533		41.015625
4534		37.109375
4535		41.015625
4536		37.109375
4537		39.062500
4538		35.156250
4539		39.062500
4540		35.156250
4541		39.062500
4542		35.156250
4543		39.062500
4544		33.203125
4545		39.062500
4546		33.203125
4547		37.109375
4548		33.203125
4549		35.156250
4550		31.250000
4551		37.109375
4552		31.250000
4553		35.156250
4554		31.250000
4555		35.156250
4556		29.296875
4557		35.156250
4558		31.250000
4559		33.203125
4560		29.296875
4561		33.203125
4562		29.296875
4563		33.203125
4564		27.343750
4565		31.250000
4566		25.390625
4567		31.250000
4568		25.390625
4569		31.250000
4570		25.390625
4571		29.296875
4572		23.437500
4573		29.296875
4574		25.390625
4575		27.343750
4576		23.437500
4577		27.343750
4578		21.484375
4579		25.390625
4580		21.484375
4581		25.390625
4582		21.484375
4583		23.437500
4584		19.531250
4585		25.390625
4586		19.531250
4587		23.437500
4588		19.531250
4589		23.437500
4590		17.578125
4591		21.484375
4592		17.578125
4593		21.484375
4594		15.625000
4595		19.531250
4596		15.625000
4597		19.531250
4598		15.625000
4599		19.531250
4600		13.671875
4601		17.578125
4602		13.671875
4603		17.578125
4604		11.718750
4605		17.578125
4606		11.718750
4607		15.625000
4608		11.718750
4609		13.671875
4610		9.765625
4611		13.671875
4612		9.765625
4613		13.671875
4614		7.812500
4615		11.718750
4616		5.859375
4617		9.765625
4618		5.859375
4619		9.765625
4620		5.859375
4621		9.765625
4622		3.906250
4623		7.812500
4624		3.906250
4625		5.859375
4626		1.953125
4627		5.859375
4628		1.953125
4629		5.859375
4630		1.953125
4631		3.906250
4632		0.000000
4633		3.906250
4634		0.000000
4635		3.906250
4636		-1.953125
4637		1.953125
4638		-1.953125
4639		1.953125
4640		-3.906250
4641		0.000000
4642		-3.906250
4643		0.000000
4644		-5.859375
4645		-1.953125
4646		-5.859375
4647		-1.953125
4648		-5.859375
4649		-3.906250
4650		-7.812500
4651		-3.906250
4652		-7.812500
4653		-5.859375
4654		-9.765625
4655		-5.859375
4656		-9.765625
4657		-5.859375
4658		-11.718750
4659		-7.812500
4660		-11.718750
4661		-7.812500
4662		-13.671875
4663		-7.812500
4664		-13.671875
4665		-9.765625
4666		-15.625000
4667		-11.718750
4668		-15.625000
4669		-11.718750
4670		-15.625000
4671		-13.671875
4672		-17.578125
4673		-13.671875
4674		-17.578125
4675		-13.671875
4676		-19.531250
4677		-15.625000
4678		-19.531250
4679		-15.625000
4680		-21.484375
4681		-15.625000
4682		-21.484375
4683		-17.578125
4684		-23.437500
4685		-17.578125
4686		-23.437500
4687		-19.531250
4688		-23.437500
4689		-19.531250
4690		-23.437500
4691		-21.484375
4692		-25.390625
4693		-21.484375
4694		-27.343750
4695		-21.484375
4696		-27.343750
4697		-23.437500
4698		-27.343750
4699		-23.437500
4700		-29.296875
4701		-25.390625
4702		-29.296875
4703		-25.390625
4704		-29.296875
4705		-25.390625
4706		-29.296875
4707		-27.343750
4708		-31.250000
4709		-27.343750
4710		-31.250000
4711		-29.296875
4712		-33.203125
4713		-29.296875
4714		-33.203125
4715		-29.296875
4716		-33.203125
4717		-29.296875
4718		-35.156250
4719		-31.250000
4720		-35.156250
4721		-31.250000
4722		-35.156250
4723		-31.250000
4724		-37.109375
4725		-33.203125
4726		-37.109375
4727		-33.203125
4728		-37.109375
4729		-35.156250
4730		-39.062500
4731		-35.156250
4732		-39.062500
4733		-35.156250
4734		-39.062500
4735		-37.109375
4736		-41.015625
4737		-37.109375
4738		-41.015625
4739		-37.109375
4740		-41.015625
4741		-39.062500
4742		-42.968750
4743		-39.062500
4744		-42.968750
4745		-39.062500
4746		-42.968750
4747		-39.062500
4748		-42.968750
4749		-41.015625
4750		-44.921875
4751		-41.015625
4752		-44.921875
4753		-41.015625
4754		-44.921875
4755		-42.968750
4756		-46.875000
4757		-41.015625
4758		-46.875000
4759		-42.968750
4760		-46.875000
4761		-42.968750
4762		-46.875000
4763		-42.968750
4764		-46.875000
4765		-44.921875
4766		-48.828125
4767		-44.921875
4768		-48.828125
4769		-44.921875
4770		-48.828125
4771		-44.921875
4772		-48.828125
4773		-46.875000
4774		-48.828125
4775		-46.875000
4776		-50.781250
4777		-46.875000
4778		-50.781250
4779		-46.875000
4780		-50.781250
4781		-46.875000
4782		-50.781250
4783		-48.828125
4784		-50.781250
4785		-46.875000
4786		-52.734375
4787		-48.828125
4788		-50.781250
4789		-48.828125
4790		-52.734375
4791		-48.828125
4792		-52.734375
4793		-48.828125
4794		-52.734375
4795		-48.828125
4796		-52.734375
4797		-48.828125
4798		-52.734375
4799		-48.828125
4800		-52.734375
4801		-50.781250
4802		-52.734375
4803		-48.828125
4804		-52.734375
4805		-48.828125
4806		-54.687500
4807		-50.781250
4808		-52.734375
4809		-50.781250
4810		-52.734375
4811		-50.781250
4812		-54.687500
4813		-50.781250
4814		-54.687500
4815		-50.781250
4816		-52.734375
4817		-50.781250
4818		-54.687500
4819		-50.781250
4820		-52.734375
4821		-50.781250
4822		-54.687500
4823		-50.781250
4824		-52.734375
4825		-48.828125
4826		-52.734375
4827		-50.781250
4828		-52.734375
4829		-50.781250
4830		-54.687500
4831		-48.828125
4832		-52.734375
4833		-50.781250
4834		-52.734375
4835		-48.828125
4836		-52.734375
4837		-48.828125
4838		-52.734375
4839		-48.828125
4840		-52.734375
4841		-48.828125
4842		-52.734375
4843		-48.828125
4844		-52.734375
4845		-48.828125
4846		-52.734375
4847		-48.828125
4848		-52.734375
4849		-48.828125
4850		-50.781250
4851		-48.828125
4852		-52.734375
4853		-48.828125
4854		-50.781250
4855		-46.875000
4856		-50.781250
4857		-46.875000
4858		-50.781250
4859		-46.875000
4860		-50.781250
4861		-46.875000
4862		-50.781250
4863		-46.875000
4864		-50.781250
4865		-44.921875
4866		-48.828125
4867		-46.875000
4868		-48.828125
4869		-44.921875
4870		-48.828125
4871		-44.921875
4872		-46.875000
4873		-44.921875
4874		-48.828125
4875		-42.968750
4876		-46.875000
4877		-42.968750
4878		-46.875000
4879		-42.968750
4880		-46.875000
4881		-42.968750
4882		-44.921875
4883		-42.968750
4884		-44.921875
4885		-41.015625
4886		-46.875000
4887		-41.015625
4888		-44.921875
4889		-41.015625
4890		-42.968750
4891		-39.062500
4892		-42.968750
4893		-39.062500
4894		-42.968750
4895		-39.062500
4896		-41.015625
4897		-39.062500
4898		-41.015625
4899		-37.109375
4900		-41.015625
4901		-37.109375
4902		-41.015625
4903		-37.109375
4904		-39.062500
4905		-37.109375
4906		-41.015625
4907		-35.156250
4908		-39.062500
4909		-35.156250
4910		-39.062500
4911		-33.203125
4912		-37.109375
4913		-35.156250
4914		-37.109375
4915		-33.203125
4916		-37.109375
4917		-31.250000
4918		-35.156250
4919		-33.203125
4920		-35.156250
4921		-31.250000
4922		-35.156250
4923		-31.250000
4924		-33.203125
4925		-29.296875
4926		-33.203125
4927		-29.296875
4928		-31.250000
4929		-27.343750
4930		-31.250000
4931		-27.343750
4932		-31.250000
4933		-27.343750
4934		-29.296875
4935		-25.390625
4936		-29.296875
4937		-25.390625
4938		-27.343750
4939		-25.390625
4940		-27.343750
4941		-23.437500
4942		-27.343750
4943		-23.437500
4944		-25.390625
4945		-21.484375
4946		-25.390625
4947		-21.484375
4948		-25.390625
4949		-19.531250
4950		-23.437500
4951		-19.531250
4952		-21.484375
4953		-19.531250
4954		-21.484375
4955		-17.578125
4956		-21.484375
4957		-17.578125
4958		-19.531250
4959		-15.625000
4960		-19.531250
4961		-15.625000
4962		-17.578125
4963		-15.625000
4964		-17.578125
4965		-13.671875
4966		-17.578125
4967		-13.671875
4968		-15.625000
4969		-11.718750
4970		-15.625000
4971		-11.718750
4972		-13.671875
4973		-9.765625
4974		-13.671875
4975		-9.765625
4976		-11.718750
4977		-7.812500
4978		-11.718750
4979		-7.812500
4980		-9.765625
4981		-5.859375
4982		-9.765625
4983		-5.859375
4984		-7.812500
4985		-5.859375
4986		-7.812500
4987		-3.906250
4988		-5.859375
4989		-3.906250
4990		-5.859375
4991		-1.953125
4992		-5.859375
4993		-1.953125
4994		-3.906250
4995		0.000000
4996		-3.906250
4997		0.000000
4998		-3.906250
4999		1.953125
5000		-1.953125
5001		1.953125
5002		0.000000
5003		3.906250
5004		0.000000
5005		3.906250
5006		0.000000
5007		3.906250
5008		1.953125
5009		5.859375
5010		1.953125
5011		7.812500
5012		3.906250
5013		7.812500
5014		3.906250
5015		7.812500
5016		3.906250
5017		7.812500
5018		5.859375
5019		9.765625
5020		7.812500
5021		11.718750
5022		7.812500
5023		11.718750
5024		9.765625
5025		13.671875
5026		9.765625
5027		13.671875
5028		9.765625
5029		13.671875
5030		9.765625
5031		15.625000
5032		11.718750
5033		15.625000
5034		13.671875
5035		15.625000
5036		13.671875
5037		17.578125
5038		13.671875
5039		17.578125
5040		15.625000
5041		19.531250
5042		15.625000
5043		19.531250
5044		17.578125
5045		19.531250
5046		17.578125
5047		21.484375
5048		17.578125
5049		21.484375
5050		19.531250
5051		23.437500
5052		19.531250
5053		23.437500
5054		21.484375
5055		23.437500
5056		21.484375
5057		25.390625
5058		21.484375
5059		25.390625
5060		23.437500
5061		27.343750
5062		23.437500
5063		27.343750
5064		23.437500
5065		27.343750
5066		23.437500
5067		29.296875
5068		25.390625
5069		29.296875
5070		25.390625
5071		31.250000
5072		27.343750
5073		31.250000
5074		27.343750
5075		31.250000
5076		27.343750
5077		31.250000
5078		29.296875
5079		33.203125
5080		29.296875
5081		33.203125
5082		29.296875
5083		33.203125
5084		31.250000
5085		33.203125
5086		31.250000
5087		35.156250
5088		31.250000
5089		35.156250
5090		33.203125
5091		37.109375
5092		33.203125
5093		37.109375
5094		33.203125
5095		37.109375
5096		35.156250
5097		37.109375
5098		35.156250
5099		39.062500
5100		35.156250
5101		39.062500
5102		37.109375
5103		39.062500
5104		37.109375
5105		41.015625
5106		37.109375
5107		41.015625
5108		37.109375
5109		41.015625
5110		39.062500
5111		41.015625
5112		39.062500
5113		42.968750
5114		39.062500
5115		42.968750
5116		39.062500
5117		42.968750
5118		41.015625
5119		44.921875
5120		41.015625
5121		44.921875
5122		41.015625
5123		44.921875
5124		41.015625
5125		44.921875
5126		42.968750
5127		44.921875
5128		42.968750
5129		46.875000
5130		42.968750
5131		46.875000
5132		42.968750
5133		46.875000
5134		44.921875
5135		46.875000
5136		42.968750
5137		46.875000
5138		44.921875
5139		46.875000
5140		44.921875
5141		48.828125
5142		44.921875
5143		48.828125
5144		44.921875
5145		48.828125
5146		44.921875
5147		48.828125
5148		46.875000
5149		48.828125
5150		44.921875
5151		48.828125
5152		44.921875
5153		50.781250
5154		46.875000
5155		50.781250
5156		46.875000
5157		50.781250
5158		44.921875
5159		50.781250
5160		46.875000
5161		50.781250
5162		46.875000
5163		50.781250
5164		46.875000
5165		50.781250
5166		46.875000
5167		50.781250
5168		46.875000
5169		50.781250
5170		48.828125
5171		50.781250
5172		46.875000
5173		52.734375
5174		46.875000
5175		50.781250
5176		48.828125
5177		50.781250
5178		46.875000
5179		50.781250
5180		46.875000
5181		52.734375
5182		48.828125
5183		50.781250
5184		46.875000
5185		50.781250
5186		48.828125
5187		50.781250
5188		46.875000
5189		52.734375
5190		48.828125
5191		50.781250
5192		46.875000
5193		50.781250
5194		48.828125
5195		50.781250
5196		46.875000
5197		50.781250
5198		46.875000
5199		50.781250
5200		46.875000
5201		50.781250
5202		46.875000
5203		50.781250
5204		46.875000
5205		50.781250
5206		46.875000
5207		50.781250
5208		46.875000
5209		50.781250
5210		44.921875
5211		50.781250
5212		46.875000
5213		48.828125
5214		44.921875
5215		48.828125
5216		44.921875
5217		48.828125
5218		46.875000
5219		48.828125
5220		44.921875
5221		48.828125
5222		44.921875
5223		48.828125
5224		44.921875
5225		48.828125
5226		44.921875
5227		48.828125
5228		42.968750
5229		48.828125
5230		44.921875
5231		46.875000
5232		44.921875
5233		46.875000
5234		42.968750
5235		46.875000
5236		42.968750
5237		46.875000
5238		41.015625
5239		46.875000
5240		42.968750
5241		46.875000
5242		42.968750
5243		44.921875
5244		41.015625
5245		44.921875
5246		41.015625
5247		44.921875
5248		41.015625
5249		44.921875
5250		41.015625
5251		42.968750
5252		41.015625
5253		42.968750
5254		39.062500
5255		42.968750
5256		39.062500
5257		42.968750
5258		39.062500
5259		41.015625
5260		37.109375
5261		41.015625
5262		37.109375
5263		41.015625
5264		37.109375
5265		41.015625
5266		37.109375
5267		39.062500
5268		37.109375
5269		41.015625
5270		35.156250
5271		39.062500
5272		35.156250
5273		39.062500
5274		35.156250
5275		37.109375
5276		33.203125
5277		37.109375
5278		33.203125
5279		37.109375
5280		33.203125
5281		37.109375
5282		31.250000
5283		35.156250
5284		31.250000
5285		35.156250
5286		31.250000
5287		33.203125
5288		29.296875
5289		33.203125
5290		29.296875
5291		33.203125
5292		29.296875
5293		33.203125
5294		27.343750
5295		33.203125
5296		27.343750
5297		31.250000
5298		27.343750
5299		31.250000
5300		25.390625
5301		31.250000
5302		25.390625
5303		29.296875
5304		25.390625
5305		27.343750
5306		23.437500
5307		27.343750
5308		23.437500
5309		27.343750
5310		23.437500
5311		25.390625
5312		21.484375
5313		25.390625
5314		21.484375
5315		25.390625
5316		19.531250
5317		25.390625
5318		19.531250
5319		23.437500
5320		19.531250
5321		21.484375
5322		17.578125
5323		21.484375
5324		17.578125
5325		21.484375
5326		15.625000
5327		21.484375
5328		15.625000
5329		19.531250
5330		15.625000
5331		19.531250
5332		13.671875
5333		17.578125
5334		11.718750
5335		17.578125
5336		13.671875
5337		15.625000
5338		11.718750
5339		15.625000
5340		9.765625
5341		13.671875
5342		9.765625
5343		13.671875
5344		7.812500
5345		13.671875
5346		7.812500
5347		11.718750
5348		7.812500
5349		11.718750
5350		5.859375
5351		9.765625
5352		5.859375
5353		9.765625
5354		5.859375
5355		7.812500
5356		3.906250
5357		7.812500
5358		3.906250
5359		7.812500
5360		1.953125
5361		5.859375
5362		0.000000
5363		5.859375
5364		0.000000
5365		3.906250
5366		0.000000
5367		3.906250
5368		-1.953125
5369		1.953125
5370		-1.953125
5371		1.953125
5372		-1.953125
5373		0.000000
5374		-3.906250
5375		0.000000
5376		-3.906250
5377		0.000000
5378		-5.859375
5379		-1.953125
5380		-5.859375
5381		-1.953125
5382		-7.812500
5383		-3.906250
5384		-7.812500
5385		-3.906250
5386		-7.812500
5387		-5.859375
5388		-11.718750
5389		-5.859375
5390		-11.718750
5391		-5.859375
5392		-11.718750
5393		-7.812500
5394		-13.671875
5395		-7.812500
5396		-13.671875
5397		-9.765625
5398		-13.671875
5399		-9.765625
5400		-15.625000
5401		-11.718750
5402		-15.625000
5403		-11.718750
5404		-17.578125
5405		-13.671875
5406		-19.531250
5407		-13.671875
5408		-19.531250
5409		-15.625000
5410		-19.531250
5411		-15.625000
5412		-21.484375
5413		-17.578125
5414		-21.484375
5415		-17.578125
5416		-21.484375
5417		-17.578125
5418		-23.437500
5419		-19.531250
5420		-23.437500
5421		-19.531250
5422		-23.437500
5423		-21.484375
5424		-25.390625
5425		-21.484375
5426		-25.390625
5427		-21.484375
5428		-27.343750
5429		-23.437500
5430		-27.343750
5431		-23.437500
5432		-27.343750
5433		-25.390625
5434		-29.296875
5435		-25.390625
5436		-29.296875
5437		-25.390625
5438		-31.250000
5439		-27.343750
5440		-31.250000
5441		-27.343750
5442		-31.250000
5443		-27.343750
5444		-33.203125
5445		-29.296875
5446		-33.203125
5447		-29.296875
5448		-35.156250
5449		-31.250000
5450		-35.156250
5451		-31.250000
5452		-35.156250
5453		-31.250000
5454		-35.156250
5455		-33.203125
5456		-37.109375
5457		-33.203125
5458		-39.062500
5459		-33.203125
5460		-39.062500
5461		-35.156250
5462		-39.062500
5463		-35.156250
5464		-41.015625
5465		-35.156250
5466		-39.062500
5467		-37.109375
5468		-41.015625
5469		-37.109375
5470		-42.968750
5471		-37.109375
5472		-41.015625
5473		-39.062500
5474		-42.968750
5475		-37.109375
5476		-42.968750
5477		-39.062500
5478		-42.968750
5479		-39.062500
5480		-44.921875
5481		-41.015625
5482		-44.921875
5483		-41.015625
5484		-44.921875
5485		-41.015625
5486		-46.875000
5487		-41.015625
5488		-44.921875
5489		-42.968750
5490		-46.875000
5491		-42.968750
5492		-46.875000
5493		-42.968750
5494		-48.828125
5495		-42.968750
5496		-48.828125
5497		-44.921875
5498		-48.828125
5499		-44.921875
5500		-48.828125
5501		-44.921875
5502		-48.828125
5503		-44.921875
5504		-50.781250
5505		-46.875000
5506		-48.828125
5507		-46.875000
5508		-50.781250
5509		-46.875000
5510		-50.781250
5511		-46.875000
5512		-52.734375
5513		-46.875000
5514		-50.781250
5515		-48.828125
5516		-52.734375
5517		-48.828125
5518		-52.734375
5519		-48.828125
5520		-52.734375
5521		-48.828125
5522		-52.734375
5523		-48.828125
5524		-52.734375
5525		-48.828125
5526		-54.687500
5527		-48.828125
5528		-52.734375
5529		-48.828125
5530		-54.687500
5531		-48.828125
5532		-54.687500
5533		-48.828125
5534		-54.687500
5535		-48.828125
5536		-54.687500
5537		-48.828125
5538		-52.734375
5539		-50.781250
5540		-52.734375
5541		-50.781250
5542		-54.687500
5543		-48.828125
5544		-54.687500
5545		-50.781250
5546		-54.687500
5547		-50.781250
5548		-54.687500
5549		-50.781250
5550		-54.687500
5551		-50.781250
5552		-54.687500
5553		-50.781250
5554		-54.687500
5555		-50.781250
5556		-54.687500
5557		-50.781250
5558		-54.687500
5559		-50.781250
5560		-54.687500
5561		-50.781250
5562		-54.687500
5563		-48.828125
5564		-54.687500
5565		-50.781250
5566		-54.687500
5567		-48.828125
5568		-54.687500
5569		-48.828125
5570		-54.687500
5571		-48.828125
5572		-52.734375
5573		-50.781250
5574		-54.687500
5575		-50.781250
5576		-54.687500
5577		-48.828125
5578		-52.734375
5579		-48.828125
5580		-52.734375
5581		-48.828125
5582		-52.734375
5583		-48.828125
5584		-52.734375
5585		-48.828125
5586		-52.734375
5587		-46.875000
5588		-50.781250
5589		-48.828125
5590		-50.781250
5591		-46.875000
5592		-50.781250
5593		-48.828125
5594		-50.781250
5595		-48.828125
5596		-50.781250
5597		-46.875000
5598		-48.828125
5599		-46.875000
5600		-48.828125
5601		-46.875000
5602		-48.828125
5603		-44.921875
5604		-48.828125
5605		-44.921875
5606		-48.828125
5607		-46.875000
5608		-48.828125
5609		-44.921875
5610		-46.875000
5611		-44.921875
5612		-46.875000
5613		-44.921875
5614		-46.875000
5615		-42.968750
5616		-46.875000
5617		-42.968750
5618		-44.921875
5619		-42.968750
5620		-44.921875
5621		-42.968750
5622		-44.921875
5623		-41.015625
5624		-44.921875
5625		-41.015625
5626		-42.968750
5627		-41.015625
5628		-42.968750
5629		-41.015625
5630		-42.968750
5631		-39.062500
5632		-42.968750
5633		-39.062500
5634		-41.015625
5635		-39.062500
5636		-41.015625
5637		-37.109375
5638		-41.015625
5639		-37.109375
5640		-39.062500
5641		-37.109375
5642		-39.062500
5643		-37.109375
5644		-39.062500
5645		-35.156250
5646		-37.109375
5647		-35.156250
5648		-37.109375
5649		-33.203125
5650		-37.109375
5651		-33.203125
5652		-35.156250
5653		-33.203125
5654		-35.156250
5655		-31.250000
5656		-35.156250
5657		-31.250000
5658		-33.203125
5659		-29.296875
5660		-33.203125
5661		-29.296875
5662		-31.250000
5663		-29.296875
5664		-31.250000
5665		-27.343750
5666		-31.250000
5667		-27.343750
5668		-29.296875
5669		-27.343750
5670		-31.250000
5671		-27.343750
5672		-29.296875
5673		-25.390625
5674		-27.343750
5675		-25.390625
5676		-27.343750
5677		-23.437500
5678		-25.390625
5679		-23.437500
5680		-25.390625
5681		-21.484375
5682		-25.390625
5683		-21.484375
5684		-23.437500
5685		-21.484375
5686		-23.437500
5687		-19.531250
5688		-23.437500
5689		-19.531250
5690		-21.484375
5691		-17.578125
5692		-23.437500
5693		-13.671875
5694		-23.437500
5695		-13.671875
5696		-21.484375
5697		-13.671875
5698		-21.484375
5699		-11.718750
5700		-17.578125
5701		-13.671875
5702		-15.625000
5703		-13.671875
5704		-15.625000
5705		-11.718750
5706		-13.671875
5707		-9.765625
5708		-13.671875
5709		-9.765625
5710		-15.625000
5711		-7.812500
5712		-15.625000
5713		-5.859375
5714		-13.671875
5715		-5.859375
5716		-9.765625
5717		-7.812500
5718		-9.765625
5719		-3.906250
5720		-7.812500
5721		-5.859375
5722		-7.812500
5723		-3.906250
5724		-5.859375
5725		-3.906250
5726		-7.812500
5727		0.000000
5728		-7.812500
5729		1.953125
5730		-5.859375
5731		3.906250
5732		-3.906250
5733		0.000000
5734		-1.953125
5735		0.000000
5736		-1.953125
5737		1.953125
5738		0.000000
5739		3.906250
5740		0.000000
5741		3.906250
5742		1.953125
5743		3.906250
5744		-1.953125
5745		9.765625
5746		0.000000
5747		9.765625
5748		0.000000
5749		9.765625
5750		3.906250
5751		9.765625
5752		5.859375
5753		7.812500
5754		5.859375
5755		9.765625
5756		7.812500
5757		9.765625
5758		7.812500
5759		11.718750
5760		5.859375
5761		15.625000
5762		5.859375
5763		15.625000
5764		7.812500
5765		17.578125
5766		11.718750
5767		13.671875
5768		11.718750
5769		15.625000
5770		13.671875
5771		15.625000
5772		13.671875
5773		17.578125
5774		15.625000
5775		17.578125
5776		13.671875
5777		21.484375
5778		13.671875
5779		23.437500
5780		13.671875
5781		23.437500
5782		13.671875
5783		23.437500
5784		19.531250
5785		21.484375
5786		19.531250
5787		23.437500
5788		19.531250
5789		23.437500
5790		21.484375
5791		23.437500
5792		21.484375
5793		25.390625
5794		19.531250
5795		29.296875
5796		19.531250
5797		29.296875
5798		21.484375
5799		29.296875
5800		25.390625
5801		27.343750
5802		25.390625
5803		29.296875
5804		25.390625
5805		29.296875
5806		27.343750
5807		29.296875
5808		27.343750
5809		31.250000
5810		25.390625
5811		35.156250
5812		25.390625
5813		35.156250
5814		27.343750
5815		35.156250
5816		29.296875
5817		35.156250
5818		31.250000
5819		33.203125
5820		31.250000
5821		35.156250
5822		31.250000
5823		35.156250
5824		33.203125
5825		35.156250
5826		33.203125
5827		37.109375
5828		31.250000
5829		41.015625
5830		31.250000
5831		41.015625
5832		31.250000
5833		41.015625
5834		35.156250
5835		39.062500
5836		35.156250
5837		39.062500
5838		37.109375
5839		39.062500
5840		37.109375
5841		39.062500
5842		37.109375
5843		41.015625
5844		35.156250
5845		44.921875
5846		35.156250
5847		44.921875
5848		35.156250
5849		44.921875
5850		39.062500
5851		42.968750
5852		39.062500
5853		42.968750
5854		41.015625
5855		42.968750
5856		41.015625
5857		42.968750
5858		41.015625
5859		44.921875
5860		39.062500
5861		46.875000
5862		39.062500
5863		48.828125
5864		39.062500
5865		48.828125
5866		41.015625
5867		48.828125
5868		42.968750
5869		46.875000
5870		44.921875
5871		46.875000
5872		44.921875
5873		46.875000
5874		44.921875
5875		46.875000
5876		44.921875
5877		46.875000
5878		44.921875
5879		48.828125
5880		42.968750
5881		50.781250
5882		42.968750
5883		50.781250
5884		44.921875
5885		48.828125
5886		46.875000
5887		48.828125
5888		46.875000
5889		48.828125
5890		46.875000
5891		50.781250
5892		46.875000
5893		48.828125
5894		46.875000
5895		48.828125
5896		44.921875
5897		50.781250
5898		44.921875
5899		52.734375
5900		46.875000
5901		48.828125
5902		46.875000
5903		50.781250
5904		46.875000
5905		50.781250
5906		46.875000
5907		50.781250
5908		46.875000
5909		50.781250
5910		46.875000
5911		50.781250
5912		46.875000
5913		50.781250
5914		46.875000
5915		52.734375
5916		46.875000
5917		52.734375
5918		46.875000
5919		50.781250
5920		46.875000
5921		50.781250
5922		46.875000
5923		50.781250
5924		46.875000
5925		50.781250
5926		46.875000
5927		50.781250
5928		46.875000
5929		48.828125
5930		46.875000
5931		50.781250
5932		44.921875
5933		50.781250
5934		46.875000
5935		48.828125
5936		46.875000
5937		48.828125
5938		46.875000
5939		50.781250
5940		46.875000
5941		48.828125
5942		44.921875
5943		50.781250
5944		46.875000
5945		48.828125
5946		46.875000
5947		48.828125
5948		44.921875
5949		48.828125
5950		46.875000
5951		48.828125
5952		44.921875
5953		48.828125
5954		44.921875
5955		46.875000
5956		44.921875
5957		46.875000
5958		44.921875
5959		48.828125
5960		44.921875
5961		46.875000
5962		44.921875
5963		46.875000
5964		44.921875
5965		46.875000
5966		42.968750
5967		46.875000
5968		42.968750
5969		46.875000
5970		42.968750
5971		46.875000
5972		42.968750
5973		44.921875
5974		42.968750
5975		44.921875
5976		41.015625
5977		44.921875
5978		41.015625
5979		44.921875
5980		41.015625
5981		42.968750
5982		39.062500
5983		42.968750
5984		39.062500
5985		42.968750
5986		39.062500
5987		42.968750
5988		39.062500
5989		41.015625
5990		39.062500
5991		42.968750
5992		39.062500
5993		41.015625
5994		37.109375
5995		41.015625
5996		37.109375
5997		41.015625
5998		37.109375
5999		41.015625
6000		35.156250
6001		39.062500
6002		35.156250
6003		39.062500
6004		35.156250
6005		39.062500
6006		35.156250
6007		39.062500
6008		35.156250
6009		37.109375
6010		33.203125
6011		37.109375
6012		31.250000
6013		37.109375
6014		31.250000
6015		35.156250
6016		31.250000
6017		35.156250
6018		29.296875
6019		35.156250
6020		29.296875
6021		35.156250
6022		29.296875
6023		35.156250
6024		29.296875
6025		31.250000
6026		27.343750
6027		31.250000
6028		27.343750
6029		31.250000
6030		27.343750
6031		31.250000
6032		25.390625
6033		31.250000
6034		25.390625
6035		29.296875
6036		23.437500
6037		29.296875
6038		23.437500
6039		27.343750
6040		23.437500
6041		27.343750
6042		23.437500
6043		25.390625
6044		21.484375
6045		25.390625
6046		19.531250
6047		25.390625
6048		21.484375
6049		23.437500
6050		19.531250
6051		23.437500
6052		17.578125
6053		21.484375
6054		17.578125
6055		21.484375
6056		17.578125
6057		21.484375
6058		17.578125
6059		19.531250
6060		15.625000
6061		19.531250
6062		13.671875
6063		19.531250
6064		13.671875
6065		17.578125
6066		13.671875
6067		17.578125
6068		11.718750
6069		15.625000
6070		9.765625
6071		15.625000
6072		9.765625
6073		13.671875
6074		9.765625
6075		13.671875
6076		7.812500
6077		11.718750
6078		7.812500
6079		11.718750
6080		5.859375
6081		11.718750
6082		5.859375
6083		9.765625
6084		5.859375
6085		7.812500
6086		3.906250
6087		7.812500
6088		3.906250
6089		7.812500
6090		3.906250
6091		5.859375
6092		1.953125
6093		3.906250
6094		0.000000
6095		3.906250
6096		0.000000
6097		3.906250
6098		0.000000
6099		3.906250
6100		-1.953125
6101		1.953125
6102		-3.906250
6103		0.000000
6104		-3.906250
6105		0.000000
6106		-3.906250
6107		-1.953125
6108		-5.859375
6109		-1.953125
6110		-5.859375
6111		-1.953125
6112		-7.812500
6113		-3.906250
6114		-7.812500
6115		-3.906250
6116		-7.812500
6117		-5.859375
6118		-9.765625
6119		-5.859375
6120		-11.718750
6121		-5.859375
6122		-11.718750
6123		-7.812500
6124		-11.718750
6125		-9.765625
6126		-11.718750
6127		-9.765625
6128		-13.671875
6129		-11.718750
6130		-15.625000
6131		-11.718750
6132		-15.625000
6133		-11.718750
6134		-15.625000
6135		-13.671875
6136		-17.578125
6137		-13.671875
6138		-17.578125
6139		-13.671875
6140		-17.578125
6141		-15.625000
6142		-19.531250
6143		-15.625000
6144		-19.531250
6145		-17.578125
6146		-21.484375
6147		-17.578125
6148		-23.437500
6149		-17.578125
6150		-23.437500
6151		-19.531250
6152		-25.390625
6153		-21.484375
6154		-25.390625
6155		-19.531250
6156		-25.390625
6157		-21.484375
6158		-25.390625
6159		-23.437500
6160		-27.343750
6161		-23.437500
6162		-27.343750
6163		-25.390625
6164		-29.296875
6165		-25.390625
6166		-29.296875
6167		-25.390625
6168		-29.296875
6169		-27.343750
6170		-31.250000
6171		-27.343750
6172		-31.250000
6173		-27.343750
6174		-31.250000
6175		-29.296875
6176		-33.203125
6177		-29.296875
6178		-33.203125
6179		-31.250000
6180		-35.156250
6181		-31.250000
6182		-35.156250
6183		-31.250000
6184		-35.156250
6185		-33.203125
6186		-37.109375
6187		-33.203125
6188		-37.109375
6189		-33.203125
6190		-39.062500
6191		-35.156250
6192		-39.062500
6193		-35.156250
6194		-39.062500
6195		-37.109375
6196		-41.015625
6197		-35.156250
6198		-41.015625
6199		-37.109375
6200		-41.015625
6201		-37.109375
6202		-41.015625
6203		-39.062500
6204		-42.968750
6205		-39.062500
6206		-42.968750
6207		-39.062500
6208		-42.968750
6209		-41.015625
6210		-42.968750
6211		-41.015625
6212		-44.921875
6213		-41.015625
6214		-44.921875
6215		-42.968750
6216		-44.921875
6217		-42.968750
6218		-44.921875
6219		-42.968750
6220		-46.875000
6221		-42.968750
6222		-46.875000
6223		-42.968750
6224		-46.875000
6225		-44.921875
6226		-46.875000
6227		-44.921875
6228		-48.828125
6229		-44.921875
6230		-48.828125
6231		-46.875000
6232		-48.828125
6233		-46.875000
6234		-50.781250
6235		-46.875000
6236		-50.781250
6237		-46.875000
6238		-50.781250
6239		-46.875000
6240		-50.781250
6241		-46.875000
6242		-50.781250
6243		-48.828125
6244		-50.781250
6245		-48.828125
6246		-50.781250
6247		-48.828125
6248		-52.734375
6249		-48.828125
6250		-52.734375
6251		-48.828125
6252		-52.734375
6253		-50.781250
6254		-52.734375
6255		-50.781250
6256		-52.734375
6257		-48.828125
6258		-52.734375
6259		-50.781250
6260		-54.687500
6261		-50.781250
6262		-52.734375
6263		-50.781250
6264		-54.687500
6265		-50.781250
6266		-54.687500
6267		-50.781250
6268		-54.687500
6269		-50.781250
6270		-54.687500
6271		-50.781250
6272		-54.687500
6273		-50.781250
6274		-54.687500
6275		-50.781250
6276		-54.687500
6277		-50.781250
6278		-54.687500
6279		-50.781250
6280		-54.687500
6281		-50.781250
6282		-54.687500
6283		-50.781250
6284		-56.640625
6285		-50.781250
6286		-54.687500
6287		-52.734375
6288		-54.687500
6289		-52.734375
6290		-54.687500
6291		-50.781250
6292		-54.687500
6293		-52.734375
6294		-54.687500
6295		-50.781250
6296		-54.687500
6297		-50.781250
6298		-54.687500
6299		-50.781250
6300		-54.687500
6301		-50.781250
6302		-54.687500
6303		-50.781250
6304		-52.734375
6305		-50.781250
6306		-54.687500
6307		-50.781250
6308		-52.734375
6309		-50.781250
6310		-52.734375
6311		-50.781250
6312		-54.687500
6313		-50.781250
6314		-54.687500
6315		-48.828125
6316		-54.687500
6317		-48.828125
6318		-52.734375
6319		-48.828125
6320		-52.734375
6321		-48.828125
6322		-52.734375
6323		-48.828125
6324		-50.781250
6325		-48.828125
6326		-50.781250
6327		-46.875000
6328		-50.781250
6329		-48.828125
6330		-50.781250
6331		-46.875000
6332		-50.781250
6333		-46.875000
6334		-50.781250
6335		-46.875000
6336		-50.781250
6337		-46.875000
6338		-48.828125
6339		-46.875000
6340		-48.828125
6341		-44.921875
6342		-48.828125
6343		-46.875000
6344		-48.828125
6345		-44.921875
6346		-46.875000
6347		-44.921875
6348		-48.828125
6349		-42.968750
6350		-48.828125
6351		-42.968750
6352		-46.875000
6353		-42.968750
6354		-46.875000
6355		-42.968750
6356		-44.921875
6357		-42.968750
6358		-44.921875
6359		-41.015625
6360		-44.921875
6361		-41.015625
6362		-42.968750
6363		-41.015625
6364		-44.921875
6365		-39.062500
6366		-42.968750
6367		-37.109375
6368		-42.968750
6369		-39.062500
6370		-41.015625
6371		-37.109375
6372		-41.015625
6373		-37.109375
6374		-39.062500
6375		-37.109375
6376		-39.062500
6377		-37.109375
6378		-39.062500
6379		-35.156250
6380		-37.109375
6381		-35.156250
6382		-39.062500
6383		-33.203125
6384		-39.062500
6385		-33.203125
6386		-35.156250
6387		-33.203125
6388		-35.156250
6389		-33.203125
6390		-35.156250
6391		-31.250000
6392		-33.203125
6393		-31.250000
6394		-33.203125
6395		-31.250000
6396		-33.203125
6397		-29.296875
6398		-33.203125
6399		-27.343750
6400		-33.203125
6401		-27.343750
6402		-29.296875
6403		-27.343750
6404		-29.296875
6405		-25.390625
6406		-29.296875
6407		-25.390625
6408		-27.343750
6409		-23.437500
6410		-27.343750
6411		-23.437500
6412		-25.390625
6413		-23.437500
6414		-25.390625
6415		-23.437500
6416		-25.390625
6417		-21.484375
6418		-25.390625
6419		-19.531250
6420		-25.390625
6421		-19.531250
6422		-23.437500
6423		-19.531250
6424		-21.484375
6425		-17.578125
6426		-19.531250
6427		-17.578125
6428		-19.531250
6429		-17.578125
6430		-19.531250
6431		-15.625000
6432		-19.531250
6433		-13.671875
6434		-17.578125
6435		-13.671875
6436		-17.578125
6437		-13.671875
6438		-15.625000
6439		-11.718750
6440		-13.671875
6441		-11.718750
6442		-13.671875
6443		-9.765625
6444		-13.671875
6445		-9.765625
6446		-11.718750
6447		-7.812500
6448		-11.718750
6449		-5.859375
6450		-11.718750
6451		-5.859375
6452		-9.765625
6453		-5.859375
6454		-9.765625
6455		-5.859375
6456		-7.812500
6457		-3.906250
6458		-5.859375
6459		-3.906250
6460		-5.859375
6461		-3.906250
6462		-5.859375
6463		-1.953125
6464		-3.906250
6465		0.000000
6466		-3.906250
6467		1.953125
6468		-3.906250
6469		1.953125
6470		-1.953125
6471		1.953125
6472		0.000000
6473		1.953125
6474		0.000000
6475		3.906250
6476		1.953125
6477		3.906250
6478		0.000000
6479		5.859375
6480		1.953125
6481		5.859375
6482		3.906250
6483		7.812500
6484		3.906250
6485		7.812500
6486		5.859375
6487		7.812500
6488		5.859375
6489		9.765625
6490		5.859375
6491		9.765625
6492		7.812500
6493		11.718750
6494		7.812500
6495		11.718750
6496		9.765625
6497		11.718750
6498		9.765625
6499		13.671875
6500		9.765625
6501		15.625000
6502		11.718750
6503		15.625000
6504		13.671875
6505		15.625000
6506		13.671875
6507		17.578125
6508		13.671875
6509		17.578125
6510		15.625000
6511		17.578125
6512		15.625000
6513		19.531250
6514		17.578125
6515		19.531250
6516		15.625000
6517		21.484375
6518		17.578125
6519		21.484375
6520		19.531250
6521		21.484375
6522		19.531250
6523		23.437500
6524		19.531250
6525		23.437500
6526		21.484375
6527		23.437500
6528		21.484375
6529		25.390625
6530		23.437500
6531		25.390625
6532		23.437500
6533		27.343750
6534		23.437500
6535		27.343750
6536		25.390625
6537		27.343750
6538		25.390625
6539		27.343750
6540		25.390625
6541		29.296875
6542		25.390625
6543		31.250000
6544		27.343750
6545		31.250000
6546		27.343750
6547		31.250000
6548		29.296875
6549		31.250000
6550		29.296875
6551		33.203125
6552		29.296875
6553		33.203125
6554		31.250000
6555		33.203125
6556		31.250000
6557		35.156250
6558		31.250000
6559		35.156250
6560		33.203125
6561		35.156250
6562		31.250000
6563		37.109375
6564		33.203125
6565		37.109375
6566		33.203125
6567		37.109375
6568		35.156250
6569		39.062500
6570		35.156250
6571		37.109375
6572		35.156250
6573		39.062500
6574		37.109375
6575		39.062500
6576		37.109375
6577		39.062500
6578		37.109375
6579		41.015625
6580		37.109375
6581		41.015625
6582		39.062500
6583		41.015625
6584		39.062500
6585		42.968750
6586		39.062500
6587		42.968750
6588		39.062500
6589		42.968750
6590		41.015625
6591		42.968750
6592		41.015625
6593		42.968750
6594		41.015625
6595		44.921875
6596		41.015625
6597		44.921875
6598		42.968750
6599		44.921875
6600		41.015625
6601		44.921875
6602		42.968750
6603		44.921875
6604		42.968750
6605		46.875000
6606		42.968750
6607		46.875000
6608		42.968750
6609		46.875000
6610		42.968750
6611		46.875000
6612		44.921875
6613		46.875000
6614		44.921875
6615		46.875000
6616		42.968750
6617		46.875000
6618		44.921875
6619		46.875000
6620		44.921875
6621		48.828125
6622		44.921875
6623		48.828125
6624		44.921875
6625		48.828125
6626		44.921875
6627		50.781250
6628		46.875000
6629		48.828125
6630		46.875000
6631		50.781250
6632		46.875000
6633		48.828125
6634		46.875000
6635		48.828125
6636		46.875000
6637		48.828125
6638		46.875000
6639		48.828125
6640		46.875000
6641		48.828125
6642		46.875000
6643		50.781250
6644		46.875000
6645		48.828125
6646		46.875000
6647		48.828125
6648		46.875000
6649		50.781250
6650		46.875000
6651		50.781250
6652		46.875000
6653		50.781250
6654		46.875000
6655		50.781250
6656		46.875000
6657		48.828125
6658		46.875000
6659		50.781250
6660		46.875000
6661		48.828125
6662		46.875000
6663		48.828125
6664		46.875000
6665		50.781250
6666		46.875000
6667		48.828125
6668		46.875000
6669		48.828125
6670		46.875000
6671		50.781250
6672		46.875000
6673		48.828125
6674		44.921875
6675		48.828125
6676		46.875000
6677		48.828125
6678		46.875000
6679		48.828125
6680		44.921875
6681		48.828125
6682		44.921875
6683		48.828125
6684		44.921875
6685		46.875000
6686		44.921875
6687		48.828125
6688		44.921875
6689		46.875000
6690		42.968750
6691		48.828125
6692		44.921875
6693		46.875000
6694		42.968750
6695		46.875000
6696		42.968750
6697		46.875000
6698		42.968750
6699		46.875000
6700		42.968750
6701		46.875000
6702		42.968750
6703		44.921875
6704		42.968750
6705		44.921875
6706		41.015625
6707		44.921875
6708		41.015625
6709		44.921875
6710		41.015625
6711		42.968750
6712		41.015625
6713		44.921875
6714		41.015625
6715		42.968750
6716		41.015625
6717		42.968750
6718		39.062500
6719		42.968750
6720		39.062500
6721		41.015625
6722		39.062500
6723		41.015625
6724		37.109375
6725		41.015625
6726		37.109375
6727		41.015625
6728		37.109375
6729		39.062500
6730		37.109375
6731		41.015625
6732		37.109375
6733		39.062500
6734		35.156250
6735		39.062500
6736		35.156250
6737		39.062500
6738		35.156250
6739		37.109375
6740		35.156250
6741		37.109375
6742		33.203125
6743		37.109375
6744		33.203125
6745		35.156250
6746		31.250000
6747		35.156250
6748		33.203125
6749		35.156250
6750		31.250000
6751		33.203125
6752		29.296875
6753		35.156250
6754		29.296875
6755		33.203125
6756		27.343750
6757		33.203125
6758		29.296875
6759		31.250000
6760		27.343750
6761		31.250000
6762		27.343750
6763		31.250000
6764		27.343750
6765		29.296875
6766		25.390625
6767		29.296875
6768		25.390625
6769		29.296875
6770		25.390625
6771		27.343750
6772		23.437500
6773		27.343750
6774		23.437500
6775		25.390625
6776		21.484375
6777		25.390625
6778		21.484375
6779		25.390625
6780		21.484375
6781		23.437500
6782		19.531250
6783		23.437500
6784		19.531250
6785		23.437500
6786		19.531250
6787		21.484375
6788		17.578125
6789		19.531250
6790		17.578125
6791		19.531250
6792		15.625000
6793		19.531250
6794		13.671875
6795		17.578125
6796		13.671875
6797		17.578125
6798		13.671875
6799		15.625000
6800		11.718750
6801		15.625000
6802		11.718750
6803		15.625000
6804		11.718750
6805		13.671875
6806		9.765625
6807		13.671875
6808		9.765625
6809		11.718750
6810		7.812500
6811		11.718750
6812		5.859375
6813		11.718750
6814		5.859375
6815		9.765625
6816		5.859375
6817		9.765625
6818		3.906250
6819		7.812500
6820		3.906250
6821		5.859375
6822		3.906250
6823		5.859375
6824		1.953125
6825		5.859375
6826		1.953125
6827		3.906250
6828		0.000000
6829		3.906250
6830		0.000000
6831		1.953125
6832		0.000000
6833		1.953125
6834		-1.953125
6835		1.953125
6836		-1.953125
6837		0.000000
6838		-3.906250
6839		0.000000
6840		-3.906250
6841		-1.953125
6842		-5.859375
6843		-1.953125
6844		-7.812500
6845		-1.953125
6846		-7.812500
6847		-3.906250
6848		-7.812500
6849		-3.906250
6850		-9.765625
6851		-5.859375
6852		-9.765625
6853		-7.812500
6854		-9.765625
6855		-7.812500
6856		-11.718750
6857		-7.812500
6858		-11.718750
6859		-9.765625
6860		-13.671875
6861		-9.765625
6862		-13.671875
6863		-9.765625
6864		-15.625000
6865		-11.718750
6866		-15.625000
6867		-13.671875
6868		-15.625000
6869		-11.718750
6870		-17.578125
6871		-15.625000
6872		-17.578125
6873		-15.625000
6874		-19.531250
6875		-15.625000
6876		-19.531250
6877		-17.578125
6878		-21.484375
6879		-17.578125
6880		-21.484375
6881		-17.578125
6882		-23.437500
6883		-19.531250
6884		-23.437500
6885		-21.484375
6886		-25.390625
6887		-21.484375
6888		-25.390625
6889		-21.484375
6890		-25.390625
6891		-23.437500
6892		-27.343750
6893		-23.437500
6894		-27.343750
6895		-25.390625
6896		-29.296875
6897		-25.390625
6898		-29.296875
6899		-25.390625
6900		-29.296875
6901		-27.343750
6902		-31.250000
6903		-27.343750
6904		-31.250000
6905		-27.343750
6906		-31.250000
6907		-29.296875
6908		-33.203125
6909		-29.296875
6910		-33.203125
6911		-31.250000
6912		-35.156250
6913		-31.250000
6914		-35.156250
6915		-31.250000
6916		-35.156250
6917		-33.203125
6918		-37.109375
6919		-33.203125
6920		-37.109375
6921		-35.156250
6922		-37.109375
6923		-35.156250
6924		-39.062500
6925		-35.156250
6926		-39.062500
6927		-35.156250
6928		-41.015625
6929		-37.109375
6930		-41.015625
6931		-37.109375
6932		-41.015625
6933		-39.062500
6934		-41.015625
6935		-39.062500
6936		-42.968750
6937		-39.062500
6938		-42.968750
6939		-41.015625
6940		-42.968750
6941		-41.015625
6942		-44.921875
6943		-41.015625
6944		-44.921875
6945		-42.968750
6946		-44.921875
6947		-42.968750
6948		-46.875000
6949		-42.968750
6950		-44.921875
6951		-42.968750
6952		-46.875000
6953		-44.921875
6954		-46.875000
6955		-44.921875
6956		-46.875000
6957		-44.921875
6958		-48.828125
6959		-44.921875
6960		-48.828125
6961		-44.921875
6962		-48.828125
6963		-46.875000
6964		-48.828125
6965		-46.875000
6966		-50.781250
6967		-46.875000
6968		-50.781250
6969		-46.875000
6970		-50.781250
6971		-48.828125
6972		-52.734375
6973		-46.875000
6974		-50.781250
6975		-48.828125
6976		-52.734375
6977		-48.828125
6978		-52.734375
6979		-48.828125
6980		-52.734375
6981		-48.828125
6982		-54.687500
6983		-50.781250
6984		-52.734375
6985		-50.781250
6986		-52.734375
6987		-50.781250
6988		-54.687500
6989		-50.781250
6990		-54.687500
6991		-50.781250
6992		-54.687500
6993		-50.781250
6994		-54.687500
6995		-50.781250
6996		-54.687500
6997		-52.734375
6998		-54.687500
6999		-50.781250
7000		-54.687500
7001		-52.734375
7002		-54.687500
7003		-52.734375
7004		-54.687500
7005		-50.781250
7006		-54.687500
7007		-52.734375
7008		-54.687500
7009		-52.734375
7010		-54.687500
7011		-50.781250
7012		-54.687500
7013		-52.734375
7014		-54.687500
7015		-52.734375
7016		-54.687500
7017		-52.734375
7018		-54.687500
7019		-52.734375
7020		-54.687500
7021		-52.734375
7022		-54.687500
7023		-52.734375
7024		-56.640625
7025		-52.734375
7026		-54.687500
7027		-52.734375
7028		-54.687500
7029		-52.734375
7030		-54.687500
7031		-50.781250
7032		-54.687500
7033		-52.734375
7034		-54.687500
7035		-52.734375
7036		-56.640625
7037		-50.781250
7038		-54.687500
7039		-52.734375
7040		-54.687500
7041		-50.781250
7042		-54.687500
7043		-50.781250
7044		-54.687500
7045		-50.781250
7046		-54.687500
7047		-50.781250
7048		-52.734375
7049		-50.781250
7050		-52.734375
7051		-50.781250
7052		-52.734375
7053		-48.828125
7054		-52.734375
7055		-48.828125
7056		-52.734375
7057		-48.828125
7058		-52.734375
7059		-48.828125
7060		-50.781250
7061		-48.828125
7062		-52.734375
7063		-46.875000
7064		-50.781250
7065		-48.828125
7066		-50.781250
7067		-48.828125
7068		-50.781250
7069		-46.875000
7070		-48.828125
7071		-46.875000
7072		-48.828125
7073		-46.875000
7074		-50.781250
7075		-46.875000
7076		-48.828125
7077		-46.875000
7078		-48.828125
7079		-44.921875
7080		-48.828125
7081		-44.921875
7082		-46.875000
7083		-44.921875
7084		-46.875000
7085		-44.921875
7086		-46.875000
7087		-42.968750
7088		-46.875000
7089		-42.968750
7090		-44.921875
7091		-42.968750
7092		-44.921875
7093		-41.015625
7094		-44.921875
7095		-41.015625
7096		-42.968750
7097		-41.015625
7098		-42.968750
7099		-41.015625
7100		-42.968750
7101		-39.062500
7102		-41.015625
7103		-39.062500
7104		-41.015625
7105		-39.062500
7106		-41.015625
7107		-37.109375
7108		-41.015625
7109		-37.109375
7110		-41.015625
7111		-35.156250
7112		-39.062500
7113		-35.156250
7114		-39.062500
7115		-35.156250
7116		-39.062500
7117		-33.203125
7118		-37.109375
7119		-33.203125
7120		-37.109375
7121		-33.203125
7122		-37.109375
7123		-31.250000
7124		-35.156250
7125		-31.250000
7126		-35.156250
7127		-31.250000
7128		-33.203125
7129		-31.250000
7130		-33.203125
7131		-29.296875
7132		-33.203125
7133		-27.343750
7134		-31.250000
7135		-27.343750
7136		-31.250000
7137		-27.343750
7138		-31.250000
7139		-25.390625
7140		-29.296875
7141		-25.390625
7142		-27.343750
7143		-25.390625
7144		-27.343750
7145		-23.437500
7146		-25.390625
7147		-23.437500
7148		-25.390625
7149		-21.484375
7150		-25.390625
7151		-21.484375
7152		-23.437500
7153		-21.484375
7154		-23.437500
7155		-19.531250
7156		-21.484375
7157		-19.531250
7158		-21.484375
7159		-17.578125
7160		-21.484375
7161		-17.578125
7162		-19.531250
7163		-17.578125
7164		-19.531250
7165		-15.625000
7166		-17.578125
7167		-15.625000
7168		-17.578125
7169		-13.671875
7170		-15.625000
7171		-13.671875
7172		-15.625000
7173		-11.718750
7174		-13.671875
7175		-11.718750
7176		-13.671875
7177		-11.718750
7178		-13.671875
7179		-9.765625
7180		-11.718750
7181		-9.765625
7182		-11.718750
7183		-7.812500
7184		-11.718750
7185		-7.812500
7186		-9.765625
7187		-5.859375
7188		-7.812500
7189		-5.859375
7190		-7.812500
7191		-3.906250
7192		-5.859375
7193		-3.906250
7194		-7.812500
7195		-1.953125
7196		-5.859375
7197		-1.953125
7198		-3.906250
7199		-1.953125
7200		-3.906250
7201		0.000000
7202		-1.953125
7203		0.000000
7204		-1.953125
7205		1.953125
7206		-1.953125
7207		1.953125
7208		0.000000
7209		1.953125
7210		0.000000
7211		3.906250
7212		1.953125
7213		3.906250
7214		3.906250
7215		5.859375
7216		1.953125
7217		5.859375
7218		3.906250
7219		7.812500
7220		5.859375
7221		9.765625
7222		5.859375
7223		9.765625
7224		7.812500
7225		9.765625
7226		7.812500
7227		11.718750
7228		7.812500
7229		11.718750
7230		9.765625
7231		11.718750
7232		9.765625
7233		13.671875
7234		11.718750
7235		13.671875
7236		11.718750
7237		15.625000
7238		13.671875
7239		17.578125
7240		13.671875
7241		15.625000
7242		13.671875
7243		17.578125
7244		13.671875
7245		17.578125
7246		15.625000
7247		19.531250
7248		15.625000
7249		19.531250
7250		17.578125
7251		21.484375
7252		17.578125
7253		21.484375
7254		19.531250
7255		23.437500
7256		19.531250
7257		23.437500
7258		21.484375
7259		23.437500
7260		21.484375
7261		25.390625
7262		21.484375
7263		25.390625
7264		23.437500
7265		25.390625
7266		23.437500
7267		27.343750
7268		23.437500
7269		27.343750
7270		25.390625
7271		27.343750
7272		23.437500
7273		29.296875
7274		25.390625
7275		29.296875
7276		27.343750
7277		29.296875
7278		27.343750
7279		29.296875
7280		27.343750
7281		31.250000
7282		27.343750
7283		33.203125
7284		29.296875
7285		31.250000
7286		29.296875
7287		33.203125
7288		29.296875
7289		35.156250
7290		31.250000
7291		33.203125
7292		31.250000
7293		35.156250
7294		33.203125
7295		35.156250
7296		33.203125
7297		35.156250
7298		33.203125
7299		37.109375
7300		33.203125
7301		37.109375
7302		35.156250
7303		39.062500
7304		35.156250
7305		37.109375
7306		35.156250
7307		39.062500
7308		35.156250
7309		39.062500
7310		37.109375
7311		39.062500
7312		37.109375
7313		41.015625
7314		37.109375
7315		41.015625
7316		39.062500
7317		41.015625
7318		39.062500
7319		41.015625
7320		39.062500
7321		42.968750
7322		39.062500
7323		42.968750
7324		41.015625
7325		42.968750
7326		39.062500
7327		44.921875
7328		41.015625
7329		42.968750
7330		41.015625
7331		42.968750
7332		41.015625
7333		44.921875
7334		41.015625
7335		44.921875
7336		42.968750
7337		44.921875
7338		42.968750
7339		46.875000
7340		42.968750
7341		46.875000
7342		42.968750
7343		44.921875
7344		41.015625
7345		48.828125
7346		42.968750
7347		46.875000
7348		42.968750
7349		48.828125
7350		44.921875
7351		46.875000
7352		44.921875
7353		46.875000
7354		42.968750
7355		48.828125
7356		44.921875
7357		46.875000
7358		44.921875
7359		48.828125
7360		44.921875
7361		50.781250
7362		44.921875
7363		48.828125
7364		44.921875
7365		48.828125
7366		44.921875
7367		50.781250
7368		42.968750
7369		50.781250
7370		44.921875
7371		48.828125
7372		46.875000
7373		48.828125
7374		44.921875
7375		50.781250
7376		46.875000
7377		48.828125
7378		44.921875
7379		50.781250
7380		44.921875
7381		50.781250
7382		44.921875
7383		48.828125
7384		46.875000
7385		48.828125
7386		44.921875
7387		50.781250
7388		44.921875
7389		48.828125
7390		44.921875
7391		50.781250
7392		44.921875
7393		50.781250
7394		44.921875
7395		50.781250
7396		44.921875
7397		48.828125
7398		42.968750
7399		50.781250
7400		46.875000
7401		48.828125
7402		42.968750
7403		50.781250
7404		46.875000
7405		48.828125
7406		44.921875
7407		48.828125
7408		44.921875
7409		48.828125
7410		42.968750
7411		50.781250
7412		44.921875
7413		48.828125
7414		42.968750
7415		48.828125
7416		42.968750
7417		48.828125
7418		41.015625
7419		50.781250
7420		44.921875
7421		46.875000
7422		44.921875
7423		46.875000
7424		42.968750
7425		46.875000
7426		41.015625
7427		48.828125
7428		42.968750
7429		48.828125
7430		42.968750
7431		46.875000
7432		39.062500
7433		48.828125
7434		41.015625
7435		46.875000
7436		39.062500
7437		46.875000
7438		41.015625
7439		44.921875
7440		41.015625
7441		44.921875
7442		39.062500
7443		46.875000
7444		41.015625
7445		44.921875
7446		41.015625
7447		42.968750
7448		39.062500
7449		42.968750
7450		37.109375
7451		44.921875
7452		35.156250
7453		42.968750
7454		37.109375
7455		41.015625
7456		39.062500
7457		41.015625
7458		37.109375
7459		41.015625
7460		33.203125
7461		42.968750
7462		35.156250
7463		41.015625
7464		35.156250
7465		39.062500
7466		31.250000
7467		41.015625
7468		35.156250
7469		39.062500
7470		31.250000
7471		41.015625
7472		33.203125
7473		37.109375
7474		33.203125
7475		37.109375
7476		29.296875
7477		37.109375
7478		31.250000
7479		37.109375
7480		31.250000
7481		35.156250
7482		29.296875
7483		35.156250
7484		27.343750
7485		37.109375
7486		27.343750
7487		37.109375
7488		29.296875
7489		31.250000
7490		27.343750
7491		31.250000
7492		25.390625
7493		31.250000
7494		23.437500
7495		33.203125
7496		25.390625
7497		29.296875
7498		25.390625
7499		29.296875
7500		21.484375
7501		31.250000
7502		21.484375
7503		29.296875
7504		23.437500
7505		27.343750
7506		23.437500
7507		25.390625
7508		21.484375
7509		25.390625
7510		17.578125
7511		27.343750
7512		19.531250
7513		25.390625
7514		19.531250
7515		23.437500
7516		17.578125
7517		23.437500
7518		15.625000
7519		25.390625
7520		15.625000
7521		23.437500
7522		15.625000
7523		19.531250
7524		15.625000
7525		19.531250
7526		13.671875
7527		19.531250
7528		11.718750
7529		21.484375
7530		13.671875
7531		17.578125
7532		11.718750
7533		15.625000
7534		9.765625
7535		17.578125
7536		9.765625
7537		15.625000
7538		9.765625
7539		13.671875
7540		9.765625
7541		11.718750
7542		7.812500
7543		11.718750
7544		3.906250
7545		13.671875
7546		5.859375
7547		11.718750
7548		5.859375
7549		9.765625
7550		1.953125
7551		11.718750
7552		1.953125
7553		9.765625
7554		1.953125
7555		9.765625
7556		1.953125
7557		5.859375
7558		1.953125
7559		3.906250
7560		-1.953125
7561		5.859375
7562		-1.953125
7563		3.906250
7564		0.000000
7565		1.953125
7566		-3.906250
7567		1.953125
7568		-5.859375
7569		3.906250
7570		-5.859375
7571		1.953125
7572		-5.859375
7573		-1.953125
7574		-5.859375
7575		-1.953125
7576		-7.812500
7577		-1.953125
7578		-9.765625
7579		0.000000
7580		-7.812500
7581		-3.906250
7582		-9.765625
7583		-5.859375
7584		-11.718750
7585		-3.906250
7586		-11.718750
7587		-5.859375
7588		-11.718750
7589		-7.812500
7590		-11.718750
7591		-9.765625
7592		-13.671875
7593		-9.765625
7594		-15.625000
7595		-9.765625
7596		-15.625000
7597		-11.718750
7598		-15.625000
7599		-11.718750
7600		-19.531250
7601		-9.765625
7602		-19.531250
7603		-11.718750
7604		-21.484375
7605		-13.671875
7606		-19.531250
7607		-15.625000
7608		-19.531250
7609		-15.625000
7610		-21.484375
7611		-17.578125
7612		-23.437500
7613		-13.671875
7614		-23.437500
7615		-19.531250
7616		-23.437500
7617		-19.531250
7618		-25.390625
7619		-19.531250
7620		-27.343750
7621		-19.531250
7622		-27.343750
7623		-21.484375
7624		-25.390625
7625		-23.437500
7626		-27.343750
7627		-23.437500
7628		-31.250000
7629		-23.437500
7630		-29.296875
7631		-23.437500
7632		-29.296875
7633		-25.390625
7634		-33.203125
7635		-25.390625
7636		-31.250000
7637		-27.343750
7638		-31.250000
7639		-27.343750
7640		-33.203125
7641		-29.296875
7642		-35.156250
7643		-31.250000
7644		-35.156250
7645		-31.250000
7646		-37.109375
7647		-31.250000
7648		-37.109375
7649		-33.203125
7650		-37.109375
7651		-31.250000
7652		-37.109375
7653		-35.156250
7654		-37.109375
7655		-33.203125
7656		-39.062500
7657		-35.156250
7658		-39.062500
7659		-37.109375
7660		-41.015625
7661		-35.156250
7662		-41.015625
7663		-37.109375
7664		-41.015625
7665		-37.109375
7666		-41.015625
7667		-39.062500
7668		-42.968750
7669		-39.062500
7670		-42.968750
7671		-41.015625
7672		-42.968750
7673		-39.062500
7674		-44.921875
7675		-41.015625
7676		-44.921875
7677		-41.015625
7678		-44.921875
7679		-41.015625
7680		-44.921875
7681		-42.968750
7682		-46.875000
7683		-42.968750
7684		-46.875000
7685		-42.968750
7686		-48.828125
7687		-44.921875
7688		-48.828125
7689		-42.968750
7690		-48.828125
7691		-44.921875
7692		-48.828125
7693		-44.921875
7694		-50.781250
7695		-44.921875
7696		-50.781250
7697		-44.921875
7698		-52.734375
7699		-44.921875
7700		-50.781250
7701		-44.921875
7702		-52.734375
7703		-44.921875
7704		-52.734375
7705		-46.875000
7706		-52.734375
7707		-48.828125
7708		-52.734375
7709		-48.828125
7710		-52.734375
7711		-48.828125
7712		-54.687500
7713		-48.828125
7714		-54.687500
7715		-48.828125
7716		-54.687500
7717		-48.828125
7718		-54.687500
7719		-48.828125
7720		-54.687500
7721		-50.781250
7722		-54.687500
7723		-50.781250
7724		-54.687500
7725		-50.781250
7726		-56.640625
7727		-50.781250
7728		-56.640625
7729		-50.781250
7730		-56.640625
7731		-50.781250
7732		-56.640625
7733		-50.781250
7734		-56.640625
7735		-50.781250
7736		-56.640625
7737		-50.781250
7738		-56.640625
7739		-50.781250
7740		-56.640625
7741		-52.734375
7742		-54.687500
7743		-52.734375
7744		-56.640625
7745		-50.781250
7746		-56.640625
7747		-50.781250
7748		-56.640625
7749		-50.781250
7750		-56.640625
7751		-52.734375
7752		-56.640625
7753		-50.781250
7754		-56.640625
7755		-52.734375
7756		-56.640625
7757		-52.734375
7758		-56.640625
7759		-52.734375
7760		-56.640625
7761		-52.734375
7762		-56.640625
7763		-52.734375
7764		-56.640625
7765		-52.734375
7766		-56.640625
7767		-50.781250
7768		-56.640625
7769		-50.781250
7770		-56.640625
7771		-50.781250
7772		-56.640625
7773		-50.781250
7774		-56.640625
7775		-50.781250
7776		-54.687500
7777		-52.734375
7778		-54.687500
7779		-50.781250
7780		-54.687500
7781		-50.781250
7782		-54.687500
7783		-50.781250
7784		-54.687500
7785		-48.828125
7786		-54.687500
7787		-48.828125
7788		-54.687500
7789		-48.828125
7790		-52.734375
7791		-50.781250
7792		-54.687500
7793		-48.828125
7794		-52.734375
7795		-48.828125
7796		-52.734375
7797		-48.828125
7798		-52.734375
7799		-48.828125
7800		-52.734375
7801		-46.875000
7802		-52.734375
7803		-46.875000
7804		-50.781250
7805		-46.875000
7806		-50.781250
7807		-46.875000
7808		-50.781250
7809		-46.875000
7810		-50.781250
7811		-44.921875
7812		-50.781250
7813		-44.921875
7814		-48.828125
7815		-44.921875
7816		-50.781250
7817		-42.968750
7818		-46.875000
7819		-44.921875
7820		-48.828125
7821		-44.921875
7822		-46.875000
7823		-42.968750
7824		-46.875000
7825		-42.968750
7826		-44.921875
7827		-42.968750
7828		-44.921875
7829		-41.015625
7830		-44.921875
7831		-41.015625
7832		-44.921875
7833		-41.015625
7834		-44.921875
7835		-39.062500
7836		-44.921875
7837		-39.062500
7838		-42.968750
7839		-39.062500
7840		-42.968750
7841		-39.062500
7842		-42.968750
7843		-37.109375
7844		-41.015625
7845		-37.109375
7846		-41.015625
7847		-37.109375
7848		-39.062500
7849		-35.156250
7850		-39.062500
7851		-33.203125
7852		-39.062500
7853		-33.203125
7854		-37.109375
7855		-33.203125
7856		-37.109375
7857		-33.203125
7858		-37.109375
7859		-31.250000
7860		-35.156250
7861		-33.203125
7862		-35.156250
7863		-31.250000
7864		-35.156250
7865		-29.296875
7866		-33.203125
7867		-29.296875
7868		-35.156250
7869		-27.343750
7870		-31.250000
7871		-27.343750
7872		-31.250000
7873		-27.343750
7874		-31.250000
7875		-25.390625
7876		-29.296875
7877		-25.390625
7878		-27.343750
7879		-23.437500
7880		-27.343750
7881		-23.437500
7882		-27.343750
7883		-23.437500
7884		-25.390625
7885		-21.484375
7886		-25.390625
7887		-21.484375
7888		-23.437500
7889		-21.484375
7890		-23.437500
7891		-19.531250
7892		-21.484375
7893		-19.531250
7894		-21.484375
7895		-17.578125
7896		-21.484375
7897		-15.625000
7898		-19.531250
7899		-15.625000
7900		-19.531250
7901		-13.671875
7902		-17.578125
7903		-13.671875
7904		-17.578125
7905		-13.671875
7906		-17.578125
7907		-11.718750
7908		-15.625000
7909		-11.718750
7910		-13.671875
7911		-11.718750
7912		-13.671875
7913		-9.765625
7914		-13.671875
7915		-9.765625
7916		-11.718750
7917		-5.859375
7918		-11.718750
7919		-7.812500
7920		-9.765625
7921		-5.859375
7922		-9.765625
7923		-5.859375
7924		-9.765625
7925		-5.859375
7926		-7.812500
7927		-3.906250
7928		-7.812500
7929		-1.953125
7930		-5.859375
7931		-1.953125
7932		-3.906250
7933		-1.953125
7934		-5.859375
7935		0.000000
7936		-3.906250
7937		0.000000
7938		-1.953125
7939		1.953125
7940		-1.953125
7941		1.953125
7942		0.000000
7943		1.953125
7944		0.000000
7945		3.906250
7946		1.953125
7947		3.906250
7948		1.953125
7949		5.859375
7950		1.953125
7951		7.812500
7952		3.906250
7953		7.812500
7954		3.906250
7955		7.812500
7956		5.859375
7957		9.765625
7958		5.859375
7959		9.765625
7960		7.812500
7961		9.765625
7962		7.812500
7963		11.718750
7964		7.812500
7965		13.671875
7966		9.765625
7967		13.671875
7968		9.765625
7969		13.671875
7970		11.718750
7971		13.671875
7972		11.718750
7973		15.625000
7974		11.718750
7975		17.578125
7976		13.671875
7977		17.578125
7978		13.671875
7979		17.578125
7980		15.625000
7981		19.531250
7982		15.625000
7983		19.531250
7984		15.625000
7985		19.531250
7986		17.578125
7987		21.484375
7988		19.531250
7989		21.484375
7990		19.531250
7991		23.437500
7992		19.531250
7993		23.437500
7994		19.531250
7995		23.437500
7996		21.484375
7997		25.390625
7998		21.484375
7999		25.390625
8000		23.437500
8001		27.343750
8002		23.437500
8003		27.343750
8004		23.437500
8005		29.296875
8006		25.390625
8007		27.343750
8008		25.390625
8009		29.296875
8010		25.390625
8011		31.250000
8012		27.343750
8013		31.250000
8014		27.343750
8015		31.250000
8016		27.343750
8017		31.250000
8018		29.296875
8019		33.203125
8020		29.296875
8021		33.203125
8022		29.296875
8023		33.203125
8024		31.250000
8025		33.203125
8026		31.250000
8027		35.156250
8028		31.250000
8029		35.156250
8030		31.250000
8031		35.156250
8032		33.203125
8033		37.109375
8034		33.203125
8035		37.109375
8036		33.203125
8037		37.109375
8038		35.156250
8039		39.062500
8040		35.156250
8041		39.062500
8042		35.156250
8043		39.062500
8044		37.109375
8045		41.015625
8046		37.109375
8047		41.015625
8048		37.109375
8049		41.015625
8050		37.109375
8051		41.015625
8052		37.109375
8053		41.015625
8054		39.062500
8055		41.015625
8056		39.062500
8057		42.968750
8058		39.062500
8059		42.968750
8060		39.062500
8061		44.921875
8062		41.015625
8063		42.968750
8064		41.015625
8065		44.921875
8066		41.015625
8067		44.921875
8068		41.015625
8069		44.921875
8070		41.015625
8071		44.921875
8072		42.968750
8073		44.921875
8074		42.968750
8075		46.875000
8076		42.968750
8077		44.921875
8078		42.968750
8079		46.875000
8080		42.968750
8081		46.875000
8082		42.968750
8083		46.875000
8084		42.968750
8085		46.875000
8086		44.921875
8087		46.875000
8088		44.921875
8089		48.828125
8090		44.921875
8091		46.875000
8092		44.921875
8093		46.875000
8094		44.921875
8095		46.875000
8096		44.921875
8097		48.828125
8098		44.921875
8099		48.828125
8100		44.921875
8101		48.828125
8102		44.921875
8103		48.828125
8104		44.921875
8105		48.828125
8106		44.921875
8107		48.828125
8108		44.921875
8109		48.828125
8110		44.921875
8111		48.828125
8112		44.921875
8113		48.828125
8114		44.921875
8115		48.828125
8116		44.921875
8117		48.828125
8118		44.921875
8119		48.828125
8120		44.921875
8121		48.828125
8122		44.921875
8123		48.828125
8124		44.921875
8125		48.828125
8126		44.921875
8127		48.828125
8128		44.921875
8129		48.828125
8130		44.921875
8131		48.828125
8132		44.921875
8133		48.828125
8134		44.921875
8135		48.828125
8136		44.921875
8137		48.828125
8138		44.921875
8139		48.828125
8140		44.921875
8141		48.828125
8142		42.968750
8143		48.828125
8144		44.921875
8145		48.828125
8146		42.968750
8147		48.828125
8148		44.921875
8149		48.828125
8150		44.921875
8151		46.875000
8152		42.968750
8153		46.875000
8154		42.968750
8155		46.875000
8156		42.968750
8157		46.875000
8158		42.968750
8159		46.875000
8160		42.968750
8161		44.921875
8162		42.968750
8163		44.921875
8164		41.015625
8165		44.921875
8166		41.015625
8167		44.921875
8168		41.015625
8169		44.921875
8170		41.015625
8171		44.921875
8172		41.015625
8173		44.921875
8174		41.015625
8175		42.968750
8176		39.062500
8177		42.968750
8178		39.062500
8179		42.968750
8180		39.062500
8181		42.968750
8182		39.062500
8183		42.968750
8184		37.109375
8185		41.015625
8186		39.062500
8187		41.015625
8188		37.109375
8189		41.015625
8190		37.109375
8191		41.015625
8192		35.156250
8193		41.015625
8194		35.156250
8195		39.062500
8196		35.156250
8197		39.062500
8198		35.156250
8199		39.062500
8200		33.203125
8201		39.062500
8202		33.203125
8203		37.109375
8204		33.203125
8205		37.109375
8206		31.250000
8207		37.109375
8208		31.250000
8209		35.156250
8210		31.250000
8211		35.156250
8212		31.250000
8213		35.156250
8214		29.296875
8215		33.203125
8216		29.296875
8217		33.203125
8218		27.343750
8219		33.203125
8220		29.296875
8221		31.250000
8222		27.343750
8223		31.250000
8224		27.343750
8225		31.250000
8226		27.343750
8227		29.296875
8228		25.390625
8229		29.296875
8230		25.390625
8231		29.296875
8232		25.390625
8233		29.296875
8234		23.437500
8235		27.343750
8236		23.437500
8237		25.390625
8238		23.437500
8239		25.390625
8240		21.484375
8241		25.390625
8242		19.531250
8243		25.390625
8244		19.531250
8245		23.437500
8246		19.531250
8247		23.437500
8248		19.531250
8249		23.437500
8250		17.578125
8251		21.484375
8252		17.578125
8253		19.531250
8254		15.625000
8255		19.531250
8256		15.625000
8257		19.531250
8258		15.625000
8259		17.578125
8260		13.671875
8261		17.578125
8262		13.671875
8263		15.625000
8264		11.718750
8265		15.625000
8266		11.718750
8267		15.625000
8268		9.765625
8269		13.671875
8270		9.765625
8271		13.671875
8272		7.812500
8273		11.718750
8274		7.812500
8275		11.718750
8276		5.859375
8277		11.718750
8278		5.859375
8279		9.765625
8280		5.859375
8281		7.812500
8282		3.906250
8283		9.765625
8284		3.906250
8285		7.812500
8286		1.953125
8287		5.859375
8288		1.953125
8289		5.859375
8290		1.953125
8291		3.906250
8292		0.000000
8293		3.906250
8294		0.000000
8295		3.906250
8296		-1.953125
8297		1.953125
8298		-1.953125
8299		1.953125
8300		-3.906250
8301		0.000000
8302		-3.906250
8303		0.000000
8304		-3.906250
8305		-1.953125
8306		-5.859375
8307		-1.953125
8308		-5.859375
8309		-3.906250
8310		-7.812500
8311		-3.906250
8312		-7.812500
8313		-3.906250
8314		-9.765625
8315		-5.859375
8316		-9.765625
8317		-5.859375
8318		-11.718750
8319		-5.859375
8320		-11.718750
8321		-7.812500
8322		-13.671875
8323		-9.765625
8324		-13.671875
8325		-9.765625
8326		-15.625000
8327		-11.718750
8328		-15.625000
8329		-11.718750
8330		-17.578125
8331		-11.718750
8332		-17.578125
8333		-13.671875
8334		-17.578125
8335		-13.671875
8336		-19.531250
8337		-13.671875
8338		-19.531250
8339		-15.625000
8340		-19.531250
8341		-17.578125
8342		-21.484375
8343		-15.625000
8344		-21.484375
8345		-17.578125
8346		-23.437500
8347		-19.531250
8348		-25.390625
8349		-19.531250
8350		-25.390625
8351		-21.484375
8352		-25.390625
8353		-21.484375
8354		-25.390625
8355		-21.484375
8356		-27.343750
8357		-23.437500
8358		-29.296875
8359		-23.437500
8360		-29.296875
8361		-25.390625
8362		-29.296875
8363		-25.390625
8364		-29.296875
8365		-25.390625
8366		-31.250000
8367		-27.343750
8368		-31.250000
8369		-27.343750
8370		-33.203125
8371		-27.343750
8372		-33.203125
8373		-29.296875
8374		-33.203125
8375		-31.250000
8376		-35.156250
8377		-31.250000
8378		-35.156250
8379		-31.250000
8380		-35.156250
8381		-33.203125
8382		-37.109375
8383		-33.203125
8384		-37.109375
8385		-33.203125
8386		-37.109375
8387		-35.156250
8388		-39.062500
8389		-35.156250
8390		-39.062500
8391		-35.156250
8392		-39.062500
8393		-37.109375
8394		-41.015625
8395		-37.109375
8396		-41.015625
8397		-39.062500
8398		-41.015625
8399		-39.062500
8400		-42.968750
8401		-39.062500
8402		-42.968750
8403		-39.062500
8404		-42.968750
8405		-41.015625
8406		-44.921875
8407		-39.062500
8408		-44.921875
8409		-41.015625
8410		-44.921875
8411		-41.015625
8412		-46.875000
8413		-41.015625
8414		-46.875000
8415		-42.968750
8416		-48.828125
8417		-42.968750
8418		-46.875000
8419		-44.921875
8420		-48.828125
8421		-44.921875
8422		-48.828125
8423		-44.921875
8424		-48.828125
8425		-44.921875
8426		-48.828125
8427		-46.875000
8428		-50.781250
8429		-46.875000
8430		-50.781250
8431		-46.875000
8432		-50.781250
8433		-46.875000
8434		-50.781250
8435		-48.828125
8436		-52.734375
8437		-48.828125
8438		-50.781250
8439		-48.828125
8440		-52.734375
8441		-48.828125
8442		-52.734375
8443		-48.828125
8444		-52.734375
8445		-48.828125
8446		-52.734375
8447		-48.828125
8448		-52.734375
8449		-50.781250
8450		-54.687500
8451		-50.781250
8452		-54.687500
8453		-50.781250
8454		-54.687500
8455		-50.781250
8456		-54.687500
8457		-50.781250
8458		-54.687500
8459		-50.781250
8460		-54.687500
8461		-52.734375
8462		-56.640625
8463		-50.781250
8464		-56.640625
8465		-50.781250
8466		-56.640625
8467		-52.734375
8468		-54.687500
8469		-52.734375
8470		-56.640625
8471		-52.734375
8472		-56.640625
8473		-52.734375
8474		-56.640625
8475		-52.734375
8476		-56.640625
8477		-52.734375
8478		-56.640625
8479		-52.734375
8480		-56.640625
8481		-52.734375
8482		-54.687500
8483		-52.734375
8484		-56.640625
8485		-52.734375
8486		-56.640625
8487		-50.781250
8488		-56.640625
8489		-52.734375
8490		-56.640625
8491		-52.734375
8492		-56.640625
8493		-52.734375
8494		-56.640625
8495		-52.734375
8496		-56.640625
8497		-50.781250
8498		-56.640625
8499		-52.734375
8500		-56.640625
8501		-52.734375
8502		-56.640625
8503		-52.734375
8504		-56.640625
8505		-52.734375
8506		-54.687500
8507		-52.734375
8508		-54.687500
8509		-50.781250
8510		-54.687500
8511		-50.781250
8512		-54.687500
8513		-50.781250
8514		-54.687500
8515		-50.781250
8516		-54.687500
8517		-50.781250
8518		-54.687500
8519		-50.781250
8520		-54.687500
8521		-50.781250
8522		-52.734375
8523		-50.781250
8524		-54.687500
8525		-48.828125
8526		-52.734375
8527		-48.828125
8528		-52.734375
8529		-48.828125
8530		-52.734375
8531		-48.828125
8532		-50.781250
8533		-48.828125
8534		-50.781250
8535		-48.828125
8536		-50.781250
8537		-46.875000
8538		-50.781250
8539		-48.828125
8540		-50.781250
8541		-46.875000
8542		-50.781250
8543		-46.875000
8544		-48.828125
8545		-46.875000
8546		-50.781250
8547		-44.921875
8548		-48.828125
8549		-44.921875
8550		-48.828125
8551		-44.921875
8552		-46.875000
8553		-42.968750
8554		-46.875000
8555		-42.968750
8556		-46.875000
8557		-42.968750
8558		-46.875000
8559		-42.968750
8560		-44.921875
8561		-42.968750
8562		-44.921875
8563		-41.015625
8564		-46.875000
8565		-41.015625
8566		-42.968750
8567		-41.015625
8568		-44.921875
8569		-39.062500
8570		-42.968750
8571		-39.062500
8572		-42.968750
8573		-39.062500
8574		-41.015625
8575		-37.109375
8576		-41.015625
8577		-39.062500
8578		-41.015625
8579		-37.109375
8580		-39.062500
8581		-37.109375
8582		-39.062500
8583		-35.156250
8584		-39.062500
8585		-35.156250
8586		-39.062500
8587		-35.156250
8588		-37.109375
8589		-33.203125
8590		-37.109375
8591		-33.203125
8592		-35.156250
8593		-31.250000
8594		-35.156250
8595		-31.250000
8596		-35.156250
8597		-31.250000
8598		-33.203125
8599		-29.296875
8600		-33.203125
8601		-29.296875
8602		-31.250000
8603		-27.343750
8604		-31.250000
8605		-27.343750
8606		-31.250000
8607		-27.343750
8608		-29.296875
8609		-25.390625
8610		-29.296875
8611		-25.390625
8612		-29.296875
8613		-23.437500
8614		-27.343750
8615		-23.437500
8616		-25.390625
8617		-23.437500
8618		-25.390625
8619		-21.484375
8620		-25.390625
8621		-21.484375
8622		-23.437500
8623		-19.531250
8624		-23.437500
8625		-19.531250
8626		-23.437500
8627		-17.578125
8628		-21.484375
8629		-17.578125
8630		-21.484375
8631		-17.578125
8632		-19.531250
8633		-15.625000
8634		-19.531250
8635		-15.625000
8636		-17.578125
8637		-15.625000
8638		-17.578125
8639		-13.671875
8640		-15.625000
8641		-13.671875
8642		-15.625000
8643		-11.718750
8644		-13.671875
8645		-11.718750
8646		-13.671875
8647		-9.765625
8648		-11.718750
8649		-7.812500
8650		-11.718750
8651		-9.765625
8652		-11.718750
8653		-7.812500
8654		-9.765625
8655		-5.859375
8656		-7.812500
8657		-5.859375
8658		-7.812500
8659		-3.906250
8660		-7.812500
8661		-3.906250
8662		-5.859375
8663		-1.953125
8664		-5.859375
8665		-1.953125
8666		-3.906250
8667		-1.953125
8668		-3.906250
8669		0.000000
8670		-3.906250
8671		0.000000
8672		-1.953125
8673		1.953125
8674		-1.953125
8675		3.906250
8676		0.000000
8677		1.953125
8678		0.000000
8679		3.906250
8680		0.000000
8681		5.859375
8682		1.953125
8683		5.859375
8684		1.953125
8685		7.812500
8686		3.906250
8687		7.812500
8688		3.906250
8689		7.812500
8690		5.859375
8691		9.765625
8692		5.859375
8693		9.765625
8694		7.812500
8695		9.765625
8696		7.812500
8697		11.718750
8698		7.812500
8699		11.718750
8700		9.765625
8701		13.671875
8702		9.765625
8703		13.671875
8704		11.718750
8705		15.625000
8706		11.718750
8707		15.625000
8708		11.718750
8709		15.625000
8710		13.671875
8711		17.578125
8712		13.671875
8713		17.578125
8714		15.625000
8715		19.531250
8716		17.578125
8717		19.531250
8718		15.625000
8719		21.484375
8720		17.578125
8721		21.484375
8722		17.578125
8723		23.437500
8724		19.531250
8725		21.484375
8726		19.531250
8727		23.437500
8728		19.531250
8729		23.437500
8730		21.484375
8731		25.390625
8732		23.437500
8733		25.390625
8734		23.437500
8735		25.390625
8736		23.437500
8737		27.343750
8738		23.437500
8739		27.343750
8740		25.390625
8741		29.296875
8742		25.390625
8743		29.296875
8744		25.390625
8745		29.296875
8746		27.343750
8747		31.250000
8748		25.390625
8749		31.250000
8750		29.296875
8751		31.250000
8752		29.296875
8753		33.203125
8754		29.296875
8755		33.203125
8756		29.296875
8757		33.203125
8758		31.250000
8759		35.156250
8760		31.250000
8761		35.156250
8762		31.250000
8763		35.156250
8764		31.250000
8765		37.109375
8766		33.203125
8767		37.109375
8768		33.203125
8769		37.109375
8770		33.203125
8771		37.109375
8772		35.156250
8773		37.109375
8774		35.156250
8775		39.062500
8776		35.156250
8777		39.062500
8778		37.109375
8779		39.062500
8780		37.109375
8781		41.015625
8782		37.109375
8783		41.015625
8784		39.062500
8785		41.015625
8786		37.109375
8787		41.015625
8788		39.062500
8789		42.968750
8790		39.062500
8791		42.968750
8792		39.062500
8793		42.968750
8794		39.062500
8795		44.921875
8796		41.015625
8797		42.968750
8798		41.015625
8799		44.921875
8800		41.015625
8801		44.921875
8802		41.015625
8803		44.921875
8804		41.015625
8805		44.921875
8806		42.968750
8807		44.921875
8808		42.968750
8809		44.921875
8810		42.968750
8811		46.875000
8812		42.968750
8813		46.875000
8814		42.968750
8815		46.875000
8816		42.968750
8817		46.875000
8818		42.968750
8819		46.875000
8820		42.968750
8821		46.875000
8822		42.968750
8823		46.875000
8824		44.921875
8825		48.828125
8826		44.921875
8827		46.875000
8828		44.921875
8829		46.875000
8830		44.921875
8831		48.828125
8832		44.921875
8833		48.828125
8834		44.921875
8835		48.828125
8836		44.921875
8837		48.828125
8838		44.921875
8839		48.828125
8840		44.921875
8841		48.828125
8842		44.921875
8843		48.828125
8844		44.921875
8845		48.828125
8846		44.921875
8847		48.828125
8848		46.875000
8849		48.828125
8850		44.921875
8851		48.828125
8852		46.875000
8853		48.828125
8854		44.921875
8855		48.828125
8856		44.921875
8857		50.781250
8858		44.921875
8859		48.828125
8860		44.921875
8861		48.828125
8862		44.921875
8863		48.828125
8864		44.921875
8865		48.828125
8866		44.921875
8867		48.828125
8868		44.921875
8869		48.828125
8870		44.921875
8871		48.828125
8872		44.921875
8873		48.828125
8874		44.921875
8875		48.828125
8876		44.921875
8877		48.828125
8878		42.968750
8879		48.828125
8880		44.921875
8881		46.875000
8882		42.968750
8883		48.828125
8884		44.921875
8885		46.875000
8886		42.968750
8887		46.875000
8888		42.968750
8889		46.875000
8890		42.968750
8891		46.875000
8892		42.968750
8893		46.875000
8894		42.968750
8895		46.875000
8896		41.015625
8897		46.875000
8898		41.015625
8899		44.921875
8900		42.968750
8901		44.921875
8902		41.015625
8903		44.921875
8904		41.015625
8905		44.921875
8906		41.015625
8907		44.921875
8908		41.015625
8909		42.968750
8910		39.062500
8911		42.968750
8912		39.062500
8913		42.968750
8914		39.062500
8915		42.968750
8916		37.109375
8917		42.968750
8918		39.062500
8919		41.015625
8920		37.109375
8921		41.015625
8922		37.109375
8923		41.015625
8924		37.109375
8925		41.015625
8926		37.109375
8927		41.015625
8928		35.156250
8929		39.062500
8930		35.156250
8931		39.062500
8932		35.156250
8933		39.062500
8934		35.156250
8935		37.109375
8936		33.203125
8937		37.109375
8938		33.203125
8939		37.109375
8940		33.203125
8941		37.109375
8942		33.203125
8943		35.156250
8944		31.250000
8945		35.156250
8946		31.250000
8947		35.156250
8948		29.296875
8949		33.203125
8950		29.296875
8951		33.203125
8952		29.296875
8953		31.250000
8954		29.296875
8955		31.250000
8956		27.343750
8957		33.203125
8958		27.343750
8959		31.250000
8960		25.390625
8961		31.250000
8962		25.390625
8963		29.296875
8964		25.390625
8965		27.343750
8966		23.437500
8967		27.343750
8968		23.437500
8969		27.343750
8970		21.484375
8971		27.343750
8972		21.484375
8973		25.390625
8974		21.484375
8975		25.390625
8976		19.531250
8977		25.390625
8978		19.531250
8979		23.437500
8980		19.531250
8981		23.437500
8982		17.578125
8983		23.437500
8984		17.578125
8985		21.484375
8986		17.578125
8987		21.484375
8988		15.625000
8989		19.531250
8990		15.625000
8991		19.531250
8992		13.671875
8993		17.578125
8994		13.671875
8995		17.578125
8996		13.671875
8997		17.578125
8998		11.718750
8999		17.578125
9000		11.718750
9001		15.625000
9002		11.718750
9003		13.671875
9004		9.765625
9005		13.671875
9006		9.765625
9007		11.718750
9008		7.812500
9009		11.718750
9010		7.812500
9011		11.718750
9012		5.859375
9013		9.765625
9014		3.906250
9015		9.765625
9016		3.906250
9017		7.812500
9018		3.906250
9019		7.812500
9020		1.953125
9021		7.812500
9022		1.953125
9023		5.859375
9024		0.000000
9025		3.906250
9026		0.000000
9027		3.906250
9028		0.000000
9029		3.906250
9030		-1.953125
9031		1.953125
9032		-1.953125
9033		1.953125
9034		-3.906250
9035		1.953125
9036		-3.906250
9037		0.000000
9038		-5.859375
9039		-1.953125
9040		-5.859375
9041		-1.953125
9042		-5.859375
9043		-3.906250
9044		-7.812500
9045		-3.906250
9046		-7.812500
9047		-3.906250
9048		-9.765625
9049		-5.859375
9050		-9.765625
9051		-5.859375
9052		-11.718750
9053		-7.812500
9054		-13.671875
9055		-9.765625
9056		-13.671875
9057		-7.812500
9058		-13.671875
9059		-9.765625
9060		-15.625000
9061		-11.718750
9062		-15.625000
9063		-11.718750
9064		-15.625000
9065		-13.671875
9066		-17.578125
9067		-13.671875
9068		-17.578125
9069		-15.625000
9070		-17.578125
9071		-15.625000
9072		-19.531250
9073		-15.625000
9074		-19.531250
9075		-17.578125
9076		-21.484375
9077		-17.578125
9078		-21.484375
9079		-19.531250
9080		-23.437500
9081		-19.531250
9082		-23.437500
9083		-21.484375
9084		-25.390625
9085		-21.484375
9086		-25.390625
9087		-21.484375
9088		-25.390625
9089		-23.437500
9090		-27.343750
9091		-23.437500
9092		-27.343750
9093		-23.437500
9094		-29.296875
9095		-25.390625
9096		-29.296875
9097		-25.390625
9098		-31.250000
9099		-27.343750
9100		-31.250000
9101		-27.343750
9102		-31.250000
9103		-29.296875
9104		-33.203125
9105		-29.296875
9106		-33.203125
9107		-29.296875
9108		-33.203125
9109		-29.296875
9110		-37.109375
9111		-31.250000
9112		-35.156250
9113		-33.203125
9114		-37.109375
9115		-33.203125
9116		-37.109375
9117		-33.203125
9118		-37.109375
9119		-33.203125
9120		-39.062500
9121		-35.156250
9122		-41.015625
9123		-35.156250
9124		-39.062500
9125		-37.109375
9126		-41.015625
9127		-37.109375
9128		-41.015625
9129		-37.109375
9130		-42.968750
9131		-39.062500
9132		-42.968750
9133		-39.062500
9134		-42.968750
9135		-39.062500
9136		-42.968750
9137		-41.015625
9138		-44.921875
9139		-41.015625
9140		-44.921875
9141		-41.015625
9142		-46.875000
9143		-41.015625
9144		-44.921875
9145		-42.968750
9146		-46.875000
9147		-42.968750
9148		-48.828125
9149		-42.968750
9150		-48.828125
9151		-42.968750
9152		-46.875000
9153		-44.921875
9154		-48.828125
9155		-44.921875
9156		-48.828125
9157		-44.921875
9158		-48.828125
9159		-46.875000
9160		-50.781250
9161		-44.921875
9162		-50.781250
9163		-46.875000
9164		-50.781250
9165		-46.875000
9166		-50.781250
9167		-46.875000
9168		-50.781250
9169		-46.875000
9170		-52.734375
9171		-48.828125
9172		-52.734375
9173		-48.828125
9174		-52.734375
9175		-48.828125
9176		-52.734375
9177		-48.828125
9178		-52.734375
9179		-50.781250
9180		-52.734375
9181		-50.781250
9182		-54.687500
9183		-50.781250
9184		-54.687500
9185		-50.781250
9186		-54.687500
9187		-50.781250
9188		-54.687500
9189		-52.734375
9190		-56.640625
9191		-50.781250
9192		-54.687500
9193		-50.781250
9194		-54.687500
9195		-52.734375
9196		-54.687500
9197		-52.734375
9198		-56.640625
9199		-52.734375
9200		-54.687500
9201		-52.734375
9202		-56.640625
9203		-52.734375
9204		-56.640625
9205		-52.734375
9206		-56.640625
9207		-52.734375
9208		-56.640625
9209		-52.734375
9210		-56.640625
9211		-52.734375
9212		-56.640625
9213		-52.734375
9214		-56.640625
9215		-52.734375
9216		-56.640625
9217		-52.734375
9218		-56.640625
9219		-52.734375
9220		-56.640625
9221		-52.734375
9222		-56.640625
9223		-52.734375
9224		-56.640625
9225		-52.734375
9226		-56.640625
9227		-52.734375
9228		-56.640625
9229		-52.734375
9230		-56.640625
9231		-52.734375
9232		-56.640625
9233		-52.734375
9234		-56.640625
9235		-52.734375
9236		-54.687500
9237		-52.734375
9238		-54.687500
9239		-52.734375
9240		-54.687500
9241		-52.734375
9242		-54.687500
9243		-50.781250
9244		-54.687500
9245		-52.734375
9246		-54.687500
9247		-52.734375
9248		-54.687500
9249		-50.781250
9250		-54.687500
9251		-50.781250
9252		-54.687500
9253		-50.781250
9254		-54.687500
9255		-50.781250
9256		-54.687500
9257		-50.781250
9258		-52.734375
9259		-48.828125
9260		-52.734375
9261		-48.828125
9262		-52.734375
9263		-50.781250
9264		-52.734375
9265		-48.828125
9266		-52.734375
9267		-48.828125
9268		-52.734375
9269		-48.828125
9270		-52.734375
9271		-46.875000
9272		-50.781250
9273		-48.828125
9274		-50.781250
9275		-46.875000
9276		-50.781250
9277		-46.875000
9278		-48.828125
9279		-46.875000
9280		-48.828125
9281		-44.921875
9282		-48.828125
9283		-44.921875
9284		-46.875000
9285		-44.921875
9286		-48.828125
9287		-42.968750
9288		-46.875000
9289		-44.921875
9290		-46.875000
9291		-42.968750
9292		-46.875000
9293		-41.015625
9294		-44.921875
9295		-42.968750
9296		-44.921875
9297		-41.015625
9298		-44.921875
9299		-41.015625
9300		-44.921875
9301		-41.015625
9302		-42.968750
9303		-39.062500
9304		-42.968750
9305		-39.062500
9306		-41.015625
9307		-39.062500
9308		-41.015625
9309		-37.109375
9310		-41.015625
9311		-37.109375
9312		-41.015625
9313		-37.109375
9314		-39.062500
9315		-35.156250
9316		-39.062500
9317		-35.156250
9318		-37.109375
9319		-35.156250
9320		-37.109375
9321		-33.203125
9322		-37.109375
9323		-33.203125
9324		-37.109375
9325		-33.203125
9326		-35.156250
9327		-31.250000
9328		-35.156250
9329		-31.250000
9330		-33.203125
9331		-29.296875
9332		-33.203125
9333		-29.296875
9334		-31.250000
9335		-29.296875
9336		-31.250000
9337		-27.343750
9338		-31.250000
9339		-27.343750
9340		-31.250000
9341		-27.343750
9342		-29.296875
9343		-25.390625
9344		-29.296875
9345		-25.390625
9346		-27.343750
9347		-23.437500
9348		-27.343750
9349		-23.437500
9350		-25.390625
9351		-23.437500
9352		-25.390625
9353		-21.484375
9354		-25.390625
9355		-19.531250
9356		-23.437500
9357		-19.531250
9358		-23.437500
9359		-19.531250
9360		-23.437500
9361		-17.578125
9362		-21.484375
9363		-17.578125
9364		-19.531250
9365		-17.578125
9366		-21.484375
9367		-15.625000
9368		-19.531250
9369		-15.625000
9370		-19.531250
9371		-13.671875
9372		-17.578125
9373		-13.671875
9374		-15.625000
9375		-13.671875
9376		-15.625000
9377		-11.718750
9378		-13.671875
9379		-9.765625
9380		-13.671875
9381		-9.765625
9382		-11.718750
9383		-9.765625
9384		-11.718750
9385		-7.812500
9386		-9.765625
9387		-7.812500
9388		-9.765625
9389		-7.812500
9390		-9.765625
9391		-5.859375
9392		-9.765625
9393		-3.906250
9394		-7.812500
9395		-3.906250
9396		-7.812500
9397		-1.953125
9398		-5.859375
9399		-1.953125
9400		-5.859375
9401		0.000000
9402		-3.906250
9403		0.000000
9404		-1.953125
9405		0.000000
9406		-1.953125
9407		1.953125
9408		-1.953125
9409		1.953125
9410		0.000000
9411		3.906250
9412		0.000000
9413		3.906250
9414		1.953125
9415		5.859375
9416		1.953125
9417		5.859375
9418		3.906250
9419		5.859375
9420		3.906250
9421		7.812500
9422		5.859375
9423		7.812500
9424		5.859375
9425		9.765625
9426		5.859375
9427		9.765625
9428		7.812500
9429		11.718750
9430		7.812500
9431		11.718750
9432		7.812500
9433		13.671875
9434		9.765625
9435		13.671875
9436		9.765625
9437		13.671875
9438		11.718750
9439		15.625000
9440		11.718750
9441		15.625000
9442		13.671875
9443		17.578125
9444		13.671875
9445		17.578125
9446		15.625000
9447		17.578125
9448		15.625000
9449		19.531250
9450		15.625000
9451		19.531250
9452		17.578125
9453		19.531250
9454		17.578125
9455		21.484375
9456		17.578125
9457		21.484375
9458		19.531250
9459		23.437500
9460		19.531250
9461		23.437500
9462		21.484375
9463		23.437500
9464		21.484375
9465		25.390625
9466		21.484375
9467		25.390625
9468		23.437500
9469		27.343750
9470		23.437500
9471		27.343750
9472		25.390625
9473		27.343750
9474		23.437500
9475		29.296875
9476		25.390625
9477		29.296875
9478		25.390625
9479		29.296875
9480		27.343750
9481		31.250000
9482		27.343750
9483		31.250000
9484		27.343750
9485		31.250000
9486		29.296875
9487		33.203125
9488		29.296875
9489		33.203125
9490		29.296875
9491		33.203125
9492		31.250000
9493		35.156250
9494		31.250000
9495		35.156250
9496		31.250000
9497		35.156250
9498		33.203125
9499		35.156250
9500		33.203125
9501		37.109375
9502		33.203125
9503		39.062500
9504		33.203125
9505		37.109375
9506		35.156250
9507		37.109375
9508		35.156250
9509		39.062500
9510		37.109375
9511		39.062500
9512		35.156250
9513		39.062500
9514		37.109375
9515		41.015625
9516		37.109375
9517		41.015625
9518		39.062500
9519		41.015625
9520		37.109375
9521		42.968750
9522		39.062500
9523		41.015625
9524		39.062500
9525		41.015625
9526		39.062500
9527		42.968750
9528		39.062500
9529		42.968750
9530		41.015625
9531		42.968750
9532		41.015625
9533		44.921875
9534		41.015625
9535		44.921875
9536		41.015625
9537		44.921875
9538		41.015625
9539		44.921875
9540		41.015625
9541		44.921875
9542		42.968750
9543		46.875000
9544		42.968750
9545		46.875000
9546		42.968750
9547		46.875000
9548		42.968750
9549		46.875000
9550		42.968750
9551		46.875000
9552		42.968750
9553		46.875000
9554		42.968750
9555		46.875000
9556		44.921875
9557		48.828125
9558		44.921875
9559		46.875000
9560		44.921875
9561		48.828125
9562		44.921875
9563		46.875000
9564		44.921875
9565		46.875000
9566		44.921875
9567		48.828125
9568		44.921875
9569		48.828125
9570		44.921875
9571		48.828125
9572		44.921875
9573		48.828125
9574		44.921875
9575		48.828125
9576		46.875000
9577		48.828125
9578		44.921875
9579		48.828125
9580		44.921875
9581		48.828125
9582		44.921875
9583		48.828125
9584		44.921875
9585		48.828125
9586		44.921875
9587		48.828125
9588		44.921875
9589		48.828125
9590		46.875000
9591		48.828125
9592		44.921875
9593		48.828125
9594		44.921875
9595		48.828125
9596		44.921875
9597		48.828125
9598		44.921875
9599		48.828125
9600		44.921875
9601		48.828125
9602		44.921875
9603		48.828125
9604		44.921875
9605		48.828125
9606		44.921875
9607		46.875000
9608		44.921875
9609		48.828125
9610		44.921875
9611		48.828125
9612		44.921875
9613		46.875000
9614		42.968750
9615		48.828125
9616		44.921875
9617		46.875000
9618		42.968750
9619		46.875000
9620		42.968750
9621		46.875000
9622		42.968750
9623		46.875000
9624		42.968750
9625		44.921875
9626		42.968750
9627		46.875000
9628		42.968750
9629		44.921875
9630		41.015625
9631		44.921875
9632		41.015625
9633		44.921875
9634		41.015625
9635		44.921875
9636		41.015625
9637		44.921875
9638		41.015625
9639		44.921875
9640		41.015625
9641		42.968750
9642		39.062500
9643		42.968750
9644		39.062500
9645		42.968750
9646		39.062500
9647		42.968750
9648		39.062500
9649		42.968750
9650		39.062500
9651		41.015625
9652		39.062500
9653		41.015625
9654		37.109375
9655		41.015625
9656		37.109375
9657		41.015625
9658		37.109375
9659		41.015625
9660		35.156250
9661		39.062500
9662		35.156250
9663		39.062500
9664		35.156250
9665		39.062500
9666		35.156250
9667		39.062500
9668		33.203125
9669		37.109375
9670		33.203125
9671		37.109375
9672		33.203125
9673		37.109375
9674		33.203125
9675		35.156250
9676		31.250000
9677		35.156250
9678		31.250000
9679		35.156250
9680		31.250000
9681		33.203125
9682		29.296875
9683		33.203125
9684		29.296875
9685		33.203125
9686		29.296875
9687		33.203125
9688		27.343750
9689		31.250000
9690		27.343750
9691		31.250000
9692		27.343750
9693		29.296875
9694		25.390625
9695		31.250000
9696		25.390625
9697		29.296875
9698		25.390625
9699		29.296875
9700		23.437500
9701		27.343750
9702		23.437500
9703		27.343750
9704		23.437500
9705		27.343750
9706		21.484375
9707		25.390625
9708		21.484375
9709		23.437500
9710		19.531250
9711		25.390625
9712		19.531250
9713		23.437500
9714		19.531250
9715		21.484375
9716		17.578125
9717		21.484375
9718		17.578125
9719		21.484375
9720		15.625000
9721		19.531250
9722		15.625000
9723		19.531250
9724		15.625000
9725		17.578125
9726		13.671875
9727		17.578125
9728		13.671875
9729		17.578125
9730		11.718750
9731		15.625000
9732		11.718750
9733		17.578125
9734		9.765625
9735		13.671875
9736		9.765625
9737		13.671875
9738		9.765625
9739		13.671875
9740		9.765625
9741		13.671875
9742		7.812500
9743		11.718750
9744		5.859375
9745		9.765625
9746		5.859375
9747		9.765625
9748		3.906250
9749		7.812500
9750		3.906250
9751		7.812500
9752		3.906250
9753		7.812500
9754		1.953125
9755		5.859375
9756		1.953125
9757		5.859375
9758		0.000000
9759		3.906250
9760		-1.953125
9761		3.906250
9762		0.000000
9763		1.953125
9764		-1.953125
9765		1.953125
9766		-1.953125
9767		0.000000
9768		-3.906250
9769		0.000000
9770		-3.906250
9771		-1.953125
9772		-5.859375
9773		-1.953125
9774		-5.859375
9775		-3.906250
9776		-7.812500
9777		-3.906250
9778		-7.812500
9779		-3.906250
9780		-9.765625
9781		-5.859375
9782		-9.765625
9783		-5.859375
9784		-9.765625
9785		-7.812500
9786		-11.718750
9787		-7.812500
9788		-13.671875
9789		-9.765625
9790		-13.671875
9791		-9.765625
9792		-13.671875
9793		-11.718750
9794		-15.625000
9795		-11.718750
9796		-15.625000
9797		-13.671875
9798		-17.578125
9799		-13.671875
9800		-17.578125
9801		-13.671875
9802		-19.531250
9803		-15.625000
9804		-19.531250
9805		-15.625000
9806		-19.531250
9807		-15.625000
9808		-21.484375
9809		-17.578125
9810		-21.484375
9811		-19.531250
9812		-23.437500
9813		-19.531250
9814		-23.437500
9815		-19.531250
9816		-23.437500
9817		-21.484375
9818		-25.390625
9819		-21.484375
9820		-25.390625
9821		-23.437500
9822		-27.343750
9823		-23.437500
9824		-29.296875
9825		-23.437500
9826		-27.343750
9827		-25.390625
9828		-29.296875
9829		-25.390625
9830		-29.296875
9831		-25.390625
9832		-29.296875
9833		-27.343750
9834		-31.250000
9835		-27.343750
9836		-31.250000
9837		-27.343750
9838		-33.203125
9839		-29.296875
9840		-35.156250
9841		-29.296875
9842		-33.203125
9843		-31.250000
9844		-35.156250
9845		-31.250000
9846		-35.156250
9847		-31.250000
9848		-37.109375
9849		-33.203125
9850		-37.109375
9851		-33.203125
9852		-37.109375
9853		-33.203125
9854		-39.062500
9855		-35.156250
9856		-41.015625
9857		-35.156250
9858		-39.062500
9859		-37.109375
9860		-41.015625
9861		-37.109375
9862		-41.015625
9863		-37.109375
9864		-41.015625
9865		-37.109375
9866		-42.968750
9867		-39.062500
9868		-42.968750
9869		-39.062500
9870		-42.968750
9871		-39.062500
9872		-44.921875
9873		-41.015625
9874		-44.921875
9875		-41.015625
9876		-44.921875
9877		-42.968750
9878		-46.875000
9879		-42.968750
9880		-46.875000
9881		-42.968750
9882		-46.875000
9883		-44.921875
9884		-48.828125
9885		-42.968750
9886		-48.828125
9887		-44.921875
9888		-48.828125
9889		-44.921875
9890		-48.828125
9891		-44.921875
9892		-48.828125
9893		-46.875000
9894		-50.781250
9895		-46.875000
9896		-50.781250
9897		-46.875000
9898		-50.781250
9899		-46.875000
9900		-50.781250
9901		-48.828125
9902		-50.781250
9903		-48.828125
9904		-52.734375
9905		-48.828125
9906		-52.734375
9907		-48.828125
9908		-52.734375
9909		-48.828125
9910		-52.734375
9911		-48.828125
9912		-52.734375
9913		-50.781250
9914		-54.687500
9915		-50.781250
9916		-54.687500
9917		-50.781250
9918		-54.687500
9919		-50.781250
9920		-54.687500
9921		-50.781250
9922		-54.687500
9923		-50.781250
9924		-54.687500
9925		-50.781250
9926		-54.687500
9927		-50.781250
9928		-56.640625
9929		-52.734375
9930		-56.640625
9931		-52.734375
9932		-56.640625
9933		-52.734375
9934		-56.640625
9935		-52.734375
9936		-56.640625
9937		-52.734375
9938		-56.640625
9939		-52.734375
9940		-56.640625
9941		-52.734375
9942		-56.640625
9943		-52.734375
9944		-56.640625
9945		-52.734375
9946		-56.640625
9947		-52.734375
9948		-56.640625
9949		-52.734375
9950		-56.640625
9951		-52.734375
9952		-56.640625
9953		-52.734375
9954		-56.640625
9955		-52.734375
9956		-56.640625
9957		-52.734375
9958		-56.640625
9959		-52.734375
9960		-56.640625
9961		-54.687500
9962		-56.640625
9963		-52.734375
9964		-56.640625
9965		-52.734375
9966		-56.640625
9967		-52.734375
9968		-56.640625
9969		-52.734375
9970		-56.640625
9971		-52.734375
9972		-56.640625
9973		-52.734375
9974		-56.640625
9975		-52.734375
9976		-54.687500
9977		-52.734375
9978		-54.687500
9979		-50.781250
9980		-54.687500
9981		-50.781250
9982		-54.687500
9983		-52.734375
9984		-56.640625
9985		-50.781250
9986		-54.687500
9987		-50.781250
9988		-54.687500
9989		-50.781250
9990		-52.734375
9991		-50.781250
9992		-54.687500
9993		-48.828125
9994		-54.687500
9995		-48.828125
9996		-52.734375
9997		-48.828125
9998		-52.734375
9999		-48.828125
10000		-52.734375
