Channel              :		CH1
Frequency            :		1.978kHz
Period               :		0.506ms
PK-PK                :		253.9mV
Probe attenuation    :		1X
Voltage per ADC value:		0.122070mV
Time interval        :		2.00000us

index		CH1_Voltage(mV)
1		119.140625
2		119.140625
3		117.187500
4		121.093750
5		117.187500
6		121.093750
7		117.187500
8		121.093750
9		117.187500
10		121.093750
11		119.140625
12		121.093750
13		117.187500
14		121.093750
15		117.187500
16		119.140625
17		117.187500
18		119.140625
19		115.234375
20		119.140625
21		113.281250
22		117.187500
23		111.328125
24		115.234375
25		109.375000
26		113.281250
27		107.421875
28		111.328125
29		105.468750
30		109.375000
31		103.515625
32		107.421875
33		99.609375
34		103.515625
35		95.703125
36		101.562500
37		93.750000
38		99.609375
39		89.843750
40		95.703125
41		85.937500
42		91.796875
43		82.031250
44		87.890625
45		78.125000
46		83.984375
47		72.265625
48		80.078125
49		68.359375
50		74.218750
51		62.500000
52		70.312500
53		56.640625
54		64.453125
55		52.734375
56		58.593750
57		48.828125
58		54.687500
59		42.968750
60		48.828125
61		37.109375
62		42.968750
63		29.296875
64		37.109375
65		25.390625
66		31.250000
67		17.578125
68		25.390625
69		11.718750
70		19.531250
71		5.859375
72		13.671875
73		0.000000
74		7.812500
75		-5.859375
76		1.953125
77		-11.718750
78		-3.906250
79		-19.531250
80		-11.718750
81		-25.390625
82		-17.578125
83		-31.250000
84		-23.437500
85		-37.109375
86		-29.296875
87		-42.968750
88		-35.156250
89		-48.828125
90		-42.968750
91		-54.687500
92		-48.828125
93		-60.546875
94		-52.734375
95		-66.406250
96		-60.546875
97		-72.265625
98		-64.453125
99		-76.171875
100		-70.312500
101		-82.031250
102		-76.171875
103		-85.937500
104		-80.078125
105		-91.796875
106		-85.937500
107		-95.703125
108		-89.843750
109		-99.609375
110		-93.750000
111		-103.515625
112		-97.656250
113		-107.421875
114		-101.562500
115		-111.328125
116		-105.468750
117		-113.281250
118		-109.375000
119		-117.187500
120		-111.328125
121		-119.140625
122		-115.234375
123		-121.093750
124		-117.187500
125		-123.046875
126		-119.140625
127		-123.046875
128		-121.093750
129		-125.000000
130		-121.093750
131		-126.953125
132		-123.046875
133		-126.953125
134		-123.046875
135		-126.953125
136		-123.046875
137		-126.953125
138		-123.046875
139		-126.953125
140		-123.046875
141		-125.000000
142		-123.046875
143		-125.000000
144		-121.093750
145		-123.046875
146		-119.140625
147		-121.093750
148		-117.187500
149		-119.140625
150		-115.234375
151		-117.187500
152		-113.281250
153		-115.234375
154		-109.375000
155		-111.328125
156		-107.421875
157		-107.421875
158		-101.562500
159		-103.515625
160		-99.609375
161		-101.562500
162		-95.703125
163		-95.703125
164		-91.796875
165		-91.796875
166		-85.937500
167		-87.890625
168		-82.031250
169		-82.031250
170		-76.171875
171		-78.125000
172		-70.312500
173		-72.265625
174		-64.453125
175		-66.406250
176		-60.546875
177		-60.546875
178		-54.687500
179		-54.687500
180		-48.828125
181		-50.781250
182		-42.968750
183		-44.921875
184		-37.109375
185		-37.109375
186		-31.250000
187		-31.250000
188		-25.390625
189		-25.390625
190		-17.578125
191		-19.531250
192		-11.718750
193		-13.671875
194		-5.859375
195		-7.812500
196		0.000000
197		0.000000
198		5.859375
199		3.906250
200		13.671875
201		11.718750
202		19.531250
203		17.578125
204		25.390625
205		23.437500
206		31.250000
207		29.296875
208		37.109375
209		35.156250
210		42.968750
211		41.015625
212		46.875000
213		46.875000
214		52.734375
215		52.734375
216		58.593750
217		56.640625
218		62.500000
219		62.500000
220		68.359375
221		64.453125
222		72.265625
223		70.312500
224		78.125000
225		76.171875
226		82.031250
227		80.078125
228		85.937500
229		83.984375
230		89.843750
231		87.890625
232		93.750000
233		91.796875
234		95.703125
235		95.703125
236		99.609375
237		97.656250
238		103.515625
239		101.562500
240		105.468750
241		103.515625
242		109.375000
243		107.421875
244		111.328125
245		109.375000
246		113.281250
247		111.328125
248		115.234375
249		113.281250
250		117.187500
251		115.234375
252		117.187500
253		115.234375
254		119.140625
255		117.187500
256		119.140625
257		117.187500
258		121.093750
259		117.187500
260		121.093750
261		119.140625
262		121.093750
263		119.140625
264		121.093750
265		117.187500
266		121.093750
267		117.187500
268		121.093750
269		117.187500
270		119.140625
271		115.234375
272		119.140625
273		115.234375
274		117.187500
275		113.281250
276		117.187500
277		111.328125
278		115.234375
279		109.375000
280		113.281250
281		107.421875
282		111.328125
283		105.468750
284		109.375000
285		101.562500
286		105.468750
287		97.656250
288		103.515625
289		95.703125
290		99.609375
291		91.796875
292		97.656250
293		87.890625
294		93.750000
295		83.984375
296		89.843750
297		78.125000
298		85.937500
299		76.171875
300		82.031250
301		70.312500
302		76.171875
303		66.406250
304		72.265625
305		60.546875
306		68.359375
307		54.687500
308		62.500000
309		50.781250
310		56.640625
311		44.921875
312		50.781250
313		39.062500
314		46.875000
315		31.250000
316		41.015625
317		27.343750
318		35.156250
319		21.484375
320		29.296875
321		15.625000
322		23.437500
323		9.765625
324		17.578125
325		3.906250
326		9.765625
327		-3.906250
328		3.906250
329		-9.765625
330		-1.953125
331		-15.625000
332		-7.812500
333		-21.484375
334		-13.671875
335		-27.343750
336		-21.484375
337		-35.156250
338		-27.343750
339		-41.015625
340		-33.203125
341		-46.875000
342		-39.062500
343		-52.734375
344		-44.921875
345		-58.593750
346		-50.781250
347		-64.453125
348		-56.640625
349		-68.359375
350		-62.500000
351		-74.218750
352		-68.359375
353		-80.078125
354		-74.218750
355		-83.984375
356		-78.125000
357		-89.843750
358		-83.984375
359		-93.750000
360		-87.890625
361		-99.609375
362		-91.796875
363		-101.562500
364		-95.703125
365		-105.468750
366		-99.609375
367		-109.375000
368		-103.515625
369		-111.328125
370		-107.421875
371		-115.234375
372		-111.328125
373		-117.187500
374		-113.281250
375		-119.140625
376		-115.234375
377		-121.093750
378		-117.187500
379		-123.046875
380		-119.140625
381		-125.000000
382		-121.093750
383		-126.953125
384		-123.046875
385		-126.953125
386		-123.046875
387		-126.953125
388		-123.046875
389		-126.953125
390		-123.046875
391		-126.953125
392		-123.046875
393		-125.000000
394		-123.046875
395		-125.000000
396		-121.093750
397		-123.046875
398		-121.093750
399		-121.093750
400		-117.187500
401		-121.093750
402		-117.187500
403		-117.187500
404		-113.281250
405		-115.234375
406		-111.328125
407		-113.281250
408		-107.421875
409		-109.375000
410		-105.468750
411		-105.468750
412		-101.562500
413		-101.562500
414		-95.703125
415		-99.609375
416		-91.796875
417		-93.750000
418		-87.890625
419		-89.843750
420		-83.984375
421		-85.937500
422		-78.125000
423		-82.031250
424		-72.265625
425		-76.171875
426		-66.406250
427		-70.312500
428		-62.500000
429		-64.453125
430		-56.640625
431		-58.593750
432		-50.781250
433		-52.734375
434		-44.921875
435		-46.875000
436		-39.062500
437		-41.015625
438		-33.203125
439		-35.156250
440		-25.390625
441		-29.296875
442		-19.531250
443		-23.437500
444		-13.671875
445		-15.625000
446		-7.812500
447		-11.718750
448		-1.953125
449		-3.906250
450		3.906250
451		1.953125
452		11.718750
453		7.812500
454		15.625000
455		15.625000
456		23.437500
457		19.531250
458		29.296875
459		25.390625
460		35.156250
461		31.250000
462		41.015625
463		37.109375
464		46.875000
465		42.968750
466		52.734375
467		46.875000
468		56.640625
469		54.687500
470		60.546875
471		60.546875
472		66.406250
473		62.500000
474		72.265625
475		68.359375
476		76.171875
477		72.265625
478		82.031250
479		76.171875
480		85.937500
481		80.078125
482		87.890625
483		85.937500
484		93.750000
485		87.890625
486		95.703125
487		93.750000
488		97.656250
489		97.656250
490		103.515625
491		97.656250
492		105.468750
493		101.562500
494		109.375000
495		103.515625
496		111.328125
497		105.468750
498		113.281250
499		109.375000
500		115.234375
501		111.328125
502		115.234375
503		113.281250
504		117.187500
505		115.234375
506		121.093750
507		115.234375
508		121.093750
509		115.234375
510		123.046875
511		115.234375
512		123.046875
513		117.187500
514		123.046875
515		117.187500
516		123.046875
517		117.187500
518		123.046875
519		117.187500
520		121.093750
521		117.187500
522		119.140625
523		113.281250
524		121.093750
525		113.281250
526		121.093750
527		111.328125
528		119.140625
529		109.375000
530		117.187500
531		109.375000
532		115.234375
533		105.468750
534		113.281250
535		105.468750
536		111.328125
537		103.515625
538		107.421875
539		97.656250
540		103.515625
541		95.703125
542		101.562500
543		91.796875
544		99.609375
545		87.890625
546		95.703125
547		83.984375
548		91.796875
549		80.078125
550		87.890625
551		76.171875
552		83.984375
553		72.265625
554		78.125000
555		68.359375
556		74.218750
557		60.546875
558		70.312500
559		54.687500
560		66.406250
561		50.781250
562		60.546875
563		44.921875
564		54.687500
565		41.015625
566		48.828125
567		35.156250
568		44.921875
569		29.296875
570		37.109375
571		23.437500
572		31.250000
573		15.625000
574		25.390625
575		9.765625
576		19.531250
577		3.906250
578		13.671875
579		-3.906250
580		7.812500
581		-9.765625
582		1.953125
583		-15.625000
584		-3.906250
585		-19.531250
586		-9.765625
587		-25.390625
588		-17.578125
589		-35.156250
590		-23.437500
591		-39.062500
592		-29.296875
593		-44.921875
594		-35.156250
595		-50.781250
596		-41.015625
597		-56.640625
598		-46.875000
599		-62.500000
600		-52.734375
601		-68.359375
602		-58.593750
603		-72.265625
604		-66.406250
605		-78.125000
606		-70.312500
607		-83.984375
608		-76.171875
609		-89.843750
610		-80.078125
611		-93.750000
612		-83.984375
613		-99.609375
614		-89.843750
615		-103.515625
616		-93.750000
617		-105.468750
618		-97.656250
619		-107.421875
620		-101.562500
621		-111.328125
622		-107.421875
623		-115.234375
624		-109.375000
625		-119.140625
626		-111.328125
627		-123.046875
628		-113.281250
629		-123.046875
630		-115.234375
631		-125.000000
632		-117.187500
633		-126.953125
634		-119.140625
635		-126.953125
636		-119.140625
637		-126.953125
638		-123.046875
639		-126.953125
640		-123.046875
641		-128.906250
642		-121.093750
643		-128.906250
644		-121.093750
645		-128.906250
646		-121.093750
647		-126.953125
648		-121.093750
649		-126.953125
650		-117.187500
651		-125.000000
652		-117.187500
653		-123.046875
654		-117.187500
655		-119.140625
656		-115.234375
657		-117.187500
658		-109.375000
659		-117.187500
660		-107.421875
661		-113.281250
662		-103.515625
663		-109.375000
664		-101.562500
665		-105.468750
666		-97.656250
667		-101.562500
668		-91.796875
669		-97.656250
670		-89.843750
671		-91.796875
672		-85.937500
673		-87.890625
674		-78.125000
675		-83.984375
676		-74.218750
677		-80.078125
678		-68.359375
679		-74.218750
680		-62.500000
681		-68.359375
682		-58.593750
683		-62.500000
684		-52.734375
685		-56.640625
686		-46.875000
687		-48.828125
688		-42.968750
689		-42.968750
690		-37.109375
691		-37.109375
692		-27.343750
693		-33.203125
694		-21.484375
695		-27.343750
696		-15.625000
697		-19.531250
698		-9.765625
699		-13.671875
700		-3.906250
701		-7.812500
702		3.906250
703		-1.953125
704		5.859375
705		5.859375
706		13.671875
707		11.718750
708		21.484375
709		15.625000
710		27.343750
711		21.484375
712		33.203125
713		27.343750
714		39.062500
715		35.156250
716		44.921875
717		39.062500
718		50.781250
719		44.921875
720		52.734375
721		52.734375
722		58.593750
723		56.640625
724		62.500000
725		60.546875
726		70.312500
727		64.453125
728		74.218750
729		70.312500
730		80.078125
731		74.218750
732		83.984375
733		80.078125
734		87.890625
735		83.984375
736		91.796875
737		87.890625
738		93.750000
739		91.796875
740		97.656250
741		95.703125
742		101.562500
743		95.703125
744		105.468750
745		99.609375
746		107.421875
747		101.562500
748		109.375000
749		103.515625
750		113.281250
751		107.421875
752		115.234375
753		109.375000
754		115.234375
755		113.281250
756		117.187500
757		115.234375
758		117.187500
759		113.281250
760		121.093750
761		115.234375
762		121.093750
763		115.234375
764		121.093750
765		115.234375
766		123.046875
767		117.187500
768		123.046875
769		117.187500
770		123.046875
771		119.140625
772		121.093750
773		117.187500
774		119.140625
775		115.234375
776		121.093750
777		113.281250
778		121.093750
779		111.328125
780		119.140625
781		109.375000
782		117.187500
783		109.375000
784		115.234375
785		107.421875
786		113.281250
787		107.421875
788		113.281250
789		103.515625
790		107.421875
791		99.609375
792		105.468750
793		95.703125
794		105.468750
795		91.796875
796		101.562500
797		89.843750
798		97.656250
799		85.937500
800		95.703125
801		82.031250
802		89.843750
803		78.125000
804		85.937500
805		74.218750
806		80.078125
807		70.312500
808		76.171875
809		62.500000
810		72.265625
811		58.593750
812		68.359375
813		52.734375
814		64.453125
815		46.875000
816		58.593750
817		41.015625
818		52.734375
819		35.156250
820		46.875000
821		33.203125
822		39.062500
823		27.343750
824		33.203125
825		17.578125
826		27.343750
827		13.671875
828		23.437500
829		5.859375
830		17.578125
831		0.000000
832		11.718750
833		-5.859375
834		5.859375
835		-11.718750
836		0.000000
837		-15.625000
838		-5.859375
839		-23.437500
840		-15.625000
841		-29.296875
842		-21.484375
843		-37.109375
844		-25.390625
845		-42.968750
846		-31.250000
847		-48.828125
848		-37.109375
849		-54.687500
850		-42.968750
851		-62.500000
852		-48.828125
853		-66.406250
854		-56.640625
855		-70.312500
856		-62.500000
857		-74.218750
858		-68.359375
859		-80.078125
860		-74.218750
861		-85.937500
862		-78.125000
863		-91.796875
864		-82.031250
865		-95.703125
866		-87.890625
867		-99.609375
868		-91.796875
869		-103.515625
870		-95.703125
871		-105.468750
872		-99.609375
873		-109.375000
874		-105.468750
875		-115.234375
876		-107.421875
877		-117.187500
878		-109.375000
879		-119.140625
880		-111.328125
881		-123.046875
882		-115.234375
883		-125.000000
884		-117.187500
885		-125.000000
886		-119.140625
887		-126.953125
888		-119.140625
889		-125.000000
890		-123.046875
891		-126.953125
892		-123.046875
893		-128.906250
894		-123.046875
895		-128.906250
896		-121.093750
897		-128.906250
898		-121.093750
899		-128.906250
900		-121.093750
901		-126.953125
902		-119.140625
903		-125.000000
904		-117.187500
905		-125.000000
906		-117.187500
907		-119.140625
908		-117.187500
909		-119.140625
910		-111.328125
911		-117.187500
912		-109.375000
913		-113.281250
914		-105.468750
915		-111.328125
916		-101.562500
917		-107.421875
918		-97.656250
919		-103.515625
920		-95.703125
921		-99.609375
922		-91.796875
923		-93.750000
924		-87.890625
925		-89.843750
926		-82.031250
927		-85.937500
928		-76.171875
929		-82.031250
930		-72.265625
931		-76.171875
932		-66.406250
933		-72.265625
934		-60.546875
935		-66.406250
936		-56.640625
937		-60.546875
938		-48.828125
939		-52.734375
940		-44.921875
941		-46.875000
942		-39.062500
943		-41.015625
944		-31.250000
945		-35.156250
946		-25.390625
947		-29.296875
948		-19.531250
949		-23.437500
950		-13.671875
951		-17.578125
952		-5.859375
953		-11.718750
954		0.000000
955		-5.859375
956		3.906250
957		3.906250
958		11.718750
959		9.765625
960		17.578125
961		13.671875
962		25.390625
963		19.531250
964		29.296875
965		25.390625
966		37.109375
967		31.250000
968		41.015625
969		37.109375
970		46.875000
971		41.015625
972		50.781250
973		50.781250
974		56.640625
975		54.687500
976		60.546875
977		60.546875
978		68.359375
979		62.500000
980		72.265625
981		68.359375
982		78.125000
983		72.265625
984		82.031250
985		76.171875
986		85.937500
987		80.078125
988		89.843750
989		83.984375
990		91.796875
991		91.796875
992		95.703125
993		93.750000
994		101.562500
995		95.703125
996		103.515625
997		97.656250
998		107.421875
999		101.562500
1000		109.375000
1001		103.515625
1002		111.328125
1003		105.468750
1004		115.234375
1005		109.375000
1006		115.234375
1007		113.281250
1008		115.234375
1009		113.281250
1010		117.187500
1011		113.281250
1012		121.093750
1013		115.234375
1014		121.093750
1015		115.234375
1016		123.046875
1017		115.234375
1018		123.046875
1019		115.234375
1020		123.046875
1021		115.234375
1022		123.046875
1023		117.187500
1024		121.093750
1025		119.140625
1026		121.093750
1027		115.234375
1028		121.093750
1029		113.281250
1030		121.093750
1031		113.281250
1032		121.093750
1033		111.328125
1034		119.140625
1035		109.375000
1036		117.187500
1037		107.421875
1038		117.187500
1039		107.421875
1040		113.281250
1041		105.468750
1042		109.375000
1043		101.562500
1044		107.421875
1045		97.656250
1046		105.468750
1047		93.750000
1048		103.515625
1049		91.796875
1050		99.609375
1051		85.937500
1052		95.703125
1053		83.984375
1054		91.796875
1055		80.078125
1056		87.890625
1057		76.171875
1058		82.031250
1059		72.265625
1060		78.125000
1061		66.406250
1062		74.218750
1063		60.546875
1064		70.312500
1065		54.687500
1066		66.406250
1067		50.781250
1068		60.546875
1069		44.921875
1070		54.687500
1071		39.062500
1072		50.781250
1073		35.156250
1074		44.921875
1075		29.296875
1076		37.109375
1077		21.484375
1078		31.250000
1079		15.625000
1080		27.343750
1081		9.765625
1082		21.484375
1083		3.906250
1084		15.625000
1085		-1.953125
1086		9.765625
1087		-9.765625
1088		1.953125
1089		-13.671875
1090		-3.906250
1091		-19.531250
1092		-11.718750
1093		-25.390625
1094		-17.578125
1095		-33.203125
1096		-23.437500
1097		-41.015625
1098		-29.296875
1099		-46.875000
1100		-35.156250
1101		-52.734375
1102		-41.015625
1103		-58.593750
1104		-46.875000
1105		-62.500000
1106		-52.734375
1107		-66.406250
1108		-58.593750
1109		-72.265625
1110		-66.406250
1111		-80.078125
1112		-72.265625
1113		-83.984375
1114		-74.218750
1115		-89.843750
1116		-80.078125
1117		-93.750000
1118		-83.984375
1119		-97.656250
1120		-87.890625
1121		-101.562500
1122		-91.796875
1123		-103.515625
1124		-97.656250
1125		-107.421875
1126		-103.515625
1127		-113.281250
1128		-105.468750
1129		-117.187500
1130		-107.421875
1131		-119.140625
1132		-111.328125
1133		-121.093750
1134		-113.281250
1135		-123.046875
1136		-115.234375
1137		-125.000000
1138		-117.187500
1139		-125.000000
1140		-119.140625
1141		-125.000000
1142		-123.046875
1143		-125.000000
1144		-123.046875
1145		-128.906250
1146		-121.093750
1147		-128.906250
1148		-121.093750
1149		-128.906250
1150		-121.093750
1151		-126.953125
1152		-121.093750
1153		-126.953125
1154		-119.140625
1155		-126.953125
1156		-119.140625
1157		-125.000000
1158		-119.140625
1159		-121.093750
1160		-117.187500
1161		-119.140625
1162		-111.328125
1163		-119.140625
1164		-109.375000
1165		-115.234375
1166		-107.421875
1167		-113.281250
1168		-103.515625
1169		-109.375000
1170		-99.609375
1171		-105.468750
1172		-95.703125
1173		-101.562500
1174		-93.750000
1175		-95.703125
1176		-89.843750
1177		-91.796875
1178		-83.984375
1179		-87.890625
1180		-78.125000
1181		-83.984375
1182		-72.265625
1183		-78.125000
1184		-68.359375
1185		-74.218750
1186		-62.500000
1187		-68.359375
1188		-56.640625
1189		-60.546875
1190		-50.781250
1191		-54.687500
1192		-46.875000
1193		-48.828125
1194		-41.015625
1195		-42.968750
1196		-33.203125
1197		-39.062500
1198		-27.343750
1199		-31.250000
1200		-21.484375
1201		-25.390625
1202		-15.625000
1203		-19.531250
1204		-9.765625
1205		-13.671875
1206		-1.953125
1207		-7.812500
1208		1.953125
1209		0.000000
1210		7.812500
1211		5.859375
1212		15.625000
1213		11.718750
1214		21.484375
1215		15.625000
1216		29.296875
1217		23.437500
1218		33.203125
1219		29.296875
1220		39.062500
1221		35.156250
1222		44.921875
1223		41.015625
1224		48.828125
1225		46.875000
1226		54.687500
1227		52.734375
1228		58.593750
1229		56.640625
1230		66.406250
1231		60.546875
1232		72.265625
1233		66.406250
1234		76.171875
1235		70.312500
1236		80.078125
1237		76.171875
1238		83.984375
1239		78.125000
1240		87.890625
1241		83.984375
1242		89.843750
1243		89.843750
1244		93.750000
1245		93.750000
1246		99.609375
1247		93.750000
1248		103.515625
1249		97.656250
1250		105.468750
1251		99.609375
1252		107.421875
1253		103.515625
1254		111.328125
1255		105.468750
1256		113.281250
1257		107.421875
1258		115.234375
1259		111.328125
1260		115.234375
1261		113.281250
1262		117.187500
1263		113.281250
1264		121.093750
1265		113.281250
1266		121.093750
1267		115.234375
1268		123.046875
1269		115.234375
1270		123.046875
1271		117.187500
1272		123.046875
1273		117.187500
1274		123.046875
1275		117.187500
1276		121.093750
1277		119.140625
1278		121.093750
1279		115.234375
1280		123.046875
1281		115.234375
1282		121.093750
1283		113.281250
1284		121.093750
1285		111.328125
1286		119.140625
1287		109.375000
1288		119.140625
1289		109.375000
1290		115.234375
1291		107.421875
1292		115.234375
1293		107.421875
1294		109.375000
1295		101.562500
1296		107.421875
1297		99.609375
1298		107.421875
1299		95.703125
1300		103.515625
1301		91.796875
1302		101.562500
1303		87.890625
1304		97.656250
1305		85.937500
1306		93.750000
1307		82.031250
1308		89.843750
1309		80.078125
1310		83.984375
1311		74.218750
1312		80.078125
1313		68.359375
1314		76.171875
1315		62.500000
1316		72.265625
1317		56.640625
1318		68.359375
1319		52.734375
1320		64.453125
1321		46.875000
1322		58.593750
1323		42.968750
1324		52.734375
1325		39.062500
1326		46.875000
1327		33.203125
1328		39.062500
1329		25.390625
1330		33.203125
1331		19.531250
1332		29.296875
1333		11.718750
1334		23.437500
1335		5.859375
1336		17.578125
1337		0.000000
1338		11.718750
1339		-5.859375
1340		5.859375
1341		-9.765625
1342		-1.953125
1343		-17.578125
1344		-9.765625
1345		-23.437500
1346		-15.625000
1347		-31.250000
1348		-21.484375
1349		-37.109375
1350		-27.343750
1351		-42.968750
1352		-33.203125
1353		-48.828125
1354		-39.062500
1355		-54.687500
1356		-44.921875
1357		-60.546875
1358		-50.781250
1359		-64.453125
1360		-56.640625
1361		-70.312500
1362		-62.500000
1363		-76.171875
1364		-68.359375
1365		-82.031250
1366		-72.265625
1367		-87.890625
1368		-76.171875
1369		-91.796875
1370		-82.031250
1371		-95.703125
1372		-85.937500
1373		-101.562500
1374		-91.796875
1375		-101.562500
1376		-95.703125
1377		-107.421875
1378		-101.562500
1379		-109.375000
1380		-105.468750
1381		-115.234375
1382		-105.468750
1383		-117.187500
1384		-109.375000
1385		-119.140625
1386		-111.328125
1387		-123.046875
1388		-115.234375
1389		-125.000000
1390		-117.187500
1391		-125.000000
1392		-117.187500
1393		-125.000000
1394		-121.093750
1395		-125.000000
1396		-123.046875
1397		-128.906250
1398		-121.093750
1399		-128.906250
1400		-121.093750
1401		-128.906250
1402		-123.046875
1403		-128.906250
1404		-121.093750
1405		-128.906250
1406		-121.093750
1407		-126.953125
1408		-119.140625
1409		-125.000000
1410		-119.140625
1411		-121.093750
1412		-117.187500
1413		-119.140625
1414		-113.281250
1415		-119.140625
1416		-111.328125
1417		-117.187500
1418		-109.375000
1419		-113.281250
1420		-105.468750
1421		-111.328125
1422		-101.562500
1423		-107.421875
1424		-97.656250
1425		-103.515625
1426		-95.703125
1427		-97.656250
1428		-91.796875
1429		-93.750000
1430		-87.890625
1431		-89.843750
1432		-82.031250
1433		-85.937500
1434		-76.171875
1435		-82.031250
1436		-70.312500
1437		-76.171875
1438		-64.453125
1439		-72.265625
1440		-60.546875
1441		-64.453125
1442		-54.687500
1443		-58.593750
1444		-50.781250
1445		-52.734375
1446		-44.921875
1447		-44.921875
1448		-37.109375
1449		-42.968750
1450		-31.250000
1451		-35.156250
1452		-25.390625
1453		-29.296875
1454		-17.578125
1455		-23.437500
1456		-11.718750
1457		-15.625000
1458		-5.859375
1459		-11.718750
1460		-1.953125
1461		-1.953125
1462		3.906250
1463		3.906250
1464		11.718750
1465		7.812500
1466		17.578125
1467		13.671875
1468		25.390625
1469		19.531250
1470		31.250000
1471		25.390625
1472		37.109375
1473		33.203125
1474		42.968750
1475		37.109375
1476		48.828125
1477		44.921875
1478		50.781250
1479		50.781250
1480		56.640625
1481		54.687500
1482		64.453125
1483		58.593750
1484		68.359375
1485		64.453125
1486		72.265625
1487		68.359375
1488		78.125000
1489		72.265625
1490		82.031250
1491		78.125000
1492		85.937500
1493		82.031250
1494		87.890625
1495		87.890625
1496		91.796875
1497		91.796875
1498		97.656250
1499		91.796875
1500		101.562500
1501		95.703125
1502		105.468750
1503		97.656250
1504		107.421875
1505		101.562500
1506		109.375000
1507		103.515625
1508		111.328125
1509		105.468750
1510		113.281250
1511		111.328125
1512		113.281250
1513		113.281250
1514		115.234375
1515		111.328125
1516		119.140625
1517		113.281250
1518		121.093750
1519		115.234375
1520		121.093750
1521		115.234375
1522		123.046875
1523		115.234375
1524		123.046875
1525		115.234375
1526		123.046875
1527		117.187500
1528		123.046875
1529		119.140625
1530		121.093750
1531		115.234375
1532		123.046875
1533		115.234375
1534		123.046875
1535		113.281250
1536		121.093750
1537		113.281250
1538		119.140625
1539		111.328125
1540		119.140625
1541		109.375000
1542		117.187500
1543		109.375000
1544		115.234375
1545		107.421875
1546		111.328125
1547		105.468750
1548		109.375000
1549		101.562500
1550		107.421875
1551		97.656250
1552		105.468750
1553		95.703125
1554		103.515625
1555		91.796875
1556		99.609375
1557		87.890625
1558		95.703125
1559		83.984375
1560		93.750000
1561		80.078125
1562		85.937500
1563		76.171875
1564		82.031250
1565		70.312500
1566		78.125000
1567		64.453125
1568		74.218750
1569		60.546875
1570		70.312500
1571		54.687500
1572		66.406250
1573		50.781250
1574		60.546875
1575		44.921875
1576		54.687500
1577		41.015625
1578		50.781250
1579		35.156250
1580		42.968750
1581		27.343750
1582		37.109375
1583		21.484375
1584		31.250000
1585		15.625000
1586		27.343750
1587		9.765625
1588		21.484375
1589		3.906250
1590		13.671875
1591		-3.906250
1592		7.812500
1593		-7.812500
1594		1.953125
1595		-13.671875
1596		-5.859375
1597		-19.531250
1598		-11.718750
1599		-27.343750
1600		-17.578125
1601		-35.156250
1602		-23.437500
1603		-41.015625
1604		-29.296875
1605		-46.875000
1606		-35.156250
1607		-52.734375
1608		-41.015625
1609		-58.593750
1610		-46.875000
1611		-62.500000
1612		-52.734375
1613		-68.359375
1614		-60.546875
1615		-74.218750
1616		-66.406250
1617		-80.078125
1618		-70.312500
1619		-83.984375
1620		-76.171875
1621		-89.843750
1622		-80.078125
1623		-93.750000
1624		-83.984375
1625		-97.656250
1626		-89.843750
1627		-101.562500
1628		-93.750000
1629		-103.515625
1630		-99.609375
1631		-107.421875
1632		-103.515625
1633		-113.281250
1634		-105.468750
1635		-115.234375
1636		-107.421875
1637		-119.140625
1638		-111.328125
1639		-121.093750
1640		-113.281250
1641		-123.046875
1642		-115.234375
1643		-125.000000
1644		-117.187500
1645		-125.000000
1646		-121.093750
1647		-125.000000
1648		-123.046875
1649		-128.906250
1650		-121.093750
1651		-128.906250
1652		-121.093750
1653		-128.906250
1654		-121.093750
1655		-128.906250
1656		-121.093750
1657		-128.906250
1658		-121.093750
1659		-126.953125
1660		-119.140625
1661		-126.953125
1662		-119.140625
1663		-123.046875
1664		-119.140625
1665		-121.093750
1666		-115.234375
1667		-121.093750
1668		-111.328125
1669		-117.187500
1670		-109.375000
1671		-115.234375
1672		-107.421875
1673		-113.281250
1674		-103.515625
1675		-109.375000
1676		-99.609375
1677		-105.468750
1678		-95.703125
1679		-99.609375
1680		-93.750000
1681		-95.703125
1682		-89.843750
1683		-91.796875
1684		-82.031250
1685		-87.890625
1686		-78.125000
1687		-82.031250
1688		-72.265625
1689		-78.125000
1690		-68.359375
1691		-72.265625
1692		-62.500000
1693		-66.406250
1694		-56.640625
1695		-62.500000
1696		-52.734375
1697		-54.687500
1698		-46.875000
1699		-48.828125
1700		-39.062500
1701		-42.968750
1702		-33.203125
1703		-37.109375
1704		-27.343750
1705		-31.250000
1706		-21.484375
1707		-25.390625
1708		-15.625000
1709		-19.531250
1710		-9.765625
1711		-13.671875
1712		-3.906250
1713		-5.859375
1714		1.953125
1715		0.000000
1716		7.812500
1717		5.859375
1718		15.625000
1719		11.718750
1720		21.484375
1721		17.578125
1722		27.343750
1723		23.437500
1724		35.156250
1725		29.296875
1726		39.062500
1727		35.156250
1728		44.921875
1729		41.015625
1730		48.828125
1731		48.828125
1732		54.687500
1733		52.734375
1734		60.546875
1735		56.640625
1736		66.406250
1737		60.546875
1738		70.312500
1739		66.406250
1740		76.171875
1741		70.312500
1742		80.078125
1743		76.171875
1744		83.984375
1745		80.078125
1746		85.937500
1747		85.937500
1748		91.796875
1749		89.843750
1750		95.703125
1751		91.796875
1752		99.609375
1753		93.750000
1754		103.515625
1755		97.656250
1756		105.468750
1757		101.562500
1758		109.375000
1759		103.515625
1760		111.328125
1761		105.468750
1762		113.281250
1763		109.375000
1764		113.281250
1765		111.328125
1766		115.234375
1767		111.328125
1768		119.140625
1769		113.281250
1770		119.140625
1771		113.281250
1772		121.093750
1773		115.234375
1774		121.093750
1775		115.234375
1776		123.046875
1777		117.187500
1778		123.046875
1779		117.187500
1780		123.046875
1781		119.140625
1782		121.093750
1783		115.234375
1784		121.093750
1785		115.234375
1786		121.093750
1787		115.234375
1788		121.093750
1789		113.281250
1790		121.093750
1791		111.328125
1792		119.140625
1793		111.328125
1794		117.187500
1795		109.375000
1796		117.187500
1797		109.375000
1798		111.328125
1799		105.468750
1800		109.375000
1801		101.562500
1802		109.375000
1803		99.609375
1804		107.421875
1805		95.703125
1806		103.515625
1807		91.796875
1808		101.562500
1809		87.890625
1810		97.656250
1811		83.984375
1812		93.750000
1813		82.031250
1814		87.890625
1815		78.125000
1816		83.984375
1817		72.265625
1818		80.078125
1819		68.359375
1820		78.125000
1821		62.500000
1822		72.265625
1823		56.640625
1824		66.406250
1825		52.734375
1826		62.500000
1827		46.875000
1828		58.593750
1829		42.968750
1830		50.781250
1831		37.109375
1832		44.921875
1833		31.250000
1834		39.062500
1835		23.437500
1836		35.156250
1837		17.578125
1838		29.296875
1839		11.718750
1840		23.437500
1841		5.859375
1842		15.625000
1843		0.000000
1844		9.765625
1845		-5.859375
1846		3.906250
1847		-11.718750
1848		-3.906250
1849		-17.578125
1850		-9.765625
1851		-25.390625
1852		-15.625000
1853		-31.250000
1854		-21.484375
1855		-39.062500
1856		-27.343750
1857		-42.968750
1858		-33.203125
1859		-48.828125
1860		-39.062500
1861		-56.640625
1862		-44.921875
1863		-60.546875
1864		-50.781250
1865		-64.453125
1866		-58.593750
1867		-72.265625
1868		-64.453125
1869		-78.125000
1870		-66.406250
1871		-82.031250
1872		-72.265625
1873		-87.890625
1874		-78.125000
1875		-93.750000
1876		-82.031250
1877		-95.703125
1878		-87.890625
1879		-99.609375
1880		-91.796875
1881		-103.515625
1882		-97.656250
1883		-105.468750
1884		-101.562500
1885		-111.328125
1886		-103.515625
1887		-115.234375
1888		-107.421875
1889		-117.187500
1890		-109.375000
1891		-119.140625
1892		-111.328125
1893		-123.046875
1894		-115.234375
1895		-125.000000
1896		-117.187500
1897		-123.046875
1898		-119.140625
1899		-125.000000
1900		-121.093750
1901		-128.906250
1902		-121.093750
1903		-128.906250
1904		-121.093750
1905		-128.906250
1906		-121.093750
1907		-128.906250
1908		-121.093750
1909		-128.906250
1910		-121.093750
1911		-126.953125
1912		-121.093750
1913		-126.953125
1914		-119.140625
1915		-123.046875
1916		-119.140625
1917		-121.093750
1918		-115.234375
1919		-121.093750
1920		-113.281250
1921		-119.140625
1922		-111.328125
1923		-117.187500
1924		-109.375000
1925		-113.281250
1926		-105.468750
1927		-111.328125
1928		-101.562500
1929		-105.468750
1930		-99.609375
1931		-101.562500
1932		-95.703125
1933		-97.656250
1934		-91.796875
1935		-93.750000
1936		-85.937500
1937		-89.843750
1938		-80.078125
1939		-85.937500
1940		-74.218750
1941		-82.031250
1942		-70.312500
1943		-76.171875
1944		-64.453125
1945		-70.312500
1946		-60.546875
1947		-64.453125
1948		-54.687500
1949		-56.640625
1950		-50.781250
1951		-50.781250
1952		-42.968750
1953		-46.875000
1954		-35.156250
1955		-41.015625
1956		-29.296875
1957		-35.156250
1958		-23.437500
1959		-29.296875
1960		-17.578125
1961		-23.437500
1962		-11.718750
1963		-17.578125
1964		-7.812500
1965		-7.812500
1966		0.000000
1967		-1.953125
1968		5.859375
1969		3.906250
1970		13.671875
1971		7.812500
1972		19.531250
1973		13.671875
1974		25.390625
1975		21.484375
1976		31.250000
1977		27.343750
1978		37.109375
1979		33.203125
1980		42.968750
1981		39.062500
1982		46.875000
1983		44.921875
1984		52.734375
1985		50.781250
1986		58.593750
1987		54.687500
1988		64.453125
1989		60.546875
1990		68.359375
1991		64.453125
1992		74.218750
1993		68.359375
1994		78.125000
1995		72.265625
1996		82.031250
1997		78.125000
1998		85.937500
1999		83.984375
2000		89.843750
2001		87.890625
2002		93.750000
2003		89.843750
2004		97.656250
2005		93.750000
2006		101.562500
2007		95.703125
2008		105.468750
2009		99.609375
2010		107.421875
2011		101.562500
2012		109.375000
2013		105.468750
2014		111.328125
2015		109.375000
2016		113.281250
2017		111.328125
2018		115.234375
2019		111.328125
2020		119.140625
2021		111.328125
2022		119.140625
2023		113.281250
2024		121.093750
2025		115.234375
2026		121.093750
2027		115.234375
2028		123.046875
2029		117.187500
2030		123.046875
2031		117.187500
2032		123.046875
2033		119.140625
2034		121.093750
2035		117.187500
2036		123.046875
2037		115.234375
2038		123.046875
2039		115.234375
2040		123.046875
2041		113.281250
2042		121.093750
2043		113.281250
2044		121.093750
2045		111.328125
2046		119.140625
2047		111.328125
2048		117.187500
2049		109.375000
2050		113.281250
2051		107.421875
2052		111.328125
2053		103.515625
2054		111.328125
2055		99.609375
2056		109.375000
2057		97.656250
2058		105.468750
2059		93.750000
2060		101.562500
2061		91.796875
2062		99.609375
2063		87.890625
2064		95.703125
2065		83.984375
2066		91.796875
2067		80.078125
2068		85.937500
2069		74.218750
2070		82.031250
2071		70.312500
2072		80.078125
2073		64.453125
2074		74.218750
2075		60.546875
2076		70.312500
2077		54.687500
2078		64.453125
2079		48.828125
2080		60.546875
2081		46.875000
2082		54.687500
2083		41.015625
2084		46.875000
2085		35.156250
2086		41.015625
2087		27.343750
2088		39.062500
2089		21.484375
2090		33.203125
2091		15.625000
2092		25.390625
2093		9.765625
2094		19.531250
2095		3.906250
2096		13.671875
2097		-3.906250
2098		7.812500
2099		-7.812500
2100		0.000000
2101		-13.671875
2102		-7.812500
2103		-23.437500
2104		-13.671875
2105		-29.296875
2106		-17.578125
2107		-33.203125
2108		-23.437500
2109		-41.015625
2110		-29.296875
2111		-46.875000
2112		-35.156250
2113		-52.734375
2114		-41.015625
2115		-56.640625
2116		-48.828125
2117		-62.500000
2118		-54.687500
2119		-68.359375
2120		-60.546875
2121		-74.218750
2122		-64.453125
2123		-80.078125
2124		-70.312500
2125		-85.937500
2126		-74.218750
2127		-89.843750
2128		-80.078125
2129		-93.750000
2130		-85.937500
2131		-97.656250
2132		-89.843750
2133		-101.562500
2134		-95.703125
2135		-103.515625
2136		-99.609375
2137		-111.328125
2138		-101.562500
2139		-113.281250
2140		-103.515625
2141		-117.187500
2142		-107.421875
2143		-119.140625
2144		-109.375000
2145		-121.093750
2146		-113.281250
2147		-123.046875
2148		-115.234375
2149		-125.000000
2150		-117.187500
2151		-125.000000
2152		-121.093750
2153		-126.953125
2154		-121.093750
2155		-128.906250
2156		-121.093750
2157		-128.906250
2158		-121.093750
2159		-128.906250
2160		-121.093750
2161		-128.906250
2162		-121.093750
2163		-126.953125
2164		-121.093750
2165		-126.953125
2166		-119.140625
2167		-123.046875
2168		-121.093750
2169		-121.093750
2170		-117.187500
2171		-123.046875
2172		-115.234375
2173		-121.093750
2174		-113.281250
2175		-117.187500
2176		-109.375000
2177		-115.234375
2178		-107.421875
2179		-111.328125
2180		-101.562500
2181		-109.375000
2182		-99.609375
2183		-103.515625
2184		-97.656250
2185		-99.609375
2186		-93.750000
2187		-93.750000
2188		-87.890625
2189		-91.796875
2190		-82.031250
2191		-85.937500
2192		-78.125000
2193		-83.984375
2194		-72.265625
2195		-78.125000
2196		-66.406250
2197		-72.265625
2198		-62.500000
2199		-68.359375
2200		-58.593750
2201		-58.593750
2202		-52.734375
2203		-52.734375
2204		-44.921875
2205		-50.781250
2206		-39.062500
2207		-42.968750
2208		-33.203125
2209		-39.062500
2210		-27.343750
2211		-31.250000
2212		-19.531250
2213		-25.390625
2214		-13.671875
2215		-19.531250
2216		-9.765625
2217		-11.718750
2218		-3.906250
2219		-3.906250
2220		3.906250
2221		0.000000
2222		11.718750
2223		5.859375
2224		17.578125
2225		13.671875
2226		23.437500
2227		17.578125
2228		29.296875
2229		23.437500
2230		35.156250
2231		29.296875
2232		41.015625
2233		35.156250
2234		44.921875
2235		42.968750
2236		48.828125
2237		48.828125
2238		56.640625
2239		50.781250
2240		62.500000
2241		56.640625
2242		66.406250
2243		60.546875
2244		72.265625
2245		66.406250
2246		76.171875
2247		72.265625
2248		80.078125
2249		76.171875
2250		83.984375
2251		82.031250
2252		87.890625
2253		85.937500
2254		91.796875
2255		87.890625
2256		97.656250
2257		91.796875
2258		99.609375
2259		95.703125
2260		103.515625
2261		97.656250
2262		105.468750
2263		99.609375
2264		109.375000
2265		103.515625
2266		111.328125
2267		105.468750
2268		111.328125
2269		109.375000
2270		113.281250
2271		111.328125
2272		117.187500
2273		111.328125
2274		119.140625
2275		113.281250
2276		121.093750
2277		115.234375
2278		121.093750
2279		115.234375
2280		123.046875
2281		115.234375
2282		123.046875
2283		117.187500
2284		123.046875
2285		119.140625
2286		123.046875
2287		117.187500
2288		123.046875
2289		115.234375
2290		123.046875
2291		115.234375
2292		123.046875
2293		115.234375
2294		121.093750
2295		113.281250
2296		121.093750
2297		113.281250
2298		119.140625
2299		111.328125
2300		119.140625
2301		111.328125
2302		115.234375
2303		109.375000
2304		113.281250
2305		105.468750
2306		111.328125
2307		101.562500
2308		109.375000
2309		97.656250
2310		107.421875
2311		95.703125
2312		103.515625
2313		91.796875
2314		99.609375
2315		87.890625
2316		97.656250
2317		87.890625
2318		93.750000
2319		83.984375
2320		87.890625
2321		76.171875
2322		83.984375
2323		72.265625
2324		82.031250
2325		68.359375
2326		76.171875
2327		62.500000
2328		72.265625
2329		58.593750
2330		68.359375
2331		52.734375
2332		62.500000
2333		48.828125
2334		56.640625
2335		42.968750
2336		50.781250
2337		37.109375
2338		44.921875
2339		29.296875
2340		41.015625
2341		23.437500
2342		35.156250
2343		17.578125
2344		29.296875
2345		11.718750
2346		21.484375
2347		5.859375
2348		17.578125
2349		0.000000
2350		11.718750
2351		-3.906250
2352		3.906250
2353		-11.718750
2354		-3.906250
2355		-19.531250
2356		-9.765625
2357		-25.390625
2358		-13.671875
2359		-31.250000
2360		-21.484375
2361		-37.109375
2362		-27.343750
2363		-44.921875
2364		-33.203125
2365		-50.781250
2366		-39.062500
2367		-52.734375
2368		-44.921875
2369		-58.593750
2370		-52.734375
2371		-66.406250
2372		-58.593750
2373		-72.265625
2374		-62.500000
2375		-78.125000
2376		-66.406250
2377		-82.031250
2378		-72.265625
2379		-87.890625
2380		-78.125000
2381		-91.796875
2382		-83.984375
2383		-95.703125
2384		-87.890625
2385		-97.656250
2386		-93.750000
2387		-101.562500
2388		-97.656250
2389		-107.421875
2390		-99.609375
2391		-111.328125
2392		-103.515625
2393		-115.234375
2394		-107.421875
2395		-117.187500
2396		-109.375000
2397		-121.093750
2398		-111.328125
2399		-123.046875
2400		-115.234375
2401		-121.093750
2402		-117.187500
2403		-123.046875
2404		-119.140625
2405		-126.953125
2406		-119.140625
2407		-126.953125
2408		-121.093750
2409		-126.953125
2410		-121.093750
2411		-128.906250
2412		-121.093750
2413		-126.953125
2414		-121.093750
2415		-126.953125
2416		-121.093750
2417		-126.953125
2418		-119.140625
2419		-123.046875
2420		-121.093750
2421		-121.093750
2422		-119.140625
2423		-123.046875
2424		-115.234375
2425		-121.093750
2426		-113.281250
2427		-119.140625
2428		-109.375000
2429		-115.234375
2430		-107.421875
2431		-113.281250
2432		-103.515625
2433		-109.375000
2434		-99.609375
2435		-105.468750
2436		-97.656250
2437		-99.609375
2438		-93.750000
2439		-95.703125
2440		-87.890625
2441		-93.750000
2442		-83.984375
2443		-89.843750
2444		-80.078125
2445		-83.984375
2446		-74.218750
2447		-78.125000
2448		-68.359375
2449		-74.218750
2450		-64.453125
2451		-68.359375
2452		-60.546875
2453		-60.546875
2454		-54.687500
2455		-56.640625
2456		-46.875000
2457		-50.781250
2458		-41.015625
2459		-46.875000
2460		-35.156250
2461		-39.062500
2462		-27.343750
2463		-33.203125
2464		-21.484375
2465		-27.343750
2466		-15.625000
2467		-21.484375
2468		-11.718750
2469		-13.671875
2470		-5.859375
2471		-5.859375
2472		0.000000
2473		0.000000
2474		7.812500
2475		3.906250
2476		13.671875
2477		9.765625
2478		21.484375
2479		15.625000
2480		27.343750
2481		21.484375
2482		33.203125
2483		27.343750
2484		39.062500
2485		33.203125
2486		42.968750
2487		41.015625
2488		46.875000
2489		46.875000
2490		54.687500
2491		50.781250
2492		60.546875
2493		54.687500
2494		64.453125
2495		60.546875
2496		70.312500
2497		64.453125
2498		74.218750
2499		70.312500
2500		80.078125
2501		74.218750
2502		83.984375
2503		80.078125
2504		85.937500
2505		83.984375
2506		89.843750
2507		85.937500
2508		95.703125
2509		89.843750
2510		97.656250
2511		93.750000
2512		101.562500
2513		97.656250
2514		105.468750
2515		99.609375
2516		107.421875
2517		103.515625
2518		111.328125
2519		107.421875
2520		111.328125
2521		109.375000
2522		113.281250
2523		111.328125
2524		117.187500
2525		111.328125
2526		119.140625
2527		113.281250
2528		119.140625
2529		115.234375
2530		121.093750
2531		115.234375
2532		121.093750
2533		115.234375
2534		123.046875
2535		117.187500
2536		123.046875
2537		119.140625
2538		121.093750
2539		119.140625
2540		123.046875
2541		117.187500
2542		123.046875
2543		115.234375
2544		123.046875
2545		115.234375
2546		123.046875
2547		113.281250
2548		121.093750
2549		113.281250
2550		121.093750
2551		111.328125
2552		119.140625
2553		111.328125
2554		115.234375
2555		109.375000
2556		113.281250
2557		105.468750
2558		113.281250
2559		101.562500
2560		111.328125
2561		99.609375
2562		107.421875
2563		97.656250
2564		105.468750
2565		95.703125
2566		101.562500
2567		89.843750
2568		99.609375
2569		89.843750
2570		95.703125
2571		83.984375
2572		89.843750
2573		78.125000
2574		85.937500
2575		74.218750
2576		83.984375
2577		70.312500
2578		80.078125
2579		64.453125
2580		74.218750
2581		60.546875
2582		70.312500
2583		54.687500
2584		64.453125
2585		50.781250
2586		60.546875
2587		46.875000
2588		52.734375
2589		41.015625
2590		46.875000
2591		31.250000
2592		41.015625
2593		27.343750
2594		37.109375
2595		21.484375
2596		31.250000
2597		15.625000
2598		25.390625
2599		7.812500
2600		19.531250
2601		1.953125
2602		13.671875
2603		-1.953125
2604		7.812500
2605		-7.812500
2606		0.000000
2607		-17.578125
2608		-7.812500
2609		-23.437500
2610		-11.718750
2611		-29.296875
2612		-17.578125
2613		-35.156250
2614		-23.437500
2615		-41.015625
2616		-29.296875
2617		-46.875000
2618		-35.156250
2619		-50.781250
2620		-42.968750
2621		-56.640625
2622		-48.828125
2623		-62.500000
2624		-54.687500
2625		-68.359375
2626		-58.593750
2627		-74.218750
2628		-64.453125
2629		-80.078125
2630		-70.312500
2631		-83.984375
2632		-76.171875
2633		-89.843750
2634		-80.078125
2635		-93.750000
2636		-83.984375
2637		-97.656250
2638		-89.843750
2639		-101.562500
2640		-95.703125
2641		-107.421875
2642		-97.656250
2643		-109.375000
2644		-101.562500
2645		-113.281250
2646		-105.468750
2647		-115.234375
2648		-107.421875
2649		-119.140625
2650		-109.375000
2651		-121.093750
2652		-113.281250
2653		-121.093750
2654		-115.234375
2655		-123.046875
2656		-119.140625
2657		-125.000000
2658		-119.140625
2659		-126.953125
2660		-119.140625
2661		-126.953125
2662		-121.093750
2663		-126.953125
2664		-121.093750
2665		-126.953125
2666		-121.093750
2667		-126.953125
2668		-121.093750
2669		-126.953125
2670		-119.140625
2671		-123.046875
2672		-121.093750
2673		-123.046875
2674		-119.140625
2675		-123.046875
2676		-115.234375
2677		-121.093750
2678		-113.281250
2679		-119.140625
2680		-111.328125
2681		-117.187500
2682		-109.375000
2683		-113.281250
2684		-105.468750
2685		-111.328125
2686		-101.562500
2687		-107.421875
2688		-99.609375
2689		-101.562500
2690		-95.703125
2691		-97.656250
2692		-89.843750
2693		-95.703125
2694		-85.937500
2695		-89.843750
2696		-80.078125
2697		-85.937500
2698		-76.171875
2699		-82.031250
2700		-72.265625
2701		-76.171875
2702		-66.406250
2703		-70.312500
2704		-62.500000
2705		-64.453125
2706		-56.640625
2707		-58.593750
2708		-50.781250
2709		-54.687500
2710		-42.968750
2711		-48.828125
2712		-37.109375
2713		-42.968750
2714		-31.250000
2715		-35.156250
2716		-23.437500
2717		-29.296875
2718		-19.531250
2719		-23.437500
2720		-13.671875
2721		-15.625000
2722		-7.812500
2723		-9.765625
2724		-1.953125
2725		-3.906250
2726		5.859375
2727		0.000000
2728		11.718750
2729		5.859375
2730		17.578125
2731		13.671875
2732		23.437500
2733		19.531250
2734		29.296875
2735		23.437500
2736		35.156250
2737		31.250000
2738		39.062500
2739		39.062500
2740		44.921875
2741		42.968750
2742		52.734375
2743		46.875000
2744		56.640625
2745		52.734375
2746		62.500000
2747		58.593750
2748		68.359375
2749		62.500000
2750		72.265625
2751		68.359375
2752		78.125000
2753		72.265625
2754		82.031250
2755		78.125000
2756		83.984375
2757		83.984375
2758		87.890625
2759		85.937500
2760		93.750000
2761		87.890625
2762		97.656250
2763		91.796875
2764		99.609375
2765		95.703125
2766		103.515625
2767		97.656250
2768		107.421875
2769		101.562500
2770		109.375000
2771		103.515625
2772		109.375000
2773		109.375000
2774		111.328125
2775		109.375000
2776		115.234375
2777		111.328125
2778		117.187500
2779		111.328125
2780		119.140625
2781		113.281250
2782		121.093750
2783		115.234375
2784		121.093750
2785		115.234375
2786		123.046875
2787		117.187500
2788		123.046875
2789		119.140625
2790		121.093750
2791		119.140625
2792		121.093750
2793		117.187500
2794		123.046875
2795		117.187500
2796		123.046875
2797		117.187500
2798		123.046875
2799		115.234375
2800		123.046875
2801		113.281250
2802		121.093750
2803		113.281250
2804		119.140625
2805		113.281250
2806		117.187500
2807		111.328125
2808		115.234375
2809		107.421875
2810		113.281250
2811		103.515625
2812		111.328125
2813		101.562500
2814		109.375000
2815		99.609375
2816		107.421875
2817		95.703125
2818		105.468750
2819		91.796875
2820		101.562500
2821		89.843750
2822		97.656250
2823		85.937500
2824		91.796875
2825		80.078125
2826		87.890625
2827		76.171875
2828		85.937500
2829		72.265625
2830		82.031250
2831		68.359375
2832		76.171875
2833		62.500000
2834		72.265625
2835		56.640625
2836		68.359375
2837		52.734375
2838		62.500000
2839		48.828125
2840		54.687500
2841		42.968750
2842		48.828125
2843		35.156250
2844		44.921875
2845		29.296875
2846		41.015625
2847		23.437500
2848		35.156250
2849		17.578125
2850		29.296875
2851		9.765625
2852		23.437500
2853		3.906250
2854		15.625000
2855		0.000000
2856		9.765625
2857		-5.859375
2858		1.953125
2859		-13.671875
2860		-3.906250
2861		-19.531250
2862		-7.812500
2863		-25.390625
2864		-15.625000
2865		-31.250000
2866		-21.484375
2867		-37.109375
2868		-27.343750
2869		-44.921875
2870		-33.203125
2871		-48.828125
2872		-39.062500
2873		-54.687500
2874		-46.875000
2875		-60.546875
2876		-52.734375
2877		-68.359375
2878		-56.640625
2879		-74.218750
2880		-62.500000
2881		-78.125000
2882		-68.359375
2883		-83.984375
2884		-72.265625
2885		-87.890625
2886		-78.125000
2887		-91.796875
2888		-83.984375
2889		-95.703125
2890		-87.890625
2891		-99.609375
2892		-93.750000
2893		-105.468750
2894		-97.656250
2895		-109.375000
2896		-99.609375
2897		-111.328125
2898		-101.562500
2899		-115.234375
2900		-105.468750
2901		-117.187500
2902		-109.375000
2903		-119.140625
2904		-111.328125
2905		-121.093750
2906		-113.281250
2907		-121.093750
2908		-119.140625
2909		-125.000000
2910		-119.140625
2911		-126.953125
2912		-119.140625
2913		-126.953125
2914		-121.093750
2915		-126.953125
2916		-121.093750
2917		-126.953125
2918		-121.093750
2919		-126.953125
2920		-121.093750
2921		-126.953125
2922		-121.093750
2923		-125.000000
2924		-121.093750
2925		-123.046875
2926		-119.140625
2927		-123.046875
2928		-117.187500
2929		-123.046875
2930		-115.234375
2931		-119.140625
2932		-111.328125
2933		-117.187500
2934		-109.375000
2935		-115.234375
2936		-105.468750
2937		-113.281250
2938		-103.515625
2939		-109.375000
2940		-101.562500
2941		-103.515625
2942		-97.656250
2943		-99.609375
2944		-91.796875
2945		-97.656250
2946		-87.890625
2947		-93.750000
2948		-83.984375
2949		-87.890625
2950		-78.125000
2951		-83.984375
2952		-74.218750
2953		-78.125000
2954		-68.359375
2955		-74.218750
2956		-64.453125
2957		-66.406250
2958		-58.593750
2959		-60.546875
2960		-52.734375
2961		-56.640625
2962		-46.875000
2963		-50.781250
2964		-39.062500
2965		-44.921875
2966		-33.203125
2967		-39.062500
2968		-27.343750
2969		-33.203125
2970		-21.484375
2971		-27.343750
2972		-15.625000
2973		-19.531250
2974		-11.718750
2975		-11.718750
2976		-5.859375
2977		-5.859375
2978		3.906250
2979		-1.953125
2980		9.765625
2981		3.906250
2982		15.625000
2983		9.765625
2984		21.484375
2985		17.578125
2986		27.343750
2987		23.437500
2988		33.203125
2989		29.296875
2990		37.109375
2991		35.156250
2992		42.968750
2993		41.015625
2994		48.828125
2995		44.921875
2996		54.687500
2997		50.781250
2998		60.546875
2999		54.687500
3000		66.406250
3001		60.546875
3002		70.312500
3003		64.453125
3004		76.171875
3005		70.312500
3006		80.078125
3007		76.171875
3008		82.031250
3009		80.078125
3010		85.937500
3011		83.984375
3012		91.796875
3013		87.890625
3014		95.703125
3015		91.796875
3016		99.609375
3017		93.750000
3018		103.515625
3019		97.656250
3020		105.468750
3021		99.609375
3022		107.421875
3023		103.515625
3024		109.375000
3025		107.421875
3026		111.328125
3027		109.375000
3028		115.234375
3029		109.375000
3030		117.187500
3031		111.328125
3032		119.140625
3033		113.281250
3034		121.093750
3035		115.234375
3036		121.093750
3037		115.234375
3038		123.046875
3039		117.187500
3040		123.046875
3041		119.140625
3042		121.093750
3043		119.140625
3044		123.046875
3045		117.187500
3046		123.046875
3047		117.187500
3048		123.046875
3049		117.187500
3050		123.046875
3051		115.234375
3052		123.046875
3053		113.281250
3054		121.093750
3055		113.281250
3056		121.093750
3057		113.281250
3058		117.187500
3059		111.328125
3060		115.234375
3061		109.375000
3062		115.234375
3063		105.468750
3064		113.281250
3065		103.515625
3066		111.328125
3067		99.609375
3068		107.421875
3069		97.656250
3070		105.468750
3071		93.750000
3072		103.515625
3073		91.796875
3074		99.609375
3075		87.890625
3076		93.750000
3077		83.984375
3078		89.843750
3079		78.125000
3080		87.890625
3081		74.218750
3082		83.984375
3083		70.312500
3084		80.078125
3085		64.453125
3086		74.218750
3087		58.593750
3088		70.312500
3089		54.687500
3090		64.453125
3091		50.781250
3092		58.593750
3093		44.921875
3094		52.734375
3095		39.062500
3096		46.875000
3097		33.203125
3098		42.968750
3099		27.343750
3100		37.109375
3101		19.531250
3102		31.250000
3103		13.671875
3104		25.390625
3105		7.812500
3106		19.531250
3107		3.906250
3108		13.671875
3109		-1.953125
3110		5.859375
3111		-11.718750
3112		-1.953125
3113		-17.578125
3114		-5.859375
3115		-23.437500
3116		-11.718750
3117		-29.296875
3118		-17.578125
3119		-35.156250
3120		-23.437500
3121		-39.062500
3122		-29.296875
3123		-46.875000
3124		-35.156250
3125		-50.781250
3126		-44.921875
3127		-56.640625
3128		-48.828125
3129		-64.453125
3130		-54.687500
3131		-70.312500
3132		-60.546875
3133		-76.171875
3134		-64.453125
3135		-80.078125
3136		-70.312500
3137		-85.937500
3138		-76.171875
3139		-89.843750
3140		-80.078125
3141		-91.796875
3142		-83.984375
3143		-97.656250
3144		-91.796875
3145		-103.515625
3146		-95.703125
3147		-107.421875
3148		-97.656250
3149		-109.375000
3150		-101.562500
3151		-113.281250
3152		-103.515625
3153		-115.234375
3154		-107.421875
3155		-117.187500
3156		-109.375000
3157		-121.093750
3158		-113.281250
3159		-121.093750
3160		-117.187500
3161		-123.046875
3162		-117.187500
3163		-126.953125
3164		-117.187500
3165		-126.953125
3166		-119.140625
3167		-126.953125
3168		-119.140625
3169		-126.953125
3170		-121.093750
3171		-126.953125
3172		-121.093750
3173		-126.953125
3174		-119.140625
3175		-123.046875
3176		-121.093750
3177		-123.046875
3178		-121.093750
3179		-123.046875
3180		-117.187500
3181		-123.046875
3182		-115.234375
3183		-121.093750
3184		-113.281250
3185		-119.140625
3186		-111.328125
3187		-115.234375
3188		-107.421875
3189		-113.281250
3190		-103.515625
3191		-109.375000
3192		-103.515625
3193		-105.468750
3194		-99.609375
3195		-101.562500
3196		-93.750000
3197		-97.656250
3198		-89.843750
3199		-93.750000
3200		-85.937500
3201		-89.843750
3202		-80.078125
3203		-85.937500
3204		-76.171875
3205		-80.078125
3206		-70.312500
3207		-76.171875
3208		-66.406250
3209		-68.359375
3210		-60.546875
3211		-62.500000
3212		-56.640625
3213		-58.593750
3214		-48.828125
3215		-52.734375
3216		-42.968750
3217		-46.875000
3218		-35.156250
3219		-41.015625
3220		-29.296875
3221		-35.156250
3222		-25.390625
3223		-27.343750
3224		-17.578125
3225		-21.484375
3226		-13.671875
3227		-15.625000
3228		-7.812500
3229		-7.812500
3230		1.953125
3231		-3.906250
3232		7.812500
3233		1.953125
3234		13.671875
3235		7.812500
3236		19.531250
3237		13.671875
3238		25.390625
3239		19.531250
3240		31.250000
3241		25.390625
3242		35.156250
3243		33.203125
3244		41.015625
3245		39.062500
3246		46.875000
3247		42.968750
3248		54.687500
3249		48.828125
3250		58.593750
3251		52.734375
3252		64.453125
3253		58.593750
3254		68.359375
3255		64.453125
3256		72.265625
3257		68.359375
3258		78.125000
3259		74.218750
3260		80.078125
3261		80.078125
3262		83.984375
3263		83.984375
3264		91.796875
3265		85.937500
3266		95.703125
3267		89.843750
3268		97.656250
3269		93.750000
3270		101.562500
3271		95.703125
3272		103.515625
3273		99.609375
3274		107.421875
3275		101.562500
3276		109.375000
3277		107.421875
3278		111.328125
3279		109.375000
3280		115.234375
3281		109.375000
3282		117.187500
3283		111.328125
3284		119.140625
3285		113.281250
3286		121.093750
3287		113.281250
3288		121.093750
3289		115.234375
3290		123.046875
3291		115.234375
3292		123.046875
3293		119.140625
3294		121.093750
3295		119.140625
3296		121.093750
3297		117.187500
3298		123.046875
3299		117.187500
3300		123.046875
3301		117.187500
3302		123.046875
3303		117.187500
3304		123.046875
3305		115.234375
3306		121.093750
3307		113.281250
3308		121.093750
3309		113.281250
3310		119.140625
3311		113.281250
3312		115.234375
3313		109.375000
3314		115.234375
3315		107.421875
3316		115.234375
3317		103.515625
3318		113.281250
3319		101.562500
3320		109.375000
3321		97.656250
3322		107.421875
3323		95.703125
3324		103.515625
3325		93.750000
3326		99.609375
3327		89.843750
3328		95.703125
3329		85.937500
3330		91.796875
3331		82.031250
3332		89.843750
3333		76.171875
3334		85.937500
3335		72.265625
3336		82.031250
3337		66.406250
3338		76.171875
3339		62.500000
3340		72.265625
3341		56.640625
3342		66.406250
3343		52.734375
3344		60.546875
3345		48.828125
3346		54.687500
3347		41.015625
3348		48.828125
3349		35.156250
3350		46.875000
3351		29.296875
3352		39.062500
3353		21.484375
3354		35.156250
3355		17.578125
3356		27.343750
3357		11.718750
3358		21.484375
3359		5.859375
3360		15.625000
3361		0.000000
3362		7.812500
3363		-7.812500
3364		1.953125
3365		-13.671875
3366		-1.953125
3367		-19.531250
3368		-7.812500
3369		-27.343750
3370		-15.625000
3371		-33.203125
3372		-21.484375
3373		-39.062500
3374		-27.343750
3375		-42.968750
3376		-33.203125
3377		-48.828125
3378		-41.015625
3379		-54.687500
3380		-46.875000
3381		-60.546875
3382		-52.734375
3383		-66.406250
3384		-56.640625
3385		-72.265625
3386		-62.500000
3387		-78.125000
3388		-68.359375
3389		-82.031250
3390		-74.218750
3391		-85.937500
3392		-78.125000
3393		-89.843750
3394		-83.984375
3395		-93.750000
3396		-87.890625
3397		-99.609375
3398		-93.750000
3399		-103.515625
3400		-95.703125
3401		-107.421875
3402		-99.609375
3403		-111.328125
3404		-103.515625
3405		-115.234375
3406		-105.468750
3407		-117.187500
3408		-109.375000
3409		-119.140625
3410		-111.328125
3411		-119.140625
3412		-115.234375
3413		-121.093750
3414		-117.187500
3415		-125.000000
3416		-117.187500
3417		-125.000000
3418		-119.140625
3419		-126.953125
3420		-119.140625
3421		-126.953125
3422		-121.093750
3423		-126.953125
3424		-121.093750
3425		-126.953125
3426		-121.093750
3427		-125.000000
3428		-121.093750
3429		-123.046875
3430		-121.093750
3431		-125.000000
3432		-117.187500
3433		-123.046875
3434		-115.234375
3435		-123.046875
3436		-115.234375
3437		-121.093750
3438		-111.328125
3439		-117.187500
3440		-109.375000
3441		-115.234375
3442		-105.468750
3443		-111.328125
3444		-105.468750
3445		-105.468750
3446		-101.562500
3447		-103.515625
3448		-95.703125
3449		-101.562500
3450		-91.796875
3451		-97.656250
3452		-87.890625
3453		-91.796875
3454		-83.984375
3455		-87.890625
3456		-76.171875
3457		-83.984375
3458		-72.265625
3459		-78.125000
3460		-68.359375
3461		-70.312500
3462		-64.453125
3463		-64.453125
3464		-58.593750
3465		-60.546875
3466		-50.781250
3467		-56.640625
3468		-44.921875
3469		-50.781250
3470		-39.062500
3471		-44.921875
3472		-33.203125
3473		-39.062500
3474		-27.343750
3475		-31.250000
3476		-21.484375
3477		-25.390625
3478		-15.625000
3479		-17.578125
3480		-9.765625
3481		-11.718750
3482		-1.953125
3483		-5.859375
3484		3.906250
3485		0.000000
3486		9.765625
3487		5.859375
3488		15.625000
3489		11.718750
3490		21.484375
3491		17.578125
3492		29.296875
3493		23.437500
3494		33.203125
3495		31.250000
3496		37.109375
3497		37.109375
3498		42.968750
3499		41.015625
3500		50.781250
3501		44.921875
3502		56.640625
3503		50.781250
3504		62.500000
3505		56.640625
3506		66.406250
3507		62.500000
3508		72.265625
3509		66.406250
3510		76.171875
3511		72.265625
3512		78.125000
3513		78.125000
3514		83.984375
3515		82.031250
3516		89.843750
3517		83.984375
3518		93.750000
3519		87.890625
3520		95.703125
3521		91.796875
3522		99.609375
3523		93.750000
3524		103.515625
3525		97.656250
3526		107.421875
3527		101.562500
3528		107.421875
3529		105.468750
3530		109.375000
3531		107.421875
3532		113.281250
3533		107.421875
3534		115.234375
3535		109.375000
3536		117.187500
3537		111.328125
3538		119.140625
3539		113.281250
3540		121.093750
3541		115.234375
3542		123.046875
3543		115.234375
3544		123.046875
3545		119.140625
3546		121.093750
3547		119.140625
3548		121.093750
3549		117.187500
3550		123.046875
3551		117.187500
3552		125.000000
3553		117.187500
3554		123.046875
3555		117.187500
3556		123.046875
3557		115.234375
3558		123.046875
3559		115.234375
3560		121.093750
3561		115.234375
3562		121.093750
3563		113.281250
3564		117.187500
3565		111.328125
3566		117.187500
3567		109.375000
3568		115.234375
3569		105.468750
3570		113.281250
3571		103.515625
3572		111.328125
3573		99.609375
3574		107.421875
3575		97.656250
3576		105.468750
3577		93.750000
3578		101.562500
3579		91.796875
3580		97.656250
3581		87.890625
3582		93.750000
3583		82.031250
3584		91.796875
3585		78.125000
3586		87.890625
3587		74.218750
3588		83.984375
3589		70.312500
3590		78.125000
3591		64.453125
3592		74.218750
3593		58.593750
3594		70.312500
3595		56.640625
3596		64.453125
3597		50.781250
3598		56.640625
3599		42.968750
3600		52.734375
3601		37.109375
3602		48.828125
3603		33.203125
3604		42.968750
3605		27.343750
3606		37.109375
3607		19.531250
3608		31.250000
3609		15.625000
3610		25.390625
3611		9.765625
3612		19.531250
3613		3.906250
3614		11.718750
3615		-3.906250
3616		3.906250
3617		-9.765625
3618		0.000000
3619		-17.578125
3620		-5.859375
3621		-23.437500
3622		-11.718750
3623		-29.296875
3624		-17.578125
3625		-35.156250
3626		-25.390625
3627		-41.015625
3628		-31.250000
3629		-44.921875
3630		-39.062500
3631		-50.781250
3632		-44.921875
3633		-58.593750
3634		-50.781250
3635		-64.453125
3636		-54.687500
3637		-70.312500
3638		-58.593750
3639		-76.171875
3640		-64.453125
3641		-80.078125
3642		-70.312500
3643		-85.937500
3644		-74.218750
3645		-87.890625
3646		-80.078125
3647		-91.796875
3648		-87.890625
3649		-99.609375
3650		-91.796875
3651		-101.562500
3652		-93.750000
3653		-105.468750
3654		-97.656250
3655		-109.375000
3656		-101.562500
3657		-113.281250
3658		-103.515625
3659		-117.187500
3660		-107.421875
3661		-117.187500
3662		-111.328125
3663		-119.140625
3664		-115.234375
3665		-121.093750
3666		-117.187500
3667		-125.000000
3668		-117.187500
3669		-125.000000
3670		-119.140625
3671		-126.953125
3672		-119.140625
3673		-126.953125
3674		-121.093750
3675		-126.953125
3676		-121.093750
3677		-126.953125
3678		-121.093750
3679		-126.953125
3680		-121.093750
3681		-125.000000
3682		-121.093750
3683		-125.000000
3684		-119.140625
3685		-123.046875
3686		-117.187500
3687		-123.046875
3688		-115.234375
3689		-121.093750
3690		-113.281250
3691		-119.140625
3692		-109.375000
3693		-115.234375
3694		-107.421875
3695		-113.281250
3696		-105.468750
3697		-107.421875
3698		-103.515625
3699		-105.468750
3700		-99.609375
3701		-101.562500
3702		-93.750000
3703		-99.609375
3704		-87.890625
3705		-95.703125
3706		-85.937500
3707		-89.843750
3708		-80.078125
3709		-85.937500
3710		-76.171875
3711		-80.078125
3712		-70.312500
3713		-72.265625
3714		-66.406250
3715		-68.359375
3716		-60.546875
3717		-62.500000
3718		-54.687500
3719		-58.593750
3720		-48.828125
3721		-52.734375
3722		-41.015625
3723		-46.875000
3724		-37.109375
3725		-41.015625
3726		-29.296875
3727		-35.156250
3728		-25.390625
3729		-29.296875
3730		-19.531250
3731		-21.484375
3732		-13.671875
3733		-13.671875
3734		-5.859375
3735		-9.765625
3736		0.000000
3737		-3.906250
3738		7.812500
3739		1.953125
3740		13.671875
3741		7.812500
3742		19.531250
3743		13.671875
3744		25.390625
3745		19.531250
3746		29.296875
3747		27.343750
3748		35.156250
3749		35.156250
3750		41.015625
3751		39.062500
3752		48.828125
3753		42.968750
3754		52.734375
3755		48.828125
3756		58.593750
3757		52.734375
3758		64.453125
3759		58.593750
3760		68.359375
3761		64.453125
3762		74.218750
3763		68.359375
3764		76.171875
3765		76.171875
3766		80.078125
3767		80.078125
3768		87.890625
3769		82.031250
3770		91.796875
3771		85.937500
3772		93.750000
3773		89.843750
3774		97.656250
3775		93.750000
3776		101.562500
3777		95.703125
3778		103.515625
3779		99.609375
3780		105.468750
3781		103.515625
3782		107.421875
3783		107.421875
3784		111.328125
3785		107.421875
3786		115.234375
3787		109.375000
3788		117.187500
3789		111.328125
3790		119.140625
3791		113.281250
3792		121.093750
3793		113.281250
3794		121.093750
3795		115.234375
3796		121.093750
3797		119.140625
3798		121.093750
3799		119.140625
3800		121.093750
3801		117.187500
3802		123.046875
3803		117.187500
3804		123.046875
3805		117.187500
3806		123.046875
3807		117.187500
3808		123.046875
3809		115.234375
3810		123.046875
3811		115.234375
3812		123.046875
3813		115.234375
3814		121.093750
3815		115.234375
3816		117.187500
3817		111.328125
3818		117.187500
3819		109.375000
3820		117.187500
3821		105.468750
3822		115.234375
3823		105.468750
3824		111.328125
3825		101.562500
3826		109.375000
3827		99.609375
3828		107.421875
3829		95.703125
3830		105.468750
3831		93.750000
3832		99.609375
3833		89.843750
3834		95.703125
3835		83.984375
3836		91.796875
3837		80.078125
3838		89.843750
3839		76.171875
3840		85.937500
3841		72.265625
3842		82.031250
3843		66.406250
3844		76.171875
3845		62.500000
3846		72.265625
3847		58.593750
3848		66.406250
3849		54.687500
3850		60.546875
3851		46.875000
3852		54.687500
3853		41.015625
3854		50.781250
3855		35.156250
3856		44.921875
3857		29.296875
3858		39.062500
3859		23.437500
3860		35.156250
3861		17.578125
3862		29.296875
3863		13.671875
3864		21.484375
3865		7.812500
3866		13.671875
3867		0.000000
3868		7.812500
3869		-7.812500
3870		3.906250
3871		-13.671875
3872		-3.906250
3873		-21.484375
3874		-9.765625
3875		-25.390625
3876		-15.625000
3877		-33.203125
3878		-21.484375
3879		-39.062500
3880		-27.343750
3881		-42.968750
3882		-35.156250
3883		-48.828125
3884		-41.015625
3885		-56.640625
3886		-46.875000
3887		-62.500000
3888		-50.781250
3889		-68.359375
3890		-56.640625
3891		-72.265625
3892		-62.500000
3893		-76.171875
3894		-68.359375
3895		-83.984375
3896		-72.265625
3897		-85.937500
3898		-78.125000
3899		-89.843750
3900		-83.984375
3901		-97.656250
3902		-89.843750
3903		-101.562500
3904		-91.796875
3905		-105.468750
3906		-95.703125
3907		-107.421875
3908		-99.609375
3909		-111.328125
3910		-103.515625
3911		-115.234375
3912		-105.468750
3913		-117.187500
3914		-109.375000
3915		-117.187500
3916		-113.281250
3917		-119.140625
3918		-115.234375
3919		-123.046875
3920		-115.234375
3921		-125.000000
3922		-117.187500
3923		-125.000000
3924		-119.140625
3925		-126.953125
3926		-119.140625
3927		-126.953125
3928		-119.140625
3929		-126.953125
3930		-119.140625
3931		-126.953125
3932		-121.093750
3933		-123.046875
3934		-121.093750
3935		-125.000000
3936		-119.140625
3937		-125.000000
3938		-117.187500
3939		-123.046875
3940		-115.234375
3941		-121.093750
3942		-113.281250
3943		-119.140625
3944		-111.328125
3945		-117.187500
3946		-109.375000
3947		-113.281250
3948		-107.421875
3949		-109.375000
3950		-103.515625
3951		-105.468750
3952		-99.609375
3953		-103.515625
3954		-93.750000
3955		-99.609375
3956		-89.843750
3957		-95.703125
3958		-85.937500
3959		-91.796875
3960		-82.031250
3961		-85.937500
3962		-78.125000
3963		-82.031250
3964		-72.265625
3965		-74.218750
3966		-68.359375
3967		-70.312500
3968		-62.500000
3969		-64.453125
3970		-54.687500
3971		-60.546875
3972		-50.781250
3973		-54.687500
3974		-42.968750
3975		-48.828125
3976		-37.109375
3977		-42.968750
3978		-33.203125
3979		-37.109375
3980		-25.390625
3981		-31.250000
3982		-21.484375
3983		-23.437500
3984		-15.625000
3985		-17.578125
3986		-7.812500
3987		-11.718750
3988		0.000000
3989		-5.859375
3990		5.859375
3991		0.000000
3992		11.718750
3993		7.812500
3994		17.578125
3995		13.671875
3996		23.437500
3997		19.531250
3998		27.343750
3999		25.390625
4000		33.203125
4001		31.250000
4002		39.062500
4003		37.109375
4004		46.875000
4005		41.015625
4006		52.734375
4007		46.875000
4008		56.640625
4009		52.734375
4010		62.500000
4011		58.593750
4012		68.359375
4013		62.500000
4014		74.218750
4015		68.359375
4016		74.218750
4017		74.218750
4018		80.078125
4019		78.125000
4020		85.937500
4021		82.031250
4022		89.843750
4023		83.984375
4024		93.750000
4025		87.890625
4026		97.656250
4027		91.796875
4028		101.562500
4029		95.703125
4030		103.515625
4031		99.609375
4032		105.468750
4033		103.515625
4034		107.421875
4035		105.468750
4036		109.375000
4037		107.421875
4038		115.234375
4039		109.375000
4040		117.187500
4041		111.328125
4042		119.140625
4043		111.328125
4044		119.140625
4045		113.281250
4046		121.093750
4047		115.234375
4048		123.046875
4049		119.140625
4050		121.093750
4051		119.140625
4052		121.093750
4053		117.187500
4054		123.046875
4055		117.187500
4056		125.000000
4057		117.187500
4058		125.000000
4059		117.187500
4060		125.000000
4061		117.187500
4062		123.046875
4063		115.234375
4064		123.046875
4065		115.234375
4066		121.093750
4067		115.234375
4068		119.140625
4069		111.328125
4070		117.187500
4071		109.375000
4072		117.187500
4073		107.421875
4074		117.187500
4075		105.468750
4076		113.281250
4077		103.515625
4078		111.328125
4079		99.609375
4080		107.421875
4081		97.656250
4082		105.468750
4083		95.703125
4084		101.562500
4085		91.796875
4086		97.656250
4087		87.890625
4088		93.750000
4089		82.031250
4090		91.796875
4091		78.125000
4092		87.890625
4093		74.218750
4094		83.984375
4095		68.359375
4096		80.078125
4097		64.453125
4098		74.218750
4099		60.546875
4100		68.359375
4101		56.640625
4102		62.500000
4103		48.828125
4104		58.593750
4105		42.968750
4106		54.687500
4107		37.109375
4108		48.828125
4109		33.203125
4110		42.968750
4111		25.390625
4112		37.109375
4113		19.531250
4114		31.250000
4115		15.625000
4116		25.390625
4117		9.765625
4118		17.578125
4119		3.906250
4120		9.765625
4121		-3.906250
4122		5.859375
4123		-11.718750
4124		0.000000
4125		-17.578125
4126		-7.812500
4127		-23.437500
4128		-11.718750
4129		-29.296875
4130		-17.578125
4131		-37.109375
4132		-25.390625
4133		-39.062500
4134		-31.250000
4135		-46.875000
4136		-39.062500
4137		-52.734375
4138		-44.921875
4139		-58.593750
4140		-48.828125
4141		-64.453125
4142		-54.687500
4143		-70.312500
4144		-60.546875
4145		-76.171875
4146		-64.453125
4147		-82.031250
4148		-70.312500
4149		-83.984375
4150		-76.171875
4151		-87.890625
4152		-82.031250
4153		-91.796875
4154		-87.890625
4155		-99.609375
4156		-89.843750
4157		-103.515625
4158		-93.750000
4159		-107.421875
4160		-97.656250
4161		-109.375000
4162		-101.562500
4163		-113.281250
4164		-103.515625
4165		-115.234375
4166		-107.421875
4167		-115.234375
4168		-113.281250
4169		-119.140625
4170		-115.234375
4171		-123.046875
4172		-115.234375
4173		-123.046875
4174		-117.187500
4175		-125.000000
4176		-117.187500
4177		-126.953125
4178		-119.140625
4179		-126.953125
4180		-119.140625
4181		-126.953125
4182		-121.093750
4183		-126.953125
4184		-121.093750
4185		-125.000000
4186		-121.093750
4187		-125.000000
4188		-119.140625
4189		-125.000000
4190		-117.187500
4191		-123.046875
4192		-117.187500
4193		-123.046875
4194		-115.234375
4195		-121.093750
4196		-113.281250
4197		-119.140625
4198		-109.375000
4199		-115.234375
4200		-107.421875
4201		-111.328125
4202		-105.468750
4203		-107.421875
4204		-101.562500
4205		-105.468750
4206		-97.656250
4207		-101.562500
4208		-91.796875
4209		-97.656250
4210		-89.843750
4211		-93.750000
4212		-83.984375
4213		-89.843750
4214		-78.125000
4215		-83.984375
4216		-74.218750
4217		-80.078125
4218		-72.265625
4219		-72.265625
4220		-66.406250
4221		-66.406250
4222		-58.593750
4223		-62.500000
4224		-54.687500
4225		-56.640625
4226		-48.828125
4227		-50.781250
4228		-42.968750
4229		-44.921875
4230		-35.156250
4231		-39.062500
4232		-29.296875
4233		-33.203125
4234		-25.390625
4235		-25.390625
4236		-19.531250
4237		-19.531250
4238		-11.718750
4239		-15.625000
4240		-3.906250
4241		-9.765625
4242		1.953125
4243		-3.906250
4244		7.812500
4245		1.953125
4246		13.671875
4247		7.812500
4248		21.484375
4249		15.625000
4250		25.390625
4251		23.437500
4252		29.296875
4253		29.296875
4254		35.156250
4255		35.156250
4256		42.968750
4257		39.062500
4258		48.828125
4259		44.921875
4260		54.687500
4261		50.781250
4262		58.593750
4263		54.687500
4264		64.453125
4265		58.593750
4266		70.312500
4267		64.453125
4268		72.265625
4269		72.265625
4270		78.125000
4271		76.171875
4272		83.984375
4273		78.125000
4274		87.890625
4275		82.031250
4276		91.796875
4277		85.937500
4278		95.703125
4279		89.843750
4280		99.609375
4281		93.750000
4282		101.562500
4283		97.656250
4284		103.515625
4285		101.562500
4286		105.468750
4287		105.468750
4288		109.375000
4289		105.468750
4290		113.281250
4291		107.421875
4292		115.234375
4293		109.375000
4294		117.187500
4295		111.328125
4296		119.140625
4297		113.281250
4298		121.093750
4299		115.234375
4300		121.093750
4301		115.234375
4302		121.093750
4303		119.140625
4304		121.093750
4305		117.187500
4306		123.046875
4307		117.187500
4308		125.000000
4309		117.187500
4310		125.000000
4311		117.187500
4312		123.046875
4313		117.187500
4314		123.046875
4315		117.187500
4316		123.046875
4317		115.234375
4318		123.046875
4319		117.187500
4320		119.140625
4321		113.281250
4322		117.187500
4323		111.328125
4324		117.187500
4325		109.375000
4326		117.187500
4327		105.468750
4328		113.281250
4329		103.515625
4330		111.328125
4331		101.562500
4332		109.375000
4333		97.656250
4334		107.421875
4335		95.703125
4336		101.562500
4337		93.750000
4338		99.609375
4339		87.890625
4340		95.703125
4341		83.984375
4342		93.750000
4343		80.078125
4344		89.843750
4345		76.171875
4346		83.984375
4347		72.265625
4348		80.078125
4349		66.406250
4350		76.171875
4351		62.500000
4352		72.265625
4353		56.640625
4354		64.453125
4355		50.781250
4356		60.546875
4357		44.921875
4358		54.687500
4359		39.062500
4360		50.781250
4361		33.203125
4362		44.921875
4363		27.343750
4364		39.062500
4365		23.437500
4366		33.203125
4367		17.578125
4368		27.343750
4369		11.718750
4370		19.531250
4371		5.859375
4372		13.671875
4373		-1.953125
4374		7.812500
4375		-9.765625
4376		1.953125
4377		-15.625000
4378		-3.906250
4379		-21.484375
4380		-9.765625
4381		-27.343750
4382		-15.625000
4383		-33.203125
4384		-21.484375
4385		-37.109375
4386		-29.296875
4387		-42.968750
4388		-37.109375
4389		-50.781250
4390		-42.968750
4391		-56.640625
4392		-46.875000
4393		-62.500000
4394		-52.734375
4395		-68.359375
4396		-58.593750
4397		-74.218750
4398		-64.453125
4399		-78.125000
4400		-68.359375
4401		-82.031250
4402		-74.218750
4403		-85.937500
4404		-80.078125
4405		-91.796875
4406		-85.937500
4407		-97.656250
4408		-87.890625
4409		-101.562500
4410		-91.796875
4411		-105.468750
4412		-95.703125
4413		-109.375000
4414		-99.609375
4415		-111.328125
4416		-103.515625
4417		-115.234375
4418		-105.468750
4419		-115.234375
4420		-111.328125
4421		-117.187500
4422		-113.281250
4423		-121.093750
4424		-115.234375
4425		-123.046875
4426		-115.234375
4427		-125.000000
4428		-117.187500
4429		-126.953125
4430		-119.140625
4431		-126.953125
4432		-119.140625
4433		-126.953125
4434		-119.140625
4435		-126.953125
4436		-119.140625
4437		-125.000000
4438		-121.093750
4439		-125.000000
4440		-119.140625
4441		-126.953125
4442		-119.140625
4443		-125.000000
4444		-117.187500
4445		-123.046875
4446		-115.234375
4447		-121.093750
4448		-113.281250
4449		-119.140625
4450		-111.328125
4451		-117.187500
4452		-109.375000
4453		-111.328125
4454		-107.421875
4455		-109.375000
4456		-103.515625
4457		-107.421875
4458		-97.656250
4459		-103.515625
4460		-93.750000
4461		-99.609375
4462		-91.796875
4463		-95.703125
4464		-85.937500
4465		-91.796875
4466		-82.031250
4467		-85.937500
4468		-76.171875
4469		-82.031250
4470		-74.218750
4471		-74.218750
4472		-68.359375
4473		-70.312500
4474		-60.546875
4475		-66.406250
4476		-54.687500
4477		-60.546875
4478		-50.781250
4479		-54.687500
4480		-42.968750
4481		-48.828125
4482		-39.062500
4483		-42.968750
4484		-31.250000
4485		-35.156250
4486		-27.343750
4487		-29.296875
4488		-21.484375
4489		-23.437500
4490		-13.671875
4491		-17.578125
4492		-7.812500
4493		-11.718750
4494		0.000000
4495		-5.859375
4496		5.859375
4497		0.000000
4498		11.718750
4499		5.859375
4500		17.578125
4501		11.718750
4502		23.437500
4503		21.484375
4504		27.343750
4505		27.343750
4506		33.203125
4507		31.250000
4508		41.015625
4509		37.109375
4510		46.875000
4511		42.968750
4512		52.734375
4513		46.875000
4514		56.640625
4515		52.734375
4516		62.500000
4517		58.593750
4518		68.359375
4519		62.500000
4520		70.312500
4521		68.359375
4522		76.171875
4523		74.218750
4524		82.031250
4525		76.171875
4526		85.937500
4527		82.031250
4528		89.843750
4529		83.984375
4530		93.750000
4531		87.890625
4532		97.656250
4533		91.796875
4534		101.562500
4535		95.703125
4536		103.515625
4537		101.562500
4538		105.468750
4539		103.515625
4540		107.421875
4541		103.515625
4542		113.281250
4543		107.421875
4544		115.234375
4545		109.375000
4546		117.187500
4547		111.328125
4548		119.140625
4549		113.281250
4550		119.140625
4551		115.234375
4552		121.093750
4553		115.234375
4554		121.093750
4555		119.140625
4556		121.093750
4557		117.187500
4558		123.046875
4559		117.187500
4560		125.000000
4561		117.187500
4562		125.000000
4563		117.187500
4564		123.046875
4565		117.187500
4566		125.000000
4567		117.187500
4568		123.046875
4569		115.234375
4570		123.046875
4571		117.187500
4572		119.140625
4573		115.234375
4574		117.187500
4575		111.328125
4576		119.140625
4577		109.375000
4578		117.187500
4579		107.421875
4580		115.234375
4581		105.468750
4582		113.281250
4583		103.515625
4584		111.328125
4585		99.609375
4586		107.421875
4587		99.609375
4588		103.515625
4589		95.703125
4590		99.609375
4591		89.843750
4592		95.703125
4593		85.937500
4594		95.703125
4595		82.031250
4596		89.843750
4597		78.125000
4598		85.937500
4599		72.265625
4600		82.031250
4601		68.359375
4602		78.125000
4603		64.453125
4604		74.218750
4605		60.546875
4606		66.406250
4607		52.734375
4608		62.500000
4609		46.875000
4610		58.593750
4611		41.015625
4612		52.734375
4613		37.109375
4614		46.875000
4615		31.250000
4616		41.015625
4617		25.390625
4618		35.156250
4619		19.531250
4620		29.296875
4621		13.671875
4622		21.484375
4623		7.812500
4624		15.625000
4625		1.953125
4626		9.765625
4627		-5.859375
4628		5.859375
4629		-11.718750
4630		-1.953125
4631		-17.578125
4632		-7.812500
4633		-25.390625
4634		-13.671875
4635		-31.250000
4636		-19.531250
4637		-35.156250
4638		-25.390625
4639		-41.015625
4640		-33.203125
4641		-48.828125
4642		-39.062500
4643		-54.687500
4644		-44.921875
4645		-60.546875
4646		-50.781250
4647		-64.453125
4648		-56.640625
4649		-70.312500
4650		-62.500000
4651		-76.171875
4652		-66.406250
4653		-80.078125
4654		-72.265625
4655		-83.984375
4656		-78.125000
4657		-87.890625
4658		-83.984375
4659		-93.750000
4660		-85.937500
4661		-99.609375
4662		-91.796875
4663		-101.562500
4664		-93.750000
4665		-107.421875
4666		-99.609375
4667		-109.375000
4668		-103.515625
4669		-111.328125
4670		-105.468750
4671		-113.281250
4672		-109.375000
4673		-117.187500
4674		-113.281250
4675		-119.140625
4676		-115.234375
4677		-121.093750
4678		-117.187500
4679		-121.093750
4680		-119.140625
4681		-123.046875
4682		-119.140625
4683		-125.000000
4684		-121.093750
4685		-126.953125
4686		-121.093750
4687		-125.000000
4688		-121.093750
4689		-125.000000
4690		-123.046875
4691		-125.000000
4692		-121.093750
4693		-125.000000
4694		-119.140625
4695		-123.046875
4696		-119.140625
4697		-121.093750
4698		-117.187500
4699		-119.140625
4700		-115.234375
4701		-117.187500
4702		-113.281250
4703		-117.187500
4704		-111.328125
4705		-113.281250
4706		-107.421875
4707		-109.375000
4708		-105.468750
4709		-105.468750
4710		-101.562500
4711		-103.515625
4712		-97.656250
4713		-99.609375
4714		-93.750000
4715		-95.703125
4716		-89.843750
4717		-91.796875
4718		-85.937500
4719		-85.937500
4720		-80.078125
4721		-82.031250
4722		-74.218750
4723		-76.171875
4724		-70.312500
4725		-72.265625
4726		-64.453125
4727		-66.406250
4728		-58.593750
4729		-60.546875
4730		-52.734375
4731		-54.687500
4732		-46.875000
4733		-48.828125
4734		-41.015625
4735		-42.968750
4736		-35.156250
4737		-37.109375
4738		-29.296875
4739		-31.250000
4740		-23.437500
4741		-25.390625
4742		-17.578125
4743		-19.531250
4744		-11.718750
4745		-11.718750
4746		-3.906250
4747		-5.859375
4748		1.953125
4749		0.000000
4750		7.812500
4751		5.859375
4752		13.671875
4753		11.718750
4754		19.531250
4755		17.578125
4756		25.390625
4757		25.390625
4758		31.250000
4759		29.296875
4760		37.109375
4761		35.156250
4762		42.968750
4763		41.015625
4764		48.828125
4765		46.875000
4766		54.687500
4767		52.734375
4768		58.593750
4769		56.640625
4770		64.453125
4771		62.500000
4772		68.359375
4773		68.359375
4774		74.218750
4775		72.265625
4776		80.078125
4777		76.171875
4778		83.984375
4779		82.031250
4780		87.890625
4781		85.937500
4782		89.843750
4783		89.843750
4784		93.750000
4785		91.796875
4786		97.656250
4787		95.703125
4788		101.562500
4789		99.609375
4790		103.515625
4791		101.562500
4792		107.421875
4793		105.468750
4794		109.375000
4795		107.421875
4796		111.328125
4797		109.375000
4798		115.234375
4799		111.328125
4800		115.234375
4801		113.281250
4802		117.187500
4803		115.234375
4804		119.140625
4805		117.187500
4806		121.093750
4807		119.140625
4808		121.093750
4809		119.140625
4810		123.046875
4811		119.140625
4812		123.046875
4813		119.140625
4814		123.046875
4815		121.093750
4816		123.046875
4817		119.140625
4818		123.046875
4819		119.140625
4820		121.093750
4821		117.187500
4822		121.093750
4823		117.187500
4824		121.093750
4825		117.187500
4826		119.140625
4827		115.234375
4828		119.140625
4829		113.281250
4830		117.187500
4831		111.328125
4832		115.234375
4833		109.375000
4834		113.281250
4835		105.468750
4836		111.328125
4837		103.515625
4838		107.421875
4839		99.609375
4840		105.468750
4841		97.656250
4842		101.562500
4843		93.750000
4844		97.656250
4845		89.843750
4846		95.703125
4847		85.937500
4848		91.796875
4849		82.031250
4850		87.890625
4851		78.125000
4852		83.984375
4853		72.265625
4854		80.078125
4855		68.359375
4856		74.218750
4857		64.453125
4858		70.312500
4859		56.640625
4860		64.453125
4861		52.734375
4862		58.593750
4863		46.875000
4864		54.687500
4865		41.015625
4866		48.828125
4867		37.109375
4868		42.968750
4869		29.296875
4870		37.109375
4871		25.390625
4872		31.250000
4873		17.578125
4874		25.390625
4875		11.718750
4876		19.531250
4877		5.859375
4878		13.671875
4879		0.000000
4880		7.812500
4881		-5.859375
4882		0.000000
4883		-13.671875
4884		-5.859375
4885		-19.531250
4886		-11.718750
4887		-25.390625
4888		-17.578125
4889		-31.250000
4890		-23.437500
4891		-37.109375
4892		-29.296875
4893		-42.968750
4894		-37.109375
4895		-48.828125
4896		-41.015625
4897		-56.640625
4898		-48.828125
4899		-60.546875
4900		-54.687500
4901		-66.406250
4902		-58.593750
4903		-72.265625
4904		-64.453125
4905		-76.171875
4906		-70.312500
4907		-82.031250
4908		-74.218750
4909		-85.937500
4910		-80.078125
4911		-91.796875
4912		-83.984375
4913		-95.703125
4914		-89.843750
4915		-99.609375
4916		-93.750000
4917		-103.515625
4918		-97.656250
4919		-105.468750
4920		-101.562500
4921		-109.375000
4922		-103.515625
4923		-111.328125
4924		-107.421875
4925		-115.234375
4926		-111.328125
4927		-117.187500
4928		-113.281250
4929		-119.140625
4930		-115.234375
4931		-121.093750
4932		-117.187500
4933		-123.046875
4934		-117.187500
4935		-123.046875
4936		-119.140625
4937		-123.046875
4938		-121.093750
4939		-123.046875
4940		-121.093750
4941		-125.000000
4942		-121.093750
4943		-125.000000
4944		-121.093750
4945		-123.046875
4946		-119.140625
4947		-123.046875
4948		-119.140625
4949		-121.093750
4950		-117.187500
4951		-119.140625
4952		-115.234375
4953		-119.140625
4954		-113.281250
4955		-115.234375
4956		-111.328125
4957		-113.281250
4958		-109.375000
4959		-109.375000
4960		-105.468750
4961		-107.421875
4962		-101.562500
4963		-103.515625
4964		-99.609375
4965		-99.609375
4966		-95.703125
4967		-95.703125
4968		-91.796875
4969		-91.796875
4970		-85.937500
4971		-87.890625
4972		-82.031250
4973		-83.984375
4974		-78.125000
4975		-78.125000
4976		-72.265625
4977		-74.218750
4978		-66.406250
4979		-68.359375
4980		-60.546875
4981		-62.500000
4982		-54.687500
4983		-56.640625
4984		-50.781250
4985		-50.781250
4986		-44.921875
4987		-44.921875
4988		-39.062500
4989		-39.062500
4990		-31.250000
4991		-33.203125
4992		-25.390625
4993		-27.343750
4994		-19.531250
4995		-21.484375
4996		-13.671875
4997		-15.625000
4998		-7.812500
4999		-7.812500
5000		-1.953125
5001		-1.953125
5002		5.859375
5003		3.906250
5004		11.718750
5005		9.765625
5006		17.578125
5007		15.625000
5008		23.437500
5009		21.484375
5010		29.296875
5011		27.343750
5012		35.156250
5013		33.203125
5014		41.015625
5015		39.062500
5016		46.875000
5017		44.921875
5018		52.734375
5019		50.781250
5020		56.640625
5021		54.687500
5022		62.500000
5023		60.546875
5024		66.406250
5025		66.406250
5026		72.265625
5027		70.312500
5028		76.171875
5029		74.218750
5030		80.078125
5031		80.078125
5032		85.937500
5033		83.984375
5034		89.843750
5035		87.890625
5036		93.750000
5037		91.796875
5038		97.656250
5039		95.703125
5040		101.562500
5041		97.656250
5042		103.515625
5043		101.562500
5044		105.468750
5045		103.515625
5046		109.375000
5047		105.468750
5048		111.328125
5049		109.375000
5050		113.281250
5051		111.328125
5052		115.234375
5053		113.281250
5054		117.187500
5055		115.234375
5056		119.140625
5057		115.234375
5058		119.140625
5059		117.187500
5060		121.093750
5061		119.140625
5062		121.093750
5063		119.140625
5064		123.046875
5065		121.093750
5066		123.046875
5067		121.093750
5068		123.046875
5069		121.093750
5070		123.046875
5071		119.140625
5072		123.046875
5073		119.140625
5074		121.093750
5075		119.140625
5076		121.093750
5077		117.187500
5078		121.093750
5079		115.234375
5080		119.140625
5081		113.281250
5082		117.187500
5083		111.328125
5084		117.187500
5085		109.375000
5086		113.281250
5087		107.421875
5088		111.328125
5089		105.468750
5090		109.375000
5091		101.562500
5092		107.421875
5093		99.609375
5094		103.515625
5095		95.703125
5096		99.609375
5097		91.796875
5098		97.656250
5099		87.890625
5100		93.750000
5101		83.984375
5102		89.843750
5103		80.078125
5104		85.937500
5105		76.171875
5106		82.031250
5107		70.312500
5108		76.171875
5109		66.406250
5110		72.265625
5111		60.546875
5112		66.406250
5113		54.687500
5114		62.500000
5115		50.781250
5116		56.640625
5117		44.921875
5118		50.781250
5119		39.062500
5120		44.921875
5121		33.203125
5122		41.015625
5123		25.390625
5124		33.203125
5125		21.484375
5126		27.343750
5127		15.625000
5128		21.484375
5129		9.765625
5130		15.625000
5131		1.953125
5132		9.765625
5133		-3.906250
5134		3.906250
5135		-9.765625
5136		-1.953125
5137		-15.625000
5138		-7.812500
5139		-21.484375
5140		-15.625000
5141		-29.296875
5142		-21.484375
5143		-35.156250
5144		-27.343750
5145		-41.015625
5146		-33.203125
5147		-46.875000
5148		-39.062500
5149		-52.734375
5150		-44.921875
5151		-58.593750
5152		-50.781250
5153		-64.453125
5154		-56.640625
5155		-68.359375
5156		-62.500000
5157		-74.218750
5158		-66.406250
5159		-78.125000
5160		-72.265625
5161		-83.984375
5162		-78.125000
5163		-87.890625
5164		-82.031250
5165		-93.750000
5166		-87.890625
5167		-97.656250
5168		-91.796875
5169		-101.562500
5170		-95.703125
5171		-105.468750
5172		-99.609375
5173		-109.375000
5174		-103.515625
5175		-111.328125
5176		-105.468750
5177		-113.281250
5178		-109.375000
5179		-115.234375
5180		-111.328125
5181		-117.187500
5182		-113.281250
5183		-121.093750
5184		-115.234375
5185		-121.093750
5186		-119.140625
5187		-123.046875
5188		-119.140625
5189		-123.046875
5190		-121.093750
5191		-125.000000
5192		-121.093750
5193		-123.046875
5194		-121.093750
5195		-123.046875
5196		-121.093750
5197		-123.046875
5198		-121.093750
5199		-123.046875
5200		-119.140625
5201		-121.093750
5202		-117.187500
5203		-119.140625
5204		-117.187500
5205		-119.140625
5206		-113.281250
5207		-117.187500
5208		-111.328125
5209		-113.281250
5210		-109.375000
5211		-113.281250
5212		-107.421875
5213		-109.375000
5214		-103.515625
5215		-105.468750
5216		-99.609375
5217		-101.562500
5218		-97.656250
5219		-99.609375
5220		-91.796875
5221		-93.750000
5222		-87.890625
5223		-89.843750
5224		-83.984375
5225		-85.937500
5226		-78.125000
5227		-80.078125
5228		-74.218750
5229		-74.218750
5230		-68.359375
5231		-70.312500
5232		-62.500000
5233		-64.453125
5234		-58.593750
5235		-58.593750
5236		-52.734375
5237		-52.734375
5238		-44.921875
5239		-46.875000
5240		-41.015625
5241		-41.015625
5242		-35.156250
5243		-35.156250
5244		-29.296875
5245		-29.296875
5246		-21.484375
5247		-23.437500
5248		-15.625000
5249		-17.578125
5250		-9.765625
5251		-11.718750
5252		-3.906250
5253		-3.906250
5254		1.953125
5255		1.953125
5256		9.765625
5257		7.812500
5258		15.625000
5259		13.671875
5260		21.484375
5261		19.531250
5262		27.343750
5263		25.390625
5264		33.203125
5265		31.250000
5266		39.062500
5267		37.109375
5268		44.921875
5269		42.968750
5270		48.828125
5271		46.875000
5272		54.687500
5273		52.734375
5274		60.546875
5275		58.593750
5276		64.453125
5277		64.453125
5278		70.312500
5279		68.359375
5280		74.218750
5281		72.265625
5282		80.078125
5283		78.125000
5284		83.984375
5285		82.031250
5286		87.890625
5287		85.937500
5288		91.796875
5289		89.843750
5290		95.703125
5291		93.750000
5292		99.609375
5293		97.656250
5294		101.562500
5295		101.562500
5296		105.468750
5297		103.515625
5298		107.421875
5299		105.468750
5300		111.328125
5301		109.375000
5302		113.281250
5303		111.328125
5304		115.234375
5305		113.281250
5306		117.187500
5307		115.234375
5308		119.140625
5309		115.234375
5310		119.140625
5311		117.187500
5312		121.093750
5313		119.140625
5314		123.046875
5315		119.140625
5316		123.046875
5317		121.093750
5318		123.046875
5319		121.093750
5320		123.046875
5321		119.140625
5322		123.046875
5323		119.140625
5324		123.046875
5325		119.140625
5326		123.046875
5327		119.140625
5328		121.093750
5329		119.140625
5330		121.093750
5331		117.187500
5332		121.093750
5333		115.234375
5334		119.140625
5335		113.281250
5336		117.187500
5337		111.328125
5338		115.234375
5339		109.375000
5340		113.281250
5341		105.468750
5342		111.328125
5343		103.515625
5344		109.375000
5345		101.562500
5346		105.468750
5347		97.656250
5348		101.562500
5349		93.750000
5350		99.609375
5351		89.843750
5352		95.703125
5353		85.937500
5354		91.796875
5355		82.031250
5356		87.890625
5357		76.171875
5358		83.984375
5359		74.218750
5360		80.078125
5361		68.359375
5362		74.218750
5363		64.453125
5364		70.312500
5365		58.593750
5366		66.406250
5367		52.734375
5368		60.546875
5369		46.875000
5370		54.687500
5371		42.968750
5372		48.828125
5373		37.109375
5374		42.968750
5375		29.296875
5376		37.109375
5377		25.390625
5378		33.203125
5379		17.578125
5380		25.390625
5381		11.718750
5382		19.531250
5383		5.859375
5384		13.671875
5385		0.000000
5386		7.812500
5387		-5.859375
5388		1.953125
5389		-11.718750
5390		-5.859375
5391		-19.531250
5392		-9.765625
5393		-25.390625
5394		-17.578125
5395		-31.250000
5396		-23.437500
5397		-39.062500
5398		-29.296875
5399		-42.968750
5400		-35.156250
5401		-48.828125
5402		-42.968750
5403		-54.687500
5404		-46.875000
5405		-60.546875
5406		-54.687500
5407		-66.406250
5408		-58.593750
5409		-72.265625
5410		-64.453125
5411		-76.171875
5412		-70.312500
5413		-82.031250
5414		-74.218750
5415		-85.937500
5416		-80.078125
5417		-89.843750
5418		-83.984375
5419		-95.703125
5420		-89.843750
5421		-97.656250
5422		-93.750000
5423		-101.562500
5424		-97.656250
5425		-105.468750
5426		-99.609375
5427		-109.375000
5428		-103.515625
5429		-111.328125
5430		-107.421875
5431		-115.234375
5432		-111.328125
5433		-117.187500
5434		-113.281250
5435		-119.140625
5436		-113.281250
5437		-121.093750
5438		-117.187500
5439		-121.093750
5440		-119.140625
5441		-123.046875
5442		-119.140625
5443		-123.046875
5444		-119.140625
5445		-123.046875
5446		-121.093750
5447		-123.046875
5448		-121.093750
5449		-125.000000
5450		-119.140625
5451		-123.046875
5452		-119.140625
5453		-121.093750
5454		-119.140625
5455		-121.093750
5456		-117.187500
5457		-119.140625
5458		-115.234375
5459		-117.187500
5460		-113.281250
5461		-115.234375
5462		-111.328125
5463		-113.281250
5464		-107.421875
5465		-109.375000
5466		-105.468750
5467		-107.421875
5468		-101.562500
5469		-103.515625
5470		-97.656250
5471		-99.609375
5472		-93.750000
5473		-95.703125
5474		-89.843750
5475		-91.796875
5476		-85.937500
5477		-85.937500
5478		-80.078125
5479		-82.031250
5480		-76.171875
5481		-76.171875
5482		-70.312500
5483		-72.265625
5484		-64.453125
5485		-66.406250
5486		-60.546875
5487		-60.546875
5488		-54.687500
5489		-56.640625
5490		-48.828125
5491		-50.781250
5492		-42.968750
5493		-44.921875
5494		-37.109375
5495		-39.062500
5496		-31.250000
5497		-31.250000
5498		-25.390625
5499		-25.390625
5500		-17.578125
5501		-19.531250
5502		-11.718750
5503		-13.671875
5504		-5.859375
5505		-7.812500
5506		0.000000
5507		-1.953125
5508		5.859375
5509		5.859375
5510		11.718750
5511		9.765625
5512		17.578125
5513		17.578125
5514		23.437500
5515		23.437500
5516		31.250000
5517		29.296875
5518		35.156250
5519		35.156250
5520		41.015625
5521		41.015625
5522		46.875000
5523		44.921875
5524		52.734375
5525		50.781250
5526		58.593750
5527		56.640625
5528		62.500000
5529		62.500000
5530		68.359375
5531		66.406250
5532		72.265625
5533		72.265625
5534		78.125000
5535		76.171875
5536		82.031250
5537		80.078125
5538		85.937500
5539		83.984375
5540		89.843750
5541		87.890625
5542		93.750000
5543		91.796875
5544		97.656250
5545		95.703125
5546		101.562500
5547		99.609375
5548		103.515625
5549		101.562500
5550		107.421875
5551		105.468750
5552		109.375000
5553		107.421875
5554		111.328125
5555		109.375000
5556		115.234375
5557		111.328125
5558		115.234375
5559		113.281250
5560		119.140625
5561		115.234375
5562		119.140625
5563		117.187500
5564		121.093750
5565		119.140625
5566		121.093750
5567		119.140625
5568		123.046875
5569		119.140625
5570		123.046875
5571		119.140625
5572		123.046875
5573		121.093750
5574		123.046875
5575		121.093750
5576		123.046875
5577		119.140625
5578		123.046875
5579		119.140625
5580		121.093750
5581		119.140625
5582		121.093750
5583		117.187500
5584		121.093750
5585		115.234375
5586		119.140625
5587		115.234375
5588		119.140625
5589		113.281250
5590		115.234375
5591		109.375000
5592		113.281250
5593		107.421875
5594		111.328125
5595		105.468750
5596		109.375000
5597		101.562500
5598		107.421875
5599		99.609375
5600		103.515625
5601		95.703125
5602		101.562500
5603		91.796875
5604		97.656250
5605		87.890625
5606		93.750000
5607		83.984375
5608		89.843750
5609		80.078125
5610		85.937500
5611		76.171875
5612		82.031250
5613		70.312500
5614		76.171875
5615		66.406250
5616		72.265625
5617		60.546875
5618		68.359375
5619		54.687500
5620		62.500000
5621		50.781250
5622		56.640625
5623		44.921875
5624		50.781250
5625		39.062500
5626		46.875000
5627		33.203125
5628		41.015625
5629		27.343750
5630		35.156250
5631		21.484375
5632		29.296875
5633		15.625000
5634		21.484375
5635		7.812500
5636		15.625000
5637		1.953125
5638		9.765625
5639		-3.906250
5640		3.906250
5641		-9.765625
5642		-1.953125
5643		-15.625000
5644		-7.812500
5645		-21.484375
5646		-15.625000
5647		-29.296875
5648		-21.484375
5649		-35.156250
5650		-27.343750
5651		-41.015625
5652		-33.203125
5653		-46.875000
5654		-39.062500
5655		-52.734375
5656		-44.921875
5657		-58.593750
5658		-50.781250
5659		-62.500000
5660		-56.640625
5661		-70.312500
5662		-62.500000
5663		-74.218750
5664		-66.406250
5665		-78.125000
5666		-72.265625
5667		-83.984375
5668		-78.125000
5669		-87.890625
5670		-82.031250
5671		-93.750000
5672		-85.937500
5673		-97.656250
5674		-91.796875
5675		-101.562500
5676		-95.703125
5677		-103.515625
5678		-99.609375
5679		-107.421875
5680		-101.562500
5681		-109.375000
5682		-105.468750
5683		-113.281250
5684		-109.375000
5685		-115.234375
5686		-111.328125
5687		-119.140625
5688		-113.281250
5689		-119.140625
5690		-117.187500
5691		-121.093750
5692		-117.187500
5693		-123.046875
5694		-119.140625
5695		-123.046875
5696		-119.140625
5697		-123.046875
5698		-121.093750
5699		-123.046875
5700		-121.093750
5701		-125.000000
5702		-121.093750
5703		-123.046875
5704		-121.093750
5705		-123.046875
5706		-119.140625
5707		-121.093750
5708		-117.187500
5709		-119.140625
5710		-117.187500
5711		-119.140625
5712		-115.234375
5713		-117.187500
5714		-111.328125
5715		-113.281250
5716		-109.375000
5717		-111.328125
5718		-107.421875
5719		-109.375000
5720		-103.515625
5721		-105.468750
5722		-99.609375
5723		-101.562500
5724		-95.703125
5725		-97.656250
5726		-91.796875
5727		-93.750000
5728		-87.890625
5729		-89.843750
5730		-83.984375
5731		-83.984375
5732		-78.125000
5733		-80.078125
5734		-72.265625
5735		-76.171875
5736		-68.359375
5737		-70.312500
5738		-62.500000
5739		-64.453125
5740		-56.640625
5741		-58.593750
5742		-52.734375
5743		-52.734375
5744		-44.921875
5745		-46.875000
5746		-39.062500
5747		-41.015625
5748		-33.203125
5749		-35.156250
5750		-27.343750
5751		-29.296875
5752		-21.484375
5753		-23.437500
5754		-15.625000
5755		-17.578125
5756		-9.765625
5757		-11.718750
5758		-3.906250
5759		-3.906250
5760		3.906250
5761		1.953125
5762		9.765625
5763		7.812500
5764		15.625000
5765		13.671875
5766		21.484375
5767		19.531250
5768		27.343750
5769		25.390625
5770		33.203125
5771		31.250000
5772		39.062500
5773		37.109375
5774		44.921875
5775		42.968750
5776		50.781250
5777		48.828125
5778		54.687500
5779		54.687500
5780		60.546875
5781		58.593750
5782		66.406250
5783		64.453125
5784		70.312500
5785		68.359375
5786		76.171875
5787		74.218750
5788		80.078125
5789		76.171875
5790		83.984375
5791		82.031250
5792		89.843750
5793		85.937500
5794		91.796875
5795		89.843750
5796		95.703125
5797		93.750000
5798		99.609375
5799		97.656250
5800		101.562500
5801		101.562500
5802		105.468750
5803		103.515625
5804		109.375000
5805		105.468750
5806		111.328125
5807		109.375000
5808		113.281250
5809		109.375000
5810		115.234375
5811		113.281250
5812		117.187500
5813		115.234375
5814		119.140625
5815		117.187500
5816		119.140625
5817		119.140625
5818		121.093750
5819		119.140625
5820		123.046875
5821		119.140625
5822		123.046875
5823		119.140625
5824		123.046875
5825		119.140625
5826		125.000000
5827		121.093750
5828		125.000000
5829		119.140625
5830		123.046875
5831		119.140625
5832		123.046875
5833		119.140625
5834		121.093750
5835		117.187500
5836		121.093750
5837		115.234375
5838		121.093750
5839		115.234375
5840		119.140625
5841		113.281250
5842		117.187500
5843		111.328125
5844		115.234375
5845		107.421875
5846		113.281250
5847		107.421875
5848		111.328125
5849		103.515625
5850		107.421875
5851		99.609375
5852		105.468750
5853		97.656250
5854		103.515625
5855		93.750000
5856		99.609375
5857		89.843750
5858		95.703125
5859		85.937500
5860		93.750000
5861		82.031250
5862		87.890625
5863		78.125000
5864		83.984375
5865		72.265625
5866		78.125000
5867		68.359375
5868		74.218750
5869		62.500000
5870		70.312500
5871		56.640625
5872		66.406250
5873		52.734375
5874		60.546875
5875		46.875000
5876		54.687500
5877		41.015625
5878		48.828125
5879		35.156250
5880		42.968750
5881		29.296875
5882		39.062500
5883		23.437500
5884		31.250000
5885		17.578125
5886		25.390625
5887		11.718750
5888		19.531250
5889		5.859375
5890		13.671875
5891		-1.953125
5892		7.812500
5893		-7.812500
5894		1.953125
5895		-13.671875
5896		-3.906250
5897		-19.531250
5898		-11.718750
5899		-25.390625
5900		-17.578125
5901		-31.250000
5902		-23.437500
5903		-37.109375
5904		-29.296875
5905		-42.968750
5906		-37.109375
5907		-48.828125
5908		-42.968750
5909		-54.687500
5910		-48.828125
5911		-60.546875
5912		-54.687500
5913		-66.406250
5914		-60.546875
5915		-72.265625
5916		-64.453125
5917		-76.171875
5918		-70.312500
5919		-82.031250
5920		-76.171875
5921		-85.937500
5922		-80.078125
5923		-89.843750
5924		-83.984375
5925		-93.750000
5926		-89.843750
5927		-97.656250
5928		-93.750000
5929		-101.562500
5930		-97.656250
5931		-105.468750
5932		-101.562500
5933		-109.375000
5934		-103.515625
5935		-111.328125
5936		-107.421875
5937		-113.281250
5938		-111.328125
5939		-117.187500
5940		-113.281250
5941		-119.140625
5942		-115.234375
5943		-119.140625
5944		-117.187500
5945		-121.093750
5946		-117.187500
5947		-121.093750
5948		-119.140625
5949		-123.046875
5950		-121.093750
5951		-123.046875
5952		-121.093750
5953		-123.046875
5954		-121.093750
5955		-123.046875
5956		-121.093750
5957		-123.046875
5958		-119.140625
5959		-121.093750
5960		-119.140625
5961		-119.140625
5962		-117.187500
5963		-119.140625
5964		-115.234375
5965		-117.187500
5966		-113.281250
5967		-115.234375
5968		-111.328125
5969		-111.328125
5970		-107.421875
5971		-109.375000
5972		-105.468750
5973		-105.468750
5974		-101.562500
5975		-103.515625
5976		-97.656250
5977		-99.609375
5978		-93.750000
5979		-95.703125
5980		-89.843750
5981		-89.843750
5982		-85.937500
5983		-85.937500
5984		-80.078125
5985		-82.031250
5986		-76.171875
5987		-76.171875
5988		-70.312500
5989		-72.265625
5990		-64.453125
5991		-66.406250
5992		-60.546875
5993		-60.546875
5994		-54.687500
5995		-54.687500
5996		-48.828125
5997		-50.781250
5998		-42.968750
5999		-44.921875
6000		-37.109375
6001		-37.109375
6002		-29.296875
6003		-31.250000
6004		-23.437500
6005		-25.390625
6006		-15.625000
6007		-19.531250
6008		-9.765625
6009		-13.671875
6010		-5.859375
6011		-7.812500
6012		0.000000
6013		0.000000
6014		5.859375
6015		5.859375
6016		11.718750
6017		11.718750
6018		19.531250
6019		17.578125
6020		27.343750
6021		21.484375
6022		33.203125
6023		25.390625
6024		39.062500
6025		33.203125
6026		42.968750
6027		41.015625
6028		46.875000
6029		46.875000
6030		52.734375
6031		52.734375
6032		58.593750
6033		56.640625
6034		62.500000
6035		62.500000
6036		68.359375
6037		64.453125
6038		74.218750
6039		70.312500
6040		80.078125
6041		74.218750
6042		85.937500
6043		82.031250
6044		85.937500
6045		85.937500
6046		89.843750
6047		89.843750
6048		93.750000
6049		93.750000
6050		97.656250
6051		95.703125
6052		101.562500
6053		97.656250
6054		107.421875
6055		99.609375
6056		109.375000
6057		103.515625
6058		113.281250
6059		103.515625
6060		113.281250
6061		111.328125
6062		113.281250
6063		113.281250
6064		115.234375
6065		115.234375
6066		117.187500
6067		117.187500
6068		119.140625
6069		117.187500
6070		121.093750
6071		115.234375
6072		125.000000
6073		117.187500
6074		125.000000
6075		117.187500
6076		125.000000
6077		121.093750
6078		123.046875
6079		121.093750
6080		123.046875
6081		121.093750
6082		123.046875
6083		121.093750
6084		123.046875
6085		119.140625
6086		123.046875
6087		115.234375
6088		125.000000
6089		113.281250
6090		123.046875
6091		111.328125
6092		123.046875
6093		115.234375
6094		117.187500
6095		113.281250
6096		117.187500
6097		109.375000
6098		113.281250
6099		107.421875
6100		111.328125
6101		105.468750
6102		109.375000
6103		97.656250
6104		107.421875
6105		95.703125
6106		107.421875
6107		91.796875
6108		103.515625
6109		91.796875
6110		101.562500
6111		87.890625
6112		93.750000
6113		83.984375
6114		89.843750
6115		80.078125
6116		85.937500
6117		76.171875
6118		82.031250
6119		70.312500
6120		76.171875
6121		62.500000
6122		74.218750
6123		58.593750
6124		68.359375
6125		54.687500
6126		62.500000
6127		50.781250
6128		56.640625
6129		44.921875
6130		50.781250
6131		39.062500
6132		44.921875
6133		33.203125
6134		39.062500
6135		27.343750
6136		33.203125
6137		17.578125
6138		27.343750
6139		11.718750
6140		25.390625
6141		5.859375
6142		19.531250
6143		1.953125
6144		11.718750
6145		-3.906250
6146		3.906250
6147		-9.765625
6148		-1.953125
6149		-17.578125
6150		-9.765625
6151		-23.437500
6152		-15.625000
6153		-29.296875
6154		-21.484375
6155		-35.156250
6156		-25.390625
6157		-41.015625
6158		-31.250000
6159		-46.875000
6160		-37.109375
6161		-52.734375
6162		-44.921875
6163		-58.593750
6164		-50.781250
6165		-62.500000
6166		-56.640625
6167		-70.312500
6168		-62.500000
6169		-74.218750
6170		-68.359375
6171		-82.031250
6172		-72.265625
6173		-85.937500
6174		-76.171875
6175		-91.796875
6176		-80.078125
6177		-91.796875
6178		-87.890625
6179		-95.703125
6180		-91.796875
6181		-101.562500
6182		-95.703125
6183		-103.515625
6184		-99.609375
6185		-107.421875
6186		-103.515625
6187		-109.375000
6188		-105.468750
6189		-115.234375
6190		-107.421875
6191		-117.187500
6192		-109.375000
6193		-117.187500
6194		-111.328125
6195		-119.140625
6196		-115.234375
6197		-121.093750
6198		-117.187500
6199		-121.093750
6200		-119.140625
6201		-123.046875
6202		-119.140625
6203		-123.046875
6204		-121.093750
6205		-123.046875
6206		-121.093750
6207		-125.000000
6208		-117.187500
6209		-123.046875
6210		-117.187500
6211		-121.093750
6212		-119.140625
6213		-121.093750
6214		-117.187500
6215		-119.140625
6216		-115.234375
6217		-117.187500
6218		-113.281250
6219		-115.234375
6220		-111.328125
6221		-113.281250
6222		-109.375000
6223		-111.328125
6224		-103.515625
6225		-109.375000
6226		-101.562500
6227		-103.515625
6228		-99.609375
6229		-99.609375
6230		-95.703125
6231		-95.703125
6232		-91.796875
6233		-91.796875
6234		-87.890625
6235		-87.890625
6236		-82.031250
6237		-83.984375
6238		-78.125000
6239		-78.125000
6240		-72.265625
6241		-74.218750
6242		-66.406250
6243		-68.359375
6244		-62.500000
6245		-62.500000
6246		-56.640625
6247		-58.593750
6248		-50.781250
6249		-52.734375
6250		-44.921875
6251		-44.921875
6252		-39.062500
6253		-39.062500
6254		-33.203125
6255		-33.203125
6256		-27.343750
6257		-27.343750
6258		-21.484375
6259		-21.484375
6260		-13.671875
6261		-15.625000
6262		-7.812500
6263		-9.765625
6264		-1.953125
6265		-3.906250
6266		3.906250
6267		1.953125
6268		9.765625
6269		9.765625
6270		15.625000
6271		15.625000
6272		23.437500
6273		21.484375
6274		29.296875
6275		27.343750
6276		33.203125
6277		33.203125
6278		39.062500
6279		39.062500
6280		44.921875
6281		44.921875
6282		50.781250
6283		50.781250
6284		56.640625
6285		54.687500
6286		60.546875
6287		60.546875
6288		66.406250
6289		64.453125
6290		72.265625
6291		70.312500
6292		76.171875
6293		74.218750
6294		80.078125
6295		80.078125
6296		85.937500
6297		83.984375
6298		89.843750
6299		87.890625
6300		93.750000
6301		91.796875
6302		95.703125
6303		95.703125
6304		99.609375
6305		97.656250
6306		103.515625
6307		101.562500
6308		105.468750
6309		103.515625
6310		109.375000
6311		107.421875
6312		111.328125
6313		109.375000
6314		113.281250
6315		111.328125
6316		115.234375
6317		113.281250
6318		117.187500
6319		115.234375
6320		119.140625
6321		117.187500
6322		121.093750
6323		117.187500
6324		121.093750
6325		119.140625
6326		123.046875
6327		121.093750
6328		123.046875
6329		121.093750
6330		125.000000
6331		121.093750
6332		123.046875
6333		121.093750
6334		123.046875
6335		121.093750
6336		123.046875
6337		121.093750
6338		123.046875
6339		119.140625
6340		123.046875
6341		117.187500
6342		121.093750
6343		117.187500
6344		119.140625
6345		115.234375
6346		119.140625
6347		113.281250
6348		117.187500
6349		111.328125
6350		115.234375
6351		109.375000
6352		113.281250
6353		107.421875
6354		111.328125
6355		101.562500
6356		107.421875
6357		99.609375
6358		105.468750
6359		97.656250
6360		103.515625
6361		93.750000
6362		99.609375
6363		89.843750
6364		95.703125
6365		85.937500
6366		91.796875
6367		82.031250
6368		87.890625
6369		78.125000
6370		83.984375
6371		72.265625
6372		78.125000
6373		68.359375
6374		74.218750
6375		62.500000
6376		68.359375
6377		58.593750
6378		64.453125
6379		52.734375
6380		58.593750
6381		46.875000
6382		54.687500
6383		41.015625
6384		48.828125
6385		35.156250
6386		42.968750
6387		29.296875
6388		37.109375
6389		23.437500
6390		31.250000
6391		17.578125
6392		25.390625
6393		11.718750
6394		19.531250
6395		5.859375
6396		13.671875
6397		-1.953125
6398		7.812500
6399		-7.812500
6400		0.000000
6401		-13.671875
6402		-5.859375
6403		-19.531250
6404		-11.718750
6405		-25.390625
6406		-17.578125
6407		-31.250000
6408		-23.437500
6409		-37.109375
6410		-29.296875
6411		-44.921875
6412		-37.109375
6413		-48.828125
6414		-42.968750
6415		-54.687500
6416		-48.828125
6417		-60.546875
6418		-54.687500
6419		-66.406250
6420		-60.546875
6421		-72.265625
6422		-64.453125
6423		-78.125000
6424		-70.312500
6425		-82.031250
6426		-74.218750
6427		-85.937500
6428		-80.078125
6429		-91.796875
6430		-85.937500
6431		-95.703125
6432		-87.890625
6433		-97.656250
6434		-93.750000
6435		-101.562500
6436		-97.656250
6437		-105.468750
6438		-101.562500
6439		-109.375000
6440		-103.515625
6441		-113.281250
6442		-107.421875
6443		-113.281250
6444		-109.375000
6445		-115.234375
6446		-113.281250
6447		-119.140625
6448		-115.234375
6449		-119.140625
6450		-117.187500
6451		-121.093750
6452		-117.187500
6453		-121.093750
6454		-119.140625
6455		-123.046875
6456		-119.140625
6457		-123.046875
6458		-119.140625
6459		-123.046875
6460		-119.140625
6461		-123.046875
6462		-121.093750
6463		-121.093750
6464		-119.140625
6465		-121.093750
6466		-117.187500
6467		-119.140625
6468		-117.187500
6469		-117.187500
6470		-115.234375
6471		-117.187500
6472		-113.281250
6473		-113.281250
6474		-109.375000
6475		-111.328125
6476		-107.421875
6477		-109.375000
6478		-103.515625
6479		-105.468750
6480		-101.562500
6481		-101.562500
6482		-97.656250
6483		-97.656250
6484		-93.750000
6485		-93.750000
6486		-89.843750
6487		-89.843750
6488		-83.984375
6489		-85.937500
6490		-80.078125
6491		-80.078125
6492		-74.218750
6493		-76.171875
6494		-70.312500
6495		-70.312500
6496		-64.453125
6497		-66.406250
6498		-58.593750
6499		-60.546875
6500		-52.734375
6501		-54.687500
6502		-46.875000
6503		-48.828125
6504		-41.015625
6505		-42.968750
6506		-35.156250
6507		-37.109375
6508		-29.296875
6509		-31.250000
6510		-23.437500
6511		-25.390625
6512		-17.578125
6513		-17.578125
6514		-11.718750
6515		-11.718750
6516		-5.859375
6517		-5.859375
6518		1.953125
6519		0.000000
6520		7.812500
6521		5.859375
6522		13.671875
6523		11.718750
6524		19.531250
6525		17.578125
6526		25.390625
6527		23.437500
6528		31.250000
6529		29.296875
6530		37.109375
6531		37.109375
6532		42.968750
6533		41.015625
6534		48.828125
6535		46.875000
6536		54.687500
6537		52.734375
6538		58.593750
6539		58.593750
6540		64.453125
6541		62.500000
6542		70.312500
6543		68.359375
6544		74.218750
6545		72.265625
6546		78.125000
6547		78.125000
6548		82.031250
6549		82.031250
6550		87.890625
6551		85.937500
6552		91.796875
6553		89.843750
6554		95.703125
6555		93.750000
6556		97.656250
6557		97.656250
6558		101.562500
6559		99.609375
6560		105.468750
6561		103.515625
6562		107.421875
6563		105.468750
6564		109.375000
6565		107.421875
6566		111.328125
6567		111.328125
6568		115.234375
6569		113.281250
6570		117.187500
6571		115.234375
6572		117.187500
6573		117.187500
6574		119.140625
6575		117.187500
6576		121.093750
6577		119.140625
6578		121.093750
6579		121.093750
6580		123.046875
6581		121.093750
6582		123.046875
6583		121.093750
6584		123.046875
6585		121.093750
6586		123.046875
6587		121.093750
6588		123.046875
6589		121.093750
6590		123.046875
6591		119.140625
6592		123.046875
6593		119.140625
6594		121.093750
6595		117.187500
6596		121.093750
6597		115.234375
6598		119.140625
6599		113.281250
6600		117.187500
6601		113.281250
6602		115.234375
6603		109.375000
6604		113.281250
6605		107.421875
6606		111.328125
6607		103.515625
6608		109.375000
6609		101.562500
6610		107.421875
6611		99.609375
6612		103.515625
6613		95.703125
6614		99.609375
6615		91.796875
6616		97.656250
6617		87.890625
6618		93.750000
6619		83.984375
6620		89.843750
6621		80.078125
6622		85.937500
6623		74.218750
6624		80.078125
6625		68.359375
6626		76.171875
6627		64.453125
6628		72.265625
6629		60.546875
6630		66.406250
6631		54.687500
6632		60.546875
6633		48.828125
6634		56.640625
6635		44.921875
6636		50.781250
6637		37.109375
6638		44.921875
6639		31.250000
6640		39.062500
6641		25.390625
6642		33.203125
6643		19.531250
6644		29.296875
6645		13.671875
6646		21.484375
6647		7.812500
6648		15.625000
6649		1.953125
6650		9.765625
6651		-3.906250
6652		1.953125
6653		-9.765625
6654		-3.906250
6655		-17.578125
6656		-9.765625
6657		-23.437500
6658		-15.625000
6659		-29.296875
6660		-21.484375
6661		-35.156250
6662		-27.343750
6663		-41.015625
6664		-33.203125
6665		-46.875000
6666		-39.062500
6667		-52.734375
6668		-46.875000
6669		-58.593750
6670		-52.734375
6671		-64.453125
6672		-56.640625
6673		-70.312500
6674		-62.500000
6675		-76.171875
6676		-68.359375
6677		-80.078125
6678		-72.265625
6679		-83.984375
6680		-78.125000
6681		-89.843750
6682		-82.031250
6683		-93.750000
6684		-87.890625
6685		-97.656250
6686		-91.796875
6687		-101.562500
6688		-95.703125
6689		-103.515625
6690		-99.609375
6691		-107.421875
6692		-103.515625
6693		-111.328125
6694		-105.468750
6695		-113.281250
6696		-107.421875
6697		-115.234375
6698		-111.328125
6699		-117.187500
6700		-113.281250
6701		-119.140625
6702		-115.234375
6703		-121.093750
6704		-117.187500
6705		-121.093750
6706		-119.140625
6707		-123.046875
6708		-119.140625
6709		-125.000000
6710		-119.140625
6711		-125.000000
6712		-119.140625
6713		-123.046875
6714		-119.140625
6715		-121.093750
6716		-119.140625
6717		-121.093750
6718		-119.140625
6719		-121.093750
6720		-117.187500
6721		-119.140625
6722		-115.234375
6723		-117.187500
6724		-113.281250
6725		-115.234375
6726		-109.375000
6727		-115.234375
6728		-107.421875
6729		-111.328125
6730		-105.468750
6731		-107.421875
6732		-101.562500
6733		-103.515625
6734		-97.656250
6735		-99.609375
6736		-93.750000
6737		-95.703125
6738		-89.843750
6739		-91.796875
6740		-85.937500
6741		-87.890625
6742		-82.031250
6743		-82.031250
6744		-76.171875
6745		-78.125000
6746		-72.265625
6747		-72.265625
6748		-66.406250
6749		-68.359375
6750		-60.546875
6751		-62.500000
6752		-54.687500
6753		-56.640625
6754		-50.781250
6755		-50.781250
6756		-42.968750
6757		-44.921875
6758		-37.109375
6759		-39.062500
6760		-31.250000
6761		-35.156250
6762		-25.390625
6763		-27.343750
6764		-19.531250
6765		-21.484375
6766		-13.671875
6767		-15.625000
6768		-7.812500
6769		-7.812500
6770		-1.953125
6771		-1.953125
6772		3.906250
6773		3.906250
6774		11.718750
6775		9.765625
6776		17.578125
6777		13.671875
6778		23.437500
6779		21.484375
6780		29.296875
6781		27.343750
6782		35.156250
6783		33.203125
6784		41.015625
6785		39.062500
6786		46.875000
6787		44.921875
6788		52.734375
6789		50.781250
6790		56.640625
6791		56.640625
6792		62.500000
6793		60.546875
6794		68.359375
6795		66.406250
6796		72.265625
6797		70.312500
6798		76.171875
6799		76.171875
6800		82.031250
6801		80.078125
6802		85.937500
6803		83.984375
6804		89.843750
6805		87.890625
6806		93.750000
6807		91.796875
6808		97.656250
6809		95.703125
6810		101.562500
6811		99.609375
6812		103.515625
6813		101.562500
6814		105.468750
6815		105.468750
6816		109.375000
6817		107.421875
6818		111.328125
6819		109.375000
6820		113.281250
6821		113.281250
6822		115.234375
6823		113.281250
6824		117.187500
6825		115.234375
6826		119.140625
6827		117.187500
6828		121.093750
6829		119.140625
6830		121.093750
6831		119.140625
6832		123.046875
6833		121.093750
6834		123.046875
6835		121.093750
6836		123.046875
6837		121.093750
6838		123.046875
6839		121.093750
6840		123.046875
6841		121.093750
6842		123.046875
6843		119.140625
6844		123.046875
6845		119.140625
6846		121.093750
6847		119.140625
6848		121.093750
6849		117.187500
6850		119.140625
6851		115.234375
6852		119.140625
6853		113.281250
6854		117.187500
6855		111.328125
6856		115.234375
6857		109.375000
6858		113.281250
6859		105.468750
6860		109.375000
6861		103.515625
6862		107.421875
6863		101.562500
6864		105.468750
6865		95.703125
6866		101.562500
6867		93.750000
6868		99.609375
6869		89.843750
6870		95.703125
6871		85.937500
6872		91.796875
6873		82.031250
6874		87.890625
6875		76.171875
6876		82.031250
6877		72.265625
6878		78.125000
6879		66.406250
6880		74.218750
6881		62.500000
6882		68.359375
6883		56.640625
6884		64.453125
6885		50.781250
6886		58.593750
6887		46.875000
6888		52.734375
6889		41.015625
6890		46.875000
6891		35.156250
6892		41.015625
6893		29.296875
6894		37.109375
6895		23.437500
6896		29.296875
6897		17.578125
6898		23.437500
6899		11.718750
6900		17.578125
6901		3.906250
6902		11.718750
6903		-1.953125
6904		5.859375
6905		-7.812500
6906		0.000000
6907		-13.671875
6908		-5.859375
6909		-19.531250
6910		-11.718750
6911		-25.390625
6912		-19.531250
6913		-33.203125
6914		-25.390625
6915		-39.062500
6916		-31.250000
6917		-44.921875
6918		-37.109375
6919		-50.781250
6920		-42.968750
6921		-56.640625
6922		-48.828125
6923		-62.500000
6924		-54.687500
6925		-66.406250
6926		-60.546875
6927		-72.265625
6928		-66.406250
6929		-78.125000
6930		-70.312500
6931		-82.031250
6932		-76.171875
6933		-85.937500
6934		-80.078125
6935		-91.796875
6936		-85.937500
6937		-95.703125
6938		-89.843750
6939		-99.609375
6940		-93.750000
6941		-103.515625
6942		-97.656250
6943		-105.468750
6944		-101.562500
6945		-109.375000
6946		-105.468750
6947		-111.328125
6948		-107.421875
6949		-113.281250
6950		-111.328125
6951		-117.187500
6952		-113.281250
6953		-119.140625
6954		-115.234375
6955		-119.140625
6956		-115.234375
6957		-121.093750
6958		-117.187500
6959		-121.093750
6960		-119.140625
6961		-123.046875
6962		-119.140625
6963		-123.046875
6964		-121.093750
6965		-123.046875
6966		-121.093750
6967		-123.046875
6968		-119.140625
6969		-121.093750
6970		-119.140625
6971		-121.093750
6972		-117.187500
6973		-119.140625
6974		-117.187500
6975		-117.187500
6976		-115.234375
6977		-115.234375
6978		-111.328125
6979		-113.281250
6980		-109.375000
6981		-111.328125
6982		-107.421875
6983		-107.421875
6984		-103.515625
6985		-105.468750
6986		-99.609375
6987		-101.562500
6988		-95.703125
6989		-97.656250
6990		-91.796875
6991		-93.750000
6992		-87.890625
6993		-89.843750
6994		-83.984375
6995		-83.984375
6996		-78.125000
6997		-80.078125
6998		-74.218750
6999		-76.171875
7000		-68.359375
7001		-70.312500
7002		-62.500000
7003		-64.453125
7004		-58.593750
7005		-58.593750
7006		-52.734375
7007		-52.734375
7008		-46.875000
7009		-46.875000
7010		-41.015625
7011		-41.015625
7012		-35.156250
7013		-35.156250
7014		-29.296875
7015		-29.296875
7016		-21.484375
7017		-23.437500
7018		-15.625000
7019		-17.578125
7020		-9.765625
7021		-11.718750
7022		-3.906250
7023		-5.859375
7024		1.953125
7025		1.953125
7026		7.812500
7027		7.812500
7028		13.671875
7029		13.671875
7030		19.531250
7031		19.531250
7032		27.343750
7033		25.390625
7034		33.203125
7035		31.250000
7036		39.062500
7037		37.109375
7038		42.968750
7039		42.968750
7040		48.828125
7041		48.828125
7042		54.687500
7043		52.734375
7044		60.546875
7045		58.593750
7046		64.453125
7047		64.453125
7048		70.312500
7049		68.359375
7050		74.218750
7051		74.218750
7052		80.078125
7053		78.125000
7054		83.984375
7055		82.031250
7056		87.890625
7057		85.937500
7058		91.796875
7059		89.843750
7060		95.703125
7061		93.750000
7062		99.609375
7063		97.656250
7064		101.562500
7065		101.562500
7066		105.468750
7067		103.515625
7068		107.421875
7069		107.421875
7070		111.328125
7071		109.375000
7072		113.281250
7073		111.328125
7074		115.234375
7075		113.281250
7076		117.187500
7077		115.234375
7078		119.140625
7079		117.187500
7080		119.140625
7081		119.140625
7082		121.093750
7083		119.140625
7084		121.093750
7085		121.093750
7086		123.046875
7087		121.093750
7088		123.046875
7089		121.093750
7090		123.046875
7091		121.093750
7092		123.046875
7093		121.093750
7094		123.046875
7095		121.093750
7096		123.046875
7097		119.140625
7098		123.046875
7099		119.140625
7100		121.093750
7101		117.187500
7102		121.093750
7103		115.234375
7104		119.140625
7105		113.281250
7106		117.187500
7107		113.281250
7108		115.234375
7109		109.375000
7110		113.281250
7111		107.421875
7112		111.328125
7113		105.468750
7114		109.375000
7115		101.562500
7116		105.468750
7117		99.609375
7118		103.515625
7119		95.703125
7120		99.609375
7121		91.796875
7122		97.656250
7123		87.890625
7124		93.750000
7125		83.984375
7126		89.843750
7127		80.078125
7128		85.937500
7129		74.218750
7130		80.078125
7131		70.312500
7132		76.171875
7133		64.453125
7134		70.312500
7135		60.546875
7136		66.406250
7137		54.687500
7138		60.546875
7139		48.828125
7140		56.640625
7141		42.968750
7142		50.781250
7143		37.109375
7144		44.921875
7145		31.250000
7146		39.062500
7147		25.390625
7148		33.203125
7149		19.531250
7150		27.343750
7151		13.671875
7152		21.484375
7153		7.812500
7154		15.625000
7155		1.953125
7156		7.812500
7157		-3.906250
7158		1.953125
7159		-11.718750
7160		-3.906250
7161		-17.578125
7162		-9.765625
7163		-23.437500
7164		-15.625000
7165		-29.296875
7166		-21.484375
7167		-35.156250
7168		-29.296875
7169		-41.015625
7170		-35.156250
7171		-46.875000
7172		-41.015625
7173		-52.734375
7174		-46.875000
7175		-58.593750
7176		-52.734375
7177		-64.453125
7178		-58.593750
7179		-70.312500
7180		-62.500000
7181		-74.218750
7182		-68.359375
7183		-80.078125
7184		-74.218750
7185		-83.984375
7186		-78.125000
7187		-87.890625
7188		-82.031250
7189		-93.750000
7190		-87.890625
7191		-97.656250
7192		-91.796875
7193		-101.562500
7194		-95.703125
7195		-103.515625
7196		-99.609375
7197		-107.421875
7198		-103.515625
7199		-111.328125
7200		-107.421875
7201		-113.281250
7202		-109.375000
7203		-115.234375
7204		-111.328125
7205		-117.187500
7206		-113.281250
7207		-119.140625
7208		-115.234375
7209		-119.140625
7210		-117.187500
7211		-121.093750
7212		-119.140625
7213		-121.093750
7214		-119.140625
7215		-123.046875
7216		-121.093750
7217		-123.046875
7218		-121.093750
7219		-123.046875
7220		-119.140625
7221		-121.093750
7222		-119.140625
7223		-121.093750
7224		-117.187500
7225		-119.140625
7226		-117.187500
7227		-117.187500
7228		-115.234375
7229		-117.187500
7230		-113.281250
7231		-115.234375
7232		-111.328125
7233		-111.328125
7234		-107.421875
7235		-109.375000
7236		-103.515625
7237		-105.468750
7238		-101.562500
7239		-101.562500
7240		-97.656250
7241		-99.609375
7242		-93.750000
7243		-95.703125
7244		-89.843750
7245		-91.796875
7246		-85.937500
7247		-85.937500
7248		-80.078125
7249		-82.031250
7250		-76.171875
7251		-76.171875
7252		-70.312500
7253		-72.265625
7254		-66.406250
7255		-66.406250
7256		-60.546875
7257		-60.546875
7258		-54.687500
7259		-54.687500
7260		-48.828125
7261		-50.781250
7262		-42.968750
7263		-42.968750
7264		-37.109375
7265		-37.109375
7266		-31.250000
7267		-31.250000
7268		-25.390625
7269		-25.390625
7270		-17.578125
7271		-19.531250
7272		-11.718750
7273		-13.671875
7274		-5.859375
7275		-7.812500
7276		0.000000
7277		-1.953125
7278		5.859375
7279		5.859375
7280		11.718750
7281		9.765625
7282		17.578125
7283		17.578125
7284		23.437500
7285		23.437500
7286		29.296875
7287		29.296875
7288		37.109375
7289		35.156250
7290		41.015625
7291		41.015625
7292		46.875000
7293		46.875000
7294		52.734375
7295		50.781250
7296		58.593750
7297		56.640625
7298		64.453125
7299		62.500000
7300		68.359375
7301		66.406250
7302		72.265625
7303		72.265625
7304		78.125000
7305		76.171875
7306		82.031250
7307		80.078125
7308		85.937500
7309		85.937500
7310		89.843750
7311		89.843750
7312		93.750000
7313		91.796875
7314		97.656250
7315		95.703125
7316		101.562500
7317		99.609375
7318		103.515625
7319		103.515625
7320		107.421875
7321		105.468750
7322		109.375000
7323		107.421875
7324		111.328125
7325		111.328125
7326		115.234375
7327		113.281250
7328		115.234375
7329		115.234375
7330		117.187500
7331		117.187500
7332		119.140625
7333		117.187500
7334		121.093750
7335		119.140625
7336		121.093750
7337		119.140625
7338		123.046875
7339		121.093750
7340		123.046875
7341		121.093750
7342		123.046875
7343		121.093750
7344		123.046875
7345		121.093750
7346		123.046875
7347		121.093750
7348		123.046875
7349		121.093750
7350		123.046875
7351		119.140625
7352		123.046875
7353		119.140625
7354		121.093750
7355		117.187500
7356		119.140625
7357		115.234375
7358		119.140625
7359		113.281250
7360		117.187500
7361		111.328125
7362		115.234375
7363		109.375000
7364		113.281250
7365		105.468750
7366		109.375000
7367		103.515625
7368		107.421875
7369		99.609375
7370		105.468750
7371		97.656250
7372		101.562500
7373		93.750000
7374		97.656250
7375		89.843750
7376		93.750000
7377		85.937500
7378		89.843750
7379		80.078125
7380		85.937500
7381		76.171875
7382		82.031250
7383		72.265625
7384		78.125000
7385		66.406250
7386		72.265625
7387		62.500000
7388		68.359375
7389		56.640625
7390		62.500000
7391		50.781250
7392		58.593750
7393		44.921875
7394		52.734375
7395		41.015625
7396		46.875000
7397		35.156250
7398		41.015625
7399		29.296875
7400		35.156250
7401		21.484375
7402		29.296875
7403		15.625000
7404		23.437500
7405		9.765625
7406		17.578125
7407		3.906250
7408		11.718750
7409		-1.953125
7410		5.859375
7411		-7.812500
7412		-1.953125
7413		-15.625000
7414		-7.812500
7415		-21.484375
7416		-13.671875
7417		-27.343750
7418		-19.531250
7419		-33.203125
7420		-25.390625
7421		-39.062500
7422		-31.250000
7423		-44.921875
7424		-37.109375
7425		-50.781250
7426		-42.968750
7427		-56.640625
7428		-48.828125
7429		-62.500000
7430		-54.687500
7431		-68.359375
7432		-60.546875
7433		-72.265625
7434		-66.406250
7435		-78.125000
7436		-72.265625
7437		-82.031250
7438		-76.171875
7439		-85.937500
7440		-82.031250
7441		-91.796875
7442		-85.937500
7443		-95.703125
7444		-89.843750
7445		-99.609375
7446		-93.750000
7447		-103.515625
7448		-97.656250
7449		-105.468750
7450		-101.562500
7451		-109.375000
7452		-105.468750
7453		-111.328125
7454		-107.421875
7455		-115.234375
7456		-111.328125
7457		-117.187500
7458		-113.281250
7459		-119.140625
7460		-115.234375
7461		-119.140625
7462		-117.187500
7463		-121.093750
7464		-117.187500
7465		-121.093750
7466		-119.140625
7467		-121.093750
7468		-119.140625
7469		-123.046875
7470		-119.140625
7471		-121.093750
7472		-119.140625
7473		-121.093750
7474		-119.140625
7475		-121.093750
7476		-117.187500
7477		-121.093750
7478		-117.187500
7479		-119.140625
7480		-115.234375
7481		-117.187500
7482		-113.281250
7483		-115.234375
7484		-111.328125
7485		-113.281250
7486		-109.375000
7487		-111.328125
7488		-105.468750
7489		-107.421875
7490		-103.515625
7491		-103.515625
7492		-99.609375
7493		-99.609375
7494		-95.703125
7495		-97.656250
7496		-91.796875
7497		-91.796875
7498		-87.890625
7499		-87.890625
7500		-82.031250
7501		-83.984375
7502		-78.125000
7503		-80.078125
7504		-72.265625
7505		-74.218750
7506		-68.359375
7507		-68.359375
7508		-62.500000
7509		-64.453125
7510		-56.640625
7511		-58.593750
7512		-50.781250
7513		-52.734375
7514		-44.921875
7515		-46.875000
7516		-39.062500
7517		-41.015625
7518		-33.203125
7519		-35.156250
7520		-27.343750
7521		-29.296875
7522		-21.484375
7523		-23.437500
7524		-15.625000
7525		-15.625000
7526		-9.765625
7527		-9.765625
7528		-3.906250
7529		-3.906250
7530		3.906250
7531		1.953125
7532		9.765625
7533		7.812500
7534		15.625000
7535		13.671875
7536		21.484375
7537		19.531250
7538		27.343750
7539		25.390625
7540		33.203125
7541		31.250000
7542		39.062500
7543		37.109375
7544		44.921875
7545		42.968750
7546		50.781250
7547		48.828125
7548		54.687500
7549		54.687500
7550		60.546875
7551		58.593750
7552		66.406250
7553		64.453125
7554		70.312500
7555		70.312500
7556		76.171875
7557		74.218750
7558		80.078125
7559		78.125000
7560		83.984375
7561		83.984375
7562		87.890625
7563		85.937500
7564		91.796875
7565		89.843750
7566		95.703125
7567		93.750000
7568		99.609375
7569		97.656250
7570		101.562500
7571		101.562500
7572		105.468750
7573		103.515625
7574		107.421875
7575		107.421875
7576		111.328125
7577		109.375000
7578		113.281250
7579		111.328125
7580		115.234375
7581		113.281250
7582		117.187500
7583		115.234375
7584		119.140625
7585		117.187500
7586		119.140625
7587		119.140625
7588		121.093750
7589		119.140625
7590		123.046875
7591		119.140625
7592		123.046875
7593		121.093750
7594		123.046875
7595		121.093750
7596		123.046875
7597		121.093750
7598		123.046875
7599		121.093750
7600		123.046875
7601		121.093750
7602		123.046875
7603		119.140625
7604		123.046875
7605		119.140625
7606		121.093750
7607		117.187500
7608		119.140625
7609		115.234375
7610		119.140625
7611		113.281250
7612		117.187500
7613		111.328125
7614		115.234375
7615		109.375000
7616		113.281250
7617		107.421875
7618		111.328125
7619		103.515625
7620		109.375000
7621		101.562500
7622		105.468750
7623		97.656250
7624		103.515625
7625		93.750000
7626		99.609375
7627		91.796875
7628		95.703125
7629		87.890625
7630		91.796875
7631		82.031250
7632		87.890625
7633		78.125000
7634		83.984375
7635		74.218750
7636		80.078125
7637		68.359375
7638		74.218750
7639		64.453125
7640		70.312500
7641		58.593750
7642		66.406250
7643		54.687500
7644		60.546875
7645		48.828125
7646		54.687500
7647		42.968750
7648		48.828125
7649		37.109375
7650		44.921875
7651		31.250000
7652		39.062500
7653		25.390625
7654		33.203125
7655		17.578125
7656		27.343750
7657		13.671875
7658		19.531250
7659		7.812500
7660		15.625000
7661		0.000000
7662		7.812500
7663		-5.859375
7664		1.953125
7665		-11.718750
7666		-3.906250
7667		-17.578125
7668		-9.765625
7669		-23.437500
7670		-17.578125
7671		-31.250000
7672		-23.437500
7673		-37.109375
7674		-29.296875
7675		-44.921875
7676		-35.156250
7677		-48.828125
7678		-41.015625
7679		-54.687500
7680		-46.875000
7681		-60.546875
7682		-52.734375
7683		-64.453125
7684		-58.593750
7685		-70.312500
7686		-62.500000
7687		-78.125000
7688		-68.359375
7689		-80.078125
7690		-74.218750
7691		-85.937500
7692		-78.125000
7693		-89.843750
7694		-82.031250
7695		-95.703125
7696		-87.890625
7697		-97.656250
7698		-93.750000
7699		-101.562500
7700		-95.703125
7701		-105.468750
7702		-99.609375
7703		-107.421875
7704		-101.562500
7705		-111.328125
7706		-105.468750
7707		-113.281250
7708		-109.375000
7709		-117.187500
7710		-111.328125
7711		-117.187500
7712		-113.281250
7713		-119.140625
7714		-115.234375
7715		-121.093750
7716		-117.187500
7717		-123.046875
7718		-119.140625
7719		-125.000000
7720		-117.187500
7721		-123.046875
7722		-119.140625
7723		-123.046875
7724		-121.093750
7725		-123.046875
7726		-119.140625
7727		-123.046875
7728		-119.140625
7729		-121.093750
7730		-117.187500
7731		-119.140625
7732		-117.187500
7733		-119.140625
7734		-115.234375
7735		-117.187500
7736		-111.328125
7737		-117.187500
7738		-109.375000
7739		-115.234375
7740		-107.421875
7741		-109.375000
7742		-105.468750
7743		-107.421875
7744		-99.609375
7745		-103.515625
7746		-97.656250
7747		-103.515625
7748		-93.750000
7749		-95.703125
7750		-89.843750
7751		-91.796875
7752		-83.984375
7753		-87.890625
7754		-80.078125
7755		-82.031250
7756		-76.171875
7757		-76.171875
7758		-70.312500
7759		-72.265625
7760		-62.500000
7761		-70.312500
7762		-60.546875
7763		-62.500000
7764		-54.687500
7765		-56.640625
7766		-48.828125
7767		-50.781250
7768		-42.968750
7769		-44.921875
7770		-37.109375
7771		-41.015625
7772		-29.296875
7773		-31.250000
7774		-25.390625
7775		-25.390625
7776		-17.578125
7777		-19.531250
7778		-11.718750
7779		-13.671875
7780		-3.906250
7781		-7.812500
7782		0.000000
7783		-1.953125
7784		5.859375
7785		5.859375
7786		13.671875
7787		9.765625
7788		19.531250
7789		15.625000
7790		25.390625
7791		23.437500
7792		29.296875
7793		29.296875
7794		39.062500
7795		31.250000
7796		41.015625
7797		39.062500
7798		46.875000
7799		46.875000
7800		52.734375
7801		50.781250
7802		58.593750
7803		56.640625
7804		66.406250
7805		58.593750
7806		68.359375
7807		66.406250
7808		72.265625
7809		72.265625
7810		78.125000
7811		74.218750
7812		83.984375
7813		80.078125
7814		87.890625
7815		83.984375
7816		89.843750
7817		87.890625
7818		93.750000
7819		91.796875
7820		97.656250
7821		93.750000
7822		101.562500
7823		97.656250
7824		103.515625
7825		101.562500
7826		107.421875
7827		103.515625
7828		113.281250
7829		105.468750
7830		111.328125
7831		105.468750
7832		115.234375
7833		113.281250
7834		115.234375
7835		115.234375
7836		117.187500
7837		113.281250
7838		123.046875
7839		117.187500
7840		121.093750
7841		119.140625
7842		121.093750
7843		119.140625
7844		125.000000
7845		117.187500
7846		125.000000
7847		119.140625
7848		125.000000
7849		121.093750
7850		123.046875
7851		121.093750
7852		123.046875
7853		119.140625
7854		125.000000
7855		117.187500
7856		125.000000
7857		119.140625
7858		121.093750
7859		117.187500
7860		121.093750
7861		113.281250
7862		121.093750
7863		113.281250
7864		119.140625
7865		113.281250
7866		115.234375
7867		109.375000
7868		113.281250
7869		107.421875
7870		111.328125
7871		103.515625
7872		111.328125
7873		101.562500
7874		107.421875
7875		99.609375
7876		103.515625
7877		91.796875
7878		101.562500
7879		91.796875
7880		99.609375
7881		87.890625
7882		95.703125
7883		83.984375
7884		89.843750
7885		80.078125
7886		85.937500
7887		72.265625
7888		82.031250
7889		70.312500
7890		80.078125
7891		66.406250
7892		74.218750
7893		60.546875
7894		66.406250
7895		54.687500
7896		64.453125
7897		48.828125
7898		56.640625
7899		44.921875
7900		50.781250
7901		39.062500
7902		44.921875
7903		33.203125
7904		41.015625
7905		27.343750
7906		37.109375
7907		21.484375
7908		29.296875
7909		15.625000
7910		21.484375
7911		5.859375
7912		17.578125
7913		1.953125
7914		13.671875
7915		-3.906250
7916		5.859375
7917		-9.765625
7918		-1.953125
7919		-17.578125
7920		-7.812500
7921		-25.390625
7922		-13.671875
7923		-27.343750
7924		-21.484375
7925		-35.156250
7926		-27.343750
7927		-42.968750
7928		-33.203125
7929		-46.875000
7930		-39.062500
7931		-52.734375
7932		-44.921875
7933		-58.593750
7934		-50.781250
7935		-62.500000
7936		-56.640625
7937		-68.359375
7938		-62.500000
7939		-76.171875
7940		-66.406250
7941		-80.078125
7942		-72.265625
7943		-83.984375
7944		-78.125000
7945		-87.890625
7946		-82.031250
7947		-91.796875
7948		-87.890625
7949		-97.656250
7950		-91.796875
7951		-99.609375
7952		-95.703125
7953		-103.515625
7954		-99.609375
7955		-107.421875
7956		-103.515625
7957		-111.328125
7958		-105.468750
7959		-113.281250
7960		-109.375000
7961		-117.187500
7962		-111.328125
7963		-117.187500
7964		-113.281250
7965		-119.140625
7966		-117.187500
7967		-121.093750
7968		-117.187500
7969		-121.093750
7970		-119.140625
7971		-123.046875
7972		-119.140625
7973		-123.046875
7974		-121.093750
7975		-123.046875
7976		-121.093750
7977		-123.046875
7978		-121.093750
7979		-123.046875
7980		-121.093750
7981		-123.046875
7982		-119.140625
7983		-121.093750
7984		-117.187500
7985		-119.140625
7986		-117.187500
7987		-119.140625
7988		-115.234375
7989		-115.234375
7990		-111.328125
7991		-113.281250
7992		-109.375000
7993		-111.328125
7994		-107.421875
7995		-107.421875
7996		-103.515625
7997		-105.468750
7998		-99.609375
7999		-101.562500
8000		-95.703125
8001		-97.656250
8002		-91.796875
8003		-93.750000
8004		-85.937500
8005		-89.843750
8006		-82.031250
8007		-85.937500
8008		-78.125000
8009		-80.078125
8010		-72.265625
8011		-74.218750
8012		-66.406250
8013		-70.312500
8014		-62.500000
8015		-64.453125
8016		-56.640625
8017		-58.593750
8018		-52.734375
8019		-52.734375
8020		-44.921875
8021		-46.875000
8022		-39.062500
8023		-42.968750
8024		-33.203125
8025		-35.156250
8026		-27.343750
8027		-29.296875
8028		-21.484375
8029		-23.437500
8030		-13.671875
8031		-17.578125
8032		-7.812500
8033		-11.718750
8034		-3.906250
8035		-3.906250
8036		3.906250
8037		1.953125
8038		9.765625
8039		7.812500
8040		15.625000
8041		13.671875
8042		23.437500
8043		19.531250
8044		29.296875
8045		25.390625
8046		33.203125
8047		31.250000
8048		39.062500
8049		37.109375
8050		44.921875
8051		42.968750
8052		50.781250
8053		48.828125
8054		56.640625
8055		52.734375
8056		62.500000
8057		58.593750
8058		68.359375
8059		64.453125
8060		72.265625
8061		68.359375
8062		76.171875
8063		72.265625
8064		80.078125
8065		78.125000
8066		83.984375
8067		82.031250
8068		87.890625
8069		85.937500
8070		91.796875
8071		89.843750
8072		95.703125
8073		93.750000
8074		99.609375
8075		97.656250
8076		103.515625
8077		99.609375
8078		105.468750
8079		103.515625
8080		109.375000
8081		105.468750
8082		111.328125
8083		109.375000
8084		113.281250
8085		111.328125
8086		115.234375
8087		113.281250
8088		117.187500
8089		113.281250
8090		119.140625
8091		115.234375
8092		121.093750
8093		117.187500
8094		123.046875
8095		117.187500
8096		123.046875
8097		119.140625
8098		123.046875
8099		119.140625
8100		123.046875
8101		121.093750
8102		123.046875
8103		121.093750
8104		123.046875
8105		119.140625
8106		123.046875
8107		119.140625
8108		123.046875
8109		119.140625
8110		123.046875
8111		117.187500
8112		123.046875
8113		115.234375
8114		121.093750
8115		113.281250
8116		119.140625
8117		113.281250
8118		117.187500
8119		111.328125
8120		115.234375
8121		109.375000
8122		113.281250
8123		105.468750
8124		109.375000
8125		103.515625
8126		107.421875
8127		99.609375
8128		105.468750
8129		97.656250
8130		101.562500
8131		93.750000
8132		99.609375
8133		89.843750
8134		95.703125
8135		85.937500
8136		91.796875
8137		80.078125
8138		87.890625
8139		78.125000
8140		83.984375
8141		72.265625
8142		78.125000
8143		66.406250
8144		74.218750
8145		62.500000
8146		72.265625
8147		56.640625
8148		64.453125
8149		50.781250
8150		58.593750
8151		46.875000
8152		52.734375
8153		41.015625
8154		48.828125
8155		35.156250
8156		42.968750
8157		29.296875
8158		37.109375
8159		23.437500
8160		31.250000
8161		17.578125
8162		25.390625
8163		9.765625
8164		19.531250
8165		5.859375
8166		11.718750
8167		-1.953125
8168		5.859375
8169		-7.812500
8170		0.000000
8171		-13.671875
8172		-5.859375
8173		-19.531250
8174		-11.718750
8175		-25.390625
8176		-19.531250
8177		-33.203125
8178		-23.437500
8179		-39.062500
8180		-31.250000
8181		-44.921875
8182		-37.109375
8183		-50.781250
8184		-42.968750
8185		-56.640625
8186		-48.828125
8187		-60.546875
8188		-54.687500
8189		-66.406250
8190		-60.546875
8191		-72.265625
8192		-66.406250
8193		-78.125000
8194		-70.312500
8195		-82.031250
8196		-76.171875
8197		-85.937500
8198		-80.078125
8199		-91.796875
8200		-85.937500
8201		-95.703125
8202		-89.843750
8203		-99.609375
8204		-93.750000
8205		-103.515625
8206		-97.656250
8207		-107.421875
8208		-101.562500
8209		-109.375000
8210		-103.515625
8211		-113.281250
8212		-107.421875
8213		-115.234375
8214		-111.328125
8215		-117.187500
8216		-113.281250
8217		-119.140625
8218		-115.234375
8219		-121.093750
8220		-117.187500
8221		-121.093750
8222		-119.140625
8223		-123.046875
8224		-119.140625
8225		-125.000000
8226		-121.093750
8227		-125.000000
8228		-121.093750
8229		-125.000000
8230		-121.093750
8231		-125.000000
8232		-121.093750
8233		-123.046875
8234		-119.140625
8235		-123.046875
8236		-119.140625
8237		-121.093750
8238		-117.187500
8239		-119.140625
8240		-115.234375
8241		-117.187500
8242		-113.281250
8243		-115.234375
8244		-111.328125
8245		-113.281250
8246		-107.421875
8247		-109.375000
8248		-105.468750
8249		-107.421875
8250		-101.562500
8251		-103.515625
8252		-97.656250
8253		-99.609375
8254		-93.750000
8255		-95.703125
8256		-89.843750
8257		-91.796875
8258		-85.937500
8259		-85.937500
8260		-82.031250
8261		-82.031250
8262		-76.171875
8263		-78.125000
8264		-70.312500
8265		-72.265625
8266		-66.406250
8267		-68.359375
8268		-60.546875
8269		-62.500000
8270		-54.687500
8271		-56.640625
8272		-48.828125
8273		-50.781250
8274		-42.968750
8275		-44.921875
8276		-37.109375
8277		-39.062500
8278		-31.250000
8279		-33.203125
8280		-23.437500
8281		-27.343750
8282		-17.578125
8283		-19.531250
8284		-11.718750
8285		-13.671875
8286		-5.859375
8287		-7.812500
8288		0.000000
8289		-1.953125
8290		5.859375
8291		5.859375
8292		11.718750
8293		9.765625
8294		17.578125
8295		17.578125
8296		23.437500
8297		23.437500
8298		31.250000
8299		29.296875
8300		37.109375
8301		35.156250
8302		41.015625
8303		41.015625
8304		46.875000
8305		46.875000
8306		52.734375
8307		50.781250
8308		58.593750
8309		56.640625
8310		62.500000
8311		62.500000
8312		68.359375
8313		66.406250
8314		72.265625
8315		72.265625
8316		78.125000
8317		76.171875
8318		82.031250
8319		80.078125
8320		85.937500
8321		83.984375
8322		89.843750
8323		87.890625
8324		93.750000
8325		91.796875
8326		97.656250
8327		95.703125
8328		101.562500
8329		97.656250
8330		103.515625
8331		101.562500
8332		107.421875
8333		105.468750
8334		109.375000
8335		107.421875
8336		111.328125
8337		109.375000
8338		113.281250
8339		111.328125
8340		115.234375
8341		113.281250
8342		119.140625
8343		115.234375
8344		119.140625
8345		117.187500
8346		121.093750
8347		119.140625
8348		121.093750
8349		119.140625
8350		123.046875
8351		119.140625
8352		123.046875
8353		121.093750
8354		123.046875
8355		121.093750
8356		123.046875
8357		119.140625
8358		123.046875
8359		119.140625
8360		123.046875
8361		119.140625
8362		123.046875
8363		117.187500
8364		121.093750
8365		117.187500
8366		121.093750
8367		115.234375
8368		119.140625
8369		113.281250
8370		117.187500
8371		111.328125
8372		115.234375
8373		109.375000
8374		113.281250
8375		107.421875
8376		111.328125
8377		103.515625
8378		109.375000
8379		101.562500
8380		105.468750
8381		99.609375
8382		103.515625
8383		95.703125
8384		99.609375
8385		91.796875
8386		97.656250
8387		87.890625
8388		93.750000
8389		83.984375
8390		89.843750
8391		80.078125
8392		85.937500
8393		74.218750
8394		82.031250
8395		70.312500
8396		76.171875
8397		66.406250
8398		72.265625
8399		60.546875
8400		66.406250
8401		54.687500
8402		62.500000
8403		48.828125
8404		58.593750
8405		44.921875
8406		50.781250
8407		39.062500
8408		44.921875
8409		33.203125
8410		39.062500
8411		27.343750
8412		33.203125
8413		21.484375
8414		27.343750
8415		15.625000
8416		21.484375
8417		7.812500
8418		15.625000
8419		1.953125
8420		9.765625
8421		-3.906250
8422		3.906250
8423		-11.718750
8424		-1.953125
8425		-15.625000
8426		-9.765625
8427		-21.484375
8428		-15.625000
8429		-29.296875
8430		-21.484375
8431		-35.156250
8432		-27.343750
8433		-41.015625
8434		-33.203125
8435		-46.875000
8436		-39.062500
8437		-52.734375
8438		-44.921875
8439		-58.593750
8440		-50.781250
8441		-64.453125
8442		-56.640625
8443		-68.359375
8444		-62.500000
8445		-74.218750
8446		-68.359375
8447		-80.078125
8448		-74.218750
8449		-83.984375
8450		-78.125000
8451		-87.890625
8452		-82.031250
8453		-93.750000
8454		-87.890625
8455		-97.656250
8456		-91.796875
8457		-101.562500
8458		-95.703125
8459		-105.468750
8460		-99.609375
8461		-107.421875
8462		-103.515625
8463		-111.328125
8464		-105.468750
8465		-113.281250
8466		-109.375000
8467		-115.234375
8468		-111.328125
8469		-119.140625
8470		-113.281250
8471		-119.140625
8472		-117.187500
8473		-121.093750
8474		-117.187500
8475		-123.046875
8476		-119.140625
8477		-123.046875
8478		-119.140625
8479		-125.000000
8480		-121.093750
8481		-125.000000
8482		-121.093750
8483		-123.046875
8484		-121.093750
8485		-125.000000
8486		-121.093750
8487		-123.046875
8488		-119.140625
8489		-121.093750
8490		-119.140625
8491		-121.093750
8492		-117.187500
8493		-119.140625
8494		-115.234375
8495		-117.187500
8496		-113.281250
8497		-115.234375
8498		-109.375000
8499		-111.328125
8500		-107.421875
8501		-109.375000
8502		-103.515625
8503		-105.468750
8504		-99.609375
8505		-101.562500
8506		-97.656250
8507		-97.656250
8508		-91.796875
8509		-93.750000
8510		-87.890625
8511		-89.843750
8512		-83.984375
8513		-83.984375
8514		-78.125000
8515		-80.078125
8516		-74.218750
8517		-76.171875
8518		-68.359375
8519		-70.312500
8520		-62.500000
8521		-64.453125
8522		-58.593750
8523		-58.593750
8524		-52.734375
8525		-52.734375
8526		-44.921875
8527		-46.875000
8528		-41.015625
8529		-41.015625
8530		-33.203125
8531		-35.156250
8532		-27.343750
8533		-29.296875
8534		-21.484375
8535		-23.437500
8536		-15.625000
8537		-17.578125
8538		-9.765625
8539		-9.765625
8540		-3.906250
8541		-3.906250
8542		3.906250
8543		1.953125
8544		7.812500
8545		7.812500
8546		15.625000
8547		13.671875
8548		21.484375
8549		19.531250
8550		27.343750
8551		25.390625
8552		33.203125
8553		31.250000
8554		39.062500
8555		37.109375
8556		44.921875
8557		42.968750
8558		50.781250
8559		48.828125
8560		54.687500
8561		54.687500
8562		60.546875
8563		58.593750
8564		64.453125
8565		64.453125
8566		70.312500
8567		68.359375
8568		74.218750
8569		74.218750
8570		80.078125
8571		78.125000
8572		83.984375
8573		82.031250
8574		87.890625
8575		85.937500
8576		91.796875
8577		89.843750
8578		95.703125
8579		93.750000
8580		99.609375
8581		97.656250
8582		101.562500
8583		101.562500
8584		105.468750
8585		103.515625
8586		107.421875
8587		105.468750
8588		109.375000
8589		109.375000
8590		113.281250
8591		111.328125
8592		115.234375
8593		113.281250
8594		117.187500
8595		115.234375
8596		117.187500
8597		115.234375
8598		119.140625
8599		117.187500
8600		121.093750
8601		117.187500
8602		123.046875
8603		119.140625
8604		123.046875
8605		119.140625
8606		123.046875
8607		119.140625
8608		123.046875
8609		119.140625
8610		123.046875
8611		119.140625
8612		123.046875
8613		119.140625
8614		121.093750
8615		119.140625
8616		121.093750
8617		117.187500
8618		121.093750
8619		115.234375
8620		119.140625
8621		115.234375
8622		119.140625
8623		113.281250
8624		115.234375
8625		109.375000
8626		113.281250
8627		107.421875
8628		113.281250
8629		105.468750
8630		109.375000
8631		103.515625
8632		107.421875
8633		99.609375
8634		103.515625
8635		95.703125
8636		101.562500
8637		91.796875
8638		97.656250
8639		89.843750
8640		93.750000
8641		83.984375
8642		89.843750
8643		80.078125
8644		87.890625
8645		76.171875
8646		82.031250
8647		72.265625
8648		78.125000
8649		66.406250
8650		72.265625
8651		62.500000
8652		68.359375
8653		56.640625
8654		62.500000
8655		50.781250
8656		58.593750
8657		46.875000
8658		52.734375
8659		41.015625
8660		46.875000
8661		33.203125
8662		41.015625
8663		29.296875
8664		35.156250
8665		21.484375
8666		29.296875
8667		17.578125
8668		23.437500
8669		9.765625
8670		17.578125
8671		3.906250
8672		11.718750
8673		-1.953125
8674		5.859375
8675		-9.765625
8676		0.000000
8677		-15.625000
8678		-5.859375
8679		-21.484375
8680		-13.671875
8681		-27.343750
8682		-19.531250
8683		-33.203125
8684		-25.390625
8685		-39.062500
8686		-31.250000
8687		-46.875000
8688		-39.062500
8689		-50.781250
8690		-44.921875
8691		-56.640625
8692		-50.781250
8693		-62.500000
8694		-54.687500
8695		-68.359375
8696		-60.546875
8697		-74.218750
8698		-66.406250
8699		-78.125000
8700		-72.265625
8701		-83.984375
8702		-76.171875
8703		-87.890625
8704		-82.031250
8705		-91.796875
8706		-85.937500
8707		-95.703125
8708		-89.843750
8709		-101.562500
8710		-95.703125
8711		-103.515625
8712		-97.656250
8713		-107.421875
8714		-101.562500
8715		-109.375000
8716		-105.468750
8717		-113.281250
8718		-109.375000
8719		-117.187500
8720		-111.328125
8721		-119.140625
8722		-113.281250
8723		-119.140625
8724		-117.187500
8725		-121.093750
8726		-119.140625
8727		-123.046875
8728		-119.140625
8729		-125.000000
8730		-121.093750
8731		-125.000000
8732		-121.093750
8733		-125.000000
8734		-121.093750
8735		-125.000000
8736		-123.046875
8737		-125.000000
8738		-121.093750
8739		-125.000000
8740		-121.093750
8741		-123.046875
8742		-119.140625
8743		-121.093750
8744		-117.187500
8745		-119.140625
8746		-117.187500
8747		-119.140625
8748		-113.281250
8749		-115.234375
8750		-111.328125
8751		-113.281250
8752		-109.375000
8753		-109.375000
8754		-105.468750
8755		-107.421875
8756		-101.562500
8757		-103.515625
8758		-97.656250
8759		-99.609375
8760		-93.750000
8761		-97.656250
8762		-89.843750
8763		-91.796875
8764		-85.937500
8765		-87.890625
8766		-82.031250
8767		-82.031250
8768		-76.171875
8769		-78.125000
8770		-70.312500
8771		-72.265625
8772		-64.453125
8773		-66.406250
8774		-60.546875
8775		-62.500000
8776		-54.687500
8777		-56.640625
8778		-48.828125
8779		-50.781250
8780		-42.968750
8781		-44.921875
8782		-35.156250
8783		-39.062500
8784		-31.250000
8785		-31.250000
8786		-23.437500
8787		-25.390625
8788		-19.531250
8789		-19.531250
8790		-11.718750
8791		-13.671875
8792		-5.859375
8793		-7.812500
8794		0.000000
8795		-1.953125
8796		5.859375
8797		5.859375
8798		11.718750
8799		9.765625
8800		19.531250
8801		17.578125
8802		25.390625
8803		23.437500
8804		31.250000
8805		29.296875
8806		35.156250
8807		35.156250
8808		41.015625
8809		41.015625
8810		46.875000
8811		46.875000
8812		52.734375
8813		50.781250
8814		58.593750
8815		56.640625
8816		62.500000
8817		62.500000
8818		68.359375
8819		66.406250
8820		72.265625
8821		72.265625
8822		78.125000
8823		76.171875
8824		82.031250
8825		80.078125
8826		85.937500
8827		83.984375
8828		89.843750
8829		87.890625
8830		93.750000
8831		91.796875
8832		97.656250
8833		95.703125
8834		101.562500
8835		99.609375
8836		103.515625
8837		101.562500
8838		107.421875
8839		105.468750
8840		109.375000
8841		107.421875
8842		111.328125
8843		109.375000
8844		113.281250
8845		111.328125
8846		115.234375
8847		113.281250
8848		117.187500
8849		115.234375
8850		119.140625
8851		117.187500
8852		119.140625
8853		117.187500
8854		121.093750
8855		119.140625
8856		123.046875
8857		119.140625
8858		121.093750
8859		119.140625
8860		123.046875
8861		119.140625
8862		123.046875
8863		119.140625
8864		123.046875
8865		119.140625
8866		123.046875
8867		117.187500
8868		121.093750
8869		117.187500
8870		121.093750
8871		115.234375
8872		119.140625
8873		115.234375
8874		119.140625
8875		113.281250
8876		117.187500
8877		111.328125
8878		115.234375
8879		109.375000
8880		113.281250
8881		107.421875
8882		111.328125
8883		103.515625
8884		109.375000
8885		101.562500
8886		105.468750
8887		97.656250
8888		101.562500
8889		93.750000
8890		99.609375
8891		89.843750
8892		95.703125
8893		87.890625
8894		91.796875
8895		82.031250
8896		87.890625
8897		78.125000
8898		83.984375
8899		74.218750
8900		80.078125
8901		68.359375
8902		74.218750
8903		64.453125
8904		70.312500
8905		58.593750
8906		64.453125
8907		54.687500
8908		60.546875
8909		48.828125
8910		54.687500
8911		42.968750
8912		48.828125
8913		37.109375
8914		42.968750
8915		31.250000
8916		39.062500
8917		25.390625
8918		31.250000
8919		19.531250
8920		27.343750
8921		11.718750
8922		19.531250
8923		5.859375
8924		13.671875
8925		0.000000
8926		7.812500
8927		-5.859375
8928		1.953125
8929		-11.718750
8930		-3.906250
8931		-17.578125
8932		-9.765625
8933		-23.437500
8934		-17.578125
8935		-31.250000
8936		-23.437500
8937		-37.109375
8938		-29.296875
8939		-42.968750
8940		-35.156250
8941		-48.828125
8942		-41.015625
8943		-54.687500
8944		-46.875000
8945		-60.546875
8946		-52.734375
8947		-66.406250
8948		-58.593750
8949		-70.312500
8950		-64.453125
8951		-76.171875
8952		-68.359375
8953		-82.031250
8954		-74.218750
8955		-85.937500
8956		-80.078125
8957		-89.843750
8958		-83.984375
8959		-95.703125
8960		-89.843750
8961		-99.609375
8962		-93.750000
8963		-103.515625
8964		-95.703125
8965		-105.468750
8966		-101.562500
8967		-109.375000
8968		-103.515625
8969		-113.281250
8970		-107.421875
8971		-115.234375
8972		-111.328125
8973		-117.187500
8974		-113.281250
8975		-119.140625
8976		-115.234375
8977		-121.093750
8978		-117.187500
8979		-123.046875
8980		-119.140625
8981		-123.046875
8982		-121.093750
8983		-125.000000
8984		-121.093750
8985		-125.000000
8986		-123.046875
8987		-125.000000
8988		-121.093750
8989		-125.000000
8990		-121.093750
8991		-125.000000
8992		-121.093750
8993		-123.046875
8994		-121.093750
8995		-123.046875
8996		-119.140625
8997		-121.093750
8998		-117.187500
8999		-119.140625
9000		-115.234375
9001		-117.187500
9002		-113.281250
9003		-115.234375
9004		-111.328125
9005		-111.328125
9006		-107.421875
9007		-109.375000
9008		-103.515625
9009		-105.468750
9010		-101.562500
9011		-101.562500
9012		-97.656250
9013		-99.609375
9014		-91.796875
9015		-95.703125
9016		-87.890625
9017		-89.843750
9018		-83.984375
9019		-85.937500
9020		-78.125000
9021		-80.078125
9022		-74.218750
9023		-76.171875
9024		-68.359375
9025		-70.312500
9026		-62.500000
9027		-64.453125
9028		-58.593750
9029		-58.593750
9030		-52.734375
9031		-52.734375
9032		-44.921875
9033		-46.875000
9034		-41.015625
9035		-41.015625
9036		-33.203125
9037		-35.156250
9038		-27.343750
9039		-29.296875
9040		-21.484375
9041		-23.437500
9042		-15.625000
9043		-15.625000
9044		-9.765625
9045		-9.765625
9046		-1.953125
9047		-3.906250
9048		3.906250
9049		1.953125
9050		9.765625
9051		7.812500
9052		15.625000
9053		13.671875
9054		21.484375
9055		19.531250
9056		27.343750
9057		25.390625
9058		33.203125
9059		31.250000
9060		39.062500
9061		37.109375
9062		44.921875
9063		42.968750
9064		50.781250
9065		48.828125
9066		54.687500
9067		52.734375
9068		60.546875
9069		58.593750
9070		66.406250
9071		64.453125
9072		70.312500
9073		68.359375
9074		74.218750
9075		72.265625
9076		80.078125
9077		78.125000
9078		83.984375
9079		82.031250
9080		87.890625
9081		85.937500
9082		91.796875
9083		89.843750
9084		95.703125
9085		93.750000
9086		99.609375
9087		97.656250
9088		101.562500
9089		99.609375
9090		105.468750
9091		103.515625
9092		107.421875
9093		105.468750
9094		109.375000
9095		109.375000
9096		111.328125
9097		109.375000
9098		115.234375
9099		111.328125
9100		117.187500
9101		115.234375
9102		117.187500
9103		115.234375
9104		119.140625
9105		117.187500
9106		121.093750
9107		117.187500
9108		121.093750
9109		119.140625
9110		123.046875
9111		119.140625
9112		123.046875
9113		119.140625
9114		123.046875
9115		119.140625
9116		123.046875
9117		119.140625
9118		121.093750
9119		119.140625
9120		121.093750
9121		117.187500
9122		121.093750
9123		117.187500
9124		121.093750
9125		115.234375
9126		119.140625
9127		115.234375
9128		117.187500
9129		111.328125
9130		115.234375
9131		109.375000
9132		113.281250
9133		107.421875
9134		111.328125
9135		105.468750
9136		109.375000
9137		101.562500
9138		107.421875
9139		99.609375
9140		103.515625
9141		95.703125
9142		101.562500
9143		91.796875
9144		97.656250
9145		87.890625
9146		93.750000
9147		83.984375
9148		89.843750
9149		80.078125
9150		85.937500
9151		76.171875
9152		82.031250
9153		72.265625
9154		78.125000
9155		66.406250
9156		72.265625
9157		60.546875
9158		68.359375
9159		56.640625
9160		64.453125
9161		50.781250
9162		56.640625
9163		44.921875
9164		52.734375
9165		39.062500
9166		46.875000
9167		33.203125
9168		41.015625
9169		27.343750
9170		35.156250
9171		21.484375
9172		29.296875
9173		15.625000
9174		23.437500
9175		9.765625
9176		17.578125
9177		3.906250
9178		11.718750
9179		-1.953125
9180		3.906250
9181		-9.765625
9182		-1.953125
9183		-15.625000
9184		-7.812500
9185		-21.484375
9186		-13.671875
9187		-27.343750
9188		-19.531250
9189		-33.203125
9190		-25.390625
9191		-39.062500
9192		-31.250000
9193		-44.921875
9194		-37.109375
9195		-50.781250
9196		-44.921875
9197		-56.640625
9198		-50.781250
9199		-64.453125
9200		-56.640625
9201		-68.359375
9202		-62.500000
9203		-74.218750
9204		-66.406250
9205		-78.125000
9206		-72.265625
9207		-83.984375
9208		-76.171875
9209		-87.890625
9210		-82.031250
9211		-93.750000
9212		-85.937500
9213		-97.656250
9214		-91.796875
9215		-101.562500
9216		-95.703125
9217		-103.515625
9218		-99.609375
9219		-107.421875
9220		-103.515625
9221		-111.328125
9222		-107.421875
9223		-113.281250
9224		-109.375000
9225		-117.187500
9226		-111.328125
9227		-119.140625
9228		-115.234375
9229		-121.093750
9230		-117.187500
9231		-123.046875
9232		-119.140625
9233		-123.046875
9234		-119.140625
9235		-125.000000
9236		-121.093750
9237		-125.000000
9238		-121.093750
9239		-125.000000
9240		-121.093750
9241		-125.000000
9242		-123.046875
9243		-125.000000
9244		-121.093750
9245		-123.046875
9246		-121.093750
9247		-123.046875
9248		-117.187500
9249		-123.046875
9250		-117.187500
9251		-123.046875
9252		-115.234375
9253		-119.140625
9254		-113.281250
9255		-117.187500
9256		-111.328125
9257		-115.234375
9258		-107.421875
9259		-111.328125
9260		-105.468750
9261		-107.421875
9262		-101.562500
9263		-103.515625
9264		-99.609375
9265		-101.562500
9266		-93.750000
9267		-97.656250
9268		-89.843750
9269		-93.750000
9270		-83.984375
9271		-87.890625
9272		-78.125000
9273		-83.984375
9274		-76.171875
9275		-78.125000
9276		-70.312500
9277		-74.218750
9278		-66.406250
9279		-66.406250
9280		-60.546875
9281		-62.500000
9282		-54.687500
9283		-58.593750
9284		-48.828125
9285		-52.734375
9286		-42.968750
9287		-46.875000
9288		-35.156250
9289		-39.062500
9290		-29.296875
9291		-33.203125
9292		-23.437500
9293		-27.343750
9294		-19.531250
9295		-19.531250
9296		-11.718750
9297		-13.671875
9298		-5.859375
9299		-9.765625
9300		1.953125
9301		-3.906250
9302		7.812500
9303		1.953125
9304		13.671875
9305		7.812500
9306		19.531250
9307		15.625000
9308		25.390625
9309		21.484375
9310		31.250000
9311		29.296875
9312		35.156250
9313		35.156250
9314		41.015625
9315		41.015625
9316		48.828125
9317		42.968750
9318		52.734375
9319		48.828125
9320		58.593750
9321		54.687500
9322		64.453125
9323		60.546875
9324		70.312500
9325		64.453125
9326		74.218750
9327		70.312500
9328		78.125000
9329		76.171875
9330		82.031250
9331		80.078125
9332		87.890625
9333		82.031250
9334		91.796875
9335		85.937500
9336		95.703125
9337		89.843750
9338		97.656250
9339		93.750000
9340		101.562500
9341		97.656250
9342		105.468750
9343		99.609375
9344		107.421875
9345		105.468750
9346		109.375000
9347		107.421875
9348		111.328125
9349		107.421875
9350		115.234375
9351		109.375000
9352		117.187500
9353		111.328125
9354		119.140625
9355		113.281250
9356		121.093750
9357		113.281250
9358		121.093750
9359		115.234375
9360		123.046875
9361		117.187500
9362		121.093750
9363		119.140625
9364		121.093750
9365		117.187500
9366		123.046875
9367		117.187500
9368		125.000000
9369		117.187500
9370		123.046875
9371		117.187500
9372		123.046875
9373		117.187500
9374		123.046875
9375		115.234375
9376		121.093750
9377		115.234375
9378		121.093750
9379		115.234375
9380		119.140625
9381		111.328125
9382		115.234375
9383		107.421875
9384		117.187500
9385		105.468750
9386		115.234375
9387		103.515625
9388		111.328125
9389		101.562500
9390		109.375000
9391		97.656250
9392		105.468750
9393		95.703125
9394		103.515625
9395		93.750000
9396		97.656250
9397		89.843750
9398		93.750000
9399		83.984375
9400		91.796875
9401		80.078125
9402		87.890625
9403		76.171875
9404		83.984375
9405		70.312500
9406		80.078125
9407		66.406250
9408		76.171875
9409		60.546875
9410		72.265625
9411		58.593750
9412		66.406250
9413		52.734375
9414		58.593750
9415		44.921875
9416		52.734375
9417		39.062500
9418		50.781250
9419		33.203125
9420		44.921875
9421		29.296875
9422		39.062500
9423		21.484375
9424		33.203125
9425		17.578125
9426		27.343750
9427		11.718750
9428		19.531250
9429		5.859375
9430		11.718750
9431		-1.953125
9432		5.859375
9433		-7.812500
9434		0.000000
9435		-15.625000
9436		-3.906250
9437		-19.531250
9438		-9.765625
9439		-27.343750
9440		-15.625000
9441		-33.203125
9442		-21.484375
9443		-39.062500
9444		-27.343750
9445		-44.921875
9446		-35.156250
9447		-50.781250
9448		-42.968750
9449		-58.593750
9450		-48.828125
9451		-62.500000
9452		-52.734375
9453		-70.312500
9454		-58.593750
9455		-72.265625
9456		-64.453125
9457		-78.125000
9458		-68.359375
9459		-83.984375
9460		-74.218750
9461		-85.937500
9462		-78.125000
9463		-91.796875
9464		-85.937500
9465		-95.703125
9466		-89.843750
9467		-101.562500
9468		-91.796875
9469		-105.468750
9470		-97.656250
9471		-109.375000
9472		-99.609375
9473		-113.281250
9474		-103.515625
9475		-115.234375
9476		-107.421875
9477		-117.187500
9478		-109.375000
9479		-117.187500
9480		-115.234375
9481		-121.093750
9482		-117.187500
9483		-125.000000
9484		-117.187500
9485		-125.000000
9486		-119.140625
9487		-126.953125
9488		-119.140625
9489		-126.953125
9490		-121.093750
9491		-128.906250
9492		-121.093750
9493		-126.953125
9494		-121.093750
9495		-126.953125
9496		-121.093750
9497		-125.000000
9498		-121.093750
9499		-125.000000
9500		-119.140625
9501		-125.000000
9502		-117.187500
9503		-125.000000
9504		-115.234375
9505		-121.093750
9506		-113.281250
9507		-121.093750
9508		-111.328125
9509		-117.187500
9510		-109.375000
9511		-115.234375
9512		-107.421875
9513		-109.375000
9514		-103.515625
9515		-105.468750
9516		-101.562500
9517		-103.515625
9518		-95.703125
9519		-99.609375
9520		-89.843750
9521		-97.656250
9522		-85.937500
9523		-91.796875
9524		-82.031250
9525		-85.937500
9526		-78.125000
9527		-82.031250
9528		-72.265625
9529		-76.171875
9530		-68.359375
9531		-70.312500
9532		-62.500000
9533		-64.453125
9534		-56.640625
9535		-60.546875
9536		-50.781250
9537		-54.687500
9538		-42.968750
9539		-48.828125
9540		-39.062500
9541		-44.921875
9542		-31.250000
9543		-37.109375
9544		-25.390625
9545		-31.250000
9546		-21.484375
9547		-23.437500
9548		-15.625000
9549		-15.625000
9550		-9.765625
9551		-11.718750
9552		-1.953125
9553		-5.859375
9554		5.859375
9555		0.000000
9556		11.718750
9557		5.859375
9558		17.578125
9559		11.718750
9560		23.437500
9561		17.578125
9562		29.296875
9563		25.390625
9564		33.203125
9565		33.203125
9566		39.062500
9567		37.109375
9568		46.875000
9569		41.015625
9570		50.781250
9571		46.875000
9572		56.640625
9573		52.734375
9574		62.500000
9575		56.640625
9576		68.359375
9577		62.500000
9578		72.265625
9579		66.406250
9580		76.171875
9581		74.218750
9582		80.078125
9583		78.125000
9584		85.937500
9585		80.078125
9586		89.843750
9587		83.984375
9588		93.750000
9589		87.890625
9590		97.656250
9591		91.796875
9592		99.609375
9593		95.703125
9594		103.515625
9595		97.656250
9596		105.468750
9597		103.515625
9598		107.421875
9599		105.468750
9600		109.375000
9601		107.421875
9602		113.281250
9603		109.375000
9604		115.234375
9605		111.328125
9606		117.187500
9607		111.328125
9608		119.140625
9609		113.281250
9610		121.093750
9611		115.234375
9612		121.093750
9613		115.234375
9614		121.093750
9615		119.140625
9616		121.093750
9617		117.187500
9618		123.046875
9619		117.187500
9620		125.000000
9621		117.187500
9622		123.046875
9623		115.234375
9624		123.046875
9625		117.187500
9626		123.046875
9627		115.234375
9628		123.046875
9629		115.234375
9630		121.093750
9631		115.234375
9632		117.187500
9633		113.281250
9634		117.187500
9635		109.375000
9636		117.187500
9637		107.421875
9638		115.234375
9639		105.468750
9640		113.281250
9641		101.562500
9642		109.375000
9643		99.609375
9644		107.421875
9645		95.703125
9646		105.468750
9647		95.703125
9648		101.562500
9649		91.796875
9650		95.703125
9651		85.937500
9652		91.796875
9653		82.031250
9654		89.843750
9655		76.171875
9656		85.937500
9657		72.265625
9658		82.031250
9659		68.359375
9660		78.125000
9661		62.500000
9662		72.265625
9663		60.546875
9664		68.359375
9665		54.687500
9666		60.546875
9667		46.875000
9668		56.640625
9669		42.968750
9670		52.734375
9671		35.156250
9672		46.875000
9673		29.296875
9674		41.015625
9675		25.390625
9676		35.156250
9677		19.531250
9678		29.296875
9679		13.671875
9680		23.437500
9681		7.812500
9682		15.625000
9683		1.953125
9684		9.765625
9685		-5.859375
9686		3.906250
9687		-11.718750
9688		-1.953125
9689		-17.578125
9690		-9.765625
9691		-23.437500
9692		-15.625000
9693		-29.296875
9694		-21.484375
9695		-37.109375
9696		-27.343750
9697		-41.015625
9698		-33.203125
9699		-46.875000
9700		-39.062500
9701		-56.640625
9702		-46.875000
9703		-60.546875
9704		-50.781250
9705		-66.406250
9706		-56.640625
9707		-72.265625
9708		-62.500000
9709		-78.125000
9710		-66.406250
9711		-82.031250
9712		-72.265625
9713		-85.937500
9714		-76.171875
9715		-89.843750
9716		-83.984375
9717		-93.750000
9718		-87.890625
9719		-101.562500
9720		-91.796875
9721		-103.515625
9722		-95.703125
9723		-107.421875
9724		-99.609375
9725		-111.328125
9726		-101.562500
9727		-113.281250
9728		-105.468750
9729		-117.187500
9730		-109.375000
9731		-117.187500
9732		-111.328125
9733		-119.140625
9734		-115.234375
9735		-123.046875
9736		-115.234375
9737		-125.000000
9738		-117.187500
9739		-126.953125
9740		-119.140625
9741		-126.953125
9742		-119.140625
9743		-126.953125
9744		-121.093750
9745		-126.953125
9746		-121.093750
9747		-126.953125
9748		-121.093750
9749		-125.000000
9750		-123.046875
9751		-125.000000
9752		-119.140625
9753		-125.000000
9754		-117.187500
9755		-123.046875
9756		-117.187500
9757		-123.046875
9758		-115.234375
9759		-119.140625
9760		-113.281250
9761		-117.187500
9762		-109.375000
9763		-115.234375
9764		-107.421875
9765		-109.375000
9766		-105.468750
9767		-107.421875
9768		-101.562500
9769		-103.515625
9770		-95.703125
9771		-101.562500
9772		-91.796875
9773		-97.656250
9774		-87.890625
9775		-93.750000
9776		-83.984375
9777		-89.843750
9778		-78.125000
9779		-83.984375
9780		-74.218750
9781		-78.125000
9782		-70.312500
9783		-72.265625
9784		-64.453125
9785		-66.406250
9786		-58.593750
9787		-62.500000
9788		-52.734375
9789		-58.593750
9790		-46.875000
9791		-50.781250
9792		-39.062500
9793		-44.921875
9794		-33.203125
9795		-39.062500
9796		-29.296875
9797		-33.203125
9798		-23.437500
9799		-25.390625
9800		-17.578125
9801		-19.531250
9802		-11.718750
9803		-13.671875
9804		-3.906250
9805		-7.812500
9806		3.906250
9807		-1.953125
9808		9.765625
9809		3.906250
9810		15.625000
9811		9.765625
9812		21.484375
9813		15.625000
9814		27.343750
9815		23.437500
9816		31.250000
9817		29.296875
9818		37.109375
9819		35.156250
9820		44.921875
9821		39.062500
9822		50.781250
9823		44.921875
9824		54.687500
9825		50.781250
9826		60.546875
9827		54.687500
9828		66.406250
9829		60.546875
9830		70.312500
9831		64.453125
9832		72.265625
9833		72.265625
9834		78.125000
9835		76.171875
9836		83.984375
9837		78.125000
9838		87.890625
9839		82.031250
9840		91.796875
9841		85.937500
9842		95.703125
9843		89.843750
9844		99.609375
9845		93.750000
9846		103.515625
9847		97.656250
9848		105.468750
9849		101.562500
9850		105.468750
9851		105.468750
9852		109.375000
9853		105.468750
9854		113.281250
9855		107.421875
9856		115.234375
9857		109.375000
9858		117.187500
9859		111.328125
9860		119.140625
9861		113.281250
9862		121.093750
9863		115.234375
9864		121.093750
9865		115.234375
9866		121.093750
9867		119.140625
9868		121.093750
9869		117.187500
9870		123.046875
9871		117.187500
9872		125.000000
9873		117.187500
9874		123.046875
9875		117.187500
9876		123.046875
9877		115.234375
9878		123.046875
9879		115.234375
9880		123.046875
9881		115.234375
9882		121.093750
9883		115.234375
9884		119.140625
9885		113.281250
9886		117.187500
9887		109.375000
9888		117.187500
9889		107.421875
9890		115.234375
9891		105.468750
9892		113.281250
9893		103.515625
9894		111.328125
9895		101.562500
9896		109.375000
9897		97.656250
9898		105.468750
9899		95.703125
9900		101.562500
9901		93.750000
9902		97.656250
9903		87.890625
9904		93.750000
9905		82.031250
9906		91.796875
9907		80.078125
9908		87.890625
9909		74.218750
9910		83.984375
9911		70.312500
9912		80.078125
9913		64.453125
9914		76.171875
9915		62.500000
9916		70.312500
9917		56.640625
9918		62.500000
9919		50.781250
9920		58.593750
9921		42.968750
9922		54.687500
9923		39.062500
9924		48.828125
9925		33.203125
9926		42.968750
9927		27.343750
9928		37.109375
9929		21.484375
9930		31.250000
9931		15.625000
9932		25.390625
9933		9.765625
9934		17.578125
9935		3.906250
9936		11.718750
9937		-3.906250
9938		5.859375
9939		-11.718750
9940		1.953125
9941		-15.625000
9942		-5.859375
9943		-23.437500
9944		-11.718750
9945		-29.296875
9946		-17.578125
9947		-35.156250
9948		-23.437500
9949		-39.062500
9950		-31.250000
9951		-44.921875
9952		-37.109375
9953		-52.734375
9954		-42.968750
9955		-58.593750
9956		-48.828125
9957		-64.453125
9958		-52.734375
9959		-68.359375
9960		-58.593750
9961		-74.218750
9962		-64.453125
9963		-80.078125
9964		-70.312500
9965		-83.984375
9966		-74.218750
9967		-87.890625
9968		-82.031250
9969		-91.796875
9970		-85.937500
9971		-99.609375
9972		-89.843750
9973		-101.562500
9974		-93.750000
9975		-105.468750
9976		-97.656250
9977		-109.375000
9978		-101.562500
9979		-113.281250
9980		-105.468750
9981		-115.234375
9982		-107.421875
9983		-117.187500
9984		-111.328125
9985		-119.140625
9986		-115.234375
9987		-123.046875
9988		-115.234375
9989		-123.046875
9990		-117.187500
9991		-125.000000
9992		-119.140625
9993		-126.953125
9994		-119.140625
9995		-126.953125
9996		-121.093750
9997		-126.953125
9998		-121.093750
9999		-126.953125
10000		-121.093750
