Channel              :		CH1
Frequency            :		1.047kHz
Period               :		0.955ms
PK-PK                :		244.1mV
Probe attenuation    :		1X
Voltage per ADC value:		0.122070mV
Time interval        :		2.00000us

index		CH1_Voltage(mV)
1		-37.109375
2		-37.109375
3		-44.921875
4		-41.015625
5		-48.828125
6		-42.968750
7		-50.781250
8		-46.875000
9		-54.687500
10		-50.781250
11		-56.640625
12		-52.734375
13		-60.546875
14		-54.687500
15		-62.500000
16		-58.593750
17		-66.406250
18		-62.500000
19		-68.359375
20		-64.453125
21		-72.265625
22		-66.406250
23		-74.218750
24		-70.312500
25		-78.125000
26		-72.265625
27		-80.078125
28		-74.218750
29		-82.031250
30		-78.125000
31		-83.984375
32		-80.078125
33		-85.937500
34		-83.984375
35		-89.843750
36		-85.937500
37		-91.796875
38		-87.890625
39		-93.750000
40		-89.843750
41		-95.703125
42		-91.796875
43		-99.609375
44		-93.750000
45		-101.562500
46		-95.703125
47		-103.515625
48		-97.656250
49		-103.515625
50		-101.562500
51		-105.468750
52		-103.515625
53		-109.375000
54		-103.515625
55		-109.375000
56		-105.468750
57		-111.328125
58		-107.421875
59		-115.234375
60		-109.375000
61		-115.234375
62		-111.328125
63		-117.187500
64		-113.281250
65		-117.187500
66		-113.281250
67		-119.140625
68		-115.234375
69		-121.093750
70		-117.187500
71		-121.093750
72		-117.187500
73		-123.046875
74		-119.140625
75		-125.000000
76		-119.140625
77		-125.000000
78		-121.093750
79		-125.000000
80		-121.093750
81		-125.000000
82		-123.046875
83		-126.953125
84		-123.046875
85		-126.953125
86		-125.000000
87		-128.906250
88		-123.046875
89		-128.906250
90		-125.000000
91		-128.906250
92		-125.000000
93		-128.906250
94		-125.000000
95		-128.906250
96		-125.000000
97		-128.906250
98		-125.000000
99		-128.906250
100		-125.000000
101		-126.953125
102		-125.000000
103		-128.906250
104		-123.046875
105		-128.906250
106		-125.000000
107		-126.953125
108		-125.000000
109		-126.953125
110		-123.046875
111		-126.953125
112		-123.046875
113		-125.000000
114		-123.046875
115		-126.953125
116		-121.093750
117		-123.046875
118		-121.093750
119		-123.046875
120		-119.140625
121		-123.046875
122		-117.187500
123		-121.093750
124		-117.187500
125		-121.093750
126		-117.187500
127		-119.140625
128		-115.234375
129		-117.187500
130		-113.281250
131		-115.234375
132		-111.328125
133		-113.281250
134		-111.328125
135		-113.281250
136		-109.375000
137		-113.281250
138		-107.421875
139		-109.375000
140		-105.468750
141		-107.421875
142		-103.515625
143		-107.421875
144		-101.562500
145		-103.515625
146		-99.609375
147		-101.562500
148		-97.656250
149		-99.609375
150		-95.703125
151		-97.656250
152		-93.750000
153		-95.703125
154		-89.843750
155		-91.796875
156		-87.890625
157		-89.843750
158		-85.937500
159		-87.890625
160		-83.984375
161		-85.937500
162		-80.078125
163		-82.031250
164		-78.125000
165		-80.078125
166		-76.171875
167		-78.125000
168		-74.218750
169		-74.218750
170		-70.312500
171		-74.218750
172		-68.359375
173		-70.312500
174		-64.453125
175		-66.406250
176		-62.500000
177		-64.453125
178		-58.593750
179		-60.546875
180		-56.640625
181		-58.593750
182		-52.734375
183		-56.640625
184		-50.781250
185		-52.734375
186		-48.828125
187		-48.828125
188		-44.921875
189		-46.875000
190		-41.015625
191		-42.968750
192		-39.062500
193		-41.015625
194		-35.156250
195		-37.109375
196		-33.203125
197		-35.156250
198		-29.296875
199		-31.250000
200		-25.390625
201		-27.343750
202		-23.437500
203		-25.390625
204		-19.531250
205		-23.437500
206		-15.625000
207		-19.531250
208		-13.671875
209		-15.625000
210		-11.718750
211		-11.718750
212		-7.812500
213		-11.718750
214		-5.859375
215		-7.812500
216		0.000000
217		-3.906250
218		0.000000
219		0.000000
220		3.906250
221		1.953125
222		5.859375
223		5.859375
224		9.765625
225		7.812500
226		11.718750
227		11.718750
228		15.625000
229		13.671875
230		17.578125
231		15.625000
232		21.484375
233		19.531250
234		23.437500
235		21.484375
236		27.343750
237		25.390625
238		29.296875
239		27.343750
240		31.250000
241		29.296875
242		35.156250
243		33.203125
244		37.109375
245		35.156250
246		41.015625
247		37.109375
248		42.968750
249		41.015625
250		44.921875
251		42.968750
252		46.875000
253		44.921875
254		50.781250
255		48.828125
256		52.734375
257		50.781250
258		54.687500
259		52.734375
260		56.640625
261		54.687500
262		58.593750
263		58.593750
264		60.546875
265		58.593750
266		64.453125
267		60.546875
268		66.406250
269		64.453125
270		68.359375
271		66.406250
272		70.312500
273		68.359375
274		72.265625
275		70.312500
276		74.218750
277		70.312500
278		76.171875
279		74.218750
280		76.171875
281		74.218750
282		80.078125
283		76.171875
284		82.031250
285		78.125000
286		82.031250
287		80.078125
288		83.984375
289		80.078125
290		85.937500
291		82.031250
292		85.937500
293		83.984375
294		87.890625
295		85.937500
296		89.843750
297		85.937500
298		91.796875
299		87.890625
300		91.796875
301		89.843750
302		91.796875
303		89.843750
304		93.750000
305		91.796875
306		95.703125
307		91.796875
308		95.703125
309		91.796875
310		95.703125
311		93.750000
312		97.656250
313		95.703125
314		97.656250
315		95.703125
316		99.609375
317		95.703125
318		99.609375
319		97.656250
320		99.609375
321		97.656250
322		99.609375
323		97.656250
324		101.562500
325		97.656250
326		101.562500
327		99.609375
328		101.562500
329		97.656250
330		103.515625
331		99.609375
332		103.515625
333		97.656250
334		103.515625
335		99.609375
336		101.562500
337		99.609375
338		101.562500
339		99.609375
340		101.562500
341		99.609375
342		101.562500
343		99.609375
344		103.515625
345		97.656250
346		101.562500
347		97.656250
348		101.562500
349		97.656250
350		101.562500
351		97.656250
352		101.562500
353		97.656250
354		99.609375
355		95.703125
356		99.609375
357		95.703125
358		99.609375
359		95.703125
360		97.656250
361		93.750000
362		97.656250
363		93.750000
364		97.656250
365		91.796875
366		95.703125
367		91.796875
368		93.750000
369		89.843750
370		93.750000
371		87.890625
372		91.796875
373		87.890625
374		91.796875
375		85.937500
376		89.843750
377		85.937500
378		89.843750
379		83.984375
380		87.890625
381		82.031250
382		87.890625
383		80.078125
384		83.984375
385		80.078125
386		82.031250
387		78.125000
388		82.031250
389		76.171875
390		80.078125
391		74.218750
392		78.125000
393		72.265625
394		76.171875
395		70.312500
396		74.218750
397		68.359375
398		74.218750
399		68.359375
400		70.312500
401		64.453125
402		70.312500
403		62.500000
404		66.406250
405		60.546875
406		64.453125
407		58.593750
408		62.500000
409		54.687500
410		60.546875
411		54.687500
412		58.593750
413		50.781250
414		56.640625
415		46.875000
416		52.734375
417		44.921875
418		50.781250
419		44.921875
420		48.828125
421		41.015625
422		44.921875
423		39.062500
424		42.968750
425		35.156250
426		41.015625
427		33.203125
428		37.109375
429		31.250000
430		35.156250
431		27.343750
432		33.203125
433		23.437500
434		31.250000
435		21.484375
436		27.343750
437		19.531250
438		23.437500
439		15.625000
440		21.484375
441		13.671875
442		17.578125
443		9.765625
444		15.625000
445		7.812500
446		11.718750
447		3.906250
448		9.765625
449		1.953125
450		5.859375
451		-1.953125
452		3.906250
453		-3.906250
454		0.000000
455		-7.812500
456		-3.906250
457		-11.718750
458		-5.859375
459		-13.671875
460		-9.765625
461		-17.578125
462		-11.718750
463		-19.531250
464		-15.625000
465		-23.437500
466		-17.578125
467		-27.343750
468		-21.484375
469		-29.296875
470		-23.437500
471		-33.203125
472		-27.343750
473		-35.156250
474		-31.250000
475		-39.062500
476		-33.203125
477		-42.968750
478		-37.109375
479		-44.921875
480		-39.062500
481		-46.875000
482		-42.968750
483		-50.781250
484		-44.921875
485		-52.734375
486		-46.875000
487		-56.640625
488		-52.734375
489		-60.546875
490		-54.687500
491		-62.500000
492		-56.640625
493		-64.453125
494		-60.546875
495		-68.359375
496		-62.500000
497		-70.312500
498		-64.453125
499		-72.265625
500		-68.359375
501		-76.171875
502		-70.312500
503		-78.125000
504		-74.218750
505		-80.078125
506		-76.171875
507		-83.984375
508		-78.125000
509		-85.937500
510		-82.031250
511		-87.890625
512		-83.984375
513		-91.796875
514		-85.937500
515		-91.796875
516		-89.843750
517		-97.656250
518		-89.843750
519		-97.656250
520		-91.796875
521		-99.609375
522		-95.703125
523		-101.562500
524		-97.656250
525		-103.515625
526		-99.609375
527		-105.468750
528		-101.562500
529		-107.421875
530		-103.515625
531		-109.375000
532		-105.468750
533		-111.328125
534		-105.468750
535		-113.281250
536		-107.421875
537		-113.281250
538		-111.328125
539		-115.234375
540		-111.328125
541		-117.187500
542		-113.281250
543		-117.187500
544		-113.281250
545		-119.140625
546		-115.234375
547		-121.093750
548		-117.187500
549		-123.046875
550		-119.140625
551		-125.000000
552		-117.187500
553		-123.046875
554		-121.093750
555		-123.046875
556		-121.093750
557		-125.000000
558		-121.093750
559		-126.953125
560		-123.046875
561		-126.953125
562		-123.046875
563		-126.953125
564		-125.000000
565		-126.953125
566		-123.046875
567		-126.953125
568		-125.000000
569		-130.859375
570		-123.046875
571		-126.953125
572		-125.000000
573		-128.906250
574		-123.046875
575		-128.906250
576		-125.000000
577		-128.906250
578		-125.000000
579		-126.953125
580		-125.000000
581		-126.953125
582		-125.000000
583		-126.953125
584		-125.000000
585		-126.953125
586		-121.093750
587		-125.000000
588		-123.046875
589		-125.000000
590		-123.046875
591		-125.000000
592		-121.093750
593		-123.046875
594		-121.093750
595		-123.046875
596		-119.140625
597		-121.093750
598		-119.140625
599		-121.093750
600		-117.187500
601		-121.093750
602		-115.234375
603		-119.140625
604		-113.281250
605		-117.187500
606		-113.281250
607		-115.234375
608		-111.328125
609		-113.281250
610		-111.328125
611		-113.281250
612		-107.421875
613		-111.328125
614		-107.421875
615		-109.375000
616		-105.468750
617		-107.421875
618		-103.515625
619		-107.421875
620		-99.609375
621		-103.515625
622		-99.609375
623		-101.562500
624		-97.656250
625		-99.609375
626		-95.703125
627		-97.656250
628		-93.750000
629		-95.703125
630		-91.796875
631		-93.750000
632		-87.890625
633		-89.843750
634		-85.937500
635		-89.843750
636		-82.031250
637		-85.937500
638		-82.031250
639		-82.031250
640		-78.125000
641		-80.078125
642		-76.171875
643		-78.125000
644		-72.265625
645		-76.171875
646		-70.312500
647		-74.218750
648		-68.359375
649		-70.312500
650		-64.453125
651		-68.359375
652		-62.500000
653		-66.406250
654		-58.593750
655		-60.546875
656		-56.640625
657		-58.593750
658		-52.734375
659		-56.640625
660		-50.781250
661		-52.734375
662		-48.828125
663		-50.781250
664		-44.921875
665		-46.875000
666		-41.015625
667		-44.921875
668		-37.109375
669		-42.968750
670		-35.156250
671		-37.109375
672		-33.203125
673		-35.156250
674		-29.296875
675		-31.250000
676		-27.343750
677		-29.296875
678		-23.437500
679		-25.390625
680		-21.484375
681		-23.437500
682		-17.578125
683		-19.531250
684		-13.671875
685		-17.578125
686		-9.765625
687		-15.625000
688		-7.812500
689		-9.765625
690		-5.859375
691		-7.812500
692		-1.953125
693		-3.906250
694		0.000000
695		-1.953125
696		3.906250
697		1.953125
698		5.859375
699		3.906250
700		11.718750
701		5.859375
702		13.671875
703		7.812500
704		15.625000
705		13.671875
706		17.578125
707		15.625000
708		21.484375
709		17.578125
710		23.437500
711		21.484375
712		25.390625
713		25.390625
714		29.296875
715		27.343750
716		33.203125
717		27.343750
718		37.109375
719		31.250000
720		39.062500
721		35.156250
722		39.062500
723		39.062500
724		42.968750
725		41.015625
726		44.921875
727		42.968750
728		48.828125
729		44.921875
730		52.734375
731		48.828125
732		52.734375
733		50.781250
734		56.640625
735		52.734375
736		58.593750
737		54.687500
738		60.546875
739		56.640625
740		60.546875
741		58.593750
742		64.453125
743		60.546875
744		68.359375
745		62.500000
746		70.312500
747		62.500000
748		70.312500
749		68.359375
750		72.265625
751		66.406250
752		76.171875
753		70.312500
754		78.125000
755		74.218750
756		76.171875
757		76.171875
758		78.125000
759		76.171875
760		82.031250
761		76.171875
762		83.984375
763		78.125000
764		85.937500
765		82.031250
766		85.937500
767		80.078125
768		87.890625
769		82.031250
770		89.843750
771		83.984375
772		89.843750
773		87.890625
774		89.843750
775		85.937500
776		93.750000
777		87.890625
778		95.703125
779		87.890625
780		95.703125
781		89.843750
782		97.656250
783		89.843750
784		97.656250
785		91.796875
786		99.609375
787		91.796875
788		99.609375
789		95.703125
790		97.656250
791		95.703125
792		99.609375
793		93.750000
794		101.562500
795		95.703125
796		103.515625
797		95.703125
798		103.515625
799		95.703125
800		103.515625
801		97.656250
802		103.515625
803		97.656250
804		105.468750
805		97.656250
806		103.515625
807		99.609375
808		101.562500
809		99.609375
810		103.515625
811		97.656250
812		105.468750
813		97.656250
814		103.515625
815		97.656250
816		103.515625
817		99.609375
818		103.515625
819		97.656250
820		103.515625
821		97.656250
822		103.515625
823		99.609375
824		101.562500
825		97.656250
826		103.515625
827		95.703125
828		103.515625
829		95.703125
830		103.515625
831		95.703125
832		103.515625
833		95.703125
834		101.562500
835		93.750000
836		101.562500
837		91.796875
838		99.609375
839		93.750000
840		97.656250
841		93.750000
842		97.656250
843		89.843750
844		97.656250
845		89.843750
846		97.656250
847		87.890625
848		95.703125
849		87.890625
850		95.703125
851		85.937500
852		93.750000
853		83.984375
854		91.796875
855		85.937500
856		91.796875
857		83.984375
858		87.890625
859		80.078125
860		87.890625
861		78.125000
862		87.890625
863		78.125000
864		85.937500
865		76.171875
866		83.984375
867		74.218750
868		82.031250
869		72.265625
870		80.078125
871		70.312500
872		78.125000
873		70.312500
874		74.218750
875		68.359375
876		72.265625
877		64.453125
878		72.265625
879		62.500000
880		70.312500
881		60.546875
882		70.312500
883		58.593750
884		66.406250
885		54.687500
886		64.453125
887		52.734375
888		62.500000
889		52.734375
890		58.593750
891		50.781250
892		54.687500
893		44.921875
894		54.687500
895		42.968750
896		52.734375
897		41.015625
898		50.781250
899		39.062500
900		46.875000
901		35.156250
902		44.921875
903		33.203125
904		42.968750
905		31.250000
906		39.062500
907		31.250000
908		35.156250
909		25.390625
910		31.250000
911		21.484375
912		31.250000
913		19.531250
914		29.296875
915		15.625000
916		25.390625
917		13.671875
918		19.531250
919		9.765625
920		19.531250
921		7.812500
922		15.625000
923		5.859375
924		11.718750
925		3.906250
926		7.812500
927		-1.953125
928		5.859375
929		-3.906250
930		5.859375
931		-7.812500
932		1.953125
933		-7.812500
934		-1.953125
935		-13.671875
936		-3.906250
937		-17.578125
938		-7.812500
939		-17.578125
940		-9.765625
941		-19.531250
942		-15.625000
943		-25.390625
944		-17.578125
945		-29.296875
946		-19.531250
947		-33.203125
948		-23.437500
949		-35.156250
950		-25.390625
951		-37.109375
952		-31.250000
953		-41.015625
954		-31.250000
955		-42.968750
956		-35.156250
957		-44.921875
958		-41.015625
959		-46.875000
960		-42.968750
961		-54.687500
962		-44.921875
963		-56.640625
964		-46.875000
965		-58.593750
966		-50.781250
967		-62.500000
968		-52.734375
969		-64.453125
970		-56.640625
971		-68.359375
972		-58.593750
973		-68.359375
974		-62.500000
975		-70.312500
976		-66.406250
977		-76.171875
978		-68.359375
979		-78.125000
980		-70.312500
981		-82.031250
982		-72.265625
983		-83.984375
984		-74.218750
985		-85.937500
986		-78.125000
987		-87.890625
988		-78.125000
989		-89.843750
990		-82.031250
991		-89.843750
992		-85.937500
993		-93.750000
994		-89.843750
995		-97.656250
996		-89.843750
997		-99.609375
998		-91.796875
999		-101.562500
1000		-93.750000
1001		-103.515625
1002		-93.750000
1003		-105.468750
1004		-97.656250
1005		-107.421875
1006		-99.609375
1007		-107.421875
1008		-103.515625
1009		-109.375000
1010		-105.468750
1011		-113.281250
1012		-105.468750
1013		-113.281250
1014		-105.468750
1015		-117.187500
1016		-107.421875
1017		-117.187500
1018		-109.375000
1019		-119.140625
1020		-111.328125
1021		-121.093750
1022		-111.328125
1023		-119.140625
1024		-113.281250
1025		-121.093750
1026		-117.187500
1027		-123.046875
1028		-117.187500
1029		-125.000000
1030		-117.187500
1031		-125.000000
1032		-117.187500
1033		-126.953125
1034		-119.140625
1035		-126.953125
1036		-119.140625
1037		-126.953125
1038		-119.140625
1039		-128.906250
1040		-119.140625
1041		-125.000000
1042		-123.046875
1043		-125.000000
1044		-123.046875
1045		-128.906250
1046		-121.093750
1047		-128.906250
1048		-121.093750
1049		-128.906250
1050		-121.093750
1051		-128.906250
1052		-121.093750
1053		-128.906250
1054		-121.093750
1055		-128.906250
1056		-121.093750
1057		-126.953125
1058		-123.046875
1059		-125.000000
1060		-123.046875
1061		-128.906250
1062		-121.093750
1063		-126.953125
1064		-119.140625
1065		-126.953125
1066		-119.140625
1067		-126.953125
1068		-119.140625
1069		-125.000000
1070		-117.187500
1071		-125.000000
1072		-115.234375
1073		-123.046875
1074		-115.234375
1075		-119.140625
1076		-117.187500
1077		-119.140625
1078		-115.234375
1079		-121.093750
1080		-111.328125
1081		-119.140625
1082		-111.328125
1083		-117.187500
1084		-109.375000
1085		-115.234375
1086		-107.421875
1087		-115.234375
1088		-105.468750
1089		-111.328125
1090		-105.468750
1091		-107.421875
1092		-105.468750
1093		-107.421875
1094		-103.515625
1095		-107.421875
1096		-99.609375
1097		-105.468750
1098		-95.703125
1099		-103.515625
1100		-95.703125
1101		-101.562500
1102		-93.750000
1103		-99.609375
1104		-91.796875
1105		-97.656250
1106		-87.890625
1107		-95.703125
1108		-87.890625
1109		-89.843750
1110		-85.937500
1111		-89.843750
1112		-82.031250
1113		-87.890625
1114		-80.078125
1115		-85.937500
1116		-78.125000
1117		-83.984375
1118		-74.218750
1119		-80.078125
1120		-72.265625
1121		-78.125000
1122		-68.359375
1123		-76.171875
1124		-66.406250
1125		-70.312500
1126		-66.406250
1127		-66.406250
1128		-62.500000
1129		-66.406250
1130		-58.593750
1131		-64.453125
1132		-54.687500
1133		-62.500000
1134		-52.734375
1135		-58.593750
1136		-48.828125
1137		-56.640625
1138		-46.875000
1139		-52.734375
1140		-42.968750
1141		-46.875000
1142		-42.968750
1143		-44.921875
1144		-41.015625
1145		-41.015625
1146		-35.156250
1147		-41.015625
1148		-31.250000
1149		-37.109375
1150		-29.296875
1151		-35.156250
1152		-27.343750
1153		-31.250000
1154		-21.484375
1155		-27.343750
1156		-19.531250
1157		-25.390625
1158		-17.578125
1159		-19.531250
1160		-15.625000
1161		-17.578125
1162		-11.718750
1163		-17.578125
1164		-7.812500
1165		-13.671875
1166		-3.906250
1167		-9.765625
1168		-1.953125
1169		-7.812500
1170		1.953125
1171		-3.906250
1172		5.859375
1173		-1.953125
1174		7.812500
1175		3.906250
1176		7.812500
1177		7.812500
1178		11.718750
1179		7.812500
1180		15.625000
1181		9.765625
1182		19.531250
1183		13.671875
1184		21.484375
1185		15.625000
1186		23.437500
1187		19.531250
1188		27.343750
1189		23.437500
1190		31.250000
1191		23.437500
1192		31.250000
1193		29.296875
1194		33.203125
1195		33.203125
1196		39.062500
1197		33.203125
1198		41.015625
1199		35.156250
1200		42.968750
1201		37.109375
1202		46.875000
1203		41.015625
1204		48.828125
1205		42.968750
1206		50.781250
1207		44.921875
1208		54.687500
1209		50.781250
1210		52.734375
1211		52.734375
1212		56.640625
1213		52.734375
1214		60.546875
1215		54.687500
1216		62.500000
1217		56.640625
1218		64.453125
1219		60.546875
1220		66.406250
1221		60.546875
1222		70.312500
1223		62.500000
1224		72.265625
1225		66.406250
1226		70.312500
1227		70.312500
1228		72.265625
1229		70.312500
1230		76.171875
1231		70.312500
1232		78.125000
1233		72.265625
1234		80.078125
1235		74.218750
1236		82.031250
1237		76.171875
1238		83.984375
1239		78.125000
1240		85.937500
1241		78.125000
1242		85.937500
1243		83.984375
1244		85.937500
1245		83.984375
1246		87.890625
1247		82.031250
1248		91.796875
1249		85.937500
1250		93.750000
1251		85.937500
1252		93.750000
1253		85.937500
1254		95.703125
1255		87.890625
1256		97.656250
1257		89.843750
1258		97.656250
1259		93.750000
1260		95.703125
1261		93.750000
1262		95.703125
1263		91.796875
1264		99.609375
1265		93.750000
1266		101.562500
1267		93.750000
1268		101.562500
1269		93.750000
1270		101.562500
1271		95.703125
1272		103.515625
1273		95.703125
1274		103.515625
1275		97.656250
1276		103.515625
1277		99.609375
1278		101.562500
1279		99.609375
1280		105.468750
1281		97.656250
1282		105.468750
1283		97.656250
1284		105.468750
1285		97.656250
1286		105.468750
1287		97.656250
1288		105.468750
1289		97.656250
1290		105.468750
1291		97.656250
1292		105.468750
1293		101.562500
1294		103.515625
1295		101.562500
1296		103.515625
1297		97.656250
1298		105.468750
1299		97.656250
1300		105.468750
1301		97.656250
1302		105.468750
1303		97.656250
1304		103.515625
1305		97.656250
1306		103.515625
1307		95.703125
1308		103.515625
1309		95.703125
1310		103.515625
1311		97.656250
1312		99.609375
1313		93.750000
1314		101.562500
1315		93.750000
1316		101.562500
1317		91.796875
1318		99.609375
1319		91.796875
1320		99.609375
1321		89.843750
1322		97.656250
1323		89.843750
1324		95.703125
1325		87.890625
1326		97.656250
1327		89.843750
1328		91.796875
1329		87.890625
1330		91.796875
1331		83.984375
1332		93.750000
1333		83.984375
1334		91.796875
1335		82.031250
1336		89.843750
1337		80.078125
1338		87.890625
1339		78.125000
1340		85.937500
1341		76.171875
1342		83.984375
1343		78.125000
1344		82.031250
1345		76.171875
1346		78.125000
1347		70.312500
1348		80.078125
1349		70.312500
1350		78.125000
1351		68.359375
1352		76.171875
1353		68.359375
1354		74.218750
1355		64.453125
1356		72.265625
1357		62.500000
1358		70.312500
1359		60.546875
1360		68.359375
1361		60.546875
1362		62.500000
1363		54.687500
1364		60.546875
1365		52.734375
1366		62.500000
1367		50.781250
1368		58.593750
1369		46.875000
1370		56.640625
1371		44.921875
1372		52.734375
1373		42.968750
1374		50.781250
1375		41.015625
1376		48.828125
1377		41.015625
1378		44.921875
1379		37.109375
1380		41.015625
1381		33.203125
1382		41.015625
1383		29.296875
1384		39.062500
1385		27.343750
1386		35.156250
1387		25.390625
1388		33.203125
1389		21.484375
1390		31.250000
1391		17.578125
1392		27.343750
1393		17.578125
1394		25.390625
1395		15.625000
1396		19.531250
1397		9.765625
1398		17.578125
1399		5.859375
1400		15.625000
1401		3.906250
1402		13.671875
1403		1.953125
1404		9.765625
1405		-1.953125
1406		5.859375
1407		-5.859375
1408		3.906250
1409		-7.812500
1410		1.953125
1411		-7.812500
1412		-3.906250
1413		-11.718750
1414		-7.812500
1415		-17.578125
1416		-7.812500
1417		-21.484375
1418		-11.718750
1419		-23.437500
1420		-13.671875
1421		-27.343750
1422		-17.578125
1423		-29.296875
1424		-19.531250
1425		-33.203125
1426		-23.437500
1427		-33.203125
1428		-27.343750
1429		-37.109375
1430		-31.250000
1431		-42.968750
1432		-33.203125
1433		-44.921875
1434		-37.109375
1435		-46.875000
1436		-39.062500
1437		-50.781250
1438		-42.968750
1439		-54.687500
1440		-44.921875
1441		-56.640625
1442		-48.828125
1443		-58.593750
1444		-50.781250
1445		-60.546875
1446		-56.640625
1447		-64.453125
1448		-58.593750
1449		-68.359375
1450		-58.593750
1451		-70.312500
1452		-60.546875
1453		-74.218750
1454		-64.453125
1455		-76.171875
1456		-68.359375
1457		-78.125000
1458		-70.312500
1459		-80.078125
1460		-72.265625
1461		-82.031250
1462		-78.125000
1463		-83.984375
1464		-80.078125
1465		-89.843750
1466		-80.078125
1467		-91.796875
1468		-82.031250
1469		-93.750000
1470		-85.937500
1471		-93.750000
1472		-87.890625
1473		-97.656250
1474		-89.843750
1475		-99.609375
1476		-91.796875
1477		-99.609375
1478		-93.750000
1479		-101.562500
1480		-97.656250
1481		-103.515625
1482		-97.656250
1483		-109.375000
1484		-99.609375
1485		-109.375000
1486		-101.562500
1487		-111.328125
1488		-103.515625
1489		-113.281250
1490		-105.468750
1491		-115.234375
1492		-105.468750
1493		-115.234375
1494		-107.421875
1495		-115.234375
1496		-111.328125
1497		-117.187500
1498		-113.281250
1499		-121.093750
1500		-113.281250
1501		-121.093750
1502		-113.281250
1503		-123.046875
1504		-113.281250
1505		-123.046875
1506		-115.234375
1507		-125.000000
1508		-117.187500
1509		-125.000000
1510		-117.187500
1511		-125.000000
1512		-119.140625
1513		-125.000000
1514		-121.093750
1515		-126.953125
1516		-119.140625
1517		-128.906250
1518		-119.140625
1519		-128.906250
1520		-121.093750
1521		-128.906250
1522		-121.093750
1523		-128.906250
1524		-121.093750
1525		-128.906250
1526		-121.093750
1527		-128.906250
1528		-121.093750
1529		-126.953125
1530		-125.000000
1531		-128.906250
1532		-123.046875
1533		-128.906250
1534		-121.093750
1535		-128.906250
1536		-121.093750
1537		-128.906250
1538		-121.093750
1539		-128.906250
1540		-119.140625
1541		-126.953125
1542		-119.140625
1543		-126.953125
1544		-119.140625
1545		-123.046875
1546		-119.140625
1547		-123.046875
1548		-119.140625
1549		-123.046875
1550		-117.187500
1551		-123.046875
1552		-115.234375
1553		-123.046875
1554		-113.281250
1555		-121.093750
1556		-113.281250
1557		-119.140625
1558		-111.328125
1559		-117.187500
1560		-109.375000
1561		-117.187500
1562		-109.375000
1563		-113.281250
1564		-109.375000
1565		-111.328125
1566		-105.468750
1567		-113.281250
1568		-103.515625
1569		-109.375000
1570		-101.562500
1571		-107.421875
1572		-99.609375
1573		-105.468750
1574		-97.656250
1575		-105.468750
1576		-95.703125
1577		-101.562500
1578		-95.703125
1579		-97.656250
1580		-93.750000
1581		-95.703125
1582		-91.796875
1583		-95.703125
1584		-85.937500
1585		-93.750000
1586		-85.937500
1587		-91.796875
1588		-82.031250
1589		-89.843750
1590		-80.078125
1591		-87.890625
1592		-78.125000
1593		-85.937500
1594		-76.171875
1595		-80.078125
1596		-76.171875
1597		-76.171875
1598		-72.265625
1599		-76.171875
1600		-68.359375
1601		-74.218750
1602		-64.453125
1603		-72.265625
1604		-62.500000
1605		-68.359375
1606		-60.546875
1607		-64.453125
1608		-56.640625
1609		-64.453125
1610		-54.687500
1611		-60.546875
1612		-52.734375
1613		-54.687500
1614		-50.781250
1615		-52.734375
1616		-46.875000
1617		-50.781250
1618		-42.968750
1619		-48.828125
1620		-39.062500
1621		-46.875000
1622		-35.156250
1623		-41.015625
1624		-33.203125
1625		-39.062500
1626		-29.296875
1627		-37.109375
1628		-27.343750
1629		-31.250000
1630		-25.390625
1631		-27.343750
1632		-23.437500
1633		-27.343750
1634		-17.578125
1635		-23.437500
1636		-15.625000
1637		-21.484375
1638		-13.671875
1639		-19.531250
1640		-9.765625
1641		-15.625000
1642		-5.859375
1643		-11.718750
1644		-3.906250
1645		-9.765625
1646		-1.953125
1647		-3.906250
1648		0.000000
1649		0.000000
1650		5.859375
1651		1.953125
1652		7.812500
1653		3.906250
1654		11.718750
1655		7.812500
1656		13.671875
1657		11.718750
1658		17.578125
1659		13.671875
1660		19.531250
1661		15.625000
1662		21.484375
1663		19.531250
1664		23.437500
1665		23.437500
1666		27.343750
1667		23.437500
1668		31.250000
1669		25.390625
1670		35.156250
1671		29.296875
1672		37.109375
1673		31.250000
1674		41.015625
1675		33.203125
1676		42.968750
1677		37.109375
1678		46.875000
1679		41.015625
1680		44.921875
1681		44.921875
1682		48.828125
1683		44.921875
1684		52.734375
1685		46.875000
1686		54.687500
1687		48.828125
1688		56.640625
1689		50.781250
1690		58.593750
1691		54.687500
1692		62.500000
1693		54.687500
1694		62.500000
1695		58.593750
1696		64.453125
1697		62.500000
1698		66.406250
1699		64.453125
1700		70.312500
1701		64.453125
1702		72.265625
1703		66.406250
1704		74.218750
1705		68.359375
1706		76.171875
1707		70.312500
1708		78.125000
1709		72.265625
1710		80.078125
1711		74.218750
1712		82.031250
1713		78.125000
1714		82.031250
1715		80.078125
1716		82.031250
1717		78.125000
1718		85.937500
1719		80.078125
1720		87.890625
1721		82.031250
1722		89.843750
1723		82.031250
1724		89.843750
1725		83.984375
1726		93.750000
1727		85.937500
1728		93.750000
1729		87.890625
1730		93.750000
1731		91.796875
1732		93.750000
1733		89.843750
1734		97.656250
1735		89.843750
1736		97.656250
1737		91.796875
1738		99.609375
1739		91.796875
1740		99.609375
1741		93.750000
1742		101.562500
1743		93.750000
1744		101.562500
1745		95.703125
1746		103.515625
1747		97.656250
1748		99.609375
1749		99.609375
1750		101.562500
1751		97.656250
1752		105.468750
1753		97.656250
1754		105.468750
1755		97.656250
1756		105.468750
1757		97.656250
1758		105.468750
1759		97.656250
1760		105.468750
1761		99.609375
1762		105.468750
1763		101.562500
1764		105.468750
1765		101.562500
1766		103.515625
1767		99.609375
1768		105.468750
1769		99.609375
1770		107.421875
1771		99.609375
1772		107.421875
1773		97.656250
1774		105.468750
1775		97.656250
1776		105.468750
1777		97.656250
1778		105.468750
1779		97.656250
1780		105.468750
1781		99.609375
1782		101.562500
1783		97.656250
1784		103.515625
1785		95.703125
1786		103.515625
1787		95.703125
1788		103.515625
1789		93.750000
1790		103.515625
1791		93.750000
1792		101.562500
1793		93.750000
1794		101.562500
1795		91.796875
1796		99.609375
1797		93.750000
1798		97.656250
1799		93.750000
1800		95.703125
1801		89.843750
1802		95.703125
1803		87.890625
1804		95.703125
1805		85.937500
1806		95.703125
1807		85.937500
1808		93.750000
1809		83.984375
1810		91.796875
1811		82.031250
1812		91.796875
1813		82.031250
1814		89.843750
1815		82.031250
1816		85.937500
1817		80.078125
1818		83.984375
1819		76.171875
1820		85.937500
1821		76.171875
1822		83.984375
1823		74.218750
1824		82.031250
1825		72.265625
1826		78.125000
1827		70.312500
1828		78.125000
1829		68.359375
1830		76.171875
1831		68.359375
1832		72.265625
1833		66.406250
1834		70.312500
1835		60.546875
1836		68.359375
1837		58.593750
1838		68.359375
1839		56.640625
1840		64.453125
1841		54.687500
1842		62.500000
1843		52.734375
1844		60.546875
1845		48.828125
1846		58.593750
1847		48.828125
1848		56.640625
1849		46.875000
1850		50.781250
1851		41.015625
1852		48.828125
1853		39.062500
1854		48.828125
1855		37.109375
1856		46.875000
1857		35.156250
1858		42.968750
1859		31.250000
1860		39.062500
1861		27.343750
1862		37.109375
1863		27.343750
1864		35.156250
1865		25.390625
1866		31.250000
1867		23.437500
1868		27.343750
1869		17.578125
1870		27.343750
1871		13.671875
1872		23.437500
1873		11.718750
1874		21.484375
1875		7.812500
1876		17.578125
1877		5.859375
1878		15.625000
1879		3.906250
1880		11.718750
1881		1.953125
1882		7.812500
1883		0.000000
1884		3.906250
1885		-5.859375
1886		1.953125
1887		-9.765625
1888		0.000000
1889		-11.718750
1890		-3.906250
1891		-13.671875
1892		-5.859375
1893		-17.578125
1894		-9.765625
1895		-21.484375
1896		-11.718750
1897		-21.484375
1898		-15.625000
1899		-25.390625
1900		-19.531250
1901		-31.250000
1902		-23.437500
1903		-33.203125
1904		-25.390625
1905		-37.109375
1906		-27.343750
1907		-39.062500
1908		-31.250000
1909		-42.968750
1910		-35.156250
1911		-44.921875
1912		-35.156250
1913		-46.875000
1914		-39.062500
1915		-48.828125
1916		-44.921875
1917		-52.734375
1918		-48.828125
1919		-58.593750
1920		-48.828125
1921		-60.546875
1922		-50.781250
1923		-62.500000
1924		-54.687500
1925		-64.453125
1926		-56.640625
1927		-68.359375
1928		-60.546875
1929		-72.265625
1930		-62.500000
1931		-72.265625
1932		-64.453125
1933		-74.218750
1934		-70.312500
1935		-80.078125
1936		-72.265625
1937		-82.031250
1938		-72.265625
1939		-83.984375
1940		-76.171875
1941		-85.937500
1942		-78.125000
1943		-89.843750
1944		-80.078125
1945		-91.796875
1946		-82.031250
1947		-93.750000
1948		-85.937500
1949		-93.750000
1950		-89.843750
1951		-95.703125
1952		-91.796875
1953		-99.609375
1954		-91.796875
1955		-103.515625
1956		-93.750000
1957		-105.468750
1958		-95.703125
1959		-107.421875
1960		-97.656250
1961		-109.375000
1962		-99.609375
1963		-109.375000
1964		-101.562500
1965		-109.375000
1966		-105.468750
1967		-111.328125
1968		-107.421875
1969		-115.234375
1970		-107.421875
1971		-117.187500
1972		-107.421875
1973		-117.187500
1974		-109.375000
1975		-117.187500
1976		-109.375000
1977		-121.093750
1978		-113.281250
1979		-121.093750
1980		-113.281250
1981		-121.093750
1982		-115.234375
1983		-121.093750
1984		-117.187500
1985		-125.000000
1986		-117.187500
1987		-125.000000
1988		-117.187500
1989		-125.000000
1990		-117.187500
1991		-126.953125
1992		-117.187500
1993		-126.953125
1994		-119.140625
1995		-126.953125
1996		-119.140625
1997		-128.906250
1998		-119.140625
1999		-125.000000
2000		-123.046875
2001		-125.000000
2002		-123.046875
2003		-128.906250
2004		-121.093750
2005		-128.906250
2006		-121.093750
2007		-128.906250
2008		-121.093750
2009		-126.953125
2010		-121.093750
2011		-126.953125
2012		-121.093750
2013		-128.906250
2014		-119.140625
2015		-126.953125
2016		-119.140625
2017		-123.046875
2018		-121.093750
2019		-125.000000
2020		-119.140625
2021		-125.000000
2022		-117.187500
2023		-125.000000
2024		-117.187500
2025		-123.046875
2026		-117.187500
2027		-123.046875
2028		-115.234375
2029		-121.093750
2030		-113.281250
2031		-121.093750
2032		-113.281250
2033		-117.187500
2034		-115.234375
2035		-115.234375
2036		-113.281250
2037		-117.187500
2038		-109.375000
2039		-115.234375
2040		-107.421875
2041		-113.281250
2042		-105.468750
2043		-113.281250
2044		-105.468750
2045		-111.328125
2046		-103.515625
2047		-109.375000
2048		-101.562500
2049		-107.421875
2050		-101.562500
2051		-103.515625
2052		-99.609375
2053		-101.562500
2054		-95.703125
2055		-101.562500
2056		-93.750000
2057		-99.609375
2058		-91.796875
2059		-97.656250
2060		-87.890625
2061		-95.703125
2062		-85.937500
2063		-93.750000
2064		-83.984375
2065		-89.843750
2066		-82.031250
2067		-85.937500
2068		-82.031250
2069		-83.984375
2070		-78.125000
2071		-82.031250
2072		-74.218750
2073		-80.078125
2074		-72.265625
2075		-78.125000
2076		-68.359375
2077		-76.171875
2078		-66.406250
2079		-72.265625
2080		-64.453125
2081		-70.312500
2082		-60.546875
2083		-64.453125
2084		-60.546875
2085		-60.546875
2086		-56.640625
2087		-60.546875
2088		-52.734375
2089		-58.593750
2090		-48.828125
2091		-54.687500
2092		-46.875000
2093		-52.734375
2094		-44.921875
2095		-48.828125
2096		-39.062500
2097		-46.875000
2098		-37.109375
2099		-42.968750
2100		-37.109375
2101		-37.109375
2102		-33.203125
2103		-35.156250
2104		-29.296875
2105		-35.156250
2106		-23.437500
2107		-31.250000
2108		-21.484375
2109		-29.296875
2110		-19.531250
2111		-23.437500
2112		-15.625000
2113		-21.484375
2114		-11.718750
2115		-19.531250
2116		-11.718750
2117		-13.671875
2118		-9.765625
2119		-9.765625
2120		-5.859375
2121		-9.765625
2122		-1.953125
2123		-7.812500
2124		1.953125
2125		-3.906250
2126		5.859375
2127		-1.953125
2128		7.812500
2129		3.906250
2130		11.718750
2131		5.859375
2132		13.671875
2133		7.812500
2134		13.671875
2135		13.671875
2136		17.578125
2137		15.625000
2138		21.484375
2139		15.625000
2140		25.390625
2141		19.531250
2142		27.343750
2143		21.484375
2144		29.296875
2145		25.390625
2146		35.156250
2147		27.343750
2148		37.109375
2149		29.296875
2150		37.109375
2151		35.156250
2152		39.062500
2153		37.109375
2154		42.968750
2155		39.062500
2156		46.875000
2157		41.015625
2158		48.828125
2159		42.968750
2160		50.781250
2161		46.875000
2162		54.687500
2163		46.875000
2164		56.640625
2165		50.781250
2166		58.593750
2167		54.687500
2168		58.593750
2169		56.640625
2170		60.546875
2171		58.593750
2172		66.406250
2173		58.593750
2174		66.406250
2175		60.546875
2176		70.312500
2177		64.453125
2178		70.312500
2179		66.406250
2180		74.218750
2181		68.359375
2182		76.171875
2183		72.265625
2184		76.171875
2185		74.218750
2186		78.125000
2187		74.218750
2188		82.031250
2189		76.171875
2190		82.031250
2191		76.171875
2192		83.984375
2193		78.125000
2194		85.937500
2195		80.078125
2196		87.890625
2197		80.078125
2198		89.843750
2199		82.031250
2200		89.843750
2201		85.937500
2202		89.843750
2203		87.890625
2204		91.796875
2205		87.890625
2206		93.750000
2207		87.890625
2208		95.703125
2209		89.843750
2210		95.703125
2211		89.843750
2212		97.656250
2213		91.796875
2214		99.609375
2215		91.796875
2216		99.609375
2217		93.750000
2218		99.609375
2219		95.703125
2220		99.609375
2221		95.703125
2222		101.562500
2223		95.703125
2224		103.515625
2225		95.703125
2226		103.515625
2227		95.703125
2228		103.515625
2229		95.703125
2230		105.468750
2231		97.656250
2232		105.468750
2233		97.656250
2234		105.468750
2235		101.562500
2236		103.515625
2237		99.609375
2238		103.515625
2239		97.656250
2240		105.468750
2241		99.609375
2242		107.421875
2243		97.656250
2244		105.468750
2245		99.609375
2246		105.468750
2247		99.609375
2248		105.468750
2249		99.609375
2250		107.421875
2251		101.562500
2252		103.515625
2253		101.562500
2254		103.515625
2255		97.656250
2256		105.468750
2257		97.656250
2258		105.468750
2259		97.656250
2260		105.468750
2261		95.703125
2262		103.515625
2263		95.703125
2264		103.515625
2265		95.703125
2266		103.515625
2267		95.703125
2268		101.562500
2269		95.703125
2270		99.609375
2271		93.750000
2272		99.609375
2273		91.796875
2274		99.609375
2275		91.796875
2276		99.609375
2277		89.843750
2278		97.656250
2279		89.843750
2280		97.656250
2281		87.890625
2282		95.703125
2283		85.937500
2284		93.750000
2285		87.890625
2286		89.843750
2287		85.937500
2288		89.843750
2289		82.031250
2290		89.843750
2291		82.031250
2292		89.843750
2293		80.078125
2294		87.890625
2295		78.125000
2296		85.937500
2297		76.171875
2298		83.984375
2299		74.218750
2300		82.031250
2301		74.218750
2302		82.031250
2303		72.265625
2304		76.171875
2305		68.359375
2306		76.171875
2307		66.406250
2308		76.171875
2309		64.453125
2310		72.265625
2311		64.453125
2312		70.312500
2313		60.546875
2314		68.359375
2315		58.593750
2316		66.406250
2317		56.640625
2318		64.453125
2319		56.640625
2320		60.546875
2321		52.734375
2322		56.640625
2323		48.828125
2324		58.593750
2325		46.875000
2326		54.687500
2327		42.968750
2328		52.734375
2329		41.015625
2330		50.781250
2331		39.062500
2332		48.828125
2333		37.109375
2334		44.921875
2335		35.156250
2336		41.015625
2337		33.203125
2338		37.109375
2339		27.343750
2340		35.156250
2341		25.390625
2342		35.156250
2343		23.437500
2344		31.250000
2345		19.531250
2346		29.296875
2347		17.578125
2348		25.390625
2349		13.671875
2350		23.437500
2351		11.718750
2352		19.531250
2353		9.765625
2354		13.671875
2355		5.859375
2356		11.718750
2357		1.953125
2358		9.765625
2359		-1.953125
2360		7.812500
2361		-3.906250
2362		3.906250
2363		-7.812500
2364		0.000000
2365		-11.718750
2366		-1.953125
2367		-13.671875
2368		-3.906250
2369		-13.671875
2370		-9.765625
2371		-17.578125
2372		-11.718750
2373		-23.437500
2374		-15.625000
2375		-25.390625
2376		-15.625000
2377		-29.296875
2378		-19.531250
2379		-31.250000
2380		-23.437500
2381		-33.203125
2382		-25.390625
2383		-37.109375
2384		-29.296875
2385		-39.062500
2386		-31.250000
2387		-41.015625
2388		-37.109375
2389		-46.875000
2390		-39.062500
2391		-48.828125
2392		-41.015625
2393		-52.734375
2394		-44.921875
2395		-54.687500
2396		-46.875000
2397		-58.593750
2398		-50.781250
2399		-62.500000
2400		-52.734375
2401		-62.500000
2402		-56.640625
2403		-64.453125
2404		-60.546875
2405		-68.359375
2406		-62.500000
2407		-72.265625
2408		-64.453125
2409		-76.171875
2410		-66.406250
2411		-78.125000
2412		-70.312500
2413		-80.078125
2414		-72.265625
2415		-83.984375
2416		-74.218750
2417		-85.937500
2418		-76.171875
2419		-85.937500
2420		-82.031250
2421		-87.890625
2422		-83.984375
2423		-93.750000
2424		-85.937500
2425		-93.750000
2426		-85.937500
2427		-97.656250
2428		-87.890625
2429		-97.656250
2430		-91.796875
2431		-101.562500
2432		-93.750000
2433		-103.515625
2434		-95.703125
2435		-105.468750
2436		-97.656250
2437		-105.468750
2438		-101.562500
2439		-107.421875
2440		-103.515625
2441		-111.328125
2442		-103.515625
2443		-113.281250
2444		-103.515625
2445		-113.281250
2446		-105.468750
2447		-115.234375
2448		-109.375000
2449		-117.187500
2450		-109.375000
2451		-117.187500
2452		-111.328125
2453		-117.187500
2454		-115.234375
2455		-119.140625
2456		-115.234375
2457		-121.093750
2458		-115.234375
2459		-123.046875
2460		-115.234375
2461		-125.000000
2462		-117.187500
2463		-125.000000
2464		-117.187500
2465		-126.953125
2466		-117.187500
2467		-126.953125
2468		-119.140625
2469		-126.953125
2470		-121.093750
2471		-125.000000
2472		-123.046875
2473		-128.906250
2474		-121.093750
2475		-128.906250
2476		-121.093750
2477		-128.906250
2478		-121.093750
2479		-128.906250
2480		-121.093750
2481		-128.906250
2482		-121.093750
2483		-130.859375
2484		-121.093750
2485		-128.906250
2486		-121.093750
2487		-126.953125
2488		-125.000000
2489		-126.953125
2490		-125.000000
2491		-128.906250
2492		-121.093750
2493		-126.953125
2494		-121.093750
2495		-126.953125
2496		-121.093750
2497		-126.953125
2498		-119.140625
2499		-126.953125
2500		-119.140625
2501		-126.953125
2502		-117.187500
2503		-123.046875
2504		-119.140625
2505		-121.093750
2506		-119.140625
2507		-123.046875
2508		-115.234375
2509		-121.093750
2510		-113.281250
2511		-121.093750
2512		-113.281250
2513		-119.140625
2514		-111.328125
2515		-117.187500
2516		-109.375000
2517		-117.187500
2518		-109.375000
2519		-115.234375
2520		-107.421875
2521		-111.328125
2522		-107.421875
2523		-109.375000
2524		-103.515625
2525		-109.375000
2526		-101.562500
2527		-107.421875
2528		-99.609375
2529		-105.468750
2530		-97.656250
2531		-103.515625
2532		-95.703125
2533		-101.562500
2534		-93.750000
2535		-99.609375
2536		-91.796875
2537		-95.703125
2538		-91.796875
2539		-93.750000
2540		-89.843750
2541		-93.750000
2542		-83.984375
2543		-91.796875
2544		-82.031250
2545		-87.890625
2546		-80.078125
2547		-85.937500
2548		-78.125000
2549		-83.984375
2550		-74.218750
2551		-80.078125
2552		-72.265625
2553		-78.125000
2554		-72.265625
2555		-74.218750
2556		-70.312500
2557		-70.312500
2558		-64.453125
2559		-70.312500
2560		-60.546875
2561		-68.359375
2562		-58.593750
2563		-64.453125
2564		-56.640625
2565		-62.500000
2566		-52.734375
2567		-58.593750
2568		-50.781250
2569		-56.640625
2570		-48.828125
2571		-50.781250
2572		-46.875000
2573		-46.875000
2574		-42.968750
2575		-46.875000
2576		-39.062500
2577		-44.921875
2578		-35.156250
2579		-41.015625
2580		-33.203125
2581		-39.062500
2582		-27.343750
2583		-35.156250
2584		-25.390625
2585		-33.203125
2586		-23.437500
2587		-27.343750
2588		-21.484375
2589		-23.437500
2590		-19.531250
2591		-21.484375
2592		-13.671875
2593		-19.531250
2594		-11.718750
2595		-17.578125
2596		-7.812500
2597		-13.671875
2598		-5.859375
2599		-9.765625
2600		-1.953125
2601		-7.812500
2602		1.953125
2603		-5.859375
2604		3.906250
2605		0.000000
2606		5.859375
2607		3.906250
2608		9.765625
2609		3.906250
2610		13.671875
2611		7.812500
2612		15.625000
2613		9.765625
2614		19.531250
2615		11.718750
2616		21.484375
2617		15.625000
2618		23.437500
2619		17.578125
2620		27.343750
2621		23.437500
2622		27.343750
2623		25.390625
2624		31.250000
2625		27.343750
2626		35.156250
2627		29.296875
2628		39.062500
2629		31.250000
2630		41.015625
2631		35.156250
2632		42.968750
2633		37.109375
2634		46.875000
2635		41.015625
2636		48.828125
2637		41.015625
2638		48.828125
2639		46.875000
2640		50.781250
2641		48.828125
2642		54.687500
2643		48.828125
2644		58.593750
2645		50.781250
2646		60.546875
2647		54.687500
2648		62.500000
2649		56.640625
2650		64.453125
2651		58.593750
2652		66.406250
2653		60.546875
2654		68.359375
2655		64.453125
2656		68.359375
2657		66.406250
2658		70.312500
2659		66.406250
2660		74.218750
2661		68.359375
2662		76.171875
2663		70.312500
2664		78.125000
2665		70.312500
2666		80.078125
2667		74.218750
2668		82.031250
2669		74.218750
2670		83.984375
2671		78.125000
2672		82.031250
2673		80.078125
2674		83.984375
2675		80.078125
2676		87.890625
2677		82.031250
2678		89.843750
2679		82.031250
2680		89.843750
2681		83.984375
2682		91.796875
2683		85.937500
2684		93.750000
2685		85.937500
2686		93.750000
2687		87.890625
2688		93.750000
2689		91.796875
2690		93.750000
2691		91.796875
2692		97.656250
2693		89.843750
2694		97.656250
2695		91.796875
2696		99.609375
2697		91.796875
2698		99.609375
2699		93.750000
2700		101.562500
2701		93.750000
2702		101.562500
2703		93.750000
2704		101.562500
2705		97.656250
2706		99.609375
2707		97.656250
2708		99.609375
2709		95.703125
2710		103.515625
2711		95.703125
2712		103.515625
2713		95.703125
2714		103.515625
2715		95.703125
2716		103.515625
2717		97.656250
2718		105.468750
2719		97.656250
2720		105.468750
2721		97.656250
2722		105.468750
2723		99.609375
2724		101.562500
2725		97.656250
2726		103.515625
2727		97.656250
2728		105.468750
2729		97.656250
2730		103.515625
2731		95.703125
2732		103.515625
2733		95.703125
2734		103.515625
2735		95.703125
2736		103.515625
2737		95.703125
2738		103.515625
2739		97.656250
2740		99.609375
2741		97.656250
2742		99.609375
2743		93.750000
2744		101.562500
2745		91.796875
2746		99.609375
2747		91.796875
2748		99.609375
2749		89.843750
2750		97.656250
2751		89.843750
2752		97.656250
2753		87.890625
2754		95.703125
2755		87.890625
2756		95.703125
2757		89.843750
2758		91.796875
2759		85.937500
2760		91.796875
2761		83.984375
2762		91.796875
2763		82.031250
2764		89.843750
2765		80.078125
2766		87.890625
2767		80.078125
2768		87.890625
2769		78.125000
2770		85.937500
2771		76.171875
2772		83.984375
2773		78.125000
2774		80.078125
2775		76.171875
2776		78.125000
2777		72.265625
2778		80.078125
2779		68.359375
2780		78.125000
2781		68.359375
2782		76.171875
2783		66.406250
2784		74.218750
2785		62.500000
2786		72.265625
2787		60.546875
2788		70.312500
2789		62.500000
2790		64.453125
2791		60.546875
2792		62.500000
2793		54.687500
2794		62.500000
2795		52.734375
2796		62.500000
2797		50.781250
2798		58.593750
2799		48.828125
2800		56.640625
2801		44.921875
2802		54.687500
2803		42.968750
2804		52.734375
2805		41.015625
2806		48.828125
2807		39.062500
2808		44.921875
2809		35.156250
2810		41.015625
2811		33.203125
2812		41.015625
2813		29.296875
2814		39.062500
2815		27.343750
2816		35.156250
2817		23.437500
2818		33.203125
2819		21.484375
2820		29.296875
2821		19.531250
2822		27.343750
2823		17.578125
2824		23.437500
2825		15.625000
2826		19.531250
2827		9.765625
2828		17.578125
2829		7.812500
2830		15.625000
2831		3.906250
2832		11.718750
2833		0.000000
2834		9.765625
2835		-1.953125
2836		7.812500
2837		-5.859375
2838		3.906250
2839		-5.859375
2840		1.953125
2841		-9.765625
2842		-3.906250
2843		-13.671875
2844		-7.812500
2845		-17.578125
2846		-7.812500
2847		-19.531250
2848		-11.718750
2849		-23.437500
2850		-15.625000
2851		-27.343750
2852		-17.578125
2853		-29.296875
2854		-21.484375
2855		-31.250000
2856		-23.437500
2857		-33.203125
2858		-29.296875
2859		-37.109375
2860		-31.250000
2861		-42.968750
2862		-33.203125
2863		-44.921875
2864		-35.156250
2865		-48.828125
2866		-39.062500
2867		-50.781250
2868		-42.968750
2869		-54.687500
2870		-44.921875
2871		-56.640625
2872		-46.875000
2873		-56.640625
2874		-52.734375
2875		-60.546875
2876		-56.640625
2877		-66.406250
2878		-58.593750
2879		-68.359375
2880		-58.593750
2881		-72.265625
2882		-60.546875
2883		-74.218750
2884		-66.406250
2885		-76.171875
2886		-68.359375
2887		-80.078125
2888		-70.312500
2889		-80.078125
2890		-72.265625
2891		-82.031250
2892		-78.125000
2893		-85.937500
2894		-80.078125
2895		-87.890625
2896		-80.078125
2897		-91.796875
2898		-82.031250
2899		-93.750000
2900		-85.937500
2901		-95.703125
2902		-87.890625
2903		-97.656250
2904		-89.843750
2905		-101.562500
2906		-93.750000
2907		-101.562500
2908		-97.656250
2909		-103.515625
2910		-99.609375
2911		-107.421875
2912		-99.609375
2913		-109.375000
2914		-101.562500
2915		-111.328125
2916		-103.515625
2917		-113.281250
2918		-103.515625
2919		-115.234375
2920		-105.468750
2921		-115.234375
2922		-107.421875
2923		-117.187500
2924		-109.375000
2925		-117.187500
2926		-113.281250
2927		-121.093750
2928		-115.234375
2929		-121.093750
2930		-113.281250
2931		-123.046875
2932		-115.234375
2933		-125.000000
2934		-117.187500
2935		-125.000000
2936		-117.187500
2937		-126.953125
2938		-119.140625
2939		-126.953125
2940		-119.140625
2941		-125.000000
2942		-123.046875
2943		-128.906250
2944		-123.046875
2945		-128.906250
2946		-123.046875
2947		-130.859375
2948		-121.093750
2949		-130.859375
2950		-123.046875
2951		-130.859375
2952		-123.046875
2953		-130.859375
2954		-123.046875
2955		-130.859375
2956		-125.000000
2957		-128.906250
2958		-126.953125
2959		-128.906250
2960		-126.953125
2961		-130.859375
2962		-125.000000
2963		-132.812500
2964		-125.000000
2965		-130.859375
2966		-123.046875
2967		-130.859375
2968		-125.000000
2969		-130.859375
2970		-123.046875
2971		-130.859375
2972		-123.046875
2973		-128.906250
2974		-123.046875
2975		-126.953125
2976		-125.000000
2977		-126.953125
2978		-121.093750
2979		-126.953125
2980		-119.140625
2981		-126.953125
2982		-119.140625
2983		-125.000000
2984		-117.187500
2985		-125.000000
2986		-115.234375
2987		-123.046875
2988		-115.234375
2989		-123.046875
2990		-113.281250
2991		-119.140625
2992		-115.234375
2993		-117.187500
2994		-113.281250
2995		-117.187500
2996		-109.375000
2997		-117.187500
2998		-107.421875
2999		-115.234375
3000		-105.468750
3001		-113.281250
3002		-105.468750
3003		-111.328125
3004		-103.515625
3005		-109.375000
3006		-99.609375
3007		-107.421875
3008		-99.609375
3009		-103.515625
3010		-99.609375
3011		-101.562500
3012		-93.750000
3013		-99.609375
3014		-93.750000
3015		-97.656250
3016		-89.843750
3017		-95.703125
3018		-87.890625
3019		-93.750000
3020		-85.937500
3021		-91.796875
3022		-83.984375
3023		-89.843750
3024		-80.078125
3025		-83.984375
3026		-80.078125
3027		-82.031250
3028		-76.171875
3029		-82.031250
3030		-72.265625
3031		-80.078125
3032		-70.312500
3033		-76.171875
3034		-68.359375
3035		-74.218750
3036		-64.453125
3037		-70.312500
3038		-60.546875
3039		-66.406250
3040		-58.593750
3041		-62.500000
3042		-58.593750
3043		-60.546875
3044		-54.687500
3045		-58.593750
3046		-50.781250
3047		-56.640625
3048		-46.875000
3049		-52.734375
3050		-44.921875
3051		-50.781250
3052		-41.015625
3053		-46.875000
3054		-39.062500
3055		-42.968750
3056		-35.156250
3057		-41.015625
3058		-33.203125
3059		-35.156250
3060		-31.250000
3061		-33.203125
3062		-27.343750
3063		-31.250000
3064		-23.437500
3065		-29.296875
3066		-19.531250
3067		-25.390625
3068		-17.578125
3069		-23.437500
3070		-13.671875
3071		-19.531250
3072		-9.765625
3073		-17.578125
3074		-7.812500
3075		-11.718750
3076		-7.812500
3077		-7.812500
3078		-3.906250
3079		-7.812500
3080		1.953125
3081		-3.906250
3082		3.906250
3083		-1.953125
3084		7.812500
3085		1.953125
3086		9.765625
3087		3.906250
3088		13.671875
3089		5.859375
3090		15.625000
3091		9.765625
3092		17.578125
3093		15.625000
3094		19.531250
3095		15.625000
3096		25.390625
3097		17.578125
3098		27.343750
3099		21.484375
3100		29.296875
3101		23.437500
3102		33.203125
3103		25.390625
3104		35.156250
3105		29.296875
3106		37.109375
3107		31.250000
3108		41.015625
3109		37.109375
3110		41.015625
3111		39.062500
3112		44.921875
3113		41.015625
3114		48.828125
3115		42.968750
3116		50.781250
3117		44.921875
3118		52.734375
3119		48.828125
3120		54.687500
3121		48.828125
3122		58.593750
3123		50.781250
3124		60.546875
3125		56.640625
3126		60.546875
3127		58.593750
3128		62.500000
3129		58.593750
3130		68.359375
3131		60.546875
3132		68.359375
3133		62.500000
3134		70.312500
3135		64.453125
3136		72.265625
3137		66.406250
3138		74.218750
3139		68.359375
3140		76.171875
3141		70.312500
3142		76.171875
3143		74.218750
3144		78.125000
3145		74.218750
3146		82.031250
3147		74.218750
3148		83.984375
3149		76.171875
3150		83.984375
3151		78.125000
3152		85.937500
3153		78.125000
3154		87.890625
3155		82.031250
3156		89.843750
3157		82.031250
3158		89.843750
3159		85.937500
3160		89.843750
3161		87.890625
3162		89.843750
3163		85.937500
3164		93.750000
3165		87.890625
3166		95.703125
3167		87.890625
3168		95.703125
3169		89.843750
3170		97.656250
3171		89.843750
3172		97.656250
3173		91.796875
3174		97.656250
3175		91.796875
3176		99.609375
3177		95.703125
3178		97.656250
3179		93.750000
3180		101.562500
3181		93.750000
3182		101.562500
3183		93.750000
3184		101.562500
3185		93.750000
3186		101.562500
3187		95.703125
3188		101.562500
3189		95.703125
3190		103.515625
3191		95.703125
3192		103.515625
3193		97.656250
3194		101.562500
3195		97.656250
3196		101.562500
3197		95.703125
3198		103.515625
3199		95.703125
3200		103.515625
3201		95.703125
3202		103.515625
3203		95.703125
3204		103.515625
3205		95.703125
3206		103.515625
3207		95.703125
3208		103.515625
3209		97.656250
3210		101.562500
3211		97.656250
3212		99.609375
3213		93.750000
3214		101.562500
3215		93.750000
3216		101.562500
3217		93.750000
3218		101.562500
3219		91.796875
3220		99.609375
3221		91.796875
3222		99.609375
3223		89.843750
3224		99.609375
3225		89.843750
3226		97.656250
3227		91.796875
3228		93.750000
3229		89.843750
3230		93.750000
3231		87.890625
3232		95.703125
3233		85.937500
3234		93.750000
3235		83.984375
3236		93.750000
3237		82.031250
3238		91.796875
3239		82.031250
3240		89.843750
3241		80.078125
3242		89.843750
3243		82.031250
3244		83.984375
3245		80.078125
3246		83.984375
3247		76.171875
3248		83.984375
3249		74.218750
3250		82.031250
3251		72.265625
3252		80.078125
3253		70.312500
3254		80.078125
3255		70.312500
3256		78.125000
3257		66.406250
3258		76.171875
3259		66.406250
3260		74.218750
3261		66.406250
3262		70.312500
3263		60.546875
3264		68.359375
3265		58.593750
3266		68.359375
3267		56.640625
3268		64.453125
3269		54.687500
3270		62.500000
3271		52.734375
3272		60.546875
3273		50.781250
3274		58.593750
3275		46.875000
3276		56.640625
3277		48.828125
3278		50.781250
3279		44.921875
3280		48.828125
3281		41.015625
3282		48.828125
3283		37.109375
3284		46.875000
3285		35.156250
3286		42.968750
3287		31.250000
3288		41.015625
3289		29.296875
3290		39.062500
3291		27.343750
3292		35.156250
3293		25.390625
3294		33.203125
3295		23.437500
3296		27.343750
3297		17.578125
3298		27.343750
3299		15.625000
3300		23.437500
3301		13.671875
3302		21.484375
3303		9.765625
3304		17.578125
3305		7.812500
3306		15.625000
3307		3.906250
3308		13.671875
3309		1.953125
3310		9.765625
3311		0.000000
3312		3.906250
3313		-3.906250
3314		1.953125
3315		-7.812500
3316		0.000000
3317		-11.718750
3318		-1.953125
3319		-13.671875
3320		-5.859375
3321		-17.578125
3322		-7.812500
3323		-19.531250
3324		-11.718750
3325		-23.437500
3326		-15.625000
3327		-23.437500
3328		-19.531250
3329		-27.343750
3330		-23.437500
3331		-31.250000
3332		-25.390625
3333		-35.156250
3334		-27.343750
3335		-37.109375
3336		-31.250000
3337		-41.015625
3338		-33.203125
3339		-42.968750
3340		-35.156250
3341		-46.875000
3342		-39.062500
3343		-48.828125
3344		-42.968750
3345		-50.781250
3346		-46.875000
3347		-56.640625
3348		-50.781250
3349		-58.593750
3350		-50.781250
3351		-64.453125
3352		-54.687500
3353		-66.406250
3354		-56.640625
3355		-68.359375
3356		-58.593750
3357		-72.265625
3358		-62.500000
3359		-74.218750
3360		-64.453125
3361		-74.218750
3362		-70.312500
3363		-76.171875
3364		-72.265625
3365		-82.031250
3366		-74.218750
3367		-83.984375
3368		-76.171875
3369		-85.937500
3370		-78.125000
3371		-89.843750
3372		-80.078125
3373		-93.750000
3374		-83.984375
3375		-95.703125
3376		-85.937500
3377		-95.703125
3378		-87.890625
3379		-97.656250
3380		-93.750000
3381		-101.562500
3382		-93.750000
3383		-103.515625
3384		-95.703125
3385		-105.468750
3386		-97.656250
3387		-109.375000
3388		-99.609375
3389		-109.375000
3390		-101.562500
3391		-111.328125
3392		-103.515625
3393		-113.281250
3394		-105.468750
3395		-113.281250
3396		-109.375000
3397		-115.234375
3398		-111.328125
3399		-119.140625
3400		-109.375000
3401		-119.140625
3402		-111.328125
3403		-121.093750
3404		-113.281250
3405		-123.046875
3406		-113.281250
3407		-125.000000
3408		-117.187500
3409		-125.000000
3410		-117.187500
3411		-123.046875
3412		-121.093750
3413		-125.000000
3414		-123.046875
3415		-126.953125
3416		-121.093750
3417		-128.906250
3418		-121.093750
3419		-130.859375
3420		-121.093750
3421		-130.859375
3422		-123.046875
3423		-130.859375
3424		-123.046875
3425		-132.812500
3426		-123.046875
3427		-132.812500
3428		-125.000000
3429		-128.906250
3430		-126.953125
3431		-132.812500
3432		-125.000000
3433		-132.812500
3434		-125.000000
3435		-132.812500
3436		-125.000000
3437		-132.812500
3438		-125.000000
3439		-132.812500
3440		-125.000000
3441		-132.812500
3442		-125.000000
3443		-132.812500
3444		-125.000000
3445		-128.906250
3446		-126.953125
3447		-128.906250
3448		-126.953125
3449		-130.859375
3450		-123.046875
3451		-130.859375
3452		-123.046875
3453		-128.906250
3454		-123.046875
3455		-128.906250
3456		-121.093750
3457		-128.906250
3458		-121.093750
3459		-126.953125
3460		-119.140625
3461		-125.000000
3462		-119.140625
3463		-123.046875
3464		-119.140625
3465		-123.046875
3466		-115.234375
3467		-123.046875
3468		-113.281250
3469		-121.093750
3470		-113.281250
3471		-119.140625
3472		-111.328125
3473		-117.187500
3474		-109.375000
3475		-117.187500
3476		-107.421875
3477		-115.234375
3478		-105.468750
3479		-111.328125
3480		-107.421875
3481		-109.375000
3482		-103.515625
3483		-109.375000
3484		-99.609375
3485		-107.421875
3486		-99.609375
3487		-105.468750
3488		-95.703125
3489		-103.515625
3490		-93.750000
3491		-99.609375
3492		-91.796875
3493		-99.609375
3494		-89.843750
3495		-93.750000
3496		-89.843750
3497		-91.796875
3498		-87.890625
3499		-89.843750
3500		-82.031250
3501		-89.843750
3502		-80.078125
3503		-85.937500
3504		-78.125000
3505		-83.984375
3506		-76.171875
3507		-80.078125
3508		-72.265625
3509		-78.125000
3510		-68.359375
3511		-76.171875
3512		-68.359375
3513		-70.312500
3514		-66.406250
3515		-68.359375
3516		-60.546875
3517		-68.359375
3518		-58.593750
3519		-64.453125
3520		-54.687500
3521		-60.546875
3522		-52.734375
3523		-60.546875
3524		-50.781250
3525		-56.640625
3526		-46.875000
3527		-52.734375
3528		-44.921875
3529		-46.875000
3530		-42.968750
3531		-44.921875
3532		-41.015625
3533		-42.968750
3534		-35.156250
3535		-41.015625
3536		-31.250000
3537		-37.109375
3538		-27.343750
3539		-35.156250
3540		-25.390625
3541		-31.250000
3542		-21.484375
3543		-29.296875
3544		-17.578125
3545		-25.390625
3546		-19.531250
3547		-19.531250
3548		-15.625000
3549		-17.578125
3550		-9.765625
3551		-15.625000
3552		-7.812500
3553		-13.671875
3554		-3.906250
3555		-9.765625
3556		-1.953125
3557		-7.812500
3558		1.953125
3559		-3.906250
3560		3.906250
3561		-1.953125
3562		7.812500
3563		3.906250
3564		7.812500
3565		7.812500
3566		11.718750
3567		7.812500
3568		17.578125
3569		11.718750
3570		19.531250
3571		13.671875
3572		23.437500
3573		15.625000
3574		25.390625
3575		19.531250
3576		29.296875
3577		21.484375
3578		31.250000
3579		27.343750
3580		31.250000
3581		29.296875
3582		33.203125
3583		31.250000
3584		39.062500
3585		33.203125
3586		41.015625
3587		35.156250
3588		42.968750
3589		39.062500
3590		46.875000
3591		39.062500
3592		48.828125
3593		42.968750
3594		50.781250
3595		44.921875
3596		52.734375
3597		48.828125
3598		54.687500
3599		52.734375
3600		58.593750
3601		52.734375
3602		60.546875
3603		54.687500
3604		62.500000
3605		56.640625
3606		64.453125
3607		58.593750
3608		66.406250
3609		60.546875
3610		68.359375
3611		62.500000
3612		70.312500
3613		66.406250
3614		70.312500
3615		68.359375
3616		72.265625
3617		68.359375
3618		76.171875
3619		70.312500
3620		78.125000
3621		72.265625
3622		80.078125
3623		72.265625
3624		82.031250
3625		74.218750
3626		83.984375
3627		76.171875
3628		83.984375
3629		78.125000
3630		85.937500
3631		82.031250
3632		85.937500
3633		82.031250
3634		87.890625
3635		82.031250
3636		89.843750
3637		83.984375
3638		91.796875
3639		83.984375
3640		91.796875
3641		85.937500
3642		93.750000
3643		85.937500
3644		93.750000
3645		87.890625
3646		95.703125
3647		91.796875
3648		93.750000
3649		91.796875
3650		95.703125
3651		89.843750
3652		99.609375
3653		91.796875
3654		99.609375
3655		91.796875
3656		99.609375
3657		93.750000
3658		99.609375
3659		93.750000
3660		101.562500
3661		93.750000
3662		101.562500
3663		97.656250
3664		99.609375
3665		97.656250
3666		99.609375
3667		95.703125
3668		101.562500
3669		95.703125
3670		103.515625
3671		95.703125
3672		103.515625
3673		95.703125
3674		103.515625
3675		95.703125
3676		103.515625
3677		95.703125
3678		103.515625
3679		95.703125
3680		103.515625
3681		97.656250
3682		99.609375
3683		97.656250
3684		101.562500
3685		93.750000
3686		103.515625
3687		93.750000
3688		101.562500
3689		93.750000
3690		101.562500
3691		93.750000
3692		101.562500
3693		91.796875
3694		101.562500
3695		91.796875
3696		99.609375
3697		93.750000
3698		95.703125
3699		93.750000
3700		95.703125
3701		89.843750
3702		97.656250
3703		89.843750
3704		97.656250
3705		87.890625
3706		95.703125
3707		87.890625
3708		95.703125
3709		85.937500
3710		93.750000
3711		85.937500
3712		93.750000
3713		83.984375
3714		91.796875
3715		83.984375
3716		87.890625
3717		80.078125
3718		87.890625
3719		78.125000
3720		87.890625
3721		78.125000
3722		85.937500
3723		76.171875
3724		83.984375
3725		76.171875
3726		83.984375
3727		74.218750
3728		82.031250
3729		72.265625
3730		80.078125
3731		72.265625
3732		76.171875
3733		70.312500
3734		74.218750
3735		66.406250
3736		74.218750
3737		64.453125
3738		72.265625
3739		62.500000
3740		70.312500
3741		60.546875
3742		68.359375
3743		56.640625
3744		66.406250
3745		56.640625
3746		64.453125
3747		56.640625
3748		60.546875
3749		52.734375
3750		56.640625
3751		48.828125
3752		56.640625
3753		46.875000
3754		56.640625
3755		42.968750
3756		52.734375
3757		41.015625
3758		50.781250
3759		39.062500
3760		48.828125
3761		35.156250
3762		44.921875
3763		35.156250
3764		42.968750
3765		33.203125
3766		37.109375
3767		29.296875
3768		35.156250
3769		25.390625
3770		35.156250
3771		21.484375
3772		31.250000
3773		19.531250
3774		29.296875
3775		17.578125
3776		25.390625
3777		13.671875
3778		23.437500
3779		11.718750
3780		19.531250
3781		11.718750
3782		15.625000
3783		7.812500
3784		11.718750
3785		1.953125
3786		9.765625
3787		0.000000
3788		7.812500
3789		-3.906250
3790		3.906250
3791		-7.812500
3792		1.953125
3793		-9.765625
3794		-1.953125
3795		-11.718750
3796		-3.906250
3797		-13.671875
3798		-5.859375
3799		-17.578125
3800		-11.718750
3801		-23.437500
3802		-15.625000
3803		-25.390625
3804		-15.625000
3805		-27.343750
3806		-19.531250
3807		-33.203125
3808		-23.437500
3809		-35.156250
3810		-25.390625
3811		-37.109375
3812		-27.343750
3813		-39.062500
3814		-31.250000
3815		-41.015625
3816		-37.109375
3817		-44.921875
3818		-39.062500
3819		-48.828125
3820		-41.015625
3821		-52.734375
3822		-42.968750
3823		-56.640625
3824		-46.875000
3825		-58.593750
3826		-50.781250
3827		-62.500000
3828		-52.734375
3829		-66.406250
3830		-54.687500
3831		-64.453125
3832		-60.546875
3833		-68.359375
3834		-64.453125
3835		-72.265625
3836		-64.453125
3837		-76.171875
3838		-66.406250
3839		-78.125000
3840		-70.312500
3841		-82.031250
3842		-72.265625
3843		-83.984375
3844		-74.218750
3845		-87.890625
3846		-78.125000
3847		-87.890625
3848		-80.078125
3849		-89.843750
3850		-85.937500
3851		-93.750000
3852		-87.890625
3853		-95.703125
3854		-87.890625
3855		-97.656250
3856		-89.843750
3857		-101.562500
3858		-91.796875
3859		-103.515625
3860		-93.750000
3861		-105.468750
3862		-97.656250
3863		-107.421875
3864		-99.609375
3865		-107.421875
3866		-103.515625
3867		-109.375000
3868		-105.468750
3869		-113.281250
3870		-105.468750
3871		-115.234375
3872		-107.421875
3873		-115.234375
3874		-107.421875
3875		-119.140625
3876		-109.375000
3877		-119.140625
3878		-111.328125
3879		-121.093750
3880		-113.281250
3881		-121.093750
3882		-113.281250
3883		-121.093750
3884		-119.140625
3885		-125.000000
3886		-117.187500
3887		-126.953125
3888		-117.187500
3889		-126.953125
3890		-119.140625
3891		-128.906250
3892		-121.093750
3893		-128.906250
3894		-121.093750
3895		-128.906250
3896		-123.046875
3897		-130.859375
3898		-123.046875
3899		-128.906250
3900		-126.953125
3901		-128.906250
3902		-126.953125
3903		-132.812500
3904		-125.000000
3905		-132.812500
3906		-125.000000
3907		-132.812500
3908		-125.000000
3909		-132.812500
3910		-125.000000
3911		-132.812500
3912		-125.000000
3913		-132.812500
3914		-125.000000
3915		-132.812500
3916		-125.000000
3917		-130.859375
3918		-126.953125
3919		-132.812500
3920		-125.000000
3921		-132.812500
3922		-125.000000
3923		-132.812500
3924		-123.046875
3925		-130.859375
3926		-123.046875
3927		-130.859375
3928		-123.046875
3929		-130.859375
3930		-121.093750
3931		-128.906250
3932		-123.046875
3933		-126.953125
3934		-123.046875
3935		-125.000000
3936		-121.093750
3937		-126.953125
3938		-119.140625
3939		-125.000000
3940		-117.187500
3941		-125.000000
3942		-115.234375
3943		-123.046875
3944		-115.234375
3945		-121.093750
3946		-113.281250
3947		-121.093750
3948		-113.281250
3949		-117.187500
3950		-113.281250
3951		-115.234375
3952		-111.328125
3953		-115.234375
3954		-107.421875
3955		-113.281250
3956		-105.468750
3957		-113.281250
3958		-103.515625
3959		-109.375000
3960		-101.562500
3961		-109.375000
3962		-99.609375
3963		-105.468750
3964		-97.656250
3965		-105.468750
3966		-97.656250
3967		-99.609375
3968		-95.703125
3969		-97.656250
3970		-91.796875
3971		-97.656250
3972		-89.843750
3973		-93.750000
3974		-85.937500
3975		-91.796875
3976		-83.984375
3977		-89.843750
3978		-82.031250
3979		-87.890625
3980		-78.125000
3981		-85.937500
3982		-78.125000
3983		-80.078125
3984		-76.171875
3985		-78.125000
3986		-72.265625
3987		-76.171875
3988		-68.359375
3989		-74.218750
3990		-64.453125
3991		-72.265625
3992		-62.500000
3993		-68.359375
3994		-60.546875
3995		-66.406250
3996		-56.640625
3997		-62.500000
3998		-52.734375
3999		-60.546875
4000		-52.734375
4001		-54.687500
4002		-50.781250
4003		-52.734375
4004		-46.875000
4005		-50.781250
4006		-42.968750
4007		-46.875000
4008		-39.062500
4009		-44.921875
4010		-37.109375
4011		-42.968750
4012		-33.203125
4013		-39.062500
4014		-31.250000
4015		-35.156250
4016		-27.343750
4017		-31.250000
4018		-25.390625
4019		-27.343750
4020		-21.484375
4021		-27.343750
4022		-17.578125
4023		-21.484375
4024		-15.625000
4025		-19.531250
4026		-11.718750
4027		-17.578125
4028		-7.812500
4029		-13.671875
4030		-5.859375
4031		-11.718750
4032		-3.906250
4033		-5.859375
4034		-1.953125
4035		-3.906250
4036		1.953125
4037		-1.953125
4038		5.859375
4039		0.000000
4040		7.812500
4041		1.953125
4042		11.718750
4043		7.812500
4044		15.625000
4045		7.812500
4046		17.578125
4047		11.718750
4048		21.484375
4049		13.671875
4050		21.484375
4051		19.531250
4052		25.390625
4053		23.437500
4054		29.296875
4055		23.437500
4056		33.203125
4057		25.390625
4058		35.156250
4059		29.296875
4060		37.109375
4061		31.250000
4062		39.062500
4063		33.203125
4064		42.968750
4065		37.109375
4066		44.921875
4067		41.015625
4068		44.921875
4069		42.968750
4070		46.875000
4071		44.921875
4072		52.734375
4073		46.875000
4074		56.640625
4075		48.828125
4076		58.593750
4077		50.781250
4078		60.546875
4079		52.734375
4080		62.500000
4081		54.687500
4082		64.453125
4083		56.640625
4084		64.453125
4085		62.500000
4086		66.406250
4087		62.500000
4088		70.312500
4089		64.453125
4090		72.265625
4091		66.406250
4092		74.218750
4093		66.406250
4094		74.218750
4095		68.359375
4096		78.125000
4097		70.312500
4098		80.078125
4099		72.265625
4100		80.078125
4101		76.171875
4102		80.078125
4103		78.125000
4104		82.031250
4105		78.125000
4106		85.937500
4107		78.125000
4108		85.937500
4109		80.078125
4110		87.890625
4111		82.031250
4112		89.843750
4113		82.031250
4114		91.796875
4115		83.984375
4116		91.796875
4117		87.890625
4118		89.843750
4119		87.890625
4120		91.796875
4121		87.890625
4122		95.703125
4123		87.890625
4124		95.703125
4125		89.843750
4126		97.656250
4127		89.843750
4128		97.656250
4129		89.843750
4130		99.609375
4131		91.796875
4132		99.609375
4133		91.796875
4134		99.609375
4135		95.703125
4136		97.656250
4137		93.750000
4138		99.609375
4139		93.750000
4140		101.562500
4141		93.750000
4142		101.562500
4143		93.750000
4144		101.562500
4145		93.750000
4146		101.562500
4147		95.703125
4148		103.515625
4149		95.703125
4150		103.515625
4151		97.656250
4152		99.609375
4153		97.656250
4154		99.609375
4155		95.703125
4156		103.515625
4157		95.703125
4158		103.515625
4159		95.703125
4160		101.562500
4161		93.750000
4162		101.562500
4163		93.750000
4164		101.562500
4165		93.750000
4166		101.562500
4167		93.750000
4168		101.562500
4169		95.703125
4170		97.656250
4171		93.750000
4172		97.656250
4173		91.796875
4174		97.656250
4175		91.796875
4176		97.656250
4177		89.843750
4178		97.656250
4179		89.843750
4180		95.703125
4181		89.843750
4182		95.703125
4183		87.890625
4184		93.750000
4185		87.890625
4186		91.796875
4187		85.937500
4188		89.843750
4189		83.984375
4190		91.796875
4191		82.031250
4192		89.843750
4193		82.031250
4194		89.843750
4195		80.078125
4196		87.890625
4197		78.125000
4198		85.937500
4199		76.171875
4200		85.937500
4201		78.125000
4202		82.031250
4203		76.171875
4204		80.078125
4205		72.265625
4206		78.125000
4207		70.312500
4208		78.125000
4209		68.359375
4210		76.171875
4211		66.406250
4212		74.218750
4213		64.453125
4214		74.218750
4215		62.500000
4216		70.312500
4217		60.546875
4218		68.359375
4219		60.546875
4220		64.453125
4221		56.640625
4222		62.500000
4223		52.734375
4224		62.500000
4225		50.781250
4226		60.546875
4227		48.828125
4228		56.640625
4229		46.875000
4230		56.640625
4231		42.968750
4232		52.734375
4233		42.968750
4234		50.781250
4235		41.015625
4236		44.921875
4237		39.062500
4238		42.968750
4239		35.156250
4240		42.968750
4241		31.250000
4242		41.015625
4243		29.296875
4244		37.109375
4245		25.390625
4246		35.156250
4247		23.437500
4248		31.250000
4249		21.484375
4250		29.296875
4251		19.531250
4252		27.343750
4253		17.578125
4254		21.484375
4255		11.718750
4256		19.531250
4257		7.812500
4258		17.578125
4259		5.859375
4260		15.625000
4261		3.906250
4262		11.718750
4263		0.000000
4264		9.765625
4265		-1.953125
4266		5.859375
4267		-5.859375
4268		3.906250
4269		-5.859375
4270		-1.953125
4271		-9.765625
4272		-5.859375
4273		-15.625000
4274		-5.859375
4275		-17.578125
4276		-9.765625
4277		-21.484375
4278		-11.718750
4279		-23.437500
4280		-15.625000
4281		-27.343750
4282		-17.578125
4283		-31.250000
4284		-21.484375
4285		-31.250000
4286		-27.343750
4287		-35.156250
4288		-29.296875
4289		-39.062500
4290		-33.203125
4291		-42.968750
4292		-33.203125
4293		-46.875000
4294		-37.109375
4295		-48.828125
4296		-39.062500
4297		-52.734375
4298		-42.968750
4299		-54.687500
4300		-46.875000
4301		-56.640625
4302		-48.828125
4303		-58.593750
4304		-54.687500
4305		-62.500000
4306		-56.640625
4307		-66.406250
4308		-56.640625
4309		-68.359375
4310		-60.546875
4311		-70.312500
4312		-64.453125
4313		-76.171875
4314		-66.406250
4315		-78.125000
4316		-68.359375
4317		-80.078125
4318		-72.265625
4319		-80.078125
4320		-76.171875
4321		-83.984375
4322		-80.078125
4323		-89.843750
4324		-80.078125
4325		-89.843750
4326		-82.031250
4327		-93.750000
4328		-83.984375
4329		-95.703125
4330		-87.890625
4331		-99.609375
4332		-89.843750
4333		-101.562500
4334		-91.796875
4335		-101.562500
4336		-95.703125
4337		-101.562500
4338		-99.609375
4339		-105.468750
4340		-99.609375
4341		-109.375000
4342		-99.609375
4343		-111.328125
4344		-103.515625
4345		-113.281250
4346		-103.515625
4347		-115.234375
4348		-105.468750
4349		-117.187500
4350		-107.421875
4351		-117.187500
4352		-109.375000
4353		-117.187500
4354		-113.281250
4355		-119.140625
4356		-115.234375
4357		-123.046875
4358		-115.234375
4359		-125.000000
4360		-115.234375
4361		-125.000000
4362		-117.187500
4363		-126.953125
4364		-119.140625
4365		-126.953125
4366		-119.140625
4367		-128.906250
4368		-121.093750
4369		-126.953125
4370		-125.000000
4371		-128.906250
4372		-125.000000
4373		-130.859375
4374		-125.000000
4375		-132.812500
4376		-125.000000
4377		-132.812500
4378		-125.000000
4379		-134.765625
4380		-125.000000
4381		-134.765625
4382		-126.953125
4383		-134.765625
4384		-126.953125
4385		-134.765625
4386		-128.906250
4387		-132.812500
4388		-130.859375
4389		-132.812500
4390		-130.859375
4391		-136.718750
4392		-126.953125
4393		-134.765625
4394		-128.906250
4395		-134.765625
4396		-126.953125
4397		-134.765625
4398		-126.953125
4399		-134.765625
4400		-126.953125
4401		-134.765625
4402		-126.953125
4403		-130.859375
4404		-128.906250
4405		-130.859375
4406		-128.906250
4407		-132.812500
4408		-125.000000
4409		-130.859375
4410		-123.046875
4411		-130.859375
4412		-123.046875
4413		-130.859375
4414		-121.093750
4415		-128.906250
4416		-121.093750
4417		-128.906250
4418		-121.093750
4419		-126.953125
4420		-119.140625
4421		-123.046875
4422		-119.140625
4423		-123.046875
4424		-117.187500
4425		-123.046875
4426		-115.234375
4427		-121.093750
4428		-113.281250
4429		-119.140625
4430		-111.328125
4431		-117.187500
4432		-109.375000
4433		-117.187500
4434		-107.421875
4435		-113.281250
4436		-105.468750
4437		-109.375000
4438		-105.468750
4439		-109.375000
4440		-103.515625
4441		-107.421875
4442		-99.609375
4443		-105.468750
4444		-97.656250
4445		-103.515625
4446		-95.703125
4447		-101.562500
4448		-93.750000
4449		-99.609375
4450		-89.843750
4451		-97.656250
4452		-87.890625
4453		-93.750000
4454		-87.890625
4455		-89.843750
4456		-85.937500
4457		-87.890625
4458		-80.078125
4459		-85.937500
4460		-78.125000
4461		-83.984375
4462		-74.218750
4463		-82.031250
4464		-72.265625
4465		-80.078125
4466		-68.359375
4467		-76.171875
4468		-66.406250
4469		-72.265625
4470		-66.406250
4471		-68.359375
4472		-64.453125
4473		-64.453125
4474		-60.546875
4475		-64.453125
4476		-54.687500
4477		-60.546875
4478		-52.734375
4479		-58.593750
4480		-48.828125
4481		-54.687500
4482		-46.875000
4483		-52.734375
4484		-42.968750
4485		-48.828125
4486		-41.015625
4487		-42.968750
4488		-39.062500
4489		-41.015625
4490		-37.109375
4491		-39.062500
4492		-31.250000
4493		-37.109375
4494		-27.343750
4495		-35.156250
4496		-25.390625
4497		-31.250000
4498		-21.484375
4499		-27.343750
4500		-19.531250
4501		-25.390625
4502		-15.625000
4503		-21.484375
4504		-15.625000
4505		-15.625000
4506		-11.718750
4507		-13.671875
4508		-5.859375
4509		-11.718750
4510		-3.906250
4511		-9.765625
4512		0.000000
4513		-5.859375
4514		3.906250
4515		-3.906250
4516		5.859375
4517		-1.953125
4518		7.812500
4519		1.953125
4520		9.765625
4521		7.812500
4522		11.718750
4523		11.718750
4524		15.625000
4525		11.718750
4526		19.531250
4527		13.671875
4528		23.437500
4529		15.625000
4530		25.390625
4531		19.531250
4532		27.343750
4533		21.484375
4534		31.250000
4535		25.390625
4536		35.156250
4537		29.296875
4538		35.156250
4539		33.203125
4540		37.109375
4541		35.156250
4542		41.015625
4543		35.156250
4544		44.921875
4545		39.062500
4546		46.875000
4547		41.015625
4548		48.828125
4549		42.968750
4550		52.734375
4551		44.921875
4552		54.687500
4553		46.875000
4554		54.687500
4555		52.734375
4556		56.640625
4557		54.687500
4558		60.546875
4559		54.687500
4560		62.500000
4561		56.640625
4562		64.453125
4563		58.593750
4564		66.406250
4565		60.546875
4566		68.359375
4567		62.500000
4568		72.265625
4569		64.453125
4570		72.265625
4571		68.359375
4572		72.265625
4573		70.312500
4574		74.218750
4575		70.312500
4576		78.125000
4577		72.265625
4578		80.078125
4579		74.218750
4580		82.031250
4581		74.218750
4582		83.984375
4583		76.171875
4584		85.937500
4585		78.125000
4586		85.937500
4587		80.078125
4588		85.937500
4589		83.984375
4590		85.937500
4591		83.984375
4592		89.843750
4593		83.984375
4594		91.796875
4595		83.984375
4596		91.796875
4597		85.937500
4598		93.750000
4599		85.937500
4600		93.750000
4601		87.890625
4602		95.703125
4603		87.890625
4604		95.703125
4605		91.796875
4606		93.750000
4607		93.750000
4608		95.703125
4609		91.796875
4610		97.656250
4611		91.796875
4612		99.609375
4613		91.796875
4614		99.609375
4615		91.796875
4616		101.562500
4617		93.750000
4618		99.609375
4619		93.750000
4620		101.562500
4621		95.703125
4622		99.609375
4623		97.656250
4624		99.609375
4625		93.750000
4626		101.562500
4627		93.750000
4628		101.562500
4629		95.703125
4630		101.562500
4631		95.703125
4632		101.562500
4633		93.750000
4634		101.562500
4635		93.750000
4636		101.562500
4637		93.750000
4638		101.562500
4639		95.703125
4640		97.656250
4641		93.750000
4642		99.609375
4643		93.750000
4644		99.609375
4645		91.796875
4646		99.609375
4647		91.796875
4648		99.609375
4649		91.796875
4650		97.656250
4651		89.843750
4652		97.656250
4653		89.843750
4654		97.656250
4655		91.796875
4656		93.750000
4657		91.796875
4658		93.750000
4659		87.890625
4660		95.703125
4661		85.937500
4662		93.750000
4663		87.890625
4664		91.796875
4665		83.984375
4666		91.796875
4667		82.031250
4668		89.843750
4669		82.031250
4670		89.843750
4671		82.031250
4672		87.890625
4673		80.078125
4674		83.984375
4675		78.125000
4676		83.984375
4677		76.171875
4678		83.984375
4679		76.171875
4680		82.031250
4681		72.265625
4682		80.078125
4683		70.312500
4684		78.125000
4685		68.359375
4686		76.171875
4687		68.359375
4688		74.218750
4689		66.406250
4690		70.312500
4691		64.453125
4692		68.359375
4693		62.500000
4694		68.359375
4695		60.546875
4696		66.406250
4697		58.593750
4698		62.500000
4699		54.687500
4700		62.500000
4701		52.734375
4702		60.546875
4703		48.828125
4704		58.593750
4705		50.781250
4706		54.687500
4707		46.875000
4708		50.781250
4709		42.968750
4710		48.828125
4711		41.015625
4712		48.828125
4713		39.062500
4714		44.921875
4715		35.156250
4716		42.968750
4717		33.203125
4718		42.968750
4719		31.250000
4720		37.109375
4721		29.296875
4722		35.156250
4723		27.343750
4724		31.250000
4725		21.484375
4726		27.343750
4727		19.531250
4728		27.343750
4729		17.578125
4730		21.484375
4731		15.625000
4732		19.531250
4733		9.765625
4734		19.531250
4735		7.812500
4736		15.625000
4737		3.906250
4738		11.718750
4739		3.906250
4740		7.812500
4741		0.000000
4742		5.859375
4743		-3.906250
4744		1.953125
4745		-5.859375
4746		0.000000
4747		-9.765625
4748		-3.906250
4749		-15.625000
4750		-7.812500
4751		-17.578125
4752		-7.812500
4753		-19.531250
4754		-11.718750
4755		-21.484375
4756		-13.671875
4757		-23.437500
4758		-19.531250
4759		-27.343750
4760		-23.437500
4761		-31.250000
4762		-25.390625
4763		-33.203125
4764		-29.296875
4765		-37.109375
4766		-31.250000
4767		-42.968750
4768		-31.250000
4769		-44.921875
4770		-37.109375
4771		-46.875000
4772		-39.062500
4773		-48.828125
4774		-44.921875
4775		-50.781250
4776		-46.875000
4777		-54.687500
4778		-48.828125
4779		-58.593750
4780		-52.734375
4781		-60.546875
4782		-56.640625
4783		-66.406250
4784		-58.593750
4785		-68.359375
4786		-60.546875
4787		-70.312500
4788		-64.453125
4789		-72.265625
4790		-66.406250
4791		-74.218750
4792		-70.312500
4793		-78.125000
4794		-74.218750
4795		-80.078125
4796		-76.171875
4797		-83.984375
4798		-78.125000
4799		-87.890625
4800		-82.031250
4801		-89.843750
4802		-82.031250
4803		-89.843750
4804		-85.937500
4805		-93.750000
4806		-85.937500
4807		-95.703125
4808		-91.796875
4809		-99.609375
4810		-93.750000
4811		-99.609375
4812		-95.703125
4813		-101.562500
4814		-97.656250
4815		-105.468750
4816		-99.609375
4817		-109.375000
4818		-101.562500
4819		-109.375000
4820		-105.468750
4821		-111.328125
4822		-107.421875
4823		-113.281250
4824		-109.375000
4825		-115.234375
4826		-111.328125
4827		-117.187500
4828		-111.328125
4829		-119.140625
4830		-113.281250
4831		-121.093750
4832		-117.187500
4833		-123.046875
4834		-115.234375
4835		-123.046875
4836		-117.187500
4837		-125.000000
4838		-119.140625
4839		-125.000000
4840		-121.093750
4841		-126.953125
4842		-123.046875
4843		-128.906250
4844		-125.000000
4845		-128.906250
4846		-125.000000
4847		-130.859375
4848		-126.953125
4849		-132.812500
4850		-126.953125
4851		-132.812500
4852		-125.000000
4853		-132.812500
4854		-128.906250
4855		-134.765625
4856		-128.906250
4857		-132.812500
4858		-130.859375
4859		-132.812500
4860		-130.859375
4861		-134.765625
4862		-130.859375
4863		-134.765625
4864		-130.859375
4865		-134.765625
4866		-130.859375
4867		-136.718750
4868		-128.906250
4869		-134.765625
4870		-130.859375
4871		-134.765625
4872		-130.859375
4873		-134.765625
4874		-130.859375
4875		-132.812500
4876		-130.859375
4877		-132.812500
4878		-130.859375
4879		-132.812500
4880		-128.906250
4881		-132.812500
4882		-128.906250
4883		-134.765625
4884		-126.953125
4885		-134.765625
4886		-126.953125
4887		-130.859375
4888		-126.953125
4889		-128.906250
4890		-125.000000
4891		-126.953125
4892		-125.000000
4893		-126.953125
4894		-125.000000
4895		-126.953125
4896		-123.046875
4897		-125.000000
4898		-121.093750
4899		-123.046875
4900		-119.140625
4901		-125.000000
4902		-117.187500
4903		-121.093750
4904		-115.234375
4905		-119.140625
4906		-115.234375
4907		-117.187500
4908		-113.281250
4909		-115.234375
4910		-113.281250
4911		-115.234375
4912		-109.375000
4913		-113.281250
4914		-107.421875
4915		-109.375000
4916		-105.468750
4917		-109.375000
4918		-101.562500
4919		-109.375000
4920		-101.562500
4921		-103.515625
4922		-99.609375
4923		-101.562500
4924		-97.656250
4925		-99.609375
4926		-95.703125
4927		-97.656250
4928		-91.796875
4929		-95.703125
4930		-89.843750
4931		-91.796875
4932		-87.890625
4933		-91.796875
4934		-85.937500
4935		-89.843750
4936		-82.031250
4937		-83.984375
4938		-80.078125
4939		-82.031250
4940		-76.171875
4941		-78.125000
4942		-74.218750
4943		-76.171875
4944		-72.265625
4945		-74.218750
4946		-68.359375
4947		-72.265625
4948		-66.406250
4949		-68.359375
4950		-62.500000
4951		-66.406250
4952		-58.593750
4953		-62.500000
4954		-58.593750
4955		-60.546875
4956		-54.687500
4957		-56.640625
4958		-52.734375
4959		-52.734375
4960		-48.828125
4961		-50.781250
4962		-44.921875
4963		-46.875000
4964		-42.968750
4965		-44.921875
4966		-39.062500
4967		-41.015625
4968		-35.156250
4969		-41.015625
4970		-33.203125
4971		-35.156250
4972		-29.296875
4973		-33.203125
4974		-27.343750
4975		-29.296875
4976		-23.437500
4977		-25.390625
4978		-21.484375
4979		-23.437500
4980		-17.578125
4981		-19.531250
4982		-15.625000
4983		-15.625000
4984		-11.718750
4985		-15.625000
4986		-5.859375
4987		-11.718750
4988		-5.859375
4989		-7.812500
4990		-1.953125
4991		-5.859375
4992		0.000000
4993		-1.953125
4994		1.953125
4995		0.000000
4996		5.859375
4997		3.906250
4998		9.765625
4999		7.812500
5000		11.718750
5001		9.765625
5002		17.578125
5003		9.765625
5004		17.578125
5005		15.625000
5006		21.484375
5007		17.578125
5008		23.437500
5009		21.484375
5010		25.390625
5011		25.390625
5012		29.296875
5013		27.343750
5014		31.250000
5015		29.296875
5016		33.203125
5017		33.203125
5018		37.109375
5019		33.203125
5020		41.015625
5021		37.109375
5022		41.015625
5023		41.015625
5024		44.921875
5025		42.968750
5026		46.875000
5027		44.921875
5028		48.828125
5029		46.875000
5030		52.734375
5031		48.828125
5032		54.687500
5033		52.734375
5034		56.640625
5035		52.734375
5036		60.546875
5037		56.640625
5038		60.546875
5039		58.593750
5040		62.500000
5041		60.546875
5042		64.453125
5043		62.500000
5044		66.406250
5045		64.453125
5046		68.359375
5047		66.406250
5048		70.312500
5049		68.359375
5050		72.265625
5051		68.359375
5052		76.171875
5053		70.312500
5054		76.171875
5055		74.218750
5056		78.125000
5057		74.218750
5058		78.125000
5059		76.171875
5060		80.078125
5061		78.125000
5062		82.031250
5063		78.125000
5064		83.984375
5065		80.078125
5066		83.984375
5067		82.031250
5068		85.937500
5069		82.031250
5070		89.843750
5071		83.984375
5072		87.890625
5073		85.937500
5074		89.843750
5075		85.937500
5076		89.843750
5077		87.890625
5078		89.843750
5079		89.843750
5080		91.796875
5081		89.843750
5082		93.750000
5083		89.843750
5084		93.750000
5085		89.843750
5086		95.703125
5087		89.843750
5088		97.656250
5089		91.796875
5090		95.703125
5091		91.796875
5092		97.656250
5093		93.750000
5094		95.703125
5095		93.750000
5096		97.656250
5097		93.750000
5098		97.656250
5099		93.750000
5100		97.656250
5101		93.750000
5102		97.656250
5103		93.750000
5104		99.609375
5105		93.750000
5106		97.656250
5107		93.750000
5108		99.609375
5109		95.703125
5110		97.656250
5111		95.703125
5112		97.656250
5113		93.750000
5114		97.656250
5115		93.750000
5116		97.656250
5117		93.750000
5118		97.656250
5119		91.796875
5120		99.609375
5121		93.750000
5122		97.656250
5123		93.750000
5124		95.703125
5125		93.750000
5126		95.703125
5127		91.796875
5128		93.750000
5129		89.843750
5130		95.703125
5131		89.843750
5132		93.750000
5133		89.843750
5134		93.750000
5135		87.890625
5136		93.750000
5137		85.937500
5138		93.750000
5139		85.937500
5140		89.843750
5141		83.984375
5142		89.843750
5143		83.984375
5144		87.890625
5145		83.984375
5146		85.937500
5147		82.031250
5148		85.937500
5149		80.078125
5150		83.984375
5151		78.125000
5152		82.031250
5153		74.218750
5154		82.031250
5155		76.171875
5156		78.125000
5157		74.218750
5158		78.125000
5159		72.265625
5160		78.125000
5161		70.312500
5162		74.218750
5163		68.359375
5164		72.265625
5165		66.406250
5166		70.312500
5167		64.453125
5168		68.359375
5169		62.500000
5170		66.406250
5171		60.546875
5172		68.359375
5173		58.593750
5174		62.500000
5175		56.640625
5176		60.546875
5177		54.687500
5178		58.593750
5179		50.781250
5180		56.640625
5181		48.828125
5182		54.687500
5183		46.875000
5184		50.781250
5185		44.921875
5186		50.781250
5187		42.968750
5188		46.875000
5189		39.062500
5190		44.921875
5191		35.156250
5192		41.015625
5193		35.156250
5194		39.062500
5195		31.250000
5196		35.156250
5197		29.296875
5198		35.156250
5199		27.343750
5200		31.250000
5201		23.437500
5202		29.296875
5203		17.578125
5204		25.390625
5205		17.578125
5206		23.437500
5207		15.625000
5208		19.531250
5209		11.718750
5210		17.578125
5211		9.765625
5212		13.671875
5213		5.859375
5214		9.765625
5215		1.953125
5216		7.812500
5217		0.000000
5218		5.859375
5219		-1.953125
5220		1.953125
5221		-5.859375
5222		1.953125
5223		-7.812500
5224		-3.906250
5225		-11.718750
5226		-7.812500
5227		-15.625000
5228		-11.718750
5229		-17.578125
5230		-13.671875
5231		-21.484375
5232		-17.578125
5233		-25.390625
5234		-19.531250
5235		-27.343750
5236		-23.437500
5237		-31.250000
5238		-25.390625
5239		-33.203125
5240		-29.296875
5241		-37.109375
5242		-31.250000
5243		-39.062500
5244		-33.203125
5245		-42.968750
5246		-39.062500
5247		-46.875000
5248		-41.015625
5249		-50.781250
5250		-44.921875
5251		-52.734375
5252		-46.875000
5253		-56.640625
5254		-50.781250
5255		-58.593750
5256		-50.781250
5257		-62.500000
5258		-56.640625
5259		-64.453125
5260		-60.546875
5261		-66.406250
5262		-62.500000
5263		-70.312500
5264		-64.453125
5265		-74.218750
5266		-68.359375
5267		-76.171875
5268		-70.312500
5269		-78.125000
5270		-74.218750
5271		-82.031250
5272		-76.171875
5273		-83.984375
5274		-78.125000
5275		-87.890625
5276		-82.031250
5277		-87.890625
5278		-83.984375
5279		-91.796875
5280		-87.890625
5281		-93.750000
5282		-89.843750
5283		-95.703125
5284		-91.796875
5285		-99.609375
5286		-93.750000
5287		-103.515625
5288		-95.703125
5289		-103.515625
5290		-99.609375
5291		-105.468750
5292		-101.562500
5293		-107.421875
5294		-101.562500
5295		-109.375000
5296		-105.468750
5297		-111.328125
5298		-107.421875
5299		-113.281250
5300		-109.375000
5301		-115.234375
5302		-111.328125
5303		-117.187500
5304		-113.281250
5305		-121.093750
5306		-115.234375
5307		-121.093750
5308		-117.187500
5309		-123.046875
5310		-117.187500
5311		-123.046875
5312		-121.093750
5313		-125.000000
5314		-121.093750
5315		-125.000000
5316		-123.046875
5317		-126.953125
5318		-123.046875
5319		-128.906250
5320		-125.000000
5321		-130.859375
5322		-125.000000
5323		-130.859375
5324		-126.953125
5325		-130.859375
5326		-126.953125
5327		-130.859375
5328		-128.906250
5329		-132.812500
5330		-130.859375
5331		-134.765625
5332		-128.906250
5333		-134.765625
5334		-130.859375
5335		-134.765625
5336		-130.859375
5337		-134.765625
5338		-132.812500
5339		-136.718750
5340		-130.859375
5341		-136.718750
5342		-132.812500
5343		-136.718750
5344		-132.812500
5345		-134.765625
5346		-132.812500
5347		-136.718750
5348		-130.859375
5349		-134.765625
5350		-132.812500
5351		-134.765625
5352		-132.812500
5353		-134.765625
5354		-130.859375
5355		-136.718750
5356		-128.906250
5357		-134.765625
5358		-130.859375
5359		-134.765625
5360		-128.906250
5361		-132.812500
5362		-130.859375
5363		-130.859375
5364		-128.906250
5365		-130.859375
5366		-126.953125
5367		-130.859375
5368		-126.953125
5369		-128.906250
5370		-125.000000
5371		-128.906250
5372		-123.046875
5373		-128.906250
5374		-123.046875
5375		-125.000000
5376		-123.046875
5377		-125.000000
5378		-121.093750
5379		-121.093750
5380		-119.140625
5381		-121.093750
5382		-117.187500
5383		-121.093750
5384		-115.234375
5385		-119.140625
5386		-113.281250
5387		-115.234375
5388		-113.281250
5389		-115.234375
5390		-109.375000
5391		-113.281250
5392		-109.375000
5393		-111.328125
5394		-105.468750
5395		-107.421875
5396		-105.468750
5397		-105.468750
5398		-101.562500
5399		-105.468750
5400		-99.609375
5401		-101.562500
5402		-97.656250
5403		-99.609375
5404		-95.703125
5405		-99.609375
5406		-89.843750
5407		-93.750000
5408		-89.843750
5409		-91.796875
5410		-87.890625
5411		-91.796875
5412		-85.937500
5413		-85.937500
5414		-82.031250
5415		-83.984375
5416		-78.125000
5417		-82.031250
5418		-76.171875
5419		-80.078125
5420		-74.218750
5421		-76.171875
5422		-72.265625
5423		-76.171875
5424		-68.359375
5425		-70.312500
5426		-66.406250
5427		-68.359375
5428		-62.500000
5429		-64.453125
5430		-60.546875
5431		-62.500000
5432		-56.640625
5433		-58.593750
5434		-54.687500
5435		-56.640625
5436		-50.781250
5437		-52.734375
5438		-48.828125
5439		-50.781250
5440		-42.968750
5441		-46.875000
5442		-41.015625
5443		-42.968750
5444		-37.109375
5445		-41.015625
5446		-35.156250
5447		-37.109375
5448		-33.203125
5449		-35.156250
5450		-29.296875
5451		-31.250000
5452		-27.343750
5453		-27.343750
5454		-23.437500
5455		-25.390625
5456		-19.531250
5457		-23.437500
5458		-17.578125
5459		-19.531250
5460		-13.671875
5461		-15.625000
5462		-11.718750
5463		-13.671875
5464		-7.812500
5465		-9.765625
5466		-3.906250
5467		-7.812500
5468		-1.953125
5469		-3.906250
5470		1.953125
5471		0.000000
5472		3.906250
5473		0.000000
5474		7.812500
5475		5.859375
5476		9.765625
5477		7.812500
5478		11.718750
5479		11.718750
5480		15.625000
5481		13.671875
5482		17.578125
5483		15.625000
5484		21.484375
5485		19.531250
5486		23.437500
5487		21.484375
5488		27.343750
5489		25.390625
5490		31.250000
5491		27.343750
5492		33.203125
5493		29.296875
5494		35.156250
5495		31.250000
5496		37.109375
5497		35.156250
5498		39.062500
5499		39.062500
5500		42.968750
5501		41.015625
5502		44.921875
5503		42.968750
5504		46.875000
5505		44.921875
5506		50.781250
5507		44.921875
5508		52.734375
5509		50.781250
5510		54.687500
5511		52.734375
5512		56.640625
5513		54.687500
5514		58.593750
5515		56.640625
5516		60.546875
5517		56.640625
5518		62.500000
5519		60.546875
5520		64.453125
5521		62.500000
5522		66.406250
5523		62.500000
5524		68.359375
5525		66.406250
5526		70.312500
5527		68.359375
5528		74.218750
5529		70.312500
5530		74.218750
5531		72.265625
5532		76.171875
5533		72.265625
5534		78.125000
5535		76.171875
5536		78.125000
5537		76.171875
5538		80.078125
5539		76.171875
5540		83.984375
5541		78.125000
5542		82.031250
5543		80.078125
5544		83.984375
5545		82.031250
5546		85.937500
5547		83.984375
5548		85.937500
5549		83.984375
5550		89.843750
5551		83.984375
5552		89.843750
5553		85.937500
5554		89.843750
5555		87.890625
5556		91.796875
5557		85.937500
5558		93.750000
5559		89.843750
5560		93.750000
5561		89.843750
5562		93.750000
5563		91.796875
5564		93.750000
5565		91.796875
5566		93.750000
5567		91.796875
5568		95.703125
5569		91.796875
5570		95.703125
5571		93.750000
5572		95.703125
5573		91.796875
5574		99.609375
5575		93.750000
5576		97.656250
5577		93.750000
5578		97.656250
5579		93.750000
5580		97.656250
5581		95.703125
5582		97.656250
5583		93.750000
5584		97.656250
5585		93.750000
5586		97.656250
5587		93.750000
5588		97.656250
5589		93.750000
5590		97.656250
5591		91.796875
5592		99.609375
5593		93.750000
5594		97.656250
5595		93.750000
5596		97.656250
5597		93.750000
5598		95.703125
5599		93.750000
5600		95.703125
5601		91.796875
5602		95.703125
5603		91.796875
5604		95.703125
5605		91.796875
5606		93.750000
5607		87.890625
5608		95.703125
5609		89.843750
5610		93.750000
5611		87.890625
5612		91.796875
5613		87.890625
5614		91.796875
5615		87.890625
5616		89.843750
5617		83.984375
5618		89.843750
5619		83.984375
5620		87.890625
5621		83.984375
5622		87.890625
5623		82.031250
5624		85.937500
5625		80.078125
5626		85.937500
5627		78.125000
5628		83.984375
5629		76.171875
5630		82.031250
5631		76.171875
5632		80.078125
5633		74.218750
5634		78.125000
5635		72.265625
5636		78.125000
5637		70.312500
5638		74.218750
5639		70.312500
5640		74.218750
5641		66.406250
5642		74.218750
5643		66.406250
5644		70.312500
5645		62.500000
5646		68.359375
5647		62.500000
5648		66.406250
5649		60.546875
5650		62.500000
5651		56.640625
5652		62.500000
5653		54.687500
5654		60.546875
5655		52.734375
5656		56.640625
5657		48.828125
5658		54.687500
5659		48.828125
5660		54.687500
5661		46.875000
5662		50.781250
5663		42.968750
5664		48.828125
5665		41.015625
5666		44.921875
5667		37.109375
5668		42.968750
5669		37.109375
5670		41.015625
5671		33.203125
5672		37.109375
5673		31.250000
5674		35.156250
5675		27.343750
5676		33.203125
5677		23.437500
5678		29.296875
5679		21.484375
5680		27.343750
5681		19.531250
5682		23.437500
5683		15.625000
5684		21.484375
5685		13.671875
5686		19.531250
5687		9.765625
5688		15.625000
5689		7.812500
5690		11.718750
5691		3.906250
5692		9.765625
5693		1.953125
5694		5.859375
5695		-1.953125
5696		3.906250
5697		-5.859375
5698		1.953125
5699		-7.812500
5700		-1.953125
5701		-9.765625
5702		-5.859375
5703		-13.671875
5704		-9.765625
5705		-15.625000
5706		-11.718750
5707		-19.531250
5708		-15.625000
5709		-23.437500
5710		-15.625000
5711		-25.390625
5712		-19.531250
5713		-29.296875
5714		-23.437500
5715		-33.203125
5716		-27.343750
5717		-35.156250
5718		-31.250000
5719		-39.062500
5720		-33.203125
5721		-42.968750
5722		-37.109375
5723		-44.921875
5724		-39.062500
5725		-48.828125
5726		-42.968750
5727		-50.781250
5728		-44.921875
5729		-54.687500
5730		-48.828125
5731		-56.640625
5732		-52.734375
5733		-60.546875
5734		-54.687500
5735		-62.500000
5736		-56.640625
5737		-66.406250
5738		-60.546875
5739		-68.359375
5740		-62.500000
5741		-74.218750
5742		-66.406250
5743		-74.218750
5744		-68.359375
5745		-78.125000
5746		-70.312500
5747		-80.078125
5748		-74.218750
5749		-82.031250
5750		-78.125000
5751		-85.937500
5752		-80.078125
5753		-87.890625
5754		-83.984375
5755		-89.843750
5756		-83.984375
5757		-93.750000
5758		-87.890625
5759		-95.703125
5760		-87.890625
5761		-97.656250
5762		-93.750000
5763		-99.609375
5764		-93.750000
5765		-101.562500
5766		-97.656250
5767		-103.515625
5768		-99.609375
5769		-107.421875
5770		-101.562500
5771		-109.375000
5772		-103.515625
5773		-111.328125
5774		-105.468750
5775		-113.281250
5776		-107.421875
5777		-115.234375
5778		-109.375000
5779		-117.187500
5780		-111.328125
5781		-119.140625
5782		-113.281250
5783		-119.140625
5784		-117.187500
5785		-121.093750
5786		-117.187500
5787		-123.046875
5788		-117.187500
5789		-125.000000
5790		-119.140625
5791		-126.953125
5792		-121.093750
5793		-126.953125
5794		-121.093750
5795		-128.906250
5796		-123.046875
5797		-128.906250
5798		-125.000000
5799		-128.906250
5800		-126.953125
5801		-132.812500
5802		-126.953125
5803		-132.812500
5804		-128.906250
5805		-132.812500
5806		-126.953125
5807		-134.765625
5808		-128.906250
5809		-136.718750
5810		-128.906250
5811		-136.718750
5812		-130.859375
5813		-136.718750
5814		-130.859375
5815		-134.765625
5816		-132.812500
5817		-136.718750
5818		-132.812500
5819		-136.718750
5820		-130.859375
5821		-136.718750
5822		-130.859375
5823		-136.718750
5824		-130.859375
5825		-136.718750
5826		-130.859375
5827		-136.718750
5828		-130.859375
5829		-136.718750
5830		-130.859375
5831		-136.718750
5832		-130.859375
5833		-134.765625
5834		-132.812500
5835		-134.765625
5836		-128.906250
5837		-134.765625
5838		-128.906250
5839		-132.812500
5840		-126.953125
5841		-132.812500
5842		-126.953125
5843		-130.859375
5844		-126.953125
5845		-130.859375
5846		-125.000000
5847		-130.859375
5848		-125.000000
5849		-126.953125
5850		-125.000000
5851		-126.953125
5852		-123.046875
5853		-126.953125
5854		-121.093750
5855		-123.046875
5856		-121.093750
5857		-121.093750
5858		-119.140625
5859		-121.093750
5860		-117.187500
5861		-119.140625
5862		-115.234375
5863		-117.187500
5864		-113.281250
5865		-117.187500
5866		-111.328125
5867		-113.281250
5868		-109.375000
5869		-111.328125
5870		-107.421875
5871		-109.375000
5872		-105.468750
5873		-107.421875
5874		-103.515625
5875		-105.468750
5876		-101.562500
5877		-103.515625
5878		-99.609375
5879		-101.562500
5880		-97.656250
5881		-97.656250
5882		-95.703125
5883		-95.703125
5884		-91.796875
5885		-93.750000
5886		-89.843750
5887		-91.796875
5888		-87.890625
5889		-87.890625
5890		-83.984375
5891		-85.937500
5892		-82.031250
5893		-83.984375
5894		-80.078125
5895		-80.078125
5896		-76.171875
5897		-78.125000
5898		-74.218750
5899		-76.171875
5900		-70.312500
5901		-72.265625
5902		-68.359375
5903		-70.312500
5904		-64.453125
5905		-66.406250
5906		-62.500000
5907		-64.453125
5908		-60.546875
5909		-60.546875
5910		-56.640625
5911		-58.593750
5912		-52.734375
5913		-54.687500
5914		-50.781250
5915		-52.734375
5916		-46.875000
5917		-48.828125
5918		-44.921875
5919		-46.875000
5920		-41.015625
5921		-42.968750
5922		-39.062500
5923		-39.062500
5924		-35.156250
5925		-37.109375
5926		-33.203125
5927		-33.203125
5928		-29.296875
5929		-31.250000
5930		-25.390625
5931		-27.343750
5932		-23.437500
5933		-23.437500
5934		-19.531250
5935		-21.484375
5936		-15.625000
5937		-17.578125
5938		-13.671875
5939		-15.625000
5940		-9.765625
5941		-11.718750
5942		-7.812500
5943		-9.765625
5944		-3.906250
5945		-5.859375
5946		0.000000
5947		-1.953125
5948		1.953125
5949		0.000000
5950		3.906250
5951		3.906250
5952		7.812500
5953		5.859375
5954		13.671875
5955		7.812500
5956		17.578125
5957		9.765625
5958		19.531250
5959		15.625000
5960		19.531250
5961		17.578125
5962		21.484375
5963		21.484375
5964		25.390625
5965		23.437500
5966		27.343750
5967		25.390625
5968		29.296875
5969		27.343750
5970		37.109375
5971		27.343750
5972		39.062500
5973		31.250000
5974		41.015625
5975		33.203125
5976		42.968750
5977		39.062500
5978		42.968750
5979		41.015625
5980		44.921875
5981		42.968750
5982		46.875000
5983		46.875000
5984		50.781250
5985		48.828125
5986		52.734375
5987		48.828125
5988		56.640625
5989		50.781250
5990		60.546875
5991		52.734375
5992		62.500000
5993		56.640625
5994		60.546875
5995		60.546875
5996		64.453125
5997		62.500000
5998		64.453125
5999		64.453125
6000		66.406250
6001		66.406250
6002		70.312500
6003		64.453125
6004		76.171875
6005		64.453125
6006		76.171875
6007		68.359375
6008		78.125000
6009		70.312500
6010		78.125000
6011		74.218750
6012		78.125000
6013		76.171875
6014		80.078125
6015		78.125000
6016		82.031250
6017		80.078125
6018		82.031250
6019		80.078125
6020		83.984375
6021		78.125000
6022		87.890625
6023		80.078125
6024		89.843750
6025		82.031250
6026		89.843750
6027		83.984375
6028		87.890625
6029		85.937500
6030		89.843750
6031		87.890625
6032		89.843750
6033		87.890625
6034		91.796875
6035		89.843750
6036		91.796875
6037		87.890625
6038		97.656250
6039		87.890625
6040		97.656250
6041		87.890625
6042		97.656250
6043		91.796875
6044		95.703125
6045		93.750000
6046		95.703125
6047		93.750000
6048		95.703125
6049		93.750000
6050		97.656250
6051		93.750000
6052		97.656250
6053		95.703125
6054		97.656250
6055		91.796875
6056		101.562500
6057		91.796875
6058		101.562500
6059		91.796875
6060		101.562500
6061		95.703125
6062		97.656250
6063		95.703125
6064		97.656250
6065		95.703125
6066		97.656250
6067		95.703125
6068		97.656250
6069		95.703125
6070		97.656250
6071		91.796875
6072		101.562500
6073		91.796875
6074		99.609375
6075		91.796875
6076		99.609375
6077		93.750000
6078		95.703125
6079		93.750000
6080		95.703125
6081		91.796875
6082		93.750000
6083		91.796875
6084		93.750000
6085		89.843750
6086		93.750000
6087		85.937500
6088		95.703125
6089		85.937500
6090		95.703125
6091		85.937500
6092		93.750000
6093		83.984375
6094		93.750000
6095		85.937500
6096		89.843750
6097		83.984375
6098		87.890625
6099		83.984375
6100		85.937500
6101		82.031250
6102		85.937500
6103		80.078125
6104		83.984375
6105		76.171875
6106		85.937500
6107		76.171875
6108		85.937500
6109		74.218750
6110		83.984375
6111		74.218750
6112		78.125000
6113		74.218750
6114		76.171875
6115		72.265625
6116		74.218750
6117		70.312500
6118		72.265625
6119		68.359375
6120		70.312500
6121		62.500000
6122		72.265625
6123		60.546875
6124		70.312500
6125		58.593750
6126		68.359375
6127		58.593750
6128		66.406250
6129		56.640625
6130		60.546875
6131		54.687500
6132		58.593750
6133		52.734375
6134		56.640625
6135		50.781250
6136		54.687500
6137		48.828125
6138		52.734375
6139		42.968750
6140		50.781250
6141		42.968750
6142		48.828125
6143		41.015625
6144		48.828125
6145		39.062500
6146		42.968750
6147		35.156250
6148		39.062500
6149		33.203125
6150		37.109375
6151		31.250000
6152		35.156250
6153		27.343750
6154		31.250000
6155		25.390625
6156		29.296875
6157		19.531250
6158		29.296875
6159		17.578125
6160		25.390625
6161		15.625000
6162		19.531250
6163		11.718750
6164		17.578125
6165		9.765625
6166		13.671875
6167		7.812500
6168		11.718750
6169		3.906250
6170		9.765625
6171		0.000000
6172		5.859375
6173		-1.953125
6174		3.906250
6175		-5.859375
6176		0.000000
6177		-7.812500
6178		-3.906250
6179		-9.765625
6180		-5.859375
6181		-13.671875
6182		-9.765625
6183		-17.578125
6184		-11.718750
6185		-19.531250
6186		-15.625000
6187		-23.437500
6188		-19.531250
6189		-25.390625
6190		-21.484375
6191		-29.296875
6192		-25.390625
6193		-33.203125
6194		-27.343750
6195		-35.156250
6196		-31.250000
6197		-39.062500
6198		-35.156250
6199		-41.015625
6200		-37.109375
6201		-44.921875
6202		-41.015625
6203		-48.828125
6204		-42.968750
6205		-50.781250
6206		-46.875000
6207		-54.687500
6208		-48.828125
6209		-56.640625
6210		-52.734375
6211		-60.546875
6212		-56.640625
6213		-62.500000
6214		-58.593750
6215		-66.406250
6216		-60.546875
6217		-68.359375
6218		-64.453125
6219		-72.265625
6220		-66.406250
6221		-74.218750
6222		-70.312500
6223		-76.171875
6224		-72.265625
6225		-80.078125
6226		-76.171875
6227		-82.031250
6228		-78.125000
6229		-85.937500
6230		-80.078125
6231		-89.843750
6232		-83.984375
6233		-89.843750
6234		-85.937500
6235		-91.796875
6236		-87.890625
6237		-95.703125
6238		-91.796875
6239		-97.656250
6240		-93.750000
6241		-99.609375
6242		-95.703125
6243		-101.562500
6244		-97.656250
6245		-105.468750
6246		-101.562500
6247		-107.421875
6248		-101.562500
6249		-107.421875
6250		-105.468750
6251		-109.375000
6252		-107.421875
6253		-111.328125
6254		-109.375000
6255		-115.234375
6256		-111.328125
6257		-117.187500
6258		-111.328125
6259		-117.187500
6260		-115.234375
6261		-119.140625
6262		-115.234375
6263		-123.046875
6264		-117.187500
6265		-123.046875
6266		-119.140625
6267		-123.046875
6268		-121.093750
6269		-125.000000
6270		-123.046875
6271		-126.953125
6272		-123.046875
6273		-128.906250
6274		-123.046875
6275		-128.906250
6276		-125.000000
6277		-130.859375
6278		-126.953125
6279		-132.812500
6280		-126.953125
6281		-132.812500
6282		-126.953125
6283		-132.812500
6284		-128.906250
6285		-132.812500
6286		-130.859375
6287		-132.812500
6288		-130.859375
6289		-134.765625
6290		-130.859375
6291		-134.765625
6292		-130.859375
6293		-134.765625
6294		-132.812500
6295		-134.765625
6296		-130.859375
6297		-134.765625
6298		-130.859375
6299		-134.765625
6300		-132.812500
6301		-134.765625
6302		-132.812500
6303		-134.765625
6304		-132.812500
6305		-136.718750
6306		-130.859375
6307		-134.765625
6308		-130.859375
6309		-134.765625
6310		-130.859375
6311		-132.812500
6312		-130.859375
6313		-134.765625
6314		-128.906250
6315		-132.812500
6316		-128.906250
6317		-130.859375
6318		-128.906250
6319		-130.859375
6320		-126.953125
6321		-128.906250
6322		-126.953125
6323		-130.859375
6324		-125.000000
6325		-128.906250
6326		-123.046875
6327		-126.953125
6328		-123.046875
6329		-125.000000
6330		-121.093750
6331		-125.000000
6332		-119.140625
6333		-121.093750
6334		-119.140625
6335		-121.093750
6336		-117.187500
6337		-119.140625
6338		-115.234375
6339		-119.140625
6340		-113.281250
6341		-117.187500
6342		-111.328125
6343		-115.234375
6344		-111.328125
6345		-111.328125
6346		-109.375000
6347		-111.328125
6348		-105.468750
6349		-109.375000
6350		-103.515625
6351		-105.468750
6352		-101.562500
6353		-103.515625
6354		-99.609375
6355		-101.562500
6356		-97.656250
6357		-99.609375
6358		-93.750000
6359		-97.656250
6360		-91.796875
6361		-93.750000
6362		-89.843750
6363		-91.796875
6364		-87.890625
6365		-89.843750
6366		-85.937500
6367		-85.937500
6368		-82.031250
6369		-83.984375
6370		-80.078125
6371		-82.031250
6372		-78.125000
6373		-78.125000
6374		-74.218750
6375		-78.125000
6376		-70.312500
6377		-72.265625
6378		-68.359375
6379		-70.312500
6380		-66.406250
6381		-68.359375
6382		-62.500000
6383		-64.453125
6384		-60.546875
6385		-62.500000
6386		-56.640625
6387		-58.593750
6388		-54.687500
6389		-56.640625
6390		-50.781250
6391		-56.640625
6392		-46.875000
6393		-50.781250
6394		-44.921875
6395		-46.875000
6396		-42.968750
6397		-44.921875
6398		-39.062500
6399		-41.015625
6400		-35.156250
6401		-37.109375
6402		-33.203125
6403		-35.156250
6404		-29.296875
6405		-31.250000
6406		-27.343750
6407		-29.296875
6408		-23.437500
6409		-25.390625
6410		-21.484375
6411		-21.484375
6412		-17.578125
6413		-19.531250
6414		-13.671875
6415		-17.578125
6416		-11.718750
6417		-13.671875
6418		-7.812500
6419		-9.765625
6420		-5.859375
6421		-5.859375
6422		-1.953125
6423		-3.906250
6424		0.000000
6425		0.000000
6426		3.906250
6427		1.953125
6428		5.859375
6429		5.859375
6430		9.765625
6431		7.812500
6432		11.718750
6433		11.718750
6434		15.625000
6435		13.671875
6436		17.578125
6437		17.578125
6438		21.484375
6439		19.531250
6440		23.437500
6441		21.484375
6442		27.343750
6443		25.390625
6444		29.296875
6445		27.343750
6446		31.250000
6447		31.250000
6448		35.156250
6449		33.203125
6450		37.109375
6451		35.156250
6452		39.062500
6453		39.062500
6454		42.968750
6455		41.015625
6456		44.921875
6457		42.968750
6458		48.828125
6459		44.921875
6460		48.828125
6461		48.828125
6462		50.781250
6463		50.781250
6464		54.687500
6465		52.734375
6466		56.640625
6467		54.687500
6468		58.593750
6469		56.640625
6470		60.546875
6471		58.593750
6472		62.500000
6473		60.546875
6474		64.453125
6475		62.500000
6476		66.406250
6477		64.453125
6478		68.359375
6479		66.406250
6480		70.312500
6481		68.359375
6482		72.265625
6483		70.312500
6484		74.218750
6485		72.265625
6486		76.171875
6487		74.218750
6488		78.125000
6489		76.171875
6490		78.125000
6491		78.125000
6492		80.078125
6493		78.125000
6494		82.031250
6495		80.078125
6496		83.984375
6497		82.031250
6498		83.984375
6499		82.031250
6500		85.937500
6501		83.984375
6502		87.890625
6503		85.937500
6504		87.890625
6505		85.937500
6506		89.843750
6507		87.890625
6508		89.843750
6509		87.890625
6510		91.796875
6511		89.843750
6512		91.796875
6513		89.843750
6514		93.750000
6515		91.796875
6516		93.750000
6517		91.796875
6518		93.750000
6519		91.796875
6520		95.703125
6521		93.750000
6522		95.703125
6523		93.750000
6524		95.703125
6525		93.750000
6526		97.656250
6527		95.703125
6528		97.656250
6529		95.703125
6530		97.656250
6531		95.703125
6532		97.656250
6533		95.703125
6534		97.656250
6535		95.703125
6536		97.656250
6537		95.703125
6538		97.656250
6539		95.703125
6540		97.656250
6541		93.750000
6542		99.609375
6543		95.703125
6544		97.656250
6545		93.750000
6546		97.656250
6547		95.703125
6548		97.656250
6549		95.703125
6550		97.656250
6551		93.750000
6552		95.703125
6553		93.750000
6554		95.703125
6555		93.750000
6556		95.703125
6557		93.750000
6558		95.703125
6559		89.843750
6560		95.703125
6561		91.796875
6562		93.750000
6563		89.843750
6564		93.750000
6565		89.843750
6566		91.796875
6567		89.843750
6568		91.796875
6569		87.890625
6570		89.843750
6571		85.937500
6572		89.843750
6573		85.937500
6574		87.890625
6575		82.031250
6576		87.890625
6577		82.031250
6578		87.890625
6579		82.031250
6580		85.937500
6581		80.078125
6582		83.984375
6583		80.078125
6584		82.031250
6585		78.125000
6586		80.078125
6587		76.171875
6588		78.125000
6589		74.218750
6590		78.125000
6591		70.312500
6592		76.171875
6593		70.312500
6594		76.171875
6595		68.359375
6596		74.218750
6597		66.406250
6598		70.312500
6599		64.453125
6600		68.359375
6601		62.500000
6602		66.406250
6603		60.546875
6604		64.453125
6605		58.593750
6606		62.500000
6607		56.640625
6608		60.546875
6609		52.734375
6610		60.546875
6611		50.781250
6612		56.640625
6613		48.828125
6614		52.734375
6615		46.875000
6616		50.781250
6617		44.921875
6618		48.828125
6619		42.968750
6620		46.875000
6621		39.062500
6622		44.921875
6623		37.109375
6624		41.015625
6625		33.203125
6626		39.062500
6627		31.250000
6628		37.109375
6629		29.296875
6630		33.203125
6631		25.390625
6632		31.250000
6633		23.437500
6634		27.343750
6635		21.484375
6636		25.390625
6637		17.578125
6638		21.484375
6639		15.625000
6640		19.531250
6641		11.718750
6642		15.625000
6643		7.812500
6644		15.625000
6645		5.859375
6646		11.718750
6647		3.906250
6648		7.812500
6649		0.000000
6650		3.906250
6651		-1.953125
6652		1.953125
6653		-5.859375
6654		-1.953125
6655		-9.765625
6656		-3.906250
6657		-11.718750
6658		-7.812500
6659		-17.578125
6660		-9.765625
6661		-19.531250
6662		-11.718750
6663		-21.484375
6664		-17.578125
6665		-25.390625
6666		-19.531250
6667		-27.343750
6668		-23.437500
6669		-31.250000
6670		-25.390625
6671		-33.203125
6672		-29.296875
6673		-37.109375
6674		-33.203125
6675		-42.968750
6676		-35.156250
6677		-44.921875
6678		-37.109375
6679		-46.875000
6680		-39.062500
6681		-48.828125
6682		-44.921875
6683		-52.734375
6684		-46.875000
6685		-54.687500
6686		-50.781250
6687		-58.593750
6688		-54.687500
6689		-60.546875
6690		-56.640625
6691		-64.453125
6692		-60.546875
6693		-68.359375
6694		-60.546875
6695		-70.312500
6696		-64.453125
6697		-72.265625
6698		-68.359375
6699		-76.171875
6700		-70.312500
6701		-78.125000
6702		-74.218750
6703		-80.078125
6704		-76.171875
6705		-83.984375
6706		-80.078125
6707		-85.937500
6708		-82.031250
6709		-89.843750
6710		-83.984375
6711		-93.750000
6712		-85.937500
6713		-93.750000
6714		-89.843750
6715		-95.703125
6716		-91.796875
6717		-97.656250
6718		-93.750000
6719		-99.609375
6720		-97.656250
6721		-103.515625
6722		-99.609375
6723		-105.468750
6724		-101.562500
6725		-107.421875
6726		-103.515625
6727		-111.328125
6728		-103.515625
6729		-111.328125
6730		-105.468750
6731		-113.281250
6732		-109.375000
6733		-115.234375
6734		-111.328125
6735		-117.187500
6736		-113.281250
6737		-119.140625
6738		-115.234375
6739		-119.140625
6740		-117.187500
6741		-121.093750
6742		-119.140625
6743		-125.000000
6744		-119.140625
6745		-126.953125
6746		-119.140625
6747		-125.000000
6748		-123.046875
6749		-126.953125
6750		-125.000000
6751		-128.906250
6752		-125.000000
6753		-128.906250
6754		-126.953125
6755		-130.859375
6756		-126.953125
6757		-130.859375
6758		-128.906250
6759		-132.812500
6760		-128.906250
6761		-134.765625
6762		-128.906250
6763		-132.812500
6764		-130.859375
6765		-132.812500
6766		-130.859375
6767		-134.765625
6768		-130.859375
6769		-134.765625
6770		-132.812500
6771		-134.765625
6772		-132.812500
6773		-134.765625
6774		-132.812500
6775		-134.765625
6776		-132.812500
6777		-136.718750
6778		-130.859375
6779		-134.765625
6780		-132.812500
6781		-134.765625
6782		-132.812500
6783		-134.765625
6784		-132.812500
6785		-134.765625
6786		-130.859375
6787		-132.812500
6788		-130.859375
6789		-132.812500
6790		-130.859375
6791		-132.812500
6792		-130.859375
6793		-132.812500
6794		-126.953125
6795		-130.859375
6796		-128.906250
6797		-130.859375
6798		-126.953125
6799		-128.906250
6800		-126.953125
6801		-126.953125
6802		-125.000000
6803		-126.953125
6804		-123.046875
6805		-125.000000
6806		-123.046875
6807		-125.000000
6808		-121.093750
6809		-123.046875
6810		-119.140625
6811		-121.093750
6812		-119.140625
6813		-119.140625
6814		-117.187500
6815		-117.187500
6816		-115.234375
6817		-117.187500
6818		-113.281250
6819		-115.234375
6820		-111.328125
6821		-113.281250
6822		-109.375000
6823		-111.328125
6824		-107.421875
6825		-109.375000
6826		-105.468750
6827		-107.421875
6828		-103.515625
6829		-105.468750
6830		-101.562500
6831		-103.515625
6832		-99.609375
6833		-99.609375
6834		-95.703125
6835		-97.656250
6836		-93.750000
6837		-95.703125
6838		-91.796875
6839		-93.750000
6840		-89.843750
6841		-89.843750
6842		-85.937500
6843		-87.890625
6844		-83.984375
6845		-85.937500
6846		-82.031250
6847		-82.031250
6848		-78.125000
6849		-80.078125
6850		-76.171875
6851		-78.125000
6852		-72.265625
6853		-74.218750
6854		-70.312500
6855		-72.265625
6856		-68.359375
6857		-68.359375
6858		-64.453125
6859		-66.406250
6860		-62.500000
6861		-62.500000
6862		-58.593750
6863		-60.546875
6864		-56.640625
6865		-56.640625
6866		-52.734375
6867		-54.687500
6868		-48.828125
6869		-50.781250
6870		-46.875000
6871		-48.828125
6872		-42.968750
6873		-44.921875
6874		-41.015625
6875		-42.968750
6876		-37.109375
6877		-39.062500
6878		-35.156250
6879		-35.156250
6880		-31.250000
6881		-33.203125
6882		-27.343750
6883		-29.296875
6884		-25.390625
6885		-25.390625
6886		-21.484375
6887		-23.437500
6888		-19.531250
6889		-19.531250
6890		-15.625000
6891		-17.578125
6892		-11.718750
6893		-13.671875
6894		-9.765625
6895		-11.718750
6896		-7.812500
6897		-7.812500
6898		-3.906250
6899		-5.859375
6900		0.000000
6901		-1.953125
6902		1.953125
6903		0.000000
6904		5.859375
6905		3.906250
6906		7.812500
6907		7.812500
6908		11.718750
6909		9.765625
6910		13.671875
6911		13.671875
6912		17.578125
6913		15.625000
6914		19.531250
6915		17.578125
6916		23.437500
6917		21.484375
6918		25.390625
6919		23.437500
6920		27.343750
6921		27.343750
6922		31.250000
6923		29.296875
6924		33.203125
6925		31.250000
6926		37.109375
6927		35.156250
6928		39.062500
6929		37.109375
6930		41.015625
6931		39.062500
6932		42.968750
6933		42.968750
6934		46.875000
6935		44.921875
6936		48.828125
6937		46.875000
6938		50.781250
6939		48.828125
6940		52.734375
6941		52.734375
6942		54.687500
6943		54.687500
6944		56.640625
6945		56.640625
6946		60.546875
6947		58.593750
6948		62.500000
6949		60.546875
6950		64.453125
6951		62.500000
6952		66.406250
6953		64.453125
6954		68.359375
6955		66.406250
6956		70.312500
6957		68.359375
6958		72.265625
6959		70.312500
6960		74.218750
6961		72.265625
6962		74.218750
6963		74.218750
6964		76.171875
6965		74.218750
6966		78.125000
6967		76.171875
6968		80.078125
6969		78.125000
6970		82.031250
6971		80.078125
6972		82.031250
6973		82.031250
6974		83.984375
6975		82.031250
6976		85.937500
6977		83.984375
6978		85.937500
6979		83.984375
6980		87.890625
6981		85.937500
6982		87.890625
6983		87.890625
6984		89.843750
6985		87.890625
6986		89.843750
6987		89.843750
6988		91.796875
6989		89.843750
6990		93.750000
6991		89.843750
6992		93.750000
6993		91.796875
6994		93.750000
6995		91.796875
6996		93.750000
6997		91.796875
6998		95.703125
6999		93.750000
7000		95.703125
7001		93.750000
7002		95.703125
7003		93.750000
7004		95.703125
7005		95.703125
7006		97.656250
7007		95.703125
7008		97.656250
7009		95.703125
7010		97.656250
7011		95.703125
7012		97.656250
7013		95.703125
7014		97.656250
7015		95.703125
7016		97.656250
7017		95.703125
7018		97.656250
7019		95.703125
7020		97.656250
7021		95.703125
7022		97.656250
7023		95.703125
7024		97.656250
7025		95.703125
7026		97.656250
7027		93.750000
7028		95.703125
7029		93.750000
7030		95.703125
7031		93.750000
7032		95.703125
7033		93.750000
7034		95.703125
7035		91.796875
7036		95.703125
7037		91.796875
7038		93.750000
7039		89.843750
7040		93.750000
7041		89.843750
7042		91.796875
7043		89.843750
7044		91.796875
7045		87.890625
7046		89.843750
7047		87.890625
7048		89.843750
7049		85.937500
7050		87.890625
7051		83.984375
7052		87.890625
7053		83.984375
7054		85.937500
7055		82.031250
7056		85.937500
7057		80.078125
7058		83.984375
7059		80.078125
7060		82.031250
7061		78.125000
7062		80.078125
7063		76.171875
7064		80.078125
7065		74.218750
7066		78.125000
7067		72.265625
7068		76.171875
7069		70.312500
7070		74.218750
7071		70.312500
7072		72.265625
7073		68.359375
7074		70.312500
7075		66.406250
7076		68.359375
7077		64.453125
7078		66.406250
7079		62.500000
7080		64.453125
7081		60.546875
7082		62.500000
7083		56.640625
7084		60.546875
7085		54.687500
7086		58.593750
7087		52.734375
7088		56.640625
7089		50.781250
7090		54.687500
7091		48.828125
7092		52.734375
7093		44.921875
7094		48.828125
7095		42.968750
7096		46.875000
7097		41.015625
7098		44.921875
7099		39.062500
7100		42.968750
7101		35.156250
7102		39.062500
7103		33.203125
7104		37.109375
7105		29.296875
7106		35.156250
7107		27.343750
7108		31.250000
7109		25.390625
7110		29.296875
7111		21.484375
7112		25.390625
7113		19.531250
7114		23.437500
7115		15.625000
7116		21.484375
7117		13.671875
7118		17.578125
7119		9.765625
7120		13.671875
7121		7.812500
7122		11.718750
7123		3.906250
7124		7.812500
7125		1.953125
7126		5.859375
7127		-1.953125
7128		3.906250
7129		-3.906250
7130		0.000000
7131		-7.812500
7132		-3.906250
7133		-11.718750
7134		-5.859375
7135		-13.671875
7136		-9.765625
7137		-17.578125
7138		-11.718750
7139		-19.531250
7140		-15.625000
7141		-23.437500
7142		-19.531250
7143		-25.390625
7144		-21.484375
7145		-29.296875
7146		-25.390625
7147		-33.203125
7148		-27.343750
7149		-35.156250
7150		-31.250000
7151		-39.062500
7152		-35.156250
7153		-42.968750
7154		-37.109375
7155		-44.921875
7156		-41.015625
7157		-48.828125
7158		-42.968750
7159		-50.781250
7160		-46.875000
7161		-54.687500
7162		-48.828125
7163		-56.640625
7164		-52.734375
7165		-60.546875
7166		-54.687500
7167		-62.500000
7168		-58.593750
7169		-66.406250
7170		-62.500000
7171		-68.359375
7172		-64.453125
7173		-72.265625
7174		-68.359375
7175		-74.218750
7176		-70.312500
7177		-78.125000
7178		-72.265625
7179		-80.078125
7180		-76.171875
7181		-82.031250
7182		-78.125000
7183		-83.984375
7184		-80.078125
7185		-87.890625
7186		-83.984375
7187		-89.843750
7188		-85.937500
7189		-91.796875
7190		-87.890625
7191		-95.703125
7192		-91.796875
7193		-97.656250
7194		-93.750000
7195		-99.609375
7196		-95.703125
7197		-101.562500
7198		-97.656250
7199		-103.515625
7200		-101.562500
7201		-105.468750
7202		-103.515625
7203		-107.421875
7204		-105.468750
7205		-109.375000
7206		-107.421875
7207		-113.281250
7208		-109.375000
7209		-115.234375
7210		-111.328125
7211		-115.234375
7212		-113.281250
7213		-117.187500
7214		-115.234375
7215		-119.140625
7216		-117.187500
7217		-121.093750
7218		-117.187500
7219		-123.046875
7220		-119.140625
7221		-123.046875
7222		-121.093750
7223		-125.000000
7224		-123.046875
7225		-126.953125
7226		-123.046875
7227		-126.953125
7228		-125.000000
7229		-128.906250
7230		-126.953125
7231		-128.906250
7232		-126.953125
7233		-130.859375
7234		-128.906250
7235		-130.859375
7236		-128.906250
7237		-132.812500
7238		-128.906250
7239		-132.812500
7240		-130.859375
7241		-132.812500
7242		-130.859375
7243		-132.812500
7244		-130.859375
7245		-134.765625
7246		-130.859375
7247		-134.765625
7248		-132.812500
7249		-134.765625
7250		-132.812500
7251		-134.765625
7252		-132.812500
7253		-134.765625
7254		-132.812500
7255		-134.765625
7256		-132.812500
7257		-134.765625
7258		-132.812500
7259		-134.765625
7260		-132.812500
7261		-134.765625
7262		-132.812500
7263		-134.765625
7264		-132.812500
7265		-132.812500
7266		-130.859375
7267		-132.812500
7268		-130.859375
7269		-132.812500
7270		-128.906250
7271		-130.859375
7272		-128.906250
7273		-130.859375
7274		-128.906250
7275		-130.859375
7276		-126.953125
7277		-128.906250
7278		-126.953125
7279		-128.906250
7280		-125.000000
7281		-126.953125
7282		-123.046875
7283		-125.000000
7284		-123.046875
7285		-125.000000
7286		-121.093750
7287		-123.046875
7288		-119.140625
7289		-121.093750
7290		-119.140625
7291		-121.093750
7292		-117.187500
7293		-119.140625
7294		-115.234375
7295		-117.187500
7296		-113.281250
7297		-115.234375
7298		-111.328125
7299		-113.281250
7300		-109.375000
7301		-111.328125
7302		-107.421875
7303		-109.375000
7304		-105.468750
7305		-107.421875
7306		-103.515625
7307		-105.468750
7308		-101.562500
7309		-101.562500
7310		-99.609375
7311		-99.609375
7312		-97.656250
7313		-97.656250
7314		-93.750000
7315		-95.703125
7316		-91.796875
7317		-93.750000
7318		-89.843750
7319		-89.843750
7320		-85.937500
7321		-87.890625
7322		-83.984375
7323		-85.937500
7324		-82.031250
7325		-82.031250
7326		-78.125000
7327		-80.078125
7328		-76.171875
7329		-76.171875
7330		-72.265625
7331		-74.218750
7332		-70.312500
7333		-72.265625
7334		-66.406250
7335		-68.359375
7336		-64.453125
7337		-66.406250
7338		-62.500000
7339		-62.500000
7340		-58.593750
7341		-60.546875
7342		-54.687500
7343		-56.640625
7344		-52.734375
7345		-54.687500
7346		-48.828125
7347		-50.781250
7348		-46.875000
7349		-46.875000
7350		-42.968750
7351		-44.921875
7352		-39.062500
7353		-41.015625
7354		-37.109375
7355		-39.062500
7356		-33.203125
7357		-35.156250
7358		-31.250000
7359		-33.203125
7360		-27.343750
7361		-29.296875
7362		-25.390625
7363		-25.390625
7364		-21.484375
7365		-23.437500
7366		-19.531250
7367		-19.531250
7368		-15.625000
7369		-17.578125
7370		-11.718750
7371		-13.671875
7372		-9.765625
7373		-11.718750
7374		-5.859375
7375		-7.812500
7376		-3.906250
7377		-3.906250
7378		0.000000
7379		-1.953125
7380		1.953125
7381		1.953125
7382		5.859375
7383		3.906250
7384		7.812500
7385		7.812500
7386		11.718750
7387		9.765625
7388		13.671875
7389		11.718750
7390		17.578125
7391		15.625000
7392		19.531250
7393		19.531250
7394		23.437500
7395		21.484375
7396		25.390625
7397		23.437500
7398		27.343750
7399		27.343750
7400		31.250000
7401		29.296875
7402		33.203125
7403		31.250000
7404		37.109375
7405		35.156250
7406		39.062500
7407		37.109375
7408		41.015625
7409		39.062500
7410		44.921875
7411		42.968750
7412		46.875000
7413		44.921875
7414		48.828125
7415		46.875000
7416		50.781250
7417		48.828125
7418		52.734375
7419		52.734375
7420		54.687500
7421		54.687500
7422		58.593750
7423		56.640625
7424		60.546875
7425		58.593750
7426		62.500000
7427		60.546875
7428		64.453125
7429		62.500000
7430		66.406250
7431		64.453125
7432		68.359375
7433		66.406250
7434		70.312500
7435		68.359375
7436		70.312500
7437		70.312500
7438		72.265625
7439		72.265625
7440		74.218750
7441		72.265625
7442		76.171875
7443		74.218750
7444		78.125000
7445		76.171875
7446		80.078125
7447		78.125000
7448		82.031250
7449		80.078125
7450		82.031250
7451		80.078125
7452		83.984375
7453		82.031250
7454		83.984375
7455		83.984375
7456		85.937500
7457		83.984375
7458		87.890625
7459		85.937500
7460		89.843750
7461		87.890625
7462		89.843750
7463		87.890625
7464		89.843750
7465		89.843750
7466		91.796875
7467		89.843750
7468		91.796875
7469		89.843750
7470		93.750000
7471		91.796875
7472		93.750000
7473		91.796875
7474		93.750000
7475		93.750000
7476		95.703125
7477		93.750000
7478		95.703125
7479		93.750000
7480		95.703125
7481		93.750000
7482		95.703125
7483		95.703125
7484		97.656250
7485		95.703125
7486		97.656250
7487		95.703125
7488		97.656250
7489		95.703125
7490		97.656250
7491		95.703125
7492		97.656250
7493		95.703125
7494		97.656250
7495		95.703125
7496		97.656250
7497		95.703125
7498		97.656250
7499		95.703125
7500		97.656250
7501		95.703125
7502		97.656250
7503		93.750000
7504		97.656250
7505		93.750000
7506		95.703125
7507		93.750000
7508		95.703125
7509		91.796875
7510		95.703125
7511		91.796875
7512		95.703125
7513		91.796875
7514		93.750000
7515		91.796875
7516		93.750000
7517		89.843750
7518		91.796875
7519		89.843750
7520		91.796875
7521		87.890625
7522		91.796875
7523		87.890625
7524		89.843750
7525		85.937500
7526		89.843750
7527		85.937500
7528		87.890625
7529		83.984375
7530		87.890625
7531		83.984375
7532		85.937500
7533		82.031250
7534		83.984375
7535		80.078125
7536		83.984375
7537		78.125000
7538		82.031250
7539		78.125000
7540		80.078125
7541		76.171875
7542		78.125000
7543		74.218750
7544		78.125000
7545		72.265625
7546		76.171875
7547		70.312500
7548		74.218750
7549		68.359375
7550		72.265625
7551		66.406250
7552		70.312500
7553		64.453125
7554		68.359375
7555		62.500000
7556		66.406250
7557		60.546875
7558		64.453125
7559		58.593750
7560		62.500000
7561		56.640625
7562		60.546875
7563		54.687500
7564		58.593750
7565		52.734375
7566		56.640625
7567		48.828125
7568		52.734375
7569		46.875000
7570		50.781250
7571		44.921875
7572		48.828125
7573		42.968750
7574		46.875000
7575		39.062500
7576		42.968750
7577		37.109375
7578		41.015625
7579		35.156250
7580		39.062500
7581		31.250000
7582		35.156250
7583		29.296875
7584		33.203125
7585		27.343750
7586		31.250000
7587		23.437500
7588		27.343750
7589		21.484375
7590		25.390625
7591		17.578125
7592		21.484375
7593		15.625000
7594		19.531250
7595		11.718750
7596		15.625000
7597		9.765625
7598		13.671875
7599		5.859375
7600		9.765625
7601		3.906250
7602		7.812500
7603		0.000000
7604		5.859375
7605		-3.906250
7606		3.906250
7607		-5.859375
7608		-1.953125
7609		-9.765625
7610		-1.953125
7611		-11.718750
7612		-7.812500
7613		-15.625000
7614		-9.765625
7615		-17.578125
7616		-13.671875
7617		-21.484375
7618		-17.578125
7619		-23.437500
7620		-19.531250
7621		-29.296875
7622		-21.484375
7623		-31.250000
7624		-25.390625
7625		-35.156250
7626		-29.296875
7627		-37.109375
7628		-33.203125
7629		-41.015625
7630		-35.156250
7631		-42.968750
7632		-39.062500
7633		-46.875000
7634		-41.015625
7635		-48.828125
7636		-44.921875
7637		-54.687500
7638		-48.828125
7639		-54.687500
7640		-50.781250
7641		-60.546875
7642		-52.734375
7643		-62.500000
7644		-56.640625
7645		-68.359375
7646		-58.593750
7647		-66.406250
7648		-62.500000
7649		-70.312500
7650		-66.406250
7651		-74.218750
7652		-68.359375
7653		-76.171875
7654		-68.359375
7655		-80.078125
7656		-72.265625
7657		-80.078125
7658		-76.171875
7659		-85.937500
7660		-78.125000
7661		-85.937500
7662		-82.031250
7663		-89.843750
7664		-82.031250
7665		-91.796875
7666		-87.890625
7667		-93.750000
7668		-89.843750
7669		-99.609375
7670		-89.843750
7671		-99.609375
7672		-91.796875
7673		-101.562500
7674		-95.703125
7675		-103.515625
7676		-99.609375
7677		-105.468750
7678		-97.656250
7679		-109.375000
7680		-101.562500
7681		-109.375000
7682		-105.468750
7683		-111.328125
7684		-107.421875
7685		-113.281250
7686		-109.375000
7687		-117.187500
7688		-107.421875
7689		-117.187500
7690		-111.328125
7691		-117.187500
7692		-113.281250
7693		-123.046875
7694		-113.281250
7695		-121.093750
7696		-119.140625
7697		-123.046875
7698		-115.234375
7699		-125.000000
7700		-121.093750
7701		-126.953125
7702		-121.093750
7703		-128.906250
7704		-121.093750
7705		-128.906250
7706		-123.046875
7707		-128.906250
7708		-125.000000
7709		-132.812500
7710		-123.046875
7711		-132.812500
7712		-123.046875
7713		-134.765625
7714		-126.953125
7715		-130.859375
7716		-128.906250
7717		-132.812500
7718		-130.859375
7719		-134.765625
7720		-128.906250
7721		-136.718750
7722		-126.953125
7723		-134.765625
7724		-130.859375
7725		-134.765625
7726		-130.859375
7727		-136.718750
7728		-128.906250
7729		-136.718750
7730		-128.906250
7731		-134.765625
7732		-130.859375
7733		-134.765625
7734		-132.812500
7735		-134.765625
7736		-130.859375
7737		-136.718750
7738		-128.906250
7739		-134.765625
7740		-128.906250
7741		-132.812500
7742		-130.859375
7743		-134.765625
7744		-125.000000
7745		-134.765625
7746		-125.000000
7747		-134.765625
7748		-125.000000
7749		-130.859375
7750		-126.953125
7751		-130.859375
7752		-125.000000
7753		-128.906250
7754		-123.046875
7755		-130.859375
7756		-121.093750
7757		-126.953125
7758		-123.046875
7759		-125.000000
7760		-121.093750
7761		-126.953125
7762		-117.187500
7763		-125.000000
7764		-115.234375
7765		-121.093750
7766		-117.187500
7767		-119.140625
7768		-117.187500
7769		-119.140625
7770		-113.281250
7771		-119.140625
7772		-109.375000
7773		-115.234375
7774		-111.328125
7775		-111.328125
7776		-107.421875
7777		-111.328125
7778		-103.515625
7779		-111.328125
7780		-103.515625
7781		-107.421875
7782		-101.562500
7783		-103.515625
7784		-99.609375
7785		-101.562500
7786		-97.656250
7787		-101.562500
7788		-91.796875
7789		-99.609375
7790		-91.796875
7791		-95.703125
7792		-91.796875
7793		-91.796875
7794		-85.937500
7795		-93.750000
7796		-83.984375
7797		-89.843750
7798		-80.078125
7799		-83.984375
7800		-80.078125
7801		-82.031250
7802		-78.125000
7803		-80.078125
7804		-74.218750
7805		-80.078125
7806		-70.312500
7807		-74.218750
7808		-70.312500
7809		-70.312500
7810		-64.453125
7811		-70.312500
7812		-60.546875
7813		-66.406250
7814		-56.640625
7815		-62.500000
7816		-58.593750
7817		-58.593750
7818		-54.687500
7819		-56.640625
7820		-50.781250
7821		-54.687500
7822		-44.921875
7823		-50.781250
7824		-44.921875
7825		-46.875000
7826		-42.968750
7827		-44.921875
7828		-37.109375
7829		-44.921875
7830		-35.156250
7831		-39.062500
7832		-33.203125
7833		-35.156250
7834		-31.250000
7835		-31.250000
7836		-27.343750
7837		-29.296875
7838		-21.484375
7839		-29.296875
7840		-19.531250
7841		-23.437500
7842		-17.578125
7843		-19.531250
7844		-13.671875
7845		-19.531250
7846		-9.765625
7847		-13.671875
7848		-7.812500
7849		-9.765625
7850		-5.859375
7851		-7.812500
7852		-3.906250
7853		-3.906250
7854		1.953125
7855		-1.953125
7856		5.859375
7857		0.000000
7858		5.859375
7859		3.906250
7860		7.812500
7861		5.859375
7862		15.625000
7863		5.859375
7864		15.625000
7865		9.765625
7866		19.531250
7867		15.625000
7868		19.531250
7869		19.531250
7870		23.437500
7871		19.531250
7872		29.296875
7873		23.437500
7874		31.250000
7875		27.343750
7876		31.250000
7877		29.296875
7878		37.109375
7879		33.203125
7880		37.109375
7881		33.203125
7882		41.015625
7883		37.109375
7884		41.015625
7885		41.015625
7886		44.921875
7887		42.968750
7888		46.875000
7889		42.968750
7890		50.781250
7891		44.921875
7892		50.781250
7893		50.781250
7894		52.734375
7895		50.781250
7896		56.640625
7897		54.687500
7898		58.593750
7899		56.640625
7900		60.546875
7901		58.593750
7902		62.500000
7903		60.546875
7904		64.453125
7905		62.500000
7906		66.406250
7907		62.500000
7908		70.312500
7909		66.406250
7910		70.312500
7911		68.359375
7912		74.218750
7913		70.312500
7914		74.218750
7915		72.265625
7916		76.171875
7917		74.218750
7918		78.125000
7919		76.171875
7920		80.078125
7921		76.171875
7922		80.078125
7923		78.125000
7924		82.031250
7925		80.078125
7926		83.984375
7927		82.031250
7928		83.984375
7929		83.984375
7930		85.937500
7931		83.984375
7932		87.890625
7933		85.937500
7934		87.890625
7935		85.937500
7936		89.843750
7937		87.890625
7938		91.796875
7939		89.843750
7940		91.796875
7941		89.843750
7942		91.796875
7943		89.843750
7944		93.750000
7945		91.796875
7946		93.750000
7947		91.796875
7948		95.703125
7949		91.796875
7950		95.703125
7951		93.750000
7952		95.703125
7953		93.750000
7954		97.656250
7955		93.750000
7956		99.609375
7957		93.750000
7958		99.609375
7959		93.750000
7960		99.609375
7961		95.703125
7962		99.609375
7963		95.703125
7964		99.609375
7965		95.703125
7966		101.562500
7967		97.656250
7968		99.609375
7969		97.656250
7970		99.609375
7971		95.703125
7972		99.609375
7973		95.703125
7974		101.562500
7975		95.703125
7976		99.609375
7977		93.750000
7978		101.562500
7979		95.703125
7980		99.609375
7981		93.750000
7982		99.609375
7983		95.703125
7984		99.609375
7985		95.703125
7986		97.656250
7987		91.796875
7988		97.656250
7989		91.796875
7990		97.656250
7991		91.796875
7992		97.656250
7993		89.843750
7994		97.656250
7995		89.843750
7996		95.703125
7997		89.843750
7998		93.750000
7999		87.890625
8000		93.750000
8001		87.890625
8002		91.796875
8003		87.890625
8004		89.843750
8005		83.984375
8006		91.796875
8007		83.984375
8008		89.843750
8009		82.031250
8010		87.890625
8011		82.031250
8012		87.890625
8013		80.078125
8014		85.937500
8015		78.125000
8016		83.984375
8017		78.125000
8018		82.031250
8019		76.171875
8020		80.078125
8021		74.218750
8022		78.125000
8023		72.265625
8024		78.125000
8025		70.312500
8026		76.171875
8027		68.359375
8028		74.218750
8029		66.406250
8030		72.265625
8031		66.406250
8032		70.312500
8033		62.500000
8034		68.359375
8035		62.500000
8036		64.453125
8037		58.593750
8038		62.500000
8039		56.640625
8040		62.500000
8041		54.687500
8042		58.593750
8043		50.781250
8044		58.593750
8045		48.828125
8046		54.687500
8047		46.875000
8048		52.734375
8049		44.921875
8050		50.781250
8051		42.968750
8052		46.875000
8053		41.015625
8054		44.921875
8055		37.109375
8056		42.968750
8057		35.156250
8058		41.015625
8059		31.250000
8060		37.109375
8061		29.296875
8062		35.156250
8063		25.390625
8064		33.203125
8065		23.437500
8066		29.296875
8067		21.484375
8068		25.390625
8069		17.578125
8070		23.437500
8071		15.625000
8072		19.531250
8073		11.718750
8074		17.578125
8075		9.765625
8076		13.671875
8077		3.906250
8078		13.671875
8079		3.906250
8080		9.765625
8081		0.000000
8082		5.859375
8083		-1.953125
8084		1.953125
8085		-5.859375
8086		-1.953125
8087		-7.812500
8088		-3.906250
8089		-11.718750
8090		-5.859375
8091		-15.625000
8092		-9.765625
8093		-19.531250
8094		-13.671875
8095		-21.484375
8096		-13.671875
8097		-25.390625
8098		-19.531250
8099		-27.343750
8100		-21.484375
8101		-29.296875
8102		-23.437500
8103		-33.203125
8104		-29.296875
8105		-37.109375
8106		-31.250000
8107		-39.062500
8108		-35.156250
8109		-42.968750
8110		-39.062500
8111		-46.875000
8112		-41.015625
8113		-48.828125
8114		-44.921875
8115		-52.734375
8116		-46.875000
8117		-54.687500
8118		-50.781250
8119		-58.593750
8120		-52.734375
8121		-62.500000
8122		-56.640625
8123		-64.453125
8124		-58.593750
8125		-66.406250
8126		-60.546875
8127		-72.265625
8128		-64.453125
8129		-72.265625
8130		-68.359375
8131		-74.218750
8132		-70.312500
8133		-78.125000
8134		-72.265625
8135		-80.078125
8136		-76.171875
8137		-82.031250
8138		-78.125000
8139		-85.937500
8140		-80.078125
8141		-87.890625
8142		-83.984375
8143		-91.796875
8144		-85.937500
8145		-93.750000
8146		-87.890625
8147		-95.703125
8148		-89.843750
8149		-97.656250
8150		-93.750000
8151		-99.609375
8152		-95.703125
8153		-101.562500
8154		-97.656250
8155		-105.468750
8156		-99.609375
8157		-105.468750
8158		-103.515625
8159		-109.375000
8160		-105.468750
8161		-113.281250
8162		-105.468750
8163		-111.328125
8164		-107.421875
8165		-113.281250
8166		-109.375000
8167		-117.187500
8168		-111.328125
8169		-117.187500
8170		-113.281250
8171		-119.140625
8172		-115.234375
8173		-121.093750
8174		-117.187500
8175		-121.093750
8176		-117.187500
8177		-123.046875
8178		-119.140625
8179		-125.000000
8180		-119.140625
8181		-125.000000
8182		-123.046875
8183		-126.953125
8184		-123.046875
8185		-126.953125
8186		-123.046875
8187		-128.906250
8188		-125.000000
8189		-130.859375
8190		-125.000000
8191		-130.859375
8192		-126.953125
8193		-130.859375
8194		-126.953125
8195		-132.812500
8196		-126.953125
8197		-132.812500
8198		-128.906250
8199		-132.812500
8200		-128.906250
8201		-132.812500
8202		-128.906250
8203		-132.812500
8204		-130.859375
8205		-134.765625
8206		-128.906250
8207		-132.812500
8208		-130.859375
8209		-132.812500
8210		-128.906250
8211		-132.812500
8212		-130.859375
8213		-132.812500
8214		-128.906250
8215		-132.812500
8216		-128.906250
8217		-132.812500
8218		-128.906250
8219		-130.859375
8220		-128.906250
8221		-130.859375
8222		-128.906250
8223		-130.859375
8224		-126.953125
8225		-128.906250
8226		-126.953125
8227		-128.906250
8228		-126.953125
8229		-126.953125
8230		-125.000000
8231		-126.953125
8232		-123.046875
8233		-126.953125
8234		-123.046875
8235		-125.000000
8236		-121.093750
8237		-123.046875
8238		-121.093750
8239		-121.093750
8240		-117.187500
8241		-121.093750
8242		-117.187500
8243		-119.140625
8244		-115.234375
8245		-117.187500
8246		-115.234375
8247		-117.187500
8248		-113.281250
8249		-115.234375
8250		-109.375000
8251		-113.281250
8252		-107.421875
8253		-111.328125
8254		-107.421875
8255		-109.375000
8256		-105.468750
8257		-107.421875
8258		-103.515625
8259		-105.468750
8260		-99.609375
8261		-101.562500
8262		-97.656250
8263		-99.609375
8264		-95.703125
8265		-97.656250
8266		-93.750000
8267		-95.703125
8268		-91.796875
8269		-93.750000
8270		-89.843750
8271		-89.843750
8272		-85.937500
8273		-87.890625
8274		-83.984375
8275		-85.937500
8276		-80.078125
8277		-83.984375
8278		-78.125000
8279		-80.078125
8280		-76.171875
8281		-78.125000
8282		-72.265625
8283		-76.171875
8284		-70.312500
8285		-72.265625
8286		-68.359375
8287		-68.359375
8288		-64.453125
8289		-66.406250
8290		-60.546875
8291		-64.453125
8292		-58.593750
8293		-60.546875
8294		-54.687500
8295		-58.593750
8296		-52.734375
8297		-54.687500
8298		-50.781250
8299		-52.734375
8300		-46.875000
8301		-48.828125
8302		-42.968750
8303		-44.921875
8304		-41.015625
8305		-42.968750
8306		-37.109375
8307		-39.062500
8308		-33.203125
8309		-37.109375
8310		-31.250000
8311		-33.203125
8312		-27.343750
8313		-29.296875
8314		-25.390625
8315		-27.343750
8316		-21.484375
8317		-25.390625
8318		-19.531250
8319		-21.484375
8320		-15.625000
8321		-17.578125
8322		-13.671875
8323		-13.671875
8324		-9.765625
8325		-11.718750
8326		-5.859375
8327		-9.765625
8328		-3.906250
8329		-5.859375
8330		-1.953125
8331		-1.953125
8332		1.953125
8333		0.000000
8334		3.906250
8335		1.953125
8336		7.812500
8337		5.859375
8338		11.718750
8339		9.765625
8340		13.671875
8341		11.718750
8342		17.578125
8343		15.625000
8344		21.484375
8345		17.578125
8346		21.484375
8347		21.484375
8348		25.390625
8349		23.437500
8350		27.343750
8351		25.390625
8352		31.250000
8353		27.343750
8354		33.203125
8355		31.250000
8356		35.156250
8357		33.203125
8358		39.062500
8359		35.156250
8360		42.968750
8361		39.062500
8362		42.968750
8363		41.015625
8364		46.875000
8365		44.921875
8366		48.828125
8367		46.875000
8368		50.781250
8369		48.828125
8370		52.734375
8371		50.781250
8372		54.687500
8373		54.687500
8374		58.593750
8375		54.687500
8376		60.546875
8377		58.593750
8378		62.500000
8379		60.546875
8380		64.453125
8381		62.500000
8382		66.406250
8383		64.453125
8384		68.359375
8385		66.406250
8386		70.312500
8387		68.359375
8388		72.265625
8389		70.312500
8390		74.218750
8391		70.312500
8392		76.171875
8393		74.218750
8394		78.125000
8395		74.218750
8396		80.078125
8397		76.171875
8398		80.078125
8399		78.125000
8400		82.031250
8401		80.078125
8402		82.031250
8403		82.031250
8404		83.984375
8405		82.031250
8406		85.937500
8407		83.984375
8408		87.890625
8409		83.984375
8410		87.890625
8411		85.937500
8412		89.843750
8413		87.890625
8414		89.843750
8415		87.890625
8416		91.796875
8417		89.843750
8418		93.750000
8419		89.843750
8420		93.750000
8421		91.796875
8422		93.750000
8423		91.796875
8424		95.703125
8425		91.796875
8426		97.656250
8427		93.750000
8428		97.656250
8429		93.750000
8430		97.656250
8431		93.750000
8432		97.656250
8433		95.703125
8434		97.656250
8435		95.703125
8436		99.609375
8437		95.703125
8438		99.609375
8439		97.656250
8440		99.609375
8441		95.703125
8442		99.609375
8443		95.703125
8444		99.609375
8445		95.703125
8446		99.609375
8447		95.703125
8448		99.609375
8449		95.703125
8450		99.609375
8451		95.703125
8452		99.609375
8453		95.703125
8454		99.609375
8455		95.703125
8456		99.609375
8457		95.703125
8458		97.656250
8459		93.750000
8460		99.609375
8461		93.750000
8462		97.656250
8463		93.750000
8464		97.656250
8465		93.750000
8466		97.656250
8467		93.750000
8468		95.703125
8469		91.796875
8470		95.703125
8471		91.796875
8472		93.750000
8473		91.796875
8474		93.750000
8475		89.843750
8476		93.750000
8477		87.890625
8478		91.796875
8479		87.890625
8480		91.796875
8481		87.890625
8482		89.843750
8483		85.937500
8484		89.843750
8485		83.984375
8486		87.890625
8487		83.984375
8488		87.890625
8489		82.031250
8490		83.984375
8491		80.078125
8492		83.984375
8493		78.125000
8494		82.031250
8495		76.171875
8496		80.078125
8497		76.171875
8498		80.078125
8499		74.218750
8500		78.125000
8501		72.265625
8502		76.171875
8503		70.312500
8504		74.218750
8505		68.359375
8506		72.265625
8507		66.406250
8508		70.312500
8509		64.453125
8510		68.359375
8511		62.500000
8512		66.406250
8513		60.546875
8514		66.406250
8515		56.640625
8516		62.500000
8517		56.640625
8518		60.546875
8519		52.734375
8520		58.593750
8521		50.781250
8522		56.640625
8523		48.828125
8524		52.734375
8525		44.921875
8526		50.781250
8527		42.968750
8528		48.828125
8529		41.015625
8530		44.921875
8531		39.062500
8532		42.968750
8533		37.109375
8534		41.015625
8535		33.203125
8536		39.062500
8537		31.250000
8538		35.156250
8539		29.296875
8540		33.203125
8541		25.390625
8542		29.296875
8543		23.437500
8544		29.296875
8545		19.531250
8546		25.390625
8547		17.578125
8548		21.484375
8549		13.671875
8550		17.578125
8551		11.718750
8552		15.625000
8553		7.812500
8554		13.671875
8555		5.859375
8556		9.765625
8557		1.953125
8558		7.812500
8559		0.000000
8560		3.906250
8561		-3.906250
8562		1.953125
8563		-5.859375
8564		-1.953125
8565		-9.765625
8566		-3.906250
8567		-13.671875
8568		-7.812500
8569		-15.625000
8570		-11.718750
8571		-19.531250
8572		-13.671875
8573		-21.484375
8574		-17.578125
8575		-25.390625
8576		-21.484375
8577		-29.296875
8578		-23.437500
8579		-31.250000
8580		-27.343750
8581		-35.156250
8582		-29.296875
8583		-39.062500
8584		-33.203125
8585		-41.015625
8586		-35.156250
8587		-44.921875
8588		-39.062500
8589		-46.875000
8590		-42.968750
8591		-50.781250
8592		-44.921875
8593		-52.734375
8594		-48.828125
8595		-56.640625
8596		-50.781250
8597		-58.593750
8598		-54.687500
8599		-62.500000
8600		-56.640625
8601		-64.453125
8602		-60.546875
8603		-68.359375
8604		-62.500000
8605		-70.312500
8606		-64.453125
8607		-72.265625
8608		-68.359375
8609		-78.125000
8610		-72.265625
8611		-78.125000
8612		-74.218750
8613		-82.031250
8614		-76.171875
8615		-83.984375
8616		-80.078125
8617		-85.937500
8618		-82.031250
8619		-89.843750
8620		-83.984375
8621		-91.796875
8622		-87.890625
8623		-93.750000
8624		-89.843750
8625		-95.703125
8626		-91.796875
8627		-99.609375
8628		-93.750000
8629		-101.562500
8630		-95.703125
8631		-103.515625
8632		-99.609375
8633		-105.468750
8634		-99.609375
8635		-107.421875
8636		-103.515625
8637		-111.328125
8638		-105.468750
8639		-111.328125
8640		-105.468750
8641		-113.281250
8642		-109.375000
8643		-115.234375
8644		-109.375000
8645		-115.234375
8646		-111.328125
8647		-117.187500
8648		-113.281250
8649		-119.140625
8650		-115.234375
8651		-121.093750
8652		-117.187500
8653		-123.046875
8654		-119.140625
8655		-125.000000
8656		-119.140625
8657		-125.000000
8658		-121.093750
8659		-126.953125
8660		-123.046875
8661		-126.953125
8662		-123.046875
8663		-128.906250
8664		-125.000000
8665		-128.906250
8666		-125.000000
8667		-128.906250
8668		-126.953125
8669		-130.859375
8670		-126.953125
8671		-130.859375
8672		-126.953125
8673		-130.859375
8674		-128.906250
8675		-130.859375
8676		-128.906250
8677		-132.812500
8678		-128.906250
8679		-132.812500
8680		-128.906250
8681		-132.812500
8682		-128.906250
8683		-132.812500
8684		-128.906250
8685		-132.812500
8686		-128.906250
8687		-132.812500
8688		-128.906250
8689		-132.812500
8690		-128.906250
8691		-132.812500
8692		-128.906250
8693		-132.812500
8694		-126.953125
8695		-130.859375
8696		-128.906250
8697		-130.859375
8698		-126.953125
8699		-130.859375
8700		-126.953125
8701		-128.906250
8702		-126.953125
8703		-128.906250
8704		-125.000000
8705		-128.906250
8706		-125.000000
8707		-126.953125
8708		-123.046875
8709		-125.000000
8710		-123.046875
8711		-126.953125
8712		-121.093750
8713		-123.046875
8714		-119.140625
8715		-121.093750
8716		-119.140625
8717		-121.093750
8718		-117.187500
8719		-119.140625
8720		-115.234375
8721		-117.187500
8722		-113.281250
8723		-117.187500
8724		-113.281250
8725		-113.281250
8726		-109.375000
8727		-113.281250
8728		-109.375000
8729		-111.328125
8730		-107.421875
8731		-109.375000
8732		-103.515625
8733		-107.421875
8734		-101.562500
8735		-105.468750
8736		-101.562500
8737		-103.515625
8738		-97.656250
8739		-101.562500
8740		-95.703125
8741		-97.656250
8742		-93.750000
8743		-95.703125
8744		-91.796875
8745		-95.703125
8746		-89.843750
8747		-91.796875
8748		-87.890625
8749		-89.843750
8750		-83.984375
8751		-85.937500
8752		-82.031250
8753		-83.984375
8754		-78.125000
8755		-82.031250
8756		-76.171875
8757		-78.125000
8758		-74.218750
8759		-76.171875
8760		-72.265625
8761		-74.218750
8762		-68.359375
8763		-70.312500
8764		-66.406250
8765		-68.359375
8766		-62.500000
8767		-64.453125
8768		-60.546875
8769		-62.500000
8770		-56.640625
8771		-58.593750
8772		-52.734375
8773		-56.640625
8774		-50.781250
8775		-52.734375
8776		-46.875000
8777		-48.828125
8778		-44.921875
8779		-46.875000
8780		-41.015625
8781		-42.968750
8782		-39.062500
8783		-41.015625
8784		-35.156250
8785		-39.062500
8786		-33.203125
8787		-35.156250
8788		-29.296875
8789		-31.250000
8790		-25.390625
8791		-27.343750
8792		-23.437500
8793		-25.390625
8794		-19.531250
8795		-21.484375
8796		-17.578125
8797		-19.531250
8798		-13.671875
8799		-15.625000
8800		-11.718750
8801		-13.671875
8802		-7.812500
8803		-9.765625
8804		-5.859375
8805		-5.859375
8806		-1.953125
8807		-3.906250
8808		0.000000
8809		0.000000
8810		3.906250
8811		1.953125
8812		7.812500
8813		5.859375
8814		9.765625
8815		7.812500
8816		11.718750
8817		9.765625
8818		15.625000
8819		13.671875
8820		17.578125
8821		17.578125
8822		21.484375
8823		19.531250
8824		23.437500
8825		23.437500
8826		27.343750
8827		25.390625
8828		31.250000
8829		27.343750
8830		33.203125
8831		29.296875
8832		35.156250
8833		33.203125
8834		37.109375
8835		37.109375
8836		39.062500
8837		37.109375
8838		42.968750
8839		41.015625
8840		44.921875
8841		42.968750
8842		46.875000
8843		44.921875
8844		50.781250
8845		46.875000
8846		52.734375
8847		50.781250
8848		54.687500
8849		52.734375
8850		56.640625
8851		54.687500
8852		58.593750
8853		56.640625
8854		62.500000
8855		60.546875
8856		64.453125
8857		60.546875
8858		66.406250
8859		64.453125
8860		68.359375
8861		66.406250
8862		70.312500
8863		68.359375
8864		72.265625
8865		68.359375
8866		74.218750
8867		72.265625
8868		74.218750
8869		72.265625
8870		76.171875
8871		74.218750
8872		78.125000
8873		76.171875
8874		80.078125
8875		78.125000
8876		82.031250
8877		80.078125
8878		82.031250
8879		80.078125
8880		83.984375
8881		82.031250
8882		85.937500
8883		83.984375
8884		87.890625
8885		85.937500
8886		89.843750
8887		85.937500
8888		89.843750
8889		85.937500
8890		89.843750
8891		87.890625
8892		91.796875
8893		89.843750
8894		91.796875
8895		89.843750
8896		93.750000
8897		91.796875
8898		95.703125
8899		91.796875
8900		95.703125
8901		91.796875
8902		95.703125
8903		93.750000
8904		95.703125
8905		93.750000
8906		97.656250
8907		95.703125
8908		97.656250
8909		95.703125
8910		97.656250
8911		95.703125
8912		99.609375
8913		95.703125
8914		99.609375
8915		95.703125
8916		99.609375
8917		95.703125
8918		99.609375
8919		97.656250
8920		99.609375
8921		95.703125
8922		101.562500
8923		95.703125
8924		99.609375
8925		97.656250
8926		99.609375
8927		97.656250
8928		99.609375
8929		95.703125
8930		101.562500
8931		95.703125
8932		99.609375
8933		95.703125
8934		99.609375
8935		95.703125
8936		99.609375
8937		95.703125
8938		99.609375
8939		95.703125
8940		97.656250
8941		93.750000
8942		97.656250
8943		93.750000
8944		97.656250
8945		91.796875
8946		95.703125
8947		91.796875
8948		95.703125
8949		91.796875
8950		95.703125
8951		89.843750
8952		93.750000
8953		89.843750
8954		93.750000
8955		87.890625
8956		91.796875
8957		87.890625
8958		91.796875
8959		85.937500
8960		89.843750
8961		85.937500
8962		87.890625
8963		83.984375
8964		87.890625
8965		82.031250
8966		85.937500
8967		80.078125
8968		83.984375
8969		80.078125
8970		83.984375
8971		78.125000
8972		82.031250
8973		76.171875
8974		80.078125
8975		74.218750
8976		80.078125
8977		72.265625
8978		76.171875
8979		68.359375
8980		76.171875
8981		68.359375
8982		74.218750
8983		68.359375
8984		70.312500
8985		64.453125
8986		70.312500
8987		62.500000
8988		66.406250
8989		60.546875
8990		66.406250
8991		58.593750
8992		64.453125
8993		56.640625
8994		60.546875
8995		52.734375
8996		58.593750
8997		52.734375
8998		56.640625
8999		50.781250
9000		54.687500
9001		48.828125
9002		52.734375
9003		44.921875
9004		48.828125
9005		42.968750
9006		48.828125
9007		37.109375
9008		44.921875
9009		37.109375
9010		41.015625
9011		35.156250
9012		39.062500
9013		31.250000
9014		37.109375
9015		29.296875
9016		33.203125
9017		25.390625
9018		31.250000
9019		23.437500
9020		29.296875
9021		21.484375
9022		25.390625
9023		17.578125
9024		23.437500
9025		15.625000
9026		19.531250
9027		11.718750
9028		17.578125
9029		7.812500
9030		13.671875
9031		5.859375
9032		11.718750
9033		3.906250
9034		7.812500
9035		0.000000
9036		5.859375
9037		-3.906250
9038		1.953125
9039		-5.859375
9040		-1.953125
9041		-7.812500
9042		-1.953125
9043		-11.718750
9044		-7.812500
9045		-13.671875
9046		-9.765625
9047		-17.578125
9048		-11.718750
9049		-21.484375
9050		-15.625000
9051		-23.437500
9052		-19.531250
9053		-27.343750
9054		-23.437500
9055		-29.296875
9056		-25.390625
9057		-33.203125
9058		-29.296875
9059		-37.109375
9060		-31.250000
9061		-39.062500
9062		-35.156250
9063		-42.968750
9064		-37.109375
9065		-44.921875
9066		-41.015625
9067		-48.828125
9068		-42.968750
9069		-52.734375
9070		-46.875000
9071		-54.687500
9072		-48.828125
9073		-58.593750
9074		-52.734375
9075		-60.546875
9076		-56.640625
9077		-62.500000
9078		-58.593750
9079		-66.406250
9080		-62.500000
9081		-68.359375
9082		-64.453125
9083		-72.265625
9084		-66.406250
9085		-74.218750
9086		-70.312500
9087		-78.125000
9088		-72.265625
9089		-82.031250
9090		-76.171875
9091		-83.984375
9092		-78.125000
9093		-85.937500
9094		-80.078125
9095		-87.890625
9096		-83.984375
9097		-89.843750
9098		-85.937500
9099		-93.750000
9100		-87.890625
9101		-95.703125
9102		-91.796875
9103		-97.656250
9104		-93.750000
9105		-99.609375
9106		-95.703125
9107		-103.515625
9108		-97.656250
9109		-103.515625
9110		-99.609375
9111		-105.468750
9112		-101.562500
9113		-109.375000
9114		-103.515625
9115		-109.375000
9116		-105.468750
9117		-111.328125
9118		-107.421875
9119		-113.281250
9120		-109.375000
9121		-115.234375
9122		-111.328125
9123		-117.187500
9124		-113.281250
9125		-119.140625
9126		-115.234375
9127		-119.140625
9128		-115.234375
9129		-121.093750
9130		-119.140625
9131		-123.046875
9132		-119.140625
9133		-123.046875
9134		-121.093750
9135		-125.000000
9136		-121.093750
9137		-126.953125
9138		-123.046875
9139		-128.906250
9140		-125.000000
9141		-128.906250
9142		-125.000000
9143		-128.906250
9144		-125.000000
9145		-128.906250
9146		-126.953125
9147		-130.859375
9148		-126.953125
9149		-130.859375
9150		-126.953125
9151		-132.812500
9152		-128.906250
9153		-132.812500
9154		-128.906250
9155		-132.812500
9156		-128.906250
9157		-132.812500
9158		-128.906250
9159		-132.812500
9160		-128.906250
9161		-132.812500
9162		-130.859375
9163		-132.812500
9164		-130.859375
9165		-132.812500
9166		-130.859375
9167		-132.812500
9168		-128.906250
9169		-132.812500
9170		-128.906250
9171		-132.812500
9172		-128.906250
9173		-130.859375
9174		-128.906250
9175		-130.859375
9176		-126.953125
9177		-130.859375
9178		-126.953125
9179		-128.906250
9180		-126.953125
9181		-130.859375
9182		-125.000000
9183		-128.906250
9184		-125.000000
9185		-126.953125
9186		-123.046875
9187		-126.953125
9188		-123.046875
9189		-125.000000
9190		-121.093750
9191		-123.046875
9192		-119.140625
9193		-123.046875
9194		-119.140625
9195		-121.093750
9196		-117.187500
9197		-119.140625
9198		-115.234375
9199		-119.140625
9200		-113.281250
9201		-115.234375
9202		-113.281250
9203		-115.234375
9204		-111.328125
9205		-113.281250
9206		-107.421875
9207		-111.328125
9208		-107.421875
9209		-109.375000
9210		-103.515625
9211		-107.421875
9212		-103.515625
9213		-105.468750
9214		-101.562500
9215		-103.515625
9216		-97.656250
9217		-99.609375
9218		-95.703125
9219		-99.609375
9220		-93.750000
9221		-95.703125
9222		-91.796875
9223		-93.750000
9224		-87.890625
9225		-91.796875
9226		-85.937500
9227		-89.843750
9228		-83.984375
9229		-85.937500
9230		-82.031250
9231		-82.031250
9232		-78.125000
9233		-80.078125
9234		-76.171875
9235		-78.125000
9236		-72.265625
9237		-76.171875
9238		-70.312500
9239		-72.265625
9240		-68.359375
9241		-70.312500
9242		-64.453125
9243		-68.359375
9244		-60.546875
9245		-64.453125
9246		-58.593750
9247		-60.546875
9248		-56.640625
9249		-58.593750
9250		-52.734375
9251		-54.687500
9252		-50.781250
9253		-50.781250
9254		-46.875000
9255		-48.828125
9256		-42.968750
9257		-46.875000
9258		-41.015625
9259		-42.968750
9260		-37.109375
9261		-41.015625
9262		-35.156250
9263		-37.109375
9264		-31.250000
9265		-33.203125
9266		-29.296875
9267		-31.250000
9268		-25.390625
9269		-27.343750
9270		-23.437500
9271		-25.390625
9272		-19.531250
9273		-21.484375
9274		-15.625000
9275		-17.578125
9276		-13.671875
9277		-17.578125
9278		-9.765625
9279		-11.718750
9280		-7.812500
9281		-9.765625
9282		-3.906250
9283		-7.812500
9284		-1.953125
9285		-1.953125
9286		1.953125
9287		0.000000
9288		3.906250
9289		1.953125
9290		7.812500
9291		5.859375
9292		11.718750
9293		7.812500
9294		15.625000
9295		11.718750
9296		15.625000
9297		15.625000
9298		19.531250
9299		15.625000
9300		23.437500
9301		19.531250
9302		23.437500
9303		23.437500
9304		27.343750
9305		25.390625
9306		29.296875
9307		27.343750
9308		33.203125
9309		31.250000
9310		35.156250
9311		31.250000
9312		39.062500
9313		37.109375
9314		41.015625
9315		39.062500
9316		42.968750
9317		41.015625
9318		44.921875
9319		42.968750
9320		48.828125
9321		46.875000
9322		50.781250
9323		48.828125
9324		52.734375
9325		50.781250
9326		56.640625
9327		50.781250
9328		58.593750
9329		54.687500
9330		58.593750
9331		58.593750
9332		60.546875
9333		58.593750
9334		64.453125
9335		60.546875
9336		66.406250
9337		64.453125
9338		68.359375
9339		66.406250
9340		70.312500
9341		68.359375
9342		72.265625
9343		68.359375
9344		74.218750
9345		70.312500
9346		74.218750
9347		72.265625
9348		76.171875
9349		74.218750
9350		78.125000
9351		76.171875
9352		80.078125
9353		78.125000
9354		82.031250
9355		78.125000
9356		83.984375
9357		80.078125
9358		83.984375
9359		82.031250
9360		85.937500
9361		82.031250
9362		87.890625
9363		85.937500
9364		87.890625
9365		85.937500
9366		89.843750
9367		85.937500
9368		89.843750
9369		87.890625
9370		91.796875
9371		87.890625
9372		91.796875
9373		89.843750
9374		93.750000
9375		89.843750
9376		93.750000
9377		89.843750
9378		95.703125
9379		93.750000
9380		95.703125
9381		93.750000
9382		95.703125
9383		91.796875
9384		97.656250
9385		93.750000
9386		97.656250
9387		95.703125
9388		97.656250
9389		95.703125
9390		97.656250
9391		95.703125
9392		99.609375
9393		95.703125
9394		99.609375
9395		93.750000
9396		101.562500
9397		97.656250
9398		99.609375
9399		95.703125
9400		101.562500
9401		95.703125
9402		99.609375
9403		95.703125
9404		99.609375
9405		95.703125
9406		99.609375
9407		95.703125
9408		99.609375
9409		95.703125
9410		99.609375
9411		93.750000
9412		101.562500
9413		95.703125
9414		97.656250
9415		93.750000
9416		99.609375
9417		93.750000
9418		99.609375
9419		93.750000
9420		97.656250
9421		93.750000
9422		95.703125
9423		91.796875
9424		95.703125
9425		91.796875
9426		93.750000
9427		87.890625
9428		95.703125
9429		89.843750
9430		93.750000
9431		87.890625
9432		91.796875
9433		87.890625
9434		91.796875
9435		85.937500
9436		89.843750
9437		85.937500
9438		89.843750
9439		83.984375
9440		87.890625
9441		83.984375
9442		85.937500
9443		82.031250
9444		85.937500
9445		78.125000
9446		85.937500
9447		78.125000
9448		82.031250
9449		76.171875
9450		82.031250
9451		74.218750
9452		80.078125
9453		74.218750
9454		78.125000
9455		72.265625
9456		76.171875
9457		70.312500
9458		74.218750
9459		68.359375
9460		72.265625
9461		64.453125
9462		72.265625
9463		64.453125
9464		68.359375
9465		62.500000
9466		66.406250
9467		58.593750
9468		64.453125
9469		56.640625
9470		62.500000
9471		56.640625
9472		60.546875
9473		52.734375
9474		58.593750
9475		50.781250
9476		54.687500
9477		48.828125
9478		54.687500
9479		46.875000
9480		52.734375
9481		42.968750
9482		48.828125
9483		41.015625
9484		44.921875
9485		39.062500
9486		42.968750
9487		35.156250
9488		41.015625
9489		33.203125
9490		37.109375
9491		31.250000
9492		35.156250
9493		27.343750
9494		33.203125
9495		23.437500
9496		31.250000
9497		23.437500
9498		27.343750
9499		19.531250
9500		23.437500
9501		17.578125
9502		21.484375
9503		13.671875
9504		19.531250
9505		11.718750
9506		15.625000
9507		7.812500
9508		11.718750
9509		5.859375
9510		9.765625
9511		0.000000
9512		9.765625
9513		-1.953125
9514		5.859375
9515		-3.906250
9516		0.000000
9517		-7.812500
9518		-1.953125
9519		-9.765625
9520		-5.859375
9521		-13.671875
9522		-7.812500
9523		-15.625000
9524		-9.765625
9525		-21.484375
9526		-13.671875
9527		-23.437500
9528		-17.578125
9529		-27.343750
9530		-19.531250
9531		-29.296875
9532		-23.437500
9533		-33.203125
9534		-27.343750
9535		-35.156250
9536		-29.296875
9537		-39.062500
9538		-33.203125
9539		-41.015625
9540		-35.156250
9541		-44.921875
9542		-39.062500
9543		-48.828125
9544		-41.015625
9545		-50.781250
9546		-44.921875
9547		-52.734375
9548		-48.828125
9549		-56.640625
9550		-50.781250
9551		-60.546875
9552		-52.734375
9553		-62.500000
9554		-58.593750
9555		-66.406250
9556		-58.593750
9557		-68.359375
9558		-62.500000
9559		-70.312500
9560		-64.453125
9561		-74.218750
9562		-66.406250
9563		-76.171875
9564		-70.312500
9565		-78.125000
9566		-74.218750
9567		-82.031250
9568		-76.171875
9569		-87.890625
9570		-78.125000
9571		-87.890625
9572		-82.031250
9573		-89.843750
9574		-82.031250
9575		-95.703125
9576		-87.890625
9577		-95.703125
9578		-87.890625
9579		-97.656250
9580		-91.796875
9581		-97.656250
9582		-93.750000
9583		-99.609375
9584		-97.656250
9585		-105.468750
9586		-97.656250
9587		-107.421875
9588		-99.609375
9589		-109.375000
9590		-101.562500
9591		-109.375000
9592		-105.468750
9593		-113.281250
9594		-105.468750
9595		-115.234375
9596		-107.421875
9597		-115.234375
9598		-109.375000
9599		-115.234375
9600		-113.281250
9601		-119.140625
9602		-113.281250
9603		-121.093750
9604		-113.281250
9605		-123.046875
9606		-115.234375
9607		-123.046875
9608		-115.234375
9609		-125.000000
9610		-117.187500
9611		-126.953125
9612		-119.140625
9613		-126.953125
9614		-119.140625
9615		-126.953125
9616		-123.046875
9617		-128.906250
9618		-123.046875
9619		-130.859375
9620		-123.046875
9621		-132.812500
9622		-123.046875
9623		-132.812500
9624		-125.000000
9625		-132.812500
9626		-125.000000
9627		-134.765625
9628		-125.000000
9629		-132.812500
9630		-126.953125
9631		-130.859375
9632		-128.906250
9633		-132.812500
9634		-128.906250
9635		-132.812500
9636		-128.906250
9637		-132.812500
9638		-128.906250
9639		-134.765625
9640		-128.906250
9641		-134.765625
9642		-128.906250
9643		-132.812500
9644		-126.953125
9645		-132.812500
9646		-126.953125
9647		-132.812500
9648		-126.953125
9649		-130.859375
9650		-128.906250
9651		-130.859375
9652		-125.000000
9653		-132.812500
9654		-125.000000
9655		-130.859375
9656		-123.046875
9657		-130.859375
9658		-123.046875
9659		-128.906250
9660		-123.046875
9661		-128.906250
9662		-121.093750
9663		-128.906250
9664		-119.140625
9665		-125.000000
9666		-121.093750
9667		-123.046875
9668		-119.140625
9669		-125.000000
9670		-117.187500
9671		-123.046875
9672		-115.234375
9673		-121.093750
9674		-113.281250
9675		-119.140625
9676		-113.281250
9677		-117.187500
9678		-109.375000
9679		-117.187500
9680		-107.421875
9681		-113.281250
9682		-109.375000
9683		-109.375000
9684		-107.421875
9685		-111.328125
9686		-103.515625
9687		-109.375000
9688		-101.562500
9689		-107.421875
9690		-97.656250
9691		-103.515625
9692		-97.656250
9693		-101.562500
9694		-93.750000
9695		-99.609375
9696		-91.796875
9697		-97.656250
9698		-89.843750
9699		-93.750000
9700		-89.843750
9701		-89.843750
9702		-85.937500
9703		-91.796875
9704		-82.031250
9705		-87.890625
9706		-80.078125
9707		-85.937500
9708		-76.171875
9709		-83.984375
9710		-74.218750
9711		-80.078125
9712		-72.265625
9713		-78.125000
9714		-68.359375
9715		-72.265625
9716		-68.359375
9717		-70.312500
9718		-64.453125
9719		-68.359375
9720		-60.546875
9721		-66.406250
9722		-56.640625
9723		-62.500000
9724		-54.687500
9725		-60.546875
9726		-52.734375
9727		-56.640625
9728		-48.828125
9729		-54.687500
9730		-44.921875
9731		-52.734375
9732		-44.921875
9733		-44.921875
9734		-41.015625
9735		-42.968750
9736		-35.156250
9737		-42.968750
9738		-33.203125
9739		-39.062500
9740		-31.250000
9741		-35.156250
9742		-27.343750
9743		-31.250000
9744		-23.437500
9745		-29.296875
9746		-21.484375
9747		-27.343750
9748		-19.531250
9749		-21.484375
9750		-17.578125
9751		-19.531250
9752		-13.671875
9753		-17.578125
9754		-9.765625
9755		-15.625000
9756		-5.859375
9757		-11.718750
9758		-1.953125
9759		-7.812500
9760		0.000000
9761		-5.859375
9762		3.906250
9763		-3.906250
9764		7.812500
9765		1.953125
9766		7.812500
9767		5.859375
9768		9.765625
9769		7.812500
9770		15.625000
9771		7.812500
9772		19.531250
9773		11.718750
9774		21.484375
9775		15.625000
9776		23.437500
9777		17.578125
9778		27.343750
9779		19.531250
9780		29.296875
9781		23.437500
9782		31.250000
9783		29.296875
9784		33.203125
9785		31.250000
9786		35.156250
9787		31.250000
9788		41.015625
9789		33.203125
9790		42.968750
9791		37.109375
9792		44.921875
9793		39.062500
9794		46.875000
9795		41.015625
9796		48.828125
9797		42.968750
9798		52.734375
9799		48.828125
9800		52.734375
9801		50.781250
9802		54.687500
9803		50.781250
9804		60.546875
9805		52.734375
9806		62.500000
9807		54.687500
9808		64.453125
9809		56.640625
9810		64.453125
9811		60.546875
9812		68.359375
9813		62.500000
9814		70.312500
9815		64.453125
9816		70.312500
9817		68.359375
9818		72.265625
9819		68.359375
9820		76.171875
9821		68.359375
9822		78.125000
9823		70.312500
9824		80.078125
9825		72.265625
9826		82.031250
9827		76.171875
9828		83.984375
9829		76.171875
9830		83.984375
9831		78.125000
9832		85.937500
9833		82.031250
9834		85.937500
9835		83.984375
9836		85.937500
9837		82.031250
9838		89.843750
9839		83.984375
9840		91.796875
9841		83.984375
9842		91.796875
9843		85.937500
9844		91.796875
9845		85.937500
9846		93.750000
9847		87.890625
9848		95.703125
9849		89.843750
9850		95.703125
9851		91.796875
9852		95.703125
9853		91.796875
9854		97.656250
9855		91.796875
9856		99.609375
9857		91.796875
9858		99.609375
9859		91.796875
9860		99.609375
9861		93.750000
9862		101.562500
9863		93.750000
9864		101.562500
9865		93.750000
9866		101.562500
9867		97.656250
9868		99.609375
9869		97.656250
9870		99.609375
9871		95.703125
9872		103.515625
9873		95.703125
9874		103.515625
9875		95.703125
9876		103.515625
9877		95.703125
9878		103.515625
9879		95.703125
9880		103.515625
9881		95.703125
9882		103.515625
9883		97.656250
9884		99.609375
9885		97.656250
9886		99.609375
9887		95.703125
9888		103.515625
9889		93.750000
9890		101.562500
9891		93.750000
9892		101.562500
9893		93.750000
9894		101.562500
9895		93.750000
9896		101.562500
9897		93.750000
9898		101.562500
9899		93.750000
9900		99.609375
9901		93.750000
9902		97.656250
9903		89.843750
9904		97.656250
9905		89.843750
9906		97.656250
9907		87.890625
9908		97.656250
9909		87.890625
9910		95.703125
9911		85.937500
9912		93.750000
9913		85.937500
9914		93.750000
9915		83.984375
9916		93.750000
9917		85.937500
9918		89.843750
9919		83.984375
9920		87.890625
9921		82.031250
9922		87.890625
9923		78.125000
9924		87.890625
9925		78.125000
9926		85.937500
9927		76.171875
9928		83.984375
9929		74.218750
9930		82.031250
9931		72.265625
9932		80.078125
9933		72.265625
9934		80.078125
9935		72.265625
9936		76.171875
9937		68.359375
9938		76.171875
9939		66.406250
9940		74.218750
9941		62.500000
9942		72.265625
9943		62.500000
9944		70.312500
9945		58.593750
9946		66.406250
9947		58.593750
9948		66.406250
9949		54.687500
9950		64.453125
9951		54.687500
9952		58.593750
9953		52.734375
9954		56.640625
9955		48.828125
9956		56.640625
9957		44.921875
9958		54.687500
9959		42.968750
9960		50.781250
9961		41.015625
9962		48.828125
9963		37.109375
9964		46.875000
9965		35.156250
9966		42.968750
9967		35.156250
9968		41.015625
9969		33.203125
9970		37.109375
9971		27.343750
9972		35.156250
9973		25.390625
9974		33.203125
9975		21.484375
9976		29.296875
9977		19.531250
9978		27.343750
9979		15.625000
9980		25.390625
9981		13.671875
9982		23.437500
9983		11.718750
9984		19.531250
9985		9.765625
9986		13.671875
9987		3.906250
9988		11.718750
9989		1.953125
9990		9.765625
9991		-1.953125
9992		7.812500
9993		-5.859375
9994		3.906250
9995		-7.812500
9996		0.000000
9997		-9.765625
9998		0.000000
9999		-13.671875
10000		-5.859375
