Channel              :		CH1
Frequency            :		1.061kHz
Period               :		0.942ms
PK-PK                :		294.9mV
Probe attenuation    :		1X
Voltage per ADC value:		0.122070mV
Time interval        :		2.00000us

index		CH1_Voltage(mV)
1		70.312500
2		70.312500
3		60.546875
4		68.359375
5		58.593750
6		66.406250
7		54.687500
8		62.500000
9		50.781250
10		60.546875
11		46.875000
12		56.640625
13		44.921875
14		54.687500
15		42.968750
16		50.781250
17		41.015625
18		44.921875
19		35.156250
20		42.968750
21		31.250000
22		41.015625
23		29.296875
24		37.109375
25		25.390625
26		33.203125
27		21.484375
28		29.296875
29		17.578125
30		27.343750
31		13.671875
32		21.484375
33		11.718750
34		17.578125
35		7.812500
36		13.671875
37		1.953125
38		9.765625
39		-1.953125
40		7.812500
41		-3.906250
42		3.906250
43		-9.765625
44		1.953125
45		-13.671875
46		-3.906250
47		-17.578125
48		-7.812500
49		-19.531250
50		-11.718750
51		-21.484375
52		-17.578125
53		-29.296875
54		-21.484375
55		-33.203125
56		-23.437500
57		-35.156250
58		-27.343750
59		-39.062500
60		-29.296875
61		-42.968750
62		-35.156250
63		-46.875000
64		-39.062500
65		-50.781250
66		-41.015625
67		-52.734375
68		-46.875000
69		-56.640625
70		-50.781250
71		-62.500000
72		-54.687500
73		-66.406250
74		-56.640625
75		-70.312500
76		-60.546875
77		-76.171875
78		-64.453125
79		-76.171875
80		-68.359375
81		-80.078125
82		-72.265625
83		-82.031250
84		-76.171875
85		-85.937500
86		-82.031250
87		-91.796875
88		-83.984375
89		-95.703125
90		-85.937500
91		-99.609375
92		-89.843750
93		-103.515625
94		-93.750000
95		-105.468750
96		-97.656250
97		-109.375000
98		-101.562500
99		-109.375000
100		-103.515625
101		-113.281250
102		-107.421875
103		-117.187500
104		-111.328125
105		-121.093750
106		-113.281250
107		-123.046875
108		-115.234375
109		-126.953125
110		-119.140625
111		-128.906250
112		-121.093750
113		-132.812500
114		-125.000000
115		-134.765625
116		-126.953125
117		-134.765625
118		-130.859375
119		-138.671875
120		-132.812500
121		-142.578125
122		-134.765625
123		-144.531250
124		-136.718750
125		-146.484375
126		-138.671875
127		-150.390625
128		-140.625000
129		-150.390625
130		-142.578125
131		-154.296875
132		-144.531250
133		-152.343750
134		-146.484375
135		-154.296875
136		-150.390625
137		-158.203125
138		-150.390625
139		-160.156250
140		-152.343750
141		-160.156250
142		-152.343750
143		-162.109375
144		-154.296875
145		-162.109375
146		-156.250000
147		-164.062500
148		-156.250000
149		-164.062500
150		-158.203125
151		-164.062500
152		-160.156250
153		-164.062500
154		-160.156250
155		-166.015625
156		-160.156250
157		-166.015625
158		-160.156250
159		-167.968750
160		-160.156250
161		-167.968750
162		-160.156250
163		-167.968750
164		-162.109375
165		-167.968750
166		-160.156250
167		-166.015625
168		-160.156250
169		-166.015625
170		-162.109375
171		-166.015625
172		-160.156250
173		-166.015625
174		-158.203125
175		-166.015625
176		-158.203125
177		-166.015625
178		-158.203125
179		-164.062500
180		-158.203125
181		-164.062500
182		-156.250000
183		-162.109375
184		-156.250000
185		-158.203125
186		-156.250000
187		-158.203125
188		-154.296875
189		-158.203125
190		-150.390625
191		-156.250000
192		-150.390625
193		-156.250000
194		-148.437500
195		-154.296875
196		-144.531250
197		-152.343750
198		-144.531250
199		-150.390625
200		-142.578125
201		-146.484375
202		-140.625000
203		-144.531250
204		-138.671875
205		-142.578125
206		-136.718750
207		-140.625000
208		-132.812500
209		-138.671875
210		-130.859375
211		-136.718750
212		-126.953125
213		-134.765625
214		-125.000000
215		-130.859375
216		-123.046875
217		-126.953125
218		-121.093750
219		-123.046875
220		-117.187500
221		-119.140625
222		-113.281250
223		-119.140625
224		-111.328125
225		-115.234375
226		-107.421875
227		-113.281250
228		-103.515625
229		-109.375000
230		-101.562500
231		-107.421875
232		-97.656250
233		-103.515625
234		-93.750000
235		-97.656250
236		-91.796875
237		-93.750000
238		-87.890625
239		-89.843750
240		-83.984375
241		-89.843750
242		-80.078125
243		-83.984375
244		-76.171875
245		-82.031250
246		-72.265625
247		-78.125000
248		-68.359375
249		-74.218750
250		-64.453125
251		-68.359375
252		-62.500000
253		-64.453125
254		-58.593750
255		-60.546875
256		-52.734375
257		-58.593750
258		-48.828125
259		-52.734375
260		-44.921875
261		-50.781250
262		-41.015625
263		-44.921875
264		-37.109375
265		-42.968750
266		-33.203125
267		-37.109375
268		-29.296875
269		-31.250000
270		-25.390625
271		-29.296875
272		-23.437500
273		-25.390625
274		-17.578125
275		-21.484375
276		-13.671875
277		-17.578125
278		-9.765625
279		-13.671875
280		-5.859375
281		-9.765625
282		-1.953125
283		-5.859375
284		0.000000
285		-3.906250
286		3.906250
287		1.953125
288		7.812500
289		5.859375
290		13.671875
291		7.812500
292		17.578125
293		11.718750
294		21.484375
295		15.625000
296		25.390625
297		19.531250
298		27.343750
299		23.437500
300		31.250000
301		27.343750
302		33.203125
303		31.250000
304		37.109375
305		35.156250
306		41.015625
307		35.156250
308		44.921875
309		41.015625
310		48.828125
311		42.968750
312		50.781250
313		44.921875
314		54.687500
315		50.781250
316		56.640625
317		52.734375
318		60.546875
319		56.640625
320		62.500000
321		60.546875
322		64.453125
323		62.500000
324		68.359375
325		64.453125
326		72.265625
327		68.359375
328		74.218750
329		68.359375
330		78.125000
331		72.265625
332		80.078125
333		74.218750
334		82.031250
335		78.125000
336		83.984375
337		82.031250
338		85.937500
339		82.031250
340		89.843750
341		83.984375
342		91.796875
343		85.937500
344		93.750000
345		89.843750
346		95.703125
347		89.843750
348		99.609375
349		93.750000
350		99.609375
351		93.750000
352		101.562500
353		97.656250
354		103.515625
355		99.609375
356		103.515625
357		99.609375
358		107.421875
359		101.562500
360		109.375000
361		103.515625
362		109.375000
363		103.515625
364		111.328125
365		105.468750
366		113.281250
367		107.421875
368		115.234375
369		109.375000
370		115.234375
371		111.328125
372		115.234375
373		111.328125
374		117.187500
375		111.328125
376		117.187500
377		111.328125
378		119.140625
379		113.281250
380		121.093750
381		113.281250
382		121.093750
383		115.234375
384		123.046875
385		115.234375
386		123.046875
387		117.187500
388		121.093750
389		117.187500
390		123.046875
391		117.187500
392		123.046875
393		117.187500
394		125.000000
395		117.187500
396		123.046875
397		117.187500
398		125.000000
399		117.187500
400		125.000000
401		117.187500
402		125.000000
403		119.140625
404		123.046875
405		119.140625
406		121.093750
407		117.187500
408		123.046875
409		115.234375
410		123.046875
411		115.234375
412		123.046875
413		115.234375
414		121.093750
415		115.234375
416		121.093750
417		113.281250
418		121.093750
419		113.281250
420		119.140625
421		113.281250
422		117.187500
423		111.328125
424		117.187500
425		109.375000
426		117.187500
427		109.375000
428		117.187500
429		107.421875
430		115.234375
431		107.421875
432		113.281250
433		105.468750
434		113.281250
435		103.515625
436		111.328125
437		105.468750
438		107.421875
439		103.515625
440		107.421875
441		99.609375
442		105.468750
443		97.656250
444		103.515625
445		95.703125
446		103.515625
447		93.750000
448		101.562500
449		91.796875
450		99.609375
451		89.843750
452		95.703125
453		89.843750
454		93.750000
455		85.937500
456		91.796875
457		82.031250
458		89.843750
459		82.031250
460		87.890625
461		78.125000
462		85.937500
463		76.171875
464		83.984375
465		72.265625
466		80.078125
467		70.312500
468		78.125000
469		68.359375
470		74.218750
471		66.406250
472		72.265625
473		62.500000
474		68.359375
475		58.593750
476		68.359375
477		54.687500
478		64.453125
479		52.734375
480		60.546875
481		50.781250
482		58.593750
483		46.875000
484		54.687500
485		44.921875
486		50.781250
487		41.015625
488		46.875000
489		39.062500
490		42.968750
491		33.203125
492		41.015625
493		29.296875
494		37.109375
495		25.390625
496		35.156250
497		23.437500
498		31.250000
499		19.531250
500		27.343750
501		15.625000
502		23.437500
503		13.671875
504		21.484375
505		9.765625
506		15.625000
507		3.906250
508		11.718750
509		0.000000
510		9.765625
511		-3.906250
512		5.859375
513		-5.859375
514		1.953125
515		-11.718750
516		-1.953125
517		-15.625000
518		-5.859375
519		-17.578125
520		-9.765625
521		-21.484375
522		-15.625000
523		-25.390625
524		-19.531250
525		-29.296875
526		-21.484375
527		-33.203125
528		-25.390625
529		-39.062500
530		-29.296875
531		-41.015625
532		-33.203125
533		-46.875000
534		-35.156250
535		-48.828125
536		-41.015625
537		-52.734375
538		-42.968750
539		-54.687500
540		-48.828125
541		-62.500000
542		-52.734375
543		-64.453125
544		-56.640625
545		-70.312500
546		-58.593750
547		-72.265625
548		-64.453125
549		-76.171875
550		-66.406250
551		-78.125000
552		-70.312500
553		-82.031250
554		-74.218750
555		-83.984375
556		-80.078125
557		-89.843750
558		-83.984375
559		-93.750000
560		-83.984375
561		-97.656250
562		-89.843750
563		-101.562500
564		-91.796875
565		-103.515625
566		-95.703125
567		-107.421875
568		-99.609375
569		-111.328125
570		-101.562500
571		-111.328125
572		-105.468750
573		-115.234375
574		-109.375000
575		-121.093750
576		-111.328125
577		-123.046875
578		-115.234375
579		-126.953125
580		-117.187500
581		-128.906250
582		-121.093750
583		-130.859375
584		-123.046875
585		-132.812500
586		-126.953125
587		-134.765625
588		-126.953125
589		-136.718750
590		-132.812500
591		-140.625000
592		-134.765625
593		-144.531250
594		-136.718750
595		-146.484375
596		-136.718750
597		-148.437500
598		-140.625000
599		-150.390625
600		-142.578125
601		-152.343750
602		-144.531250
603		-152.343750
604		-146.484375
605		-154.296875
606		-148.437500
607		-154.296875
608		-150.390625
609		-158.203125
610		-150.390625
611		-160.156250
612		-152.343750
613		-162.109375
614		-154.296875
615		-162.109375
616		-156.250000
617		-164.062500
618		-156.250000
619		-164.062500
620		-158.203125
621		-164.062500
622		-158.203125
623		-164.062500
624		-160.156250
625		-167.968750
626		-160.156250
627		-167.968750
628		-160.156250
629		-167.968750
630		-160.156250
631		-167.968750
632		-162.109375
633		-167.968750
634		-160.156250
635		-167.968750
636		-162.109375
637		-167.968750
638		-160.156250
639		-166.015625
640		-162.109375
641		-166.015625
642		-162.109375
643		-167.968750
644		-160.156250
645		-167.968750
646		-158.203125
647		-166.015625
648		-158.203125
649		-166.015625
650		-158.203125
651		-164.062500
652		-158.203125
653		-162.109375
654		-156.250000
655		-162.109375
656		-156.250000
657		-160.156250
658		-154.296875
659		-160.156250
660		-152.343750
661		-158.203125
662		-150.390625
663		-156.250000
664		-150.390625
665		-156.250000
666		-146.484375
667		-152.343750
668		-146.484375
669		-152.343750
670		-142.578125
671		-148.437500
672		-142.578125
673		-144.531250
674		-140.625000
675		-142.578125
676		-138.671875
677		-142.578125
678		-134.765625
679		-140.625000
680		-132.812500
681		-138.671875
682		-130.859375
683		-134.765625
684		-126.953125
685		-132.812500
686		-125.000000
687		-128.906250
688		-121.093750
689		-125.000000
690		-121.093750
691		-123.046875
692		-117.187500
693		-119.140625
694		-111.328125
695		-117.187500
696		-109.375000
697		-115.234375
698		-107.421875
699		-111.328125
700		-103.515625
701		-109.375000
702		-99.609375
703		-105.468750
704		-95.703125
705		-101.562500
706		-93.750000
707		-95.703125
708		-89.843750
709		-91.796875
710		-85.937500
711		-91.796875
712		-82.031250
713		-85.937500
714		-78.125000
715		-83.984375
716		-74.218750
717		-80.078125
718		-70.312500
719		-76.171875
720		-66.406250
721		-70.312500
722		-64.453125
723		-66.406250
724		-60.546875
725		-62.500000
726		-56.640625
727		-60.546875
728		-50.781250
729		-54.687500
730		-46.875000
731		-52.734375
732		-42.968750
733		-46.875000
734		-39.062500
735		-44.921875
736		-37.109375
737		-41.015625
738		-31.250000
739		-37.109375
740		-29.296875
741		-31.250000
742		-25.390625
743		-27.343750
744		-19.531250
745		-25.390625
746		-15.625000
747		-21.484375
748		-11.718750
749		-17.578125
750		-7.812500
751		-11.718750
752		-3.906250
753		-9.765625
754		0.000000
755		-5.859375
756		1.953125
757		0.000000
758		5.859375
759		3.906250
760		11.718750
761		5.859375
762		13.671875
763		7.812500
764		17.578125
765		13.671875
766		21.484375
767		17.578125
768		25.390625
769		19.531250
770		29.296875
771		23.437500
772		31.250000
773		29.296875
774		35.156250
775		33.203125
776		37.109375
777		35.156250
778		42.968750
779		39.062500
780		46.875000
781		41.015625
782		48.828125
783		42.968750
784		52.734375
785		46.875000
786		56.640625
787		50.781250
788		58.593750
789		54.687500
790		60.546875
791		58.593750
792		64.453125
793		60.546875
794		68.359375
795		62.500000
796		70.312500
797		64.453125
798		72.265625
799		68.359375
800		76.171875
801		70.312500
802		78.125000
803		72.265625
804		82.031250
805		76.171875
806		82.031250
807		80.078125
808		83.984375
809		82.031250
810		87.890625
811		83.984375
812		89.843750
813		85.937500
814		91.796875
815		85.937500
816		95.703125
817		89.843750
818		95.703125
819		91.796875
820		99.609375
821		91.796875
822		101.562500
823		97.656250
824		101.562500
825		97.656250
826		103.515625
827		99.609375
828		105.468750
829		99.609375
830		107.421875
831		101.562500
832		109.375000
833		103.515625
834		111.328125
835		105.468750
836		111.328125
837		105.468750
838		113.281250
839		107.421875
840		113.281250
841		109.375000
842		113.281250
843		109.375000
844		117.187500
845		109.375000
846		117.187500
847		111.328125
848		119.140625
849		111.328125
850		119.140625
851		113.281250
852		119.140625
853		113.281250
854		121.093750
855		113.281250
856		121.093750
857		117.187500
858		119.140625
859		117.187500
860		121.093750
861		115.234375
862		123.046875
863		115.234375
864		123.046875
865		117.187500
866		123.046875
867		115.234375
868		123.046875
869		117.187500
870		123.046875
871		117.187500
872		123.046875
873		117.187500
874		123.046875
875		117.187500
876		123.046875
877		115.234375
878		123.046875
879		115.234375
880		123.046875
881		115.234375
882		123.046875
883		115.234375
884		121.093750
885		113.281250
886		121.093750
887		113.281250
888		121.093750
889		113.281250
890		119.140625
891		113.281250
892		117.187500
893		113.281250
894		117.187500
895		109.375000
896		117.187500
897		109.375000
898		115.234375
899		109.375000
900		115.234375
901		105.468750
902		113.281250
903		105.468750
904		113.281250
905		103.515625
906		111.328125
907		105.468750
908		109.375000
909		103.515625
910		107.421875
911		99.609375
912		105.468750
913		97.656250
914		105.468750
915		97.656250
916		103.515625
917		93.750000
918		101.562500
919		91.796875
920		99.609375
921		89.843750
922		97.656250
923		87.890625
924		95.703125
925		87.890625
926		91.796875
927		83.984375
928		89.843750
929		82.031250
930		89.843750
931		78.125000
932		87.890625
933		78.125000
934		83.984375
935		74.218750
936		82.031250
937		72.265625
938		80.078125
939		68.359375
940		76.171875
941		68.359375
942		72.265625
943		64.453125
944		70.312500
945		60.546875
946		66.406250
947		56.640625
948		66.406250
949		54.687500
950		62.500000
951		50.781250
952		60.546875
953		48.828125
954		56.640625
955		44.921875
956		52.734375
957		42.968750
958		48.828125
959		39.062500
960		44.921875
961		35.156250
962		41.015625
963		31.250000
964		39.062500
965		27.343750
966		37.109375
967		23.437500
968		33.203125
969		21.484375
970		29.296875
971		17.578125
972		23.437500
973		15.625000
974		21.484375
975		11.718750
976		17.578125
977		7.812500
978		13.671875
979		1.953125
980		9.765625
981		-1.953125
982		7.812500
983		-5.859375
984		3.906250
985		-9.765625
986		0.000000
987		-13.671875
988		-3.906250
989		-15.625000
990		-7.812500
991		-19.531250
992		-11.718750
993		-23.437500
994		-17.578125
995		-27.343750
996		-21.484375
997		-31.250000
998		-23.437500
999		-35.156250
1000		-27.343750
1001		-41.015625
1002		-31.250000
1003		-44.921875
1004		-35.156250
1005		-46.875000
1006		-39.062500
1007		-50.781250
1008		-42.968750
1009		-54.687500
1010		-46.875000
1011		-58.593750
1012		-50.781250
1013		-64.453125
1014		-54.687500
1015		-68.359375
1016		-56.640625
1017		-70.312500
1018		-62.500000
1019		-76.171875
1020		-66.406250
1021		-80.078125
1022		-70.312500
1023		-82.031250
1024		-72.265625
1025		-83.984375
1026		-78.125000
1027		-87.890625
1028		-82.031250
1029		-93.750000
1030		-85.937500
1031		-95.703125
1032		-85.937500
1033		-99.609375
1034		-91.796875
1035		-101.562500
1036		-93.750000
1037		-107.421875
1038		-97.656250
1039		-109.375000
1040		-101.562500
1041		-111.328125
1042		-103.515625
1043		-113.281250
1044		-109.375000
1045		-119.140625
1046		-111.328125
1047		-121.093750
1048		-113.281250
1049		-125.000000
1050		-115.234375
1051		-126.953125
1052		-119.140625
1053		-130.859375
1054		-123.046875
1055		-132.812500
1056		-125.000000
1057		-134.765625
1058		-126.953125
1059		-136.718750
1060		-130.859375
1061		-138.671875
1062		-134.765625
1063		-142.578125
1064		-134.765625
1065		-144.531250
1066		-136.718750
1067		-146.484375
1068		-138.671875
1069		-148.437500
1070		-142.578125
1071		-150.390625
1072		-144.531250
1073		-152.343750
1074		-144.531250
1075		-152.343750
1076		-148.437500
1077		-154.296875
1078		-150.390625
1079		-158.203125
1080		-152.343750
1081		-160.156250
1082		-152.343750
1083		-160.156250
1084		-154.296875
1085		-162.109375
1086		-156.250000
1087		-164.062500
1088		-156.250000
1089		-164.062500
1090		-158.203125
1091		-164.062500
1092		-158.203125
1093		-164.062500
1094		-160.156250
1095		-166.015625
1096		-160.156250
1097		-167.968750
1098		-160.156250
1099		-167.968750
1100		-160.156250
1101		-167.968750
1102		-160.156250
1103		-167.968750
1104		-162.109375
1105		-167.968750
1106		-162.109375
1107		-167.968750
1108		-160.156250
1109		-166.015625
1110		-164.062500
1111		-166.015625
1112		-164.062500
1113		-167.968750
1114		-160.156250
1115		-167.968750
1116		-160.156250
1117		-167.968750
1118		-158.203125
1119		-166.015625
1120		-158.203125
1121		-166.015625
1122		-158.203125
1123		-166.015625
1124		-156.250000
1125		-164.062500
1126		-156.250000
1127		-160.156250
1128		-156.250000
1129		-160.156250
1130		-152.343750
1131		-160.156250
1132		-152.343750
1133		-158.203125
1134		-150.390625
1135		-156.250000
1136		-148.437500
1137		-154.296875
1138		-146.484375
1139		-152.343750
1140		-144.531250
1141		-152.343750
1142		-144.531250
1143		-146.484375
1144		-142.578125
1145		-144.531250
1146		-140.625000
1147		-144.531250
1148		-136.718750
1149		-142.578125
1150		-134.765625
1151		-140.625000
1152		-130.859375
1153		-136.718750
1154		-128.906250
1155		-134.765625
1156		-126.953125
1157		-130.859375
1158		-123.046875
1159		-128.906250
1160		-123.046875
1161		-125.000000
1162		-119.140625
1163		-121.093750
1164		-115.234375
1165		-119.140625
1166		-111.328125
1167		-117.187500
1168		-107.421875
1169		-113.281250
1170		-105.468750
1171		-111.328125
1172		-101.562500
1173		-107.421875
1174		-97.656250
1175		-103.515625
1176		-95.703125
1177		-99.609375
1178		-93.750000
1179		-95.703125
1180		-87.890625
1181		-93.750000
1182		-83.984375
1183		-89.843750
1184		-82.031250
1185		-85.937500
1186		-76.171875
1187		-82.031250
1188		-74.218750
1189		-78.125000
1190		-70.312500
1191		-74.218750
1192		-66.406250
1193		-68.359375
1194		-62.500000
1195		-64.453125
1196		-58.593750
1197		-60.546875
1198		-52.734375
1199		-58.593750
1200		-50.781250
1201		-56.640625
1202		-44.921875
1203		-50.781250
1204		-42.968750
1205		-46.875000
1206		-37.109375
1207		-42.968750
1208		-33.203125
1209		-39.062500
1210		-31.250000
1211		-33.203125
1212		-27.343750
1213		-29.296875
1214		-21.484375
1215		-27.343750
1216		-17.578125
1217		-21.484375
1218		-15.625000
1219		-19.531250
1220		-11.718750
1221		-15.625000
1222		-7.812500
1223		-13.671875
1224		-3.906250
1225		-7.812500
1226		0.000000
1227		-1.953125
1228		3.906250
1229		1.953125
1230		7.812500
1231		3.906250
1232		13.671875
1233		7.812500
1234		15.625000
1235		11.718750
1236		19.531250
1237		13.671875
1238		23.437500
1239		17.578125
1240		27.343750
1241		21.484375
1242		29.296875
1243		25.390625
1244		33.203125
1245		29.296875
1246		35.156250
1247		33.203125
1248		41.015625
1249		35.156250
1250		42.968750
1251		39.062500
1252		46.875000
1253		41.015625
1254		50.781250
1255		44.921875
1256		54.687500
1257		48.828125
1258		56.640625
1259		50.781250
1260		58.593750
1261		56.640625
1262		60.546875
1263		58.593750
1264		64.453125
1265		60.546875
1266		68.359375
1267		62.500000
1268		70.312500
1269		66.406250
1270		74.218750
1271		68.359375
1272		76.171875
1273		72.265625
1274		78.125000
1275		74.218750
1276		82.031250
1277		78.125000
1278		83.984375
1279		80.078125
1280		85.937500
1281		82.031250
1282		87.890625
1283		83.984375
1284		89.843750
1285		85.937500
1286		93.750000
1287		87.890625
1288		95.703125
1289		91.796875
1290		97.656250
1291		91.796875
1292		99.609375
1293		93.750000
1294		99.609375
1295		97.656250
1296		101.562500
1297		99.609375
1298		103.515625
1299		99.609375
1300		107.421875
1301		101.562500
1302		107.421875
1303		101.562500
1304		109.375000
1305		103.515625
1306		111.328125
1307		105.468750
1308		111.328125
1309		107.421875
1310		113.281250
1311		109.375000
1312		113.281250
1313		109.375000
1314		115.234375
1315		111.328125
1316		117.187500
1317		111.328125
1318		117.187500
1319		111.328125
1320		119.140625
1321		111.328125
1322		121.093750
1323		113.281250
1324		121.093750
1325		113.281250
1326		121.093750
1327		115.234375
1328		121.093750
1329		117.187500
1330		121.093750
1331		117.187500
1332		123.046875
1333		115.234375
1334		123.046875
1335		117.187500
1336		123.046875
1337		117.187500
1338		123.046875
1339		117.187500
1340		123.046875
1341		117.187500
1342		123.046875
1343		117.187500
1344		123.046875
1345		119.140625
1346		121.093750
1347		117.187500
1348		121.093750
1349		117.187500
1350		123.046875
1351		115.234375
1352		123.046875
1353		115.234375
1354		123.046875
1355		115.234375
1356		121.093750
1357		113.281250
1358		121.093750
1359		113.281250
1360		119.140625
1361		115.234375
1362		117.187500
1363		113.281250
1364		117.187500
1365		111.328125
1366		117.187500
1367		109.375000
1368		117.187500
1369		109.375000
1370		115.234375
1371		107.421875
1372		115.234375
1373		107.421875
1374		113.281250
1375		105.468750
1376		111.328125
1377		103.515625
1378		111.328125
1379		103.515625
1380		107.421875
1381		101.562500
1382		105.468750
1383		99.609375
1384		105.468750
1385		97.656250
1386		103.515625
1387		95.703125
1388		103.515625
1389		93.750000
1390		101.562500
1391		91.796875
1392		99.609375
1393		89.843750
1394		95.703125
1395		89.843750
1396		93.750000
1397		87.890625
1398		91.796875
1399		82.031250
1400		89.843750
1401		80.078125
1402		87.890625
1403		78.125000
1404		85.937500
1405		74.218750
1406		83.984375
1407		72.265625
1408		80.078125
1409		70.312500
1410		78.125000
1411		68.359375
1412		74.218750
1413		66.406250
1414		72.265625
1415		62.500000
1416		68.359375
1417		58.593750
1418		66.406250
1419		56.640625
1420		62.500000
1421		52.734375
1422		60.546875
1423		48.828125
1424		58.593750
1425		46.875000
1426		54.687500
1427		44.921875
1428		52.734375
1429		41.015625
1430		46.875000
1431		37.109375
1432		42.968750
1433		33.203125
1434		41.015625
1435		29.296875
1436		39.062500
1437		27.343750
1438		35.156250
1439		23.437500
1440		33.203125
1441		19.531250
1442		27.343750
1443		13.671875
1444		23.437500
1445		13.671875
1446		19.531250
1447		9.765625
1448		15.625000
1449		5.859375
1450		11.718750
1451		0.000000
1452		9.765625
1453		-3.906250
1454		5.859375
1455		-7.812500
1456		1.953125
1457		-9.765625
1458		-1.953125
1459		-15.625000
1460		-5.859375
1461		-17.578125
1462		-9.765625
1463		-21.484375
1464		-15.625000
1465		-25.390625
1466		-19.531250
1467		-31.250000
1468		-21.484375
1469		-33.203125
1470		-25.390625
1471		-39.062500
1472		-27.343750
1473		-41.015625
1474		-33.203125
1475		-44.921875
1476		-37.109375
1477		-48.828125
1478		-41.015625
1479		-52.734375
1480		-46.875000
1481		-54.687500
1482		-48.828125
1483		-60.546875
1484		-52.734375
1485		-64.453125
1486		-56.640625
1487		-68.359375
1488		-60.546875
1489		-74.218750
1490		-62.500000
1491		-76.171875
1492		-68.359375
1493		-80.078125
1494		-72.265625
1495		-82.031250
1496		-74.218750
1497		-83.984375
1498		-80.078125
1499		-89.843750
1500		-82.031250
1501		-93.750000
1502		-83.984375
1503		-97.656250
1504		-89.843750
1505		-101.562500
1506		-91.796875
1507		-103.515625
1508		-95.703125
1509		-107.421875
1510		-99.609375
1511		-109.375000
1512		-101.562500
1513		-111.328125
1514		-105.468750
1515		-115.234375
1516		-109.375000
1517		-119.140625
1518		-111.328125
1519		-123.046875
1520		-113.281250
1521		-125.000000
1522		-117.187500
1523		-128.906250
1524		-119.140625
1525		-130.859375
1526		-123.046875
1527		-134.765625
1528		-125.000000
1529		-134.765625
1530		-128.906250
1531		-136.718750
1532		-132.812500
1533		-140.625000
1534		-134.765625
1535		-144.531250
1536		-134.765625
1537		-144.531250
1538		-138.671875
1539		-146.484375
1540		-140.625000
1541		-150.390625
1542		-142.578125
1543		-150.390625
1544		-142.578125
1545		-152.343750
1546		-146.484375
1547		-154.296875
1548		-148.437500
1549		-156.250000
1550		-150.390625
1551		-158.203125
1552		-150.390625
1553		-158.203125
1554		-152.343750
1555		-162.109375
1556		-154.296875
1557		-162.109375
1558		-156.250000
1559		-164.062500
1560		-156.250000
1561		-164.062500
1562		-156.250000
1563		-164.062500
1564		-160.156250
1565		-164.062500
1566		-160.156250
1567		-166.015625
1568		-160.156250
1569		-167.968750
1570		-160.156250
1571		-167.968750
1572		-160.156250
1573		-167.968750
1574		-160.156250
1575		-167.968750
1576		-160.156250
1577		-167.968750
1578		-160.156250
1579		-167.968750
1580		-162.109375
1581		-166.015625
1582		-162.109375
1583		-167.968750
1584		-160.156250
1585		-167.968750
1586		-160.156250
1587		-166.015625
1588		-160.156250
1589		-166.015625
1590		-158.203125
1591		-164.062500
1592		-158.203125
1593		-164.062500
1594		-158.203125
1595		-162.109375
1596		-156.250000
1597		-160.156250
1598		-156.250000
1599		-158.203125
1600		-156.250000
1601		-160.156250
1602		-152.343750
1603		-158.203125
1604		-152.343750
1605		-156.250000
1606		-150.390625
1607		-154.296875
1608		-148.437500
1609		-152.343750
1610		-146.484375
1611		-150.390625
1612		-144.531250
1613		-150.390625
1614		-142.578125
1615		-144.531250
1616		-140.625000
1617		-144.531250
1618		-136.718750
1619		-142.578125
1620		-134.765625
1621		-140.625000
1622		-132.812500
1623		-138.671875
1624		-130.859375
1625		-136.718750
1626		-126.953125
1627		-130.859375
1628		-125.000000
1629		-130.859375
1630		-123.046875
1631		-125.000000
1632		-121.093750
1633		-123.046875
1634		-115.234375
1635		-119.140625
1636		-113.281250
1637		-117.187500
1638		-109.375000
1639		-113.281250
1640		-105.468750
1641		-111.328125
1642		-103.515625
1643		-109.375000
1644		-99.609375
1645		-105.468750
1646		-97.656250
1647		-99.609375
1648		-93.750000
1649		-95.703125
1650		-89.843750
1651		-93.750000
1652		-85.937500
1653		-89.843750
1654		-82.031250
1655		-87.890625
1656		-78.125000
1657		-82.031250
1658		-76.171875
1659		-80.078125
1660		-70.312500
1661		-76.171875
1662		-66.406250
1663		-72.265625
1664		-64.453125
1665		-66.406250
1666		-60.546875
1667		-62.500000
1668		-54.687500
1669		-60.546875
1670		-52.734375
1671		-56.640625
1672		-46.875000
1673		-52.734375
1674		-42.968750
1675		-50.781250
1676		-41.015625
1677		-44.921875
1678		-35.156250
1679		-41.015625
1680		-33.203125
1681		-35.156250
1682		-29.296875
1683		-31.250000
1684		-25.390625
1685		-29.296875
1686		-21.484375
1687		-25.390625
1688		-17.578125
1689		-21.484375
1690		-11.718750
1691		-17.578125
1692		-7.812500
1693		-11.718750
1694		-3.906250
1695		-9.765625
1696		-1.953125
1697		-5.859375
1698		1.953125
1699		0.000000
1700		5.859375
1701		3.906250
1702		9.765625
1703		5.859375
1704		13.671875
1705		9.765625
1706		17.578125
1707		11.718750
1708		21.484375
1709		15.625000
1710		25.390625
1711		21.484375
1712		29.296875
1713		23.437500
1714		31.250000
1715		29.296875
1716		35.156250
1717		33.203125
1718		39.062500
1719		35.156250
1720		42.968750
1721		37.109375
1722		44.921875
1723		41.015625
1724		48.828125
1725		42.968750
1726		50.781250
1727		46.875000
1728		56.640625
1729		50.781250
1730		58.593750
1731		54.687500
1732		60.546875
1733		58.593750
1734		62.500000
1735		60.546875
1736		68.359375
1737		60.546875
1738		70.312500
1739		64.453125
1740		72.265625
1741		66.406250
1742		76.171875
1743		70.312500
1744		78.125000
1745		72.265625
1746		80.078125
1747		76.171875
1748		82.031250
1749		80.078125
1750		83.984375
1751		82.031250
1752		87.890625
1753		82.031250
1754		89.843750
1755		85.937500
1756		91.796875
1757		87.890625
1758		93.750000
1759		89.843750
1760		95.703125
1761		89.843750
1762		97.656250
1763		93.750000
1764		99.609375
1765		97.656250
1766		101.562500
1767		97.656250
1768		103.515625
1769		99.609375
1770		105.468750
1771		99.609375
1772		107.421875
1773		101.562500
1774		109.375000
1775		103.515625
1776		111.328125
1777		105.468750
1778		111.328125
1779		105.468750
1780		113.281250
1781		107.421875
1782		113.281250
1783		109.375000
1784		113.281250
1785		109.375000
1786		117.187500
1787		111.328125
1788		117.187500
1789		111.328125
1790		119.140625
1791		113.281250
1792		119.140625
1793		113.281250
1794		121.093750
1795		115.234375
1796		121.093750
1797		115.234375
1798		121.093750
1799		117.187500
1800		121.093750
1801		117.187500
1802		123.046875
1803		117.187500
1804		123.046875
1805		117.187500
1806		123.046875
1807		115.234375
1808		123.046875
1809		117.187500
1810		123.046875
1811		117.187500
1812		123.046875
1813		117.187500
1814		123.046875
1815		119.140625
1816		123.046875
1817		117.187500
1818		123.046875
1819		117.187500
1820		123.046875
1821		117.187500
1822		123.046875
1823		115.234375
1824		123.046875
1825		115.234375
1826		121.093750
1827		115.234375
1828		123.046875
1829		113.281250
1830		121.093750
1831		115.234375
1832		119.140625
1833		115.234375
1834		117.187500
1835		111.328125
1836		117.187500
1837		109.375000
1838		117.187500
1839		109.375000
1840		117.187500
1841		109.375000
1842		115.234375
1843		107.421875
1844		113.281250
1845		105.468750
1846		113.281250
1847		105.468750
1848		111.328125
1849		105.468750
1850		109.375000
1851		103.515625
1852		107.421875
1853		99.609375
1854		107.421875
1855		99.609375
1856		105.468750
1857		97.656250
1858		105.468750
1859		93.750000
1860		103.515625
1861		93.750000
1862		99.609375
1863		89.843750
1864		97.656250
1865		91.796875
1866		97.656250
1867		89.843750
1868		93.750000
1869		83.984375
1870		91.796875
1871		82.031250
1872		89.843750
1873		80.078125
1874		87.890625
1875		78.125000
1876		85.937500
1877		76.171875
1878		82.031250
1879		72.265625
1880		80.078125
1881		70.312500
1882		76.171875
1883		68.359375
1884		74.218750
1885		64.453125
1886		70.312500
1887		60.546875
1888		68.359375
1889		58.593750
1890		66.406250
1891		54.687500
1892		64.453125
1893		52.734375
1894		60.546875
1895		48.828125
1896		56.640625
1897		46.875000
1898		54.687500
1899		44.921875
1900		48.828125
1901		41.015625
1902		46.875000
1903		35.156250
1904		42.968750
1905		33.203125
1906		41.015625
1907		29.296875
1908		37.109375
1909		25.390625
1910		35.156250
1911		21.484375
1912		31.250000
1913		17.578125
1914		27.343750
1915		15.625000
1916		23.437500
1917		11.718750
1918		19.531250
1919		5.859375
1920		13.671875
1921		1.953125
1922		11.718750
1923		0.000000
1924		7.812500
1925		-3.906250
1926		3.906250
1927		-7.812500
1928		0.000000
1929		-11.718750
1930		-1.953125
1931		-13.671875
1932		-7.812500
1933		-17.578125
1934		-11.718750
1935		-21.484375
1936		-15.625000
1937		-27.343750
1938		-19.531250
1939		-31.250000
1940		-23.437500
1941		-35.156250
1942		-25.390625
1943		-39.062500
1944		-29.296875
1945		-42.968750
1946		-33.203125
1947		-46.875000
1948		-37.109375
1949		-48.828125
1950		-41.015625
1951		-52.734375
1952		-46.875000
1953		-58.593750
1954		-50.781250
1955		-60.546875
1956		-54.687500
1957		-64.453125
1958		-56.640625
1959		-68.359375
1960		-60.546875
1961		-72.265625
1962		-64.453125
1963		-76.171875
1964		-68.359375
1965		-78.125000
1966		-72.265625
1967		-82.031250
1968		-76.171875
1969		-85.937500
1970		-80.078125
1971		-91.796875
1972		-82.031250
1973		-93.750000
1974		-85.937500
1975		-99.609375
1976		-87.890625
1977		-101.562500
1978		-91.796875
1979		-105.468750
1980		-95.703125
1981		-107.421875
1982		-99.609375
1983		-109.375000
1984		-103.515625
1985		-113.281250
1986		-107.421875
1987		-115.234375
1988		-111.328125
1989		-121.093750
1990		-111.328125
1991		-123.046875
1992		-115.234375
1993		-126.953125
1994		-117.187500
1995		-128.906250
1996		-121.093750
1997		-130.859375
1998		-123.046875
1999		-132.812500
2000		-125.000000
2001		-134.765625
2002		-130.859375
2003		-138.671875
2004		-132.812500
2005		-142.578125
2006		-132.812500
2007		-144.531250
2008		-134.765625
2009		-144.531250
2010		-138.671875
2011		-148.437500
2012		-140.625000
2013		-150.390625
2014		-142.578125
2015		-152.343750
2016		-144.531250
2017		-152.343750
2018		-148.437500
2019		-154.296875
2020		-150.390625
2021		-158.203125
2022		-150.390625
2023		-158.203125
2024		-152.343750
2025		-160.156250
2026		-152.343750
2027		-160.156250
2028		-154.296875
2029		-162.109375
2030		-156.250000
2031		-164.062500
2032		-156.250000
2033		-164.062500
2034		-158.203125
2035		-164.062500
2036		-160.156250
2037		-166.015625
2038		-160.156250
2039		-167.968750
2040		-160.156250
2041		-166.015625
2042		-160.156250
2043		-166.015625
2044		-160.156250
2045		-167.968750
2046		-160.156250
2047		-167.968750
2048		-162.109375
2049		-167.968750
2050		-160.156250
2051		-166.015625
2052		-162.109375
2053		-166.015625
2054		-162.109375
2055		-167.968750
2056		-160.156250
2057		-166.015625
2058		-160.156250
2059		-166.015625
2060		-158.203125
2061		-166.015625
2062		-158.203125
2063		-164.062500
2064		-158.203125
2065		-164.062500
2066		-156.250000
2067		-160.156250
2068		-156.250000
2069		-160.156250
2070		-156.250000
2071		-160.156250
2072		-154.296875
2073		-158.203125
2074		-152.343750
2075		-156.250000
2076		-150.390625
2077		-156.250000
2078		-148.437500
2079		-154.296875
2080		-146.484375
2081		-152.343750
2082		-144.531250
2083		-150.390625
2084		-144.531250
2085		-146.484375
2086		-142.578125
2087		-144.531250
2088		-138.671875
2089		-144.531250
2090		-136.718750
2091		-140.625000
2092		-134.765625
2093		-138.671875
2094		-130.859375
2095		-136.718750
2096		-128.906250
2097		-134.765625
2098		-125.000000
2099		-130.859375
2100		-123.046875
2101		-126.953125
2102		-121.093750
2103		-123.046875
2104		-119.140625
2105		-121.093750
2106		-115.234375
2107		-119.140625
2108		-111.328125
2109		-115.234375
2110		-107.421875
2111		-113.281250
2112		-105.468750
2113		-109.375000
2114		-101.562500
2115		-107.421875
2116		-97.656250
2117		-103.515625
2118		-95.703125
2119		-97.656250
2120		-91.796875
2121		-93.750000
2122		-87.890625
2123		-93.750000
2124		-83.984375
2125		-89.843750
2126		-80.078125
2127		-85.937500
2128		-76.171875
2129		-82.031250
2130		-72.265625
2131		-78.125000
2132		-70.312500
2133		-74.218750
2134		-66.406250
2135		-68.359375
2136		-62.500000
2137		-64.453125
2138		-58.593750
2139		-62.500000
2140		-54.687500
2141		-58.593750
2142		-48.828125
2143		-54.687500
2144		-46.875000
2145		-50.781250
2146		-41.015625
2147		-46.875000
2148		-39.062500
2149		-42.968750
2150		-35.156250
2151		-37.109375
2152		-31.250000
2153		-33.203125
2154		-27.343750
2155		-29.296875
2156		-21.484375
2157		-27.343750
2158		-17.578125
2159		-23.437500
2160		-15.625000
2161		-19.531250
2162		-9.765625
2163		-17.578125
2164		-7.812500
2165		-11.718750
2166		-3.906250
2167		-7.812500
2168		0.000000
2169		-1.953125
2170		3.906250
2171		1.953125
2172		7.812500
2173		3.906250
2174		11.718750
2175		7.812500
2176		15.625000
2177		9.765625
2178		19.531250
2179		15.625000
2180		23.437500
2181		17.578125
2182		27.343750
2183		23.437500
2184		29.296875
2185		27.343750
2186		33.203125
2187		29.296875
2188		35.156250
2189		33.203125
2190		41.015625
2191		37.109375
2192		42.968750
2193		39.062500
2194		46.875000
2195		42.968750
2196		50.781250
2197		44.921875
2198		52.734375
2199		48.828125
2200		56.640625
2201		50.781250
2202		58.593750
2203		56.640625
2204		62.500000
2205		58.593750
2206		66.406250
2207		60.546875
2208		68.359375
2209		62.500000
2210		72.265625
2211		66.406250
2212		74.218750
2213		68.359375
2214		76.171875
2215		70.312500
2216		80.078125
2217		74.218750
2218		80.078125
2219		78.125000
2220		83.984375
2221		80.078125
2222		85.937500
2223		82.031250
2224		89.843750
2225		82.031250
2226		91.796875
2227		85.937500
2228		93.750000
2229		87.890625
2230		95.703125
2231		89.843750
2232		97.656250
2233		91.796875
2234		99.609375
2235		93.750000
2236		99.609375
2237		97.656250
2238		101.562500
2239		97.656250
2240		105.468750
2241		99.609375
2242		107.421875
2243		99.609375
2244		107.421875
2245		101.562500
2246		109.375000
2247		103.515625
2248		111.328125
2249		105.468750
2250		111.328125
2251		105.468750
2252		113.281250
2253		109.375000
2254		113.281250
2255		111.328125
2256		115.234375
2257		111.328125
2258		117.187500
2259		111.328125
2260		117.187500
2261		111.328125
2262		119.140625
2263		113.281250
2264		119.140625
2265		113.281250
2266		119.140625
2267		113.281250
2268		121.093750
2269		117.187500
2270		119.140625
2271		117.187500
2272		121.093750
2273		117.187500
2274		123.046875
2275		115.234375
2276		123.046875
2277		117.187500
2278		123.046875
2279		117.187500
2280		123.046875
2281		117.187500
2282		123.046875
2283		117.187500
2284		123.046875
2285		117.187500
2286		123.046875
2287		119.140625
2288		121.093750
2289		117.187500
2290		123.046875
2291		117.187500
2292		123.046875
2293		115.234375
2294		123.046875
2295		115.234375
2296		121.093750
2297		115.234375
2298		121.093750
2299		113.281250
2300		121.093750
2301		113.281250
2302		121.093750
2303		115.234375
2304		117.187500
2305		113.281250
2306		117.187500
2307		111.328125
2308		117.187500
2309		109.375000
2310		117.187500
2311		109.375000
2312		115.234375
2313		107.421875
2314		115.234375
2315		107.421875
2316		113.281250
2317		105.468750
2318		111.328125
2319		105.468750
2320		111.328125
2321		105.468750
2322		109.375000
2323		101.562500
2324		107.421875
2325		99.609375
2326		107.421875
2327		97.656250
2328		105.468750
2329		95.703125
2330		103.515625
2331		93.750000
2332		101.562500
2333		91.796875
2334		99.609375
2335		89.843750
2336		97.656250
2337		89.843750
2338		93.750000
2339		85.937500
2340		91.796875
2341		83.984375
2342		91.796875
2343		82.031250
2344		89.843750
2345		78.125000
2346		85.937500
2347		76.171875
2348		83.984375
2349		74.218750
2350		82.031250
2351		70.312500
2352		78.125000
2353		70.312500
2354		74.218750
2355		66.406250
2356		72.265625
2357		62.500000
2358		70.312500
2359		58.593750
2360		68.359375
2361		56.640625
2362		64.453125
2363		52.734375
2364		62.500000
2365		50.781250
2366		60.546875
2367		46.875000
2368		56.640625
2369		44.921875
2370		52.734375
2371		42.968750
2372		46.875000
2373		37.109375
2374		44.921875
2375		35.156250
2376		41.015625
2377		31.250000
2378		39.062500
2379		27.343750
2380		35.156250
2381		23.437500
2382		33.203125
2383		19.531250
2384		29.296875
2385		15.625000
2386		25.390625
2387		13.671875
2388		19.531250
2389		9.765625
2390		15.625000
2391		5.859375
2392		13.671875
2393		0.000000
2394		9.765625
2395		-1.953125
2396		7.812500
2397		-5.859375
2398		3.906250
2399		-9.765625
2400		0.000000
2401		-13.671875
2402		-5.859375
2403		-15.625000
2404		-7.812500
2405		-19.531250
2406		-13.671875
2407		-25.390625
2408		-17.578125
2409		-29.296875
2410		-19.531250
2411		-33.203125
2412		-21.484375
2413		-37.109375
2414		-27.343750
2415		-41.015625
2416		-31.250000
2417		-44.921875
2418		-35.156250
2419		-46.875000
2420		-39.062500
2421		-50.781250
2422		-44.921875
2423		-54.687500
2424		-48.828125
2425		-58.593750
2426		-52.734375
2427		-64.453125
2428		-54.687500
2429		-66.406250
2430		-56.640625
2431		-70.312500
2432		-62.500000
2433		-74.218750
2434		-66.406250
2435		-78.125000
2436		-70.312500
2437		-80.078125
2438		-74.218750
2439		-83.984375
2440		-78.125000
2441		-87.890625
2442		-82.031250
2443		-93.750000
2444		-83.984375
2445		-95.703125
2446		-87.890625
2447		-99.609375
2448		-91.796875
2449		-101.562500
2450		-95.703125
2451		-107.421875
2452		-97.656250
2453		-107.421875
2454		-101.562500
2455		-111.328125
2456		-105.468750
2457		-113.281250
2458		-109.375000
2459		-119.140625
2460		-111.328125
2461		-121.093750
2462		-113.281250
2463		-125.000000
2464		-117.187500
2465		-126.953125
2466		-119.140625
2467		-130.859375
2468		-121.093750
2469		-132.812500
2470		-125.000000
2471		-134.765625
2472		-128.906250
2473		-136.718750
2474		-130.859375
2475		-140.625000
2476		-132.812500
2477		-142.578125
2478		-134.765625
2479		-144.531250
2480		-138.671875
2481		-148.437500
2482		-138.671875
2483		-148.437500
2484		-142.578125
2485		-150.390625
2486		-144.531250
2487		-150.390625
2488		-144.531250
2489		-152.343750
2490		-148.437500
2491		-156.250000
2492		-150.390625
2493		-158.203125
2494		-150.390625
2495		-160.156250
2496		-152.343750
2497		-160.156250
2498		-152.343750
2499		-162.109375
2500		-154.296875
2501		-164.062500
2502		-156.250000
2503		-164.062500
2504		-156.250000
2505		-162.109375
2506		-160.156250
2507		-164.062500
2508		-160.156250
2509		-166.015625
2510		-160.156250
2511		-166.015625
2512		-160.156250
2513		-167.968750
2514		-160.156250
2515		-167.968750
2516		-160.156250
2517		-167.968750
2518		-162.109375
2519		-167.968750
2520		-160.156250
2521		-166.015625
2522		-162.109375
2523		-166.015625
2524		-162.109375
2525		-166.015625
2526		-160.156250
2527		-167.968750
2528		-160.156250
2529		-167.968750
2530		-158.203125
2531		-166.015625
2532		-158.203125
2533		-164.062500
2534		-158.203125
2535		-164.062500
2536		-158.203125
2537		-162.109375
2538		-156.250000
2539		-160.156250
2540		-156.250000
2541		-158.203125
2542		-156.250000
2543		-160.156250
2544		-152.343750
2545		-158.203125
2546		-152.343750
2547		-156.250000
2548		-150.390625
2549		-156.250000
2550		-148.437500
2551		-152.343750
2552		-146.484375
2553		-152.343750
2554		-144.531250
2555		-148.437500
2556		-144.531250
2557		-146.484375
2558		-140.625000
2559		-144.531250
2560		-138.671875
2561		-144.531250
2562		-136.718750
2563		-140.625000
2564		-132.812500
2565		-138.671875
2566		-128.906250
2567		-136.718750
2568		-126.953125
2569		-132.812500
2570		-125.000000
2571		-128.906250
2572		-123.046875
2573		-125.000000
2574		-121.093750
2575		-123.046875
2576		-115.234375
2577		-121.093750
2578		-113.281250
2579		-119.140625
2580		-111.328125
2581		-115.234375
2582		-107.421875
2583		-111.328125
2584		-103.515625
2585		-109.375000
2586		-99.609375
2587		-105.468750
2588		-97.656250
2589		-99.609375
2590		-95.703125
2591		-97.656250
2592		-91.796875
2593		-93.750000
2594		-87.890625
2595		-91.796875
2596		-83.984375
2597		-87.890625
2598		-78.125000
2599		-83.984375
2600		-76.171875
2601		-82.031250
2602		-72.265625
2603		-78.125000
2604		-68.359375
2605		-70.312500
2606		-66.406250
2607		-66.406250
2608		-60.546875
2609		-64.453125
2610		-56.640625
2611		-62.500000
2612		-50.781250
2613		-56.640625
2614		-48.828125
2615		-52.734375
2616		-44.921875
2617		-48.828125
2618		-41.015625
2619		-44.921875
2620		-37.109375
2621		-41.015625
2622		-35.156250
2623		-35.156250
2624		-29.296875
2625		-31.250000
2626		-25.390625
2627		-31.250000
2628		-21.484375
2629		-25.390625
2630		-17.578125
2631		-21.484375
2632		-13.671875
2633		-17.578125
2634		-9.765625
2635		-15.625000
2636		-3.906250
2637		-9.765625
2638		-1.953125
2639		-3.906250
2640		1.953125
2641		0.000000
2642		5.859375
2643		1.953125
2644		9.765625
2645		3.906250
2646		13.671875
2647		7.812500
2648		17.578125
2649		11.718750
2650		21.484375
2651		15.625000
2652		25.390625
2653		19.531250
2654		27.343750
2655		21.484375
2656		29.296875
2657		27.343750
2658		33.203125
2659		31.250000
2660		39.062500
2661		33.203125
2662		41.015625
2663		37.109375
2664		44.921875
2665		39.062500
2666		48.828125
2667		42.968750
2668		52.734375
2669		46.875000
2670		54.687500
2671		48.828125
2672		56.640625
2673		54.687500
2674		58.593750
2675		56.640625
2676		62.500000
2677		58.593750
2678		66.406250
2679		60.546875
2680		70.312500
2681		62.500000
2682		72.265625
2683		66.406250
2684		76.171875
2685		70.312500
2686		78.125000
2687		72.265625
2688		80.078125
2689		76.171875
2690		82.031250
2691		80.078125
2692		83.984375
2693		80.078125
2694		87.890625
2695		82.031250
2696		89.843750
2697		83.984375
2698		91.796875
2699		85.937500
2700		93.750000
2701		87.890625
2702		97.656250
2703		89.843750
2704		97.656250
2705		93.750000
2706		99.609375
2707		95.703125
2708		99.609375
2709		97.656250
2710		103.515625
2711		97.656250
2712		105.468750
2713		99.609375
2714		107.421875
2715		101.562500
2716		109.375000
2717		103.515625
2718		109.375000
2719		103.515625
2720		111.328125
2721		105.468750
2722		113.281250
2723		109.375000
2724		113.281250
2725		109.375000
2726		113.281250
2727		109.375000
2728		117.187500
2729		111.328125
2730		117.187500
2731		111.328125
2732		119.140625
2733		111.328125
2734		119.140625
2735		113.281250
2736		119.140625
2737		113.281250
2738		121.093750
2739		115.234375
2740		121.093750
2741		117.187500
2742		119.140625
2743		115.234375
2744		123.046875
2745		115.234375
2746		123.046875
2747		115.234375
2748		123.046875
2749		117.187500
2750		123.046875
2751		117.187500
2752		123.046875
2753		117.187500
2754		123.046875
2755		117.187500
2756		123.046875
2757		119.140625
2758		121.093750
2759		117.187500
2760		121.093750
2761		115.234375
2762		123.046875
2763		115.234375
2764		123.046875
2765		115.234375
2766		123.046875
2767		115.234375
2768		121.093750
2769		113.281250
2770		121.093750
2771		113.281250
2772		121.093750
2773		115.234375
2774		119.140625
2775		113.281250
2776		117.187500
2777		111.328125
2778		117.187500
2779		111.328125
2780		117.187500
2781		109.375000
2782		117.187500
2783		109.375000
2784		115.234375
2785		107.421875
2786		113.281250
2787		105.468750
2788		113.281250
2789		105.468750
2790		111.328125
2791		105.468750
2792		109.375000
2793		103.515625
2794		107.421875
2795		99.609375
2796		105.468750
2797		99.609375
2798		105.468750
2799		97.656250
2800		103.515625
2801		95.703125
2802		101.562500
2803		93.750000
2804		99.609375
2805		91.796875
2806		97.656250
2807		89.843750
2808		95.703125
2809		87.890625
2810		93.750000
2811		83.984375
2812		91.796875
2813		82.031250
2814		89.843750
2815		80.078125
2816		87.890625
2817		78.125000
2818		83.984375
2819		74.218750
2820		82.031250
2821		72.265625
2822		80.078125
2823		70.312500
2824		78.125000
2825		68.359375
2826		74.218750
2827		62.500000
2828		70.312500
2829		60.546875
2830		70.312500
2831		58.593750
2832		66.406250
2833		54.687500
2834		62.500000
2835		52.734375
2836		60.546875
2837		48.828125
2838		56.640625
2839		46.875000
2840		54.687500
2841		44.921875
2842		48.828125
2843		41.015625
2844		46.875000
2845		35.156250
2846		42.968750
2847		31.250000
2848		41.015625
2849		29.296875
2850		37.109375
2851		25.390625
2852		33.203125
2853		23.437500
2854		29.296875
2855		17.578125
2856		25.390625
2857		15.625000
2858		21.484375
2859		11.718750
2860		19.531250
2861		5.859375
2862		13.671875
2863		1.953125
2864		11.718750
2865		0.000000
2866		7.812500
2867		-3.906250
2868		3.906250
2869		-7.812500
2870		0.000000
2871		-11.718750
2872		-3.906250
2873		-13.671875
2874		-7.812500
2875		-17.578125
2876		-11.718750
2877		-21.484375
2878		-15.625000
2879		-27.343750
2880		-17.578125
2881		-29.296875
2882		-21.484375
2883		-35.156250
2884		-25.390625
2885		-39.062500
2886		-29.296875
2887		-42.968750
2888		-33.203125
2889		-46.875000
2890		-37.109375
2891		-48.828125
2892		-42.968750
2893		-52.734375
2894		-46.875000
2895		-58.593750
2896		-50.781250
2897		-60.546875
2898		-52.734375
2899		-66.406250
2900		-56.640625
2901		-70.312500
2902		-60.546875
2903		-74.218750
2904		-64.453125
2905		-76.171875
2906		-68.359375
2907		-78.125000
2908		-72.265625
2909		-82.031250
2910		-76.171875
2911		-87.890625
2912		-80.078125
2913		-91.796875
2914		-82.031250
2915		-93.750000
2916		-85.937500
2917		-97.656250
2918		-89.843750
2919		-99.609375
2920		-93.750000
2921		-105.468750
2922		-95.703125
2923		-107.421875
2924		-97.656250
2925		-109.375000
2926		-103.515625
2927		-113.281250
2928		-107.421875
2929		-117.187500
2930		-109.375000
2931		-121.093750
2932		-111.328125
2933		-123.046875
2934		-115.234375
2935		-126.953125
2936		-117.187500
2937		-128.906250
2938		-121.093750
2939		-132.812500
2940		-123.046875
2941		-132.812500
2942		-126.953125
2943		-134.765625
2944		-130.859375
2945		-138.671875
2946		-132.812500
2947		-142.578125
2948		-134.765625
2949		-144.531250
2950		-136.718750
2951		-146.484375
2952		-138.671875
2953		-148.437500
2954		-140.625000
2955		-150.390625
2956		-142.578125
2957		-152.343750
2958		-144.531250
2959		-152.343750
2960		-148.437500
2961		-156.250000
2962		-150.390625
2963		-156.250000
2964		-150.390625
2965		-158.203125
2966		-152.343750
2967		-160.156250
2968		-154.296875
2969		-162.109375
2970		-154.296875
2971		-164.062500
2972		-156.250000
2973		-164.062500
2974		-156.250000
2975		-162.109375
2976		-160.156250
2977		-164.062500
2978		-160.156250
2979		-166.015625
2980		-160.156250
2981		-167.968750
2982		-160.156250
2983		-167.968750
2984		-160.156250
2985		-167.968750
2986		-162.109375
2987		-167.968750
2988		-162.109375
2989		-167.968750
2990		-162.109375
2991		-167.968750
2992		-162.109375
2993		-166.015625
2994		-164.062500
2995		-166.015625
2996		-162.109375
2997		-167.968750
2998		-162.109375
2999		-167.968750
3000		-160.156250
3001		-166.015625
3002		-160.156250
3003		-166.015625
3004		-158.203125
3005		-166.015625
3006		-158.203125
3007		-164.062500
3008		-158.203125
3009		-162.109375
3010		-158.203125
3011		-160.156250
3012		-156.250000
3013		-160.156250
3014		-154.296875
3015		-158.203125
3016		-152.343750
3017		-158.203125
3018		-150.390625
3019		-156.250000
3020		-148.437500
3021		-156.250000
3022		-148.437500
3023		-152.343750
3024		-144.531250
3025		-152.343750
3026		-144.531250
3027		-148.437500
3028		-142.578125
3029		-146.484375
3030		-138.671875
3031		-144.531250
3032		-136.718750
3033		-142.578125
3034		-134.765625
3035		-138.671875
3036		-130.859375
3037		-136.718750
3038		-128.906250
3039		-134.765625
3040		-126.953125
3041		-132.812500
3042		-125.000000
3043		-126.953125
3044		-121.093750
3045		-125.000000
3046		-119.140625
3047		-123.046875
3048		-115.234375
3049		-121.093750
3050		-111.328125
3051		-117.187500
3052		-109.375000
3053		-113.281250
3054		-105.468750
3055		-111.328125
3056		-103.515625
3057		-107.421875
3058		-99.609375
3059		-103.515625
3060		-97.656250
3061		-99.609375
3062		-93.750000
3063		-95.703125
3064		-89.843750
3065		-93.750000
3066		-85.937500
3067		-89.843750
3068		-80.078125
3069		-85.937500
3070		-78.125000
3071		-83.984375
3072		-74.218750
3073		-78.125000
3074		-70.312500
3075		-76.171875
3076		-68.359375
3077		-70.312500
3078		-64.453125
3079		-66.406250
3080		-60.546875
3081		-64.453125
3082		-54.687500
3083		-60.546875
3084		-50.781250
3085		-54.687500
3086		-46.875000
3087		-52.734375
3088		-42.968750
3089		-46.875000
3090		-39.062500
3091		-42.968750
3092		-35.156250
3093		-39.062500
3094		-33.203125
3095		-35.156250
3096		-29.296875
3097		-31.250000
3098		-23.437500
3099		-27.343750
3100		-19.531250
3101		-23.437500
3102		-15.625000
3103		-21.484375
3104		-11.718750
3105		-17.578125
3106		-7.812500
3107		-11.718750
3108		-3.906250
3109		-7.812500
3110		-1.953125
3111		-3.906250
3112		1.953125
3113		0.000000
3114		7.812500
3115		3.906250
3116		11.718750
3117		7.812500
3118		13.671875
3119		9.765625
3120		19.531250
3121		13.671875
3122		21.484375
3123		15.625000
3124		25.390625
3125		19.531250
3126		27.343750
3127		25.390625
3128		31.250000
3129		29.296875
3130		35.156250
3131		33.203125
3132		39.062500
3133		33.203125
3134		42.968750
3135		39.062500
3136		46.875000
3137		41.015625
3138		48.828125
3139		44.921875
3140		52.734375
3141		46.875000
3142		54.687500
3143		52.734375
3144		58.593750
3145		54.687500
3146		60.546875
3147		58.593750
3148		64.453125
3149		58.593750
3150		68.359375
3151		62.500000
3152		70.312500
3153		66.406250
3154		72.265625
3155		68.359375
3156		76.171875
3157		70.312500
3158		78.125000
3159		72.265625
3160		80.078125
3161		76.171875
3162		82.031250
3163		80.078125
3164		85.937500
3165		80.078125
3166		87.890625
3167		82.031250
3168		89.843750
3169		83.984375
3170		91.796875
3171		85.937500
3172		95.703125
3173		89.843750
3174		97.656250
3175		91.796875
3176		99.609375
3177		95.703125
3178		99.609375
3179		97.656250
3180		101.562500
3181		97.656250
3182		105.468750
3183		97.656250
3184		105.468750
3185		99.609375
3186		107.421875
3187		101.562500
3188		109.375000
3189		103.515625
3190		111.328125
3191		103.515625
3192		111.328125
3193		107.421875
3194		111.328125
3195		109.375000
3196		113.281250
3197		109.375000
3198		115.234375
3199		109.375000
3200		117.187500
3201		109.375000
3202		117.187500
3203		111.328125
3204		119.140625
3205		111.328125
3206		119.140625
3207		113.281250
3208		119.140625
3209		113.281250
3210		121.093750
3211		115.234375
3212		119.140625
3213		117.187500
3214		119.140625
3215		115.234375
3216		121.093750
3217		115.234375
3218		123.046875
3219		115.234375
3220		123.046875
3221		115.234375
3222		123.046875
3223		117.187500
3224		123.046875
3225		115.234375
3226		123.046875
3227		119.140625
3228		121.093750
3229		117.187500
3230		121.093750
3231		115.234375
3232		123.046875
3233		115.234375
3234		123.046875
3235		115.234375
3236		123.046875
3237		115.234375
3238		121.093750
3239		115.234375
3240		121.093750
3241		113.281250
3242		121.093750
3243		113.281250
3244		119.140625
3245		115.234375
3246		117.187500
3247		111.328125
3248		117.187500
3249		109.375000
3250		117.187500
3251		109.375000
3252		117.187500
3253		107.421875
3254		115.234375
3255		107.421875
3256		115.234375
3257		105.468750
3258		113.281250
3259		105.468750
3260		111.328125
3261		105.468750
3262		109.375000
3263		103.515625
3264		107.421875
3265		99.609375
3266		107.421875
3267		99.609375
3268		105.468750
3269		97.656250
3270		105.468750
3271		95.703125
3272		101.562500
3273		93.750000
3274		99.609375
3275		91.796875
3276		99.609375
3277		89.843750
3278		97.656250
3279		87.890625
3280		93.750000
3281		85.937500
3282		91.796875
3283		83.984375
3284		89.843750
3285		80.078125
3286		87.890625
3287		76.171875
3288		85.937500
3289		74.218750
3290		83.984375
3291		72.265625
3292		82.031250
3293		70.312500
3294		78.125000
3295		68.359375
3296		74.218750
3297		66.406250
3298		72.265625
3299		62.500000
3300		70.312500
3301		60.546875
3302		66.406250
3303		54.687500
3304		64.453125
3305		54.687500
3306		60.546875
3307		50.781250
3308		58.593750
3309		46.875000
3310		54.687500
3311		44.921875
3312		50.781250
3313		42.968750
3314		46.875000
3315		37.109375
3316		44.921875
3317		33.203125
3318		41.015625
3319		31.250000
3320		37.109375
3321		27.343750
3322		37.109375
3323		23.437500
3324		31.250000
3325		19.531250
3326		29.296875
3327		17.578125
3328		23.437500
3329		13.671875
3330		19.531250
3331		9.765625
3332		15.625000
3333		3.906250
3334		13.671875
3335		1.953125
3336		9.765625
3337		-1.953125
3338		5.859375
3339		-5.859375
3340		1.953125
3341		-11.718750
3342		-1.953125
3343		-13.671875
3344		-5.859375
3345		-17.578125
3346		-9.765625
3347		-21.484375
3348		-13.671875
3349		-25.390625
3350		-17.578125
3351		-29.296875
3352		-19.531250
3353		-33.203125
3354		-23.437500
3355		-39.062500
3356		-29.296875
3357		-41.015625
3358		-33.203125
3359		-44.921875
3360		-37.109375
3361		-46.875000
3362		-39.062500
3363		-50.781250
3364		-44.921875
3365		-56.640625
3366		-48.828125
3367		-60.546875
3368		-50.781250
3369		-64.453125
3370		-54.687500
3371		-68.359375
3372		-58.593750
3373		-72.265625
3374		-62.500000
3375		-74.218750
3376		-66.406250
3377		-78.125000
3378		-70.312500
3379		-82.031250
3380		-76.171875
3381		-85.937500
3382		-78.125000
3383		-89.843750
3384		-82.031250
3385		-93.750000
3386		-83.984375
3387		-97.656250
3388		-87.890625
3389		-99.609375
3390		-91.796875
3391		-103.515625
3392		-93.750000
3393		-105.468750
3394		-99.609375
3395		-107.421875
3396		-101.562500
3397		-111.328125
3398		-105.468750
3399		-115.234375
3400		-109.375000
3401		-119.140625
3402		-111.328125
3403		-123.046875
3404		-113.281250
3405		-125.000000
3406		-117.187500
3407		-128.906250
3408		-119.140625
3409		-130.859375
3410		-123.046875
3411		-132.812500
3412		-125.000000
3413		-134.765625
3414		-128.906250
3415		-138.671875
3416		-132.812500
3417		-140.625000
3418		-132.812500
3419		-144.531250
3420		-134.765625
3421		-144.531250
3422		-138.671875
3423		-148.437500
3424		-138.671875
3425		-150.390625
3426		-142.578125
3427		-152.343750
3428		-144.531250
3429		-152.343750
3430		-146.484375
3431		-154.296875
3432		-148.437500
3433		-156.250000
3434		-150.390625
3435		-160.156250
3436		-150.390625
3437		-160.156250
3438		-152.343750
3439		-160.156250
3440		-154.296875
3441		-164.062500
3442		-154.296875
3443		-162.109375
3444		-156.250000
3445		-164.062500
3446		-158.203125
3447		-164.062500
3448		-160.156250
3449		-166.015625
3450		-160.156250
3451		-167.968750
3452		-160.156250
3453		-167.968750
3454		-160.156250
3455		-167.968750
3456		-160.156250
3457		-167.968750
3458		-162.109375
3459		-169.921875
3460		-160.156250
3461		-167.968750
3462		-162.109375
3463		-166.015625
3464		-162.109375
3465		-166.015625
3466		-162.109375
3467		-167.968750
3468		-160.156250
3469		-167.968750
3470		-160.156250
3471		-167.968750
3472		-160.156250
3473		-166.015625
3474		-160.156250
3475		-166.015625
3476		-158.203125
3477		-166.015625
3478		-158.203125
3479		-162.109375
3480		-158.203125
3481		-160.156250
3482		-158.203125
3483		-160.156250
3484		-154.296875
3485		-160.156250
3486		-152.343750
3487		-158.203125
3488		-152.343750
3489		-158.203125
3490		-150.390625
3491		-156.250000
3492		-148.437500
3493		-152.343750
3494		-146.484375
3495		-152.343750
3496		-146.484375
3497		-148.437500
3498		-144.531250
3499		-146.484375
3500		-140.625000
3501		-144.531250
3502		-138.671875
3503		-144.531250
3504		-134.765625
3505		-140.625000
3506		-132.812500
3507		-138.671875
3508		-130.859375
3509		-136.718750
3510		-126.953125
3511		-134.765625
3512		-125.000000
3513		-128.906250
3514		-123.046875
3515		-126.953125
3516		-121.093750
3517		-123.046875
3518		-117.187500
3519		-123.046875
3520		-115.234375
3521		-119.140625
3522		-111.328125
3523		-117.187500
3524		-107.421875
3525		-111.328125
3526		-105.468750
3527		-109.375000
3528		-101.562500
3529		-105.468750
3530		-97.656250
3531		-101.562500
3532		-95.703125
3533		-97.656250
3534		-91.796875
3535		-95.703125
3536		-85.937500
3537		-91.796875
3538		-83.984375
3539		-87.890625
3540		-80.078125
3541		-83.984375
3542		-76.171875
3543		-82.031250
3544		-72.265625
3545		-78.125000
3546		-68.359375
3547		-72.265625
3548		-66.406250
3549		-68.359375
3550		-62.500000
3551		-64.453125
3552		-54.687500
3553		-62.500000
3554		-52.734375
3555		-56.640625
3556		-46.875000
3557		-54.687500
3558		-44.921875
3559		-50.781250
3560		-39.062500
3561		-44.921875
3562		-37.109375
3563		-41.015625
3564		-35.156250
3565		-37.109375
3566		-31.250000
3567		-33.203125
3568		-25.390625
3569		-29.296875
3570		-19.531250
3571		-25.390625
3572		-17.578125
3573		-21.484375
3574		-13.671875
3575		-17.578125
3576		-9.765625
3577		-13.671875
3578		-5.859375
3579		-9.765625
3580		-3.906250
3581		-5.859375
3582		0.000000
3583		-1.953125
3584		5.859375
3585		0.000000
3586		9.765625
3587		5.859375
3588		13.671875
3589		7.812500
3590		17.578125
3591		11.718750
3592		21.484375
3593		15.625000
3594		23.437500
3595		17.578125
3596		27.343750
3597		23.437500
3598		29.296875
3599		27.343750
3600		33.203125
3601		29.296875
3602		37.109375
3603		33.203125
3604		41.015625
3605		37.109375
3606		44.921875
3607		39.062500
3608		48.828125
3609		42.968750
3610		50.781250
3611		44.921875
3612		54.687500
3613		48.828125
3614		56.640625
3615		52.734375
3616		58.593750
3617		56.640625
3618		62.500000
3619		58.593750
3620		66.406250
3621		60.546875
3622		70.312500
3623		64.453125
3624		72.265625
3625		66.406250
3626		74.218750
3627		68.359375
3628		78.125000
3629		72.265625
3630		80.078125
3631		76.171875
3632		82.031250
3633		78.125000
3634		83.984375
3635		80.078125
3636		85.937500
3637		82.031250
3638		87.890625
3639		85.937500
3640		91.796875
3641		85.937500
3642		93.750000
3643		89.843750
3644		97.656250
3645		91.796875
3646		97.656250
3647		93.750000
3648		97.656250
3649		95.703125
3650		99.609375
3651		97.656250
3652		103.515625
3653		97.656250
3654		105.468750
3655		99.609375
3656		107.421875
3657		101.562500
3658		109.375000
3659		103.515625
3660		109.375000
3661		103.515625
3662		111.328125
3663		105.468750
3664		111.328125
3665		109.375000
3666		113.281250
3667		109.375000
3668		113.281250
3669		109.375000
3670		117.187500
3671		109.375000
3672		117.187500
3673		111.328125
3674		119.140625
3675		111.328125
3676		119.140625
3677		113.281250
3678		119.140625
3679		113.281250
3680		121.093750
3681		115.234375
3682		119.140625
3683		117.187500
3684		119.140625
3685		115.234375
3686		123.046875
3687		115.234375
3688		123.046875
3689		115.234375
3690		123.046875
3691		115.234375
3692		123.046875
3693		115.234375
3694		123.046875
3695		115.234375
3696		123.046875
3697		117.187500
3698		123.046875
3699		119.140625
3700		121.093750
3701		117.187500
3702		121.093750
3703		117.187500
3704		123.046875
3705		115.234375
3706		123.046875
3707		115.234375
3708		123.046875
3709		115.234375
3710		123.046875
3711		113.281250
3712		121.093750
3713		113.281250
3714		121.093750
3715		115.234375
3716		119.140625
3717		115.234375
3718		117.187500
3719		111.328125
3720		119.140625
3721		111.328125
3722		117.187500
3723		109.375000
3724		117.187500
3725		109.375000
3726		115.234375
3727		107.421875
3728		115.234375
3729		105.468750
3730		113.281250
3731		105.468750
3732		111.328125
3733		105.468750
3734		109.375000
3735		101.562500
3736		107.421875
3737		99.609375
3738		107.421875
3739		99.609375
3740		105.468750
3741		97.656250
3742		103.515625
3743		95.703125
3744		103.515625
3745		93.750000
3746		99.609375
3747		91.796875
3748		99.609375
3749		91.796875
3750		95.703125
3751		87.890625
3752		93.750000
3753		85.937500
3754		91.796875
3755		83.984375
3756		91.796875
3757		80.078125
3758		87.890625
3759		76.171875
3760		83.984375
3761		76.171875
3762		83.984375
3763		72.265625
3764		80.078125
3765		72.265625
3766		76.171875
3767		68.359375
3768		74.218750
3769		64.453125
3770		70.312500
3771		62.500000
3772		70.312500
3773		58.593750
3774		66.406250
3775		56.640625
3776		62.500000
3777		52.734375
3778		60.546875
3779		48.828125
3780		56.640625
3781		46.875000
3782		54.687500
3783		44.921875
3784		50.781250
3785		41.015625
3786		46.875000
3787		35.156250
3788		44.921875
3789		33.203125
3790		41.015625
3791		29.296875
3792		37.109375
3793		25.390625
3794		35.156250
3795		21.484375
3796		31.250000
3797		19.531250
3798		27.343750
3799		17.578125
3800		23.437500
3801		13.671875
3802		19.531250
3803		7.812500
3804		15.625000
3805		1.953125
3806		11.718750
3807		0.000000
3808		7.812500
3809		-1.953125
3810		5.859375
3811		-7.812500
3812		1.953125
3813		-9.765625
3814		-1.953125
3815		-13.671875
3816		-5.859375
3817		-17.578125
3818		-11.718750
3819		-23.437500
3820		-15.625000
3821		-25.390625
3822		-17.578125
3823		-31.250000
3824		-21.484375
3825		-35.156250
3826		-25.390625
3827		-37.109375
3828		-29.296875
3829		-41.015625
3830		-33.203125
3831		-44.921875
3832		-37.109375
3833		-48.828125
3834		-42.968750
3835		-50.781250
3836		-46.875000
3837		-56.640625
3838		-48.828125
3839		-60.546875
3840		-52.734375
3841		-64.453125
3842		-56.640625
3843		-68.359375
3844		-60.546875
3845		-72.265625
3846		-62.500000
3847		-76.171875
3848		-66.406250
3849		-78.125000
3850		-72.265625
3851		-82.031250
3852		-76.171875
3853		-87.890625
3854		-80.078125
3855		-89.843750
3856		-80.078125
3857		-95.703125
3858		-85.937500
3859		-95.703125
3860		-89.843750
3861		-101.562500
3862		-91.796875
3863		-103.515625
3864		-95.703125
3865		-105.468750
3866		-99.609375
3867		-109.375000
3868		-103.515625
3869		-111.328125
3870		-107.421875
3871		-117.187500
3872		-107.421875
3873		-119.140625
3874		-111.328125
3875		-121.093750
3876		-113.281250
3877		-125.000000
3878		-117.187500
3879		-128.906250
3880		-119.140625
3881		-130.859375
3882		-121.093750
3883		-130.859375
3884		-126.953125
3885		-134.765625
3886		-128.906250
3887		-138.671875
3888		-130.859375
3889		-140.625000
3890		-134.765625
3891		-140.625000
3892		-136.718750
3893		-144.531250
3894		-138.671875
3895		-146.484375
3896		-140.625000
3897		-148.437500
3898		-142.578125
3899		-150.390625
3900		-142.578125
3901		-150.390625
3902		-146.484375
3903		-154.296875
3904		-148.437500
3905		-154.296875
3906		-148.437500
3907		-156.250000
3908		-152.343750
3909		-158.203125
3910		-152.343750
3911		-158.203125
3912		-154.296875
3913		-162.109375
3914		-154.296875
3915		-162.109375
3916		-156.250000
3917		-162.109375
3918		-158.203125
3919		-162.109375
3920		-158.203125
3921		-164.062500
3922		-160.156250
3923		-164.062500
3924		-160.156250
3925		-164.062500
3926		-162.109375
3927		-166.015625
3928		-162.109375
3929		-166.015625
3930		-160.156250
3931		-166.015625
3932		-160.156250
3933		-166.015625
3934		-162.109375
3935		-164.062500
3936		-162.109375
3937		-164.062500
3938		-162.109375
3939		-166.015625
3940		-160.156250
3941		-164.062500
3942		-160.156250
3943		-164.062500
3944		-160.156250
3945		-164.062500
3946		-160.156250
3947		-162.109375
3948		-158.203125
3949		-162.109375
3950		-158.203125
3951		-160.156250
3952		-156.250000
3953		-160.156250
3954		-154.296875
3955		-158.203125
3956		-154.296875
3957		-156.250000
3958		-152.343750
3959		-156.250000
3960		-150.390625
3961		-154.296875
3962		-150.390625
3963		-152.343750
3964		-148.437500
3965		-150.390625
3966		-146.484375
3967		-148.437500
3968		-144.531250
3969		-146.484375
3970		-142.578125
3971		-144.531250
3972		-140.625000
3973		-142.578125
3974		-138.671875
3975		-140.625000
3976		-134.765625
3977		-138.671875
3978		-132.812500
3979		-134.765625
3980		-130.859375
3981		-132.812500
3982		-126.953125
3983		-130.859375
3984		-125.000000
3985		-126.953125
3986		-121.093750
3987		-125.000000
3988		-119.140625
3989		-121.093750
3990		-115.234375
3991		-117.187500
3992		-111.328125
3993		-115.234375
3994		-109.375000
3995		-111.328125
3996		-107.421875
3997		-109.375000
3998		-103.515625
3999		-105.468750
4000		-99.609375
4001		-101.562500
4002		-95.703125
4003		-97.656250
4004		-93.750000
4005		-95.703125
4006		-89.843750
4007		-91.796875
4008		-85.937500
4009		-87.890625
4010		-82.031250
4011		-83.984375
4012		-78.125000
4013		-80.078125
4014		-74.218750
4015		-78.125000
4016		-70.312500
4017		-72.265625
4018		-66.406250
4019		-68.359375
4020		-62.500000
4021		-64.453125
4022		-58.593750
4023		-60.546875
4024		-54.687500
4025		-56.640625
4026		-50.781250
4027		-54.687500
4028		-46.875000
4029		-48.828125
4030		-44.921875
4031		-46.875000
4032		-39.062500
4033		-41.015625
4034		-37.109375
4035		-37.109375
4036		-31.250000
4037		-33.203125
4038		-27.343750
4039		-29.296875
4040		-23.437500
4041		-25.390625
4042		-19.531250
4043		-21.484375
4044		-15.625000
4045		-19.531250
4046		-11.718750
4047		-15.625000
4048		-7.812500
4049		-9.765625
4050		-3.906250
4051		-5.859375
4052		0.000000
4053		-3.906250
4054		3.906250
4055		1.953125
4056		7.812500
4057		5.859375
4058		11.718750
4059		7.812500
4060		13.671875
4061		11.718750
4062		17.578125
4063		15.625000
4064		21.484375
4065		19.531250
4066		25.390625
4067		23.437500
4068		29.296875
4069		27.343750
4070		33.203125
4071		29.296875
4072		35.156250
4073		33.203125
4074		39.062500
4075		37.109375
4076		42.968750
4077		41.015625
4078		46.875000
4079		42.968750
4080		48.828125
4081		46.875000
4082		52.734375
4083		48.828125
4084		56.640625
4085		52.734375
4086		58.593750
4087		56.640625
4088		60.546875
4089		58.593750
4090		64.453125
4091		62.500000
4092		66.406250
4093		64.453125
4094		70.312500
4095		68.359375
4096		72.265625
4097		70.312500
4098		74.218750
4099		72.265625
4100		78.125000
4101		76.171875
4102		80.078125
4103		78.125000
4104		82.031250
4105		80.078125
4106		85.937500
4107		82.031250
4108		87.890625
4109		85.937500
4110		89.843750
4111		87.890625
4112		91.796875
4113		89.843750
4114		93.750000
4115		91.796875
4116		95.703125
4117		93.750000
4118		97.656250
4119		95.703125
4120		99.609375
4121		97.656250
4122		103.515625
4123		99.609375
4124		103.515625
4125		101.562500
4126		105.468750
4127		103.515625
4128		107.421875
4129		103.515625
4130		107.421875
4131		105.468750
4132		109.375000
4133		105.468750
4134		111.328125
4135		109.375000
4136		111.328125
4137		109.375000
4138		113.281250
4139		111.328125
4140		115.234375
4141		111.328125
4142		115.234375
4143		113.281250
4144		117.187500
4145		113.281250
4146		119.140625
4147		115.234375
4148		119.140625
4149		115.234375
4150		119.140625
4151		115.234375
4152		119.140625
4153		117.187500
4154		119.140625
4155		117.187500
4156		121.093750
4157		117.187500
4158		121.093750
4159		117.187500
4160		123.046875
4161		119.140625
4162		121.093750
4163		119.140625
4164		123.046875
4165		119.140625
4166		121.093750
4167		119.140625
4168		123.046875
4169		119.140625
4170		121.093750
4171		119.140625
4172		121.093750
4173		119.140625
4174		123.046875
4175		119.140625
4176		121.093750
4177		117.187500
4178		121.093750
4179		117.187500
4180		121.093750
4181		117.187500
4182		121.093750
4183		117.187500
4184		121.093750
4185		115.234375
4186		119.140625
4187		115.234375
4188		119.140625
4189		115.234375
4190		119.140625
4191		113.281250
4192		117.187500
4193		113.281250
4194		117.187500
4195		111.328125
4196		115.234375
4197		109.375000
4198		113.281250
4199		109.375000
4200		113.281250
4201		107.421875
4202		111.328125
4203		107.421875
4204		109.375000
4205		103.515625
4206		109.375000
4207		103.515625
4208		107.421875
4209		101.562500
4210		105.468750
4211		99.609375
4212		103.515625
4213		97.656250
4214		101.562500
4215		95.703125
4216		99.609375
4217		93.750000
4218		97.656250
4219		91.796875
4220		97.656250
4221		89.843750
4222		95.703125
4223		87.890625
4224		91.796875
4225		85.937500
4226		89.843750
4227		82.031250
4228		87.890625
4229		80.078125
4230		85.937500
4231		78.125000
4232		83.984375
4233		76.171875
4234		80.078125
4235		72.265625
4236		78.125000
4237		70.312500
4238		76.171875
4239		68.359375
4240		72.265625
4241		64.453125
4242		70.312500
4243		62.500000
4244		66.406250
4245		58.593750
4246		64.453125
4247		56.640625
4248		60.546875
4249		52.734375
4250		58.593750
4251		48.828125
4252		54.687500
4253		46.875000
4254		52.734375
4255		42.968750
4256		48.828125
4257		39.062500
4258		44.921875
4259		35.156250
4260		41.015625
4261		33.203125
4262		39.062500
4263		29.296875
4264		35.156250
4265		25.390625
4266		31.250000
4267		21.484375
4268		27.343750
4269		19.531250
4270		25.390625
4271		15.625000
4272		19.531250
4273		11.718750
4274		17.578125
4275		7.812500
4276		13.671875
4277		3.906250
4278		9.765625
4279		0.000000
4280		5.859375
4281		-3.906250
4282		1.953125
4283		-7.812500
4284		-1.953125
4285		-11.718750
4286		-5.859375
4287		-15.625000
4288		-9.765625
4289		-19.531250
4290		-13.671875
4291		-23.437500
4292		-17.578125
4293		-27.343750
4294		-19.531250
4295		-31.250000
4296		-25.390625
4297		-35.156250
4298		-29.296875
4299		-39.062500
4300		-31.250000
4301		-42.968750
4302		-37.109375
4303		-46.875000
4304		-41.015625
4305		-50.781250
4306		-44.921875
4307		-52.734375
4308		-46.875000
4309		-58.593750
4310		-50.781250
4311		-62.500000
4312		-54.687500
4313		-64.453125
4314		-58.593750
4315		-68.359375
4316		-62.500000
4317		-72.265625
4318		-66.406250
4319		-76.171875
4320		-70.312500
4321		-80.078125
4322		-74.218750
4323		-83.984375
4324		-78.125000
4325		-87.890625
4326		-80.078125
4327		-91.796875
4328		-83.984375
4329		-93.750000
4330		-87.890625
4331		-97.656250
4332		-91.796875
4333		-101.562500
4334		-95.703125
4335		-103.515625
4336		-97.656250
4337		-107.421875
4338		-101.562500
4339		-109.375000
4340		-105.468750
4341		-113.281250
4342		-109.375000
4343		-117.187500
4344		-111.328125
4345		-119.140625
4346		-113.281250
4347		-123.046875
4348		-117.187500
4349		-125.000000
4350		-119.140625
4351		-128.906250
4352		-123.046875
4353		-130.859375
4354		-125.000000
4355		-134.765625
4356		-128.906250
4357		-136.718750
4358		-130.859375
4359		-140.625000
4360		-132.812500
4361		-142.578125
4362		-134.765625
4363		-144.531250
4364		-138.671875
4365		-146.484375
4366		-140.625000
4367		-148.437500
4368		-142.578125
4369		-148.437500
4370		-144.531250
4371		-150.390625
4372		-146.484375
4373		-152.343750
4374		-148.437500
4375		-154.296875
4376		-148.437500
4377		-156.250000
4378		-150.390625
4379		-158.203125
4380		-154.296875
4381		-158.203125
4382		-154.296875
4383		-160.156250
4384		-154.296875
4385		-162.109375
4386		-156.250000
4387		-162.109375
4388		-158.203125
4389		-162.109375
4390		-160.156250
4391		-164.062500
4392		-158.203125
4393		-164.062500
4394		-160.156250
4395		-164.062500
4396		-160.156250
4397		-166.015625
4398		-160.156250
4399		-166.015625
4400		-162.109375
4401		-166.015625
4402		-162.109375
4403		-166.015625
4404		-162.109375
4405		-166.015625
4406		-162.109375
4407		-166.015625
4408		-162.109375
4409		-166.015625
4410		-162.109375
4411		-166.015625
4412		-160.156250
4413		-166.015625
4414		-160.156250
4415		-166.015625
4416		-160.156250
4417		-164.062500
4418		-158.203125
4419		-164.062500
4420		-158.203125
4421		-162.109375
4422		-158.203125
4423		-160.156250
4424		-156.250000
4425		-160.156250
4426		-154.296875
4427		-158.203125
4428		-154.296875
4429		-156.250000
4430		-152.343750
4431		-156.250000
4432		-150.390625
4433		-154.296875
4434		-148.437500
4435		-152.343750
4436		-146.484375
4437		-150.390625
4438		-146.484375
4439		-148.437500
4440		-144.531250
4441		-146.484375
4442		-140.625000
4443		-144.531250
4444		-138.671875
4445		-142.578125
4446		-136.718750
4447		-140.625000
4448		-134.765625
4449		-136.718750
4450		-130.859375
4451		-134.765625
4452		-128.906250
4453		-132.812500
4454		-126.953125
4455		-128.906250
4456		-123.046875
4457		-125.000000
4458		-121.093750
4459		-125.000000
4460		-117.187500
4461		-121.093750
4462		-113.281250
4463		-119.140625
4464		-111.328125
4465		-115.234375
4466		-107.421875
4467		-111.328125
4468		-105.468750
4469		-107.421875
4470		-101.562500
4471		-105.468750
4472		-97.656250
4473		-101.562500
4474		-95.703125
4475		-97.656250
4476		-91.796875
4477		-93.750000
4478		-87.890625
4479		-89.843750
4480		-83.984375
4481		-85.937500
4482		-80.078125
4483		-82.031250
4484		-76.171875
4485		-78.125000
4486		-74.218750
4487		-76.171875
4488		-70.312500
4489		-72.265625
4490		-64.453125
4491		-68.359375
4492		-62.500000
4493		-64.453125
4494		-58.593750
4495		-60.546875
4496		-54.687500
4497		-56.640625
4498		-50.781250
4499		-52.734375
4500		-44.921875
4501		-48.828125
4502		-42.968750
4503		-44.921875
4504		-37.109375
4505		-41.015625
4506		-35.156250
4507		-37.109375
4508		-31.250000
4509		-33.203125
4510		-27.343750
4511		-27.343750
4512		-23.437500
4513		-25.390625
4514		-19.531250
4515		-21.484375
4516		-15.625000
4517		-17.578125
4518		-9.765625
4519		-13.671875
4520		-7.812500
4521		-9.765625
4522		-3.906250
4523		-5.859375
4524		0.000000
4525		-1.953125
4526		3.906250
4527		1.953125
4528		7.812500
4529		5.859375
4530		11.718750
4531		9.765625
4532		15.625000
4533		13.671875
4534		19.531250
4535		17.578125
4536		23.437500
4537		21.484375
4538		25.390625
4539		23.437500
4540		31.250000
4541		27.343750
4542		33.203125
4543		31.250000
4544		37.109375
4545		35.156250
4546		41.015625
4547		39.062500
4548		42.968750
4549		41.015625
4550		46.875000
4551		44.921875
4552		50.781250
4553		48.828125
4554		52.734375
4555		50.781250
4556		56.640625
4557		54.687500
4558		60.546875
4559		56.640625
4560		62.500000
4561		60.546875
4562		64.453125
4563		62.500000
4564		68.359375
4565		66.406250
4566		70.312500
4567		68.359375
4568		74.218750
4569		70.312500
4570		76.171875
4571		74.218750
4572		78.125000
4573		76.171875
4574		82.031250
4575		78.125000
4576		85.937500
4577		78.125000
4578		87.890625
4579		80.078125
4580		89.843750
4581		82.031250
4582		91.796875
4583		87.890625
4584		91.796875
4585		89.843750
4586		95.703125
4587		91.796875
4588		95.703125
4589		93.750000
4590		99.609375
4591		95.703125
4592		99.609375
4593		95.703125
4594		103.515625
4595		97.656250
4596		105.468750
4597		97.656250
4598		107.421875
4599		103.515625
4600		107.421875
4601		105.468750
4602		109.375000
4603		105.468750
4604		109.375000
4605		107.421875
4606		111.328125
4607		109.375000
4608		113.281250
4609		107.421875
4610		117.187500
4611		109.375000
4612		117.187500
4613		109.375000
4614		119.140625
4615		111.328125
4616		117.187500
4617		113.281250
4618		117.187500
4619		115.234375
4620		119.140625
4621		115.234375
4622		119.140625
4623		117.187500
4624		119.140625
4625		117.187500
4626		119.140625
4627		115.234375
4628		125.000000
4629		115.234375
4630		125.000000
4631		115.234375
4632		125.000000
4633		119.140625
4634		121.093750
4635		119.140625
4636		121.093750
4637		119.140625
4638		121.093750
4639		119.140625
4640		121.093750
4641		119.140625
4642		121.093750
4643		115.234375
4644		125.000000
4645		115.234375
4646		125.000000
4647		115.234375
4648		125.000000
4649		117.187500
4650		121.093750
4651		117.187500
4652		121.093750
4653		117.187500
4654		119.140625
4655		115.234375
4656		119.140625
4657		115.234375
4658		119.140625
4659		111.328125
4660		121.093750
4661		111.328125
4662		119.140625
4663		109.375000
4664		119.140625
4665		109.375000
4666		117.187500
4667		111.328125
4668		115.234375
4669		109.375000
4670		113.281250
4671		107.421875
4672		111.328125
4673		107.421875
4674		111.328125
4675		105.468750
4676		109.375000
4677		101.562500
4678		111.328125
4679		99.609375
4680		109.375000
4681		97.656250
4682		107.421875
4683		99.609375
4684		103.515625
4685		97.656250
4686		101.562500
4687		95.703125
4688		99.609375
4689		93.750000
4690		97.656250
4691		91.796875
4692		95.703125
4693		85.937500
4694		95.703125
4695		83.984375
4696		93.750000
4697		82.031250
4698		91.796875
4699		82.031250
4700		89.843750
4701		80.078125
4702		83.984375
4703		78.125000
4704		82.031250
4705		74.218750
4706		78.125000
4707		72.265625
4708		76.171875
4709		68.359375
4710		74.218750
4711		64.453125
4712		74.218750
4713		60.546875
4714		70.312500
4715		58.593750
4716		68.359375
4717		56.640625
4718		62.500000
4719		54.687500
4720		60.546875
4721		50.781250
4722		56.640625
4723		46.875000
4724		52.734375
4725		44.921875
4726		50.781250
4727		39.062500
4728		46.875000
4729		35.156250
4730		44.921875
4731		31.250000
4732		44.921875
4733		31.250000
4734		37.109375
4735		27.343750
4736		33.203125
4737		23.437500
4738		29.296875
4739		21.484375
4740		25.390625
4741		17.578125
4742		21.484375
4743		9.765625
4744		19.531250
4745		5.859375
4746		17.578125
4747		3.906250
4748		15.625000
4749		1.953125
4750		9.765625
4751		-1.953125
4752		3.906250
4753		-5.859375
4754		0.000000
4755		-9.765625
4756		-3.906250
4757		-13.671875
4758		-7.812500
4759		-17.578125
4760		-11.718750
4761		-21.484375
4762		-15.625000
4763		-25.390625
4764		-17.578125
4765		-29.296875
4766		-21.484375
4767		-31.250000
4768		-27.343750
4769		-37.109375
4770		-29.296875
4771		-41.015625
4772		-33.203125
4773		-44.921875
4774		-37.109375
4775		-46.875000
4776		-42.968750
4777		-50.781250
4778		-44.921875
4779		-56.640625
4780		-48.828125
4781		-60.546875
4782		-52.734375
4783		-62.500000
4784		-56.640625
4785		-66.406250
4786		-60.546875
4787		-70.312500
4788		-64.453125
4789		-74.218750
4790		-68.359375
4791		-78.125000
4792		-72.265625
4793		-82.031250
4794		-76.171875
4795		-83.984375
4796		-80.078125
4797		-89.843750
4798		-82.031250
4799		-91.796875
4800		-85.937500
4801		-95.703125
4802		-89.843750
4803		-97.656250
4804		-93.750000
4805		-101.562500
4806		-97.656250
4807		-105.468750
4808		-99.609375
4809		-109.375000
4810		-103.515625
4811		-111.328125
4812		-105.468750
4813		-115.234375
4814		-109.375000
4815		-117.187500
4816		-113.281250
4817		-121.093750
4818		-115.234375
4819		-123.046875
4820		-119.140625
4821		-126.953125
4822		-121.093750
4823		-128.906250
4824		-125.000000
4825		-130.859375
4826		-126.953125
4827		-134.765625
4828		-128.906250
4829		-136.718750
4830		-132.812500
4831		-138.671875
4832		-134.765625
4833		-140.625000
4834		-136.718750
4835		-142.578125
4836		-138.671875
4837		-146.484375
4838		-140.625000
4839		-148.437500
4840		-142.578125
4841		-148.437500
4842		-144.531250
4843		-152.343750
4844		-148.437500
4845		-152.343750
4846		-148.437500
4847		-154.296875
4848		-150.390625
4849		-156.250000
4850		-152.343750
4851		-158.203125
4852		-154.296875
4853		-158.203125
4854		-154.296875
4855		-160.156250
4856		-156.250000
4857		-162.109375
4858		-158.203125
4859		-162.109375
4860		-158.203125
4861		-164.062500
4862		-160.156250
4863		-164.062500
4864		-160.156250
4865		-164.062500
4866		-160.156250
4867		-164.062500
4868		-162.109375
4869		-166.015625
4870		-162.109375
4871		-166.015625
4872		-162.109375
4873		-166.015625
4874		-162.109375
4875		-166.015625
4876		-162.109375
4877		-166.015625
4878		-162.109375
4879		-166.015625
4880		-162.109375
4881		-166.015625
4882		-162.109375
4883		-164.062500
4884		-162.109375
4885		-164.062500
4886		-160.156250
4887		-164.062500
4888		-160.156250
4889		-162.109375
4890		-158.203125
4891		-162.109375
4892		-158.203125
4893		-160.156250
4894		-158.203125
4895		-160.156250
4896		-156.250000
4897		-158.203125
4898		-154.296875
4899		-156.250000
4900		-154.296875
4901		-156.250000
4902		-150.390625
4903		-156.250000
4904		-150.390625
4905		-152.343750
4906		-148.437500
4907		-150.390625
4908		-146.484375
4909		-148.437500
4910		-144.531250
4911		-146.484375
4912		-140.625000
4913		-144.531250
4914		-140.625000
4915		-144.531250
4916		-138.671875
4917		-140.625000
4918		-136.718750
4919		-138.671875
4920		-132.812500
4921		-136.718750
4922		-130.859375
4923		-134.765625
4924		-128.906250
4925		-130.859375
4926		-125.000000
4927		-126.953125
4928		-123.046875
4929		-125.000000
4930		-119.140625
4931		-121.093750
4932		-117.187500
4933		-119.140625
4934		-113.281250
4935		-115.234375
4936		-109.375000
4937		-113.281250
4938		-107.421875
4939		-109.375000
4940		-103.515625
4941		-105.468750
4942		-101.562500
4943		-103.515625
4944		-97.656250
4945		-99.609375
4946		-93.750000
4947		-95.703125
4948		-89.843750
4949		-91.796875
4950		-85.937500
4951		-87.890625
4952		-82.031250
4953		-85.937500
4954		-78.125000
4955		-82.031250
4956		-76.171875
4957		-78.125000
4958		-72.265625
4959		-74.218750
4960		-68.359375
4961		-70.312500
4962		-64.453125
4963		-66.406250
4964		-60.546875
4965		-62.500000
4966		-56.640625
4967		-58.593750
4968		-52.734375
4969		-54.687500
4970		-48.828125
4971		-50.781250
4972		-44.921875
4973		-46.875000
4974		-41.015625
4975		-42.968750
4976		-37.109375
4977		-39.062500
4978		-33.203125
4979		-35.156250
4980		-27.343750
4981		-31.250000
4982		-25.390625
4983		-27.343750
4984		-21.484375
4985		-23.437500
4986		-17.578125
4987		-19.531250
4988		-13.671875
4989		-15.625000
4990		-9.765625
4991		-11.718750
4992		-5.859375
4993		-7.812500
4994		-1.953125
4995		-3.906250
4996		3.906250
4997		0.000000
4998		5.859375
4999		3.906250
5000		9.765625
5001		7.812500
5002		13.671875
5003		11.718750
5004		17.578125
5005		15.625000
5006		21.484375
5007		19.531250
5008		23.437500
5009		23.437500
5010		27.343750
5011		25.390625
5012		31.250000
5013		29.296875
5014		35.156250
5015		33.203125
5016		39.062500
5017		37.109375
5018		41.015625
5019		39.062500
5020		44.921875
5021		42.968750
5022		46.875000
5023		46.875000
5024		50.781250
5025		48.828125
5026		54.687500
5027		52.734375
5028		56.640625
5029		54.687500
5030		60.546875
5031		58.593750
5032		64.453125
5033		60.546875
5034		66.406250
5035		64.453125
5036		70.312500
5037		66.406250
5038		72.265625
5039		70.312500
5040		74.218750
5041		72.265625
5042		78.125000
5043		74.218750
5044		80.078125
5045		78.125000
5046		82.031250
5047		80.078125
5048		83.984375
5049		82.031250
5050		85.937500
5051		83.984375
5052		89.843750
5053		85.937500
5054		91.796875
5055		89.843750
5056		93.750000
5057		91.796875
5058		95.703125
5059		93.750000
5060		97.656250
5061		95.703125
5062		99.609375
5063		97.656250
5064		101.562500
5065		99.609375
5066		103.515625
5067		101.562500
5068		105.468750
5069		101.562500
5070		107.421875
5071		103.515625
5072		107.421875
5073		105.468750
5074		109.375000
5075		107.421875
5076		109.375000
5077		109.375000
5078		111.328125
5079		109.375000
5080		113.281250
5081		111.328125
5082		113.281250
5083		111.328125
5084		115.234375
5085		111.328125
5086		117.187500
5087		113.281250
5088		117.187500
5089		115.234375
5090		117.187500
5091		115.234375
5092		119.140625
5093		115.234375
5094		119.140625
5095		117.187500
5096		121.093750
5097		117.187500
5098		121.093750
5099		117.187500
5100		121.093750
5101		119.140625
5102		121.093750
5103		119.140625
5104		121.093750
5105		119.140625
5106		121.093750
5107		119.140625
5108		123.046875
5109		119.140625
5110		121.093750
5111		119.140625
5112		121.093750
5113		119.140625
5114		121.093750
5115		119.140625
5116		121.093750
5117		119.140625
5118		121.093750
5119		117.187500
5120		121.093750
5121		117.187500
5122		121.093750
5123		117.187500
5124		119.140625
5125		117.187500
5126		119.140625
5127		115.234375
5128		119.140625
5129		115.234375
5130		119.140625
5131		113.281250
5132		117.187500
5133		113.281250
5134		117.187500
5135		111.328125
5136		115.234375
5137		111.328125
5138		115.234375
5139		111.328125
5140		113.281250
5141		109.375000
5142		113.281250
5143		107.421875
5144		111.328125
5145		107.421875
5146		109.375000
5147		105.468750
5148		109.375000
5149		103.515625
5150		107.421875
5151		101.562500
5152		105.468750
5153		99.609375
5154		103.515625
5155		97.656250
5156		101.562500
5157		95.703125
5158		99.609375
5159		93.750000
5160		97.656250
5161		91.796875
5162		95.703125
5163		89.843750
5164		95.703125
5165		87.890625
5166		93.750000
5167		85.937500
5168		89.843750
5169		83.984375
5170		87.890625
5171		82.031250
5172		85.937500
5173		78.125000
5174		83.984375
5175		76.171875
5176		80.078125
5177		74.218750
5178		78.125000
5179		70.312500
5180		76.171875
5181		68.359375
5182		72.265625
5183		64.453125
5184		70.312500
5185		62.500000
5186		66.406250
5187		58.593750
5188		64.453125
5189		56.640625
5190		60.546875
5191		52.734375
5192		58.593750
5193		50.781250
5194		54.687500
5195		46.875000
5196		52.734375
5197		42.968750
5198		48.828125
5199		39.062500
5200		46.875000
5201		37.109375
5202		42.968750
5203		33.203125
5204		39.062500
5205		29.296875
5206		35.156250
5207		25.390625
5208		31.250000
5209		23.437500
5210		27.343750
5211		19.531250
5212		25.390625
5213		15.625000
5214		21.484375
5215		11.718750
5216		17.578125
5217		7.812500
5218		15.625000
5219		3.906250
5220		9.765625
5221		0.000000
5222		5.859375
5223		-3.906250
5224		3.906250
5225		-7.812500
5226		0.000000
5227		-9.765625
5228		-3.906250
5229		-13.671875
5230		-9.765625
5231		-19.531250
5232		-11.718750
5233		-23.437500
5234		-15.625000
5235		-25.390625
5236		-19.531250
5237		-31.250000
5238		-23.437500
5239		-33.203125
5240		-27.343750
5241		-37.109375
5242		-31.250000
5243		-41.015625
5244		-35.156250
5245		-44.921875
5246		-39.062500
5247		-50.781250
5248		-42.968750
5249		-52.734375
5250		-44.921875
5251		-56.640625
5252		-48.828125
5253		-60.546875
5254		-54.687500
5255		-64.453125
5256		-58.593750
5257		-68.359375
5258		-62.500000
5259		-72.265625
5260		-66.406250
5261		-76.171875
5262		-70.312500
5263		-78.125000
5264		-74.218750
5265		-83.984375
5266		-76.171875
5267		-85.937500
5268		-80.078125
5269		-89.843750
5270		-83.984375
5271		-93.750000
5272		-87.890625
5273		-95.703125
5274		-89.843750
5275		-99.609375
5276		-93.750000
5277		-103.515625
5278		-97.656250
5279		-105.468750
5280		-101.562500
5281		-111.328125
5282		-103.515625
5283		-113.281250
5284		-105.468750
5285		-115.234375
5286		-109.375000
5287		-119.140625
5288		-113.281250
5289		-121.093750
5290		-117.187500
5291		-123.046875
5292		-119.140625
5293		-126.953125
5294		-123.046875
5295		-130.859375
5296		-125.000000
5297		-132.812500
5298		-126.953125
5299		-134.765625
5300		-128.906250
5301		-136.718750
5302		-130.859375
5303		-140.625000
5304		-134.765625
5305		-142.578125
5306		-136.718750
5307		-144.531250
5308		-138.671875
5309		-146.484375
5310		-142.578125
5311		-148.437500
5312		-144.531250
5313		-150.390625
5314		-146.484375
5315		-152.343750
5316		-146.484375
5317		-154.296875
5318		-148.437500
5319		-154.296875
5320		-150.390625
5321		-156.250000
5322		-152.343750
5323		-158.203125
5324		-154.296875
5325		-158.203125
5326		-154.296875
5327		-160.156250
5328		-156.250000
5329		-160.156250
5330		-158.203125
5331		-162.109375
5332		-158.203125
5333		-164.062500
5334		-158.203125
5335		-164.062500
5336		-158.203125
5337		-164.062500
5338		-160.156250
5339		-164.062500
5340		-162.109375
5341		-164.062500
5342		-162.109375
5343		-164.062500
5344		-162.109375
5345		-164.062500
5346		-162.109375
5347		-164.062500
5348		-162.109375
5349		-166.015625
5350		-160.156250
5351		-166.015625
5352		-160.156250
5353		-164.062500
5354		-160.156250
5355		-164.062500
5356		-160.156250
5357		-164.062500
5358		-160.156250
5359		-162.109375
5360		-158.203125
5361		-162.109375
5362		-158.203125
5363		-160.156250
5364		-156.250000
5365		-160.156250
5366		-154.296875
5367		-160.156250
5368		-152.343750
5369		-158.203125
5370		-154.296875
5371		-156.250000
5372		-152.343750
5373		-154.296875
5374		-150.390625
5375		-152.343750
5376		-148.437500
5377		-150.390625
5378		-146.484375
5379		-148.437500
5380		-144.531250
5381		-146.484375
5382		-142.578125
5383		-146.484375
5384		-140.625000
5385		-142.578125
5386		-138.671875
5387		-140.625000
5388		-136.718750
5389		-138.671875
5390		-134.765625
5391		-136.718750
5392		-130.859375
5393		-132.812500
5394		-128.906250
5395		-130.859375
5396		-125.000000
5397		-126.953125
5398		-123.046875
5399		-125.000000
5400		-121.093750
5401		-121.093750
5402		-117.187500
5403		-119.140625
5404		-113.281250
5405		-115.234375
5406		-111.328125
5407		-113.281250
5408		-107.421875
5409		-109.375000
5410		-105.468750
5411		-105.468750
5412		-101.562500
5413		-103.515625
5414		-97.656250
5415		-99.609375
5416		-93.750000
5417		-97.656250
5418		-89.843750
5419		-93.750000
5420		-87.890625
5421		-89.843750
5422		-83.984375
5423		-85.937500
5424		-80.078125
5425		-82.031250
5426		-76.171875
5427		-78.125000
5428		-72.265625
5429		-74.218750
5430		-68.359375
5431		-70.312500
5432		-64.453125
5433		-66.406250
5434		-60.546875
5435		-62.500000
5436		-56.640625
5437		-58.593750
5438		-52.734375
5439		-54.687500
5440		-48.828125
5441		-50.781250
5442		-44.921875
5443		-46.875000
5444		-41.015625
5445		-42.968750
5446		-37.109375
5447		-39.062500
5448		-33.203125
5449		-35.156250
5450		-29.296875
5451		-31.250000
5452		-25.390625
5453		-27.343750
5454		-21.484375
5455		-23.437500
5456		-17.578125
5457		-19.531250
5458		-13.671875
5459		-15.625000
5460		-9.765625
5461		-11.718750
5462		-5.859375
5463		-7.812500
5464		-1.953125
5465		-3.906250
5466		1.953125
5467		0.000000
5468		5.859375
5469		3.906250
5470		9.765625
5471		7.812500
5472		13.671875
5473		11.718750
5474		15.625000
5475		13.671875
5476		19.531250
5477		17.578125
5478		23.437500
5479		21.484375
5480		27.343750
5481		25.390625
5482		31.250000
5483		29.296875
5484		33.203125
5485		31.250000
5486		37.109375
5487		35.156250
5488		41.015625
5489		39.062500
5490		44.921875
5491		42.968750
5492		46.875000
5493		44.921875
5494		50.781250
5495		48.828125
5496		54.687500
5497		52.734375
5498		56.640625
5499		54.687500
5500		60.546875
5501		58.593750
5502		62.500000
5503		60.546875
5504		66.406250
5505		64.453125
5506		68.359375
5507		66.406250
5508		72.265625
5509		70.312500
5510		74.218750
5511		72.265625
5512		76.171875
5513		74.218750
5514		80.078125
5515		78.125000
5516		82.031250
5517		80.078125
5518		83.984375
5519		82.031250
5520		87.890625
5521		83.984375
5522		89.843750
5523		85.937500
5524		91.796875
5525		89.843750
5526		93.750000
5527		91.796875
5528		95.703125
5529		93.750000
5530		97.656250
5531		95.703125
5532		99.609375
5533		97.656250
5534		101.562500
5535		99.609375
5536		103.515625
5537		101.562500
5538		105.468750
5539		101.562500
5540		107.421875
5541		103.515625
5542		107.421875
5543		105.468750
5544		109.375000
5545		107.421875
5546		111.328125
5547		107.421875
5548		111.328125
5549		109.375000
5550		113.281250
5551		111.328125
5552		115.234375
5553		111.328125
5554		115.234375
5555		113.281250
5556		117.187500
5557		113.281250
5558		117.187500
5559		115.234375
5560		119.140625
5561		115.234375
5562		119.140625
5563		117.187500
5564		119.140625
5565		117.187500
5566		121.093750
5567		117.187500
5568		121.093750
5569		119.140625
5570		121.093750
5571		119.140625
5572		121.093750
5573		119.140625
5574		123.046875
5575		119.140625
5576		123.046875
5577		119.140625
5578		123.046875
5579		119.140625
5580		123.046875
5581		119.140625
5582		123.046875
5583		119.140625
5584		123.046875
5585		119.140625
5586		123.046875
5587		119.140625
5588		123.046875
5589		119.140625
5590		121.093750
5591		117.187500
5592		121.093750
5593		117.187500
5594		121.093750
5595		117.187500
5596		121.093750
5597		117.187500
5598		121.093750
5599		117.187500
5600		119.140625
5601		115.234375
5602		119.140625
5603		115.234375
5604		117.187500
5605		113.281250
5606		117.187500
5607		113.281250
5608		117.187500
5609		111.328125
5610		115.234375
5611		111.328125
5612		113.281250
5613		109.375000
5614		113.281250
5615		107.421875
5616		111.328125
5617		105.468750
5618		109.375000
5619		105.468750
5620		109.375000
5621		103.515625
5622		107.421875
5623		101.562500
5624		105.468750
5625		99.609375
5626		103.515625
5627		97.656250
5628		101.562500
5629		95.703125
5630		99.609375
5631		93.750000
5632		97.656250
5633		91.796875
5634		97.656250
5635		89.843750
5636		93.750000
5637		87.890625
5638		91.796875
5639		85.937500
5640		89.843750
5641		83.984375
5642		87.890625
5643		80.078125
5644		85.937500
5645		78.125000
5646		82.031250
5647		76.171875
5648		80.078125
5649		72.265625
5650		78.125000
5651		70.312500
5652		74.218750
5653		68.359375
5654		72.265625
5655		64.453125
5656		70.312500
5657		62.500000
5658		66.406250
5659		58.593750
5660		64.453125
5661		54.687500
5662		60.546875
5663		52.734375
5664		58.593750
5665		48.828125
5666		54.687500
5667		44.921875
5668		50.781250
5669		42.968750
5670		48.828125
5671		39.062500
5672		44.921875
5673		35.156250
5674		41.015625
5675		33.203125
5676		37.109375
5677		29.296875
5678		35.156250
5679		25.390625
5680		31.250000
5681		21.484375
5682		27.343750
5683		17.578125
5684		23.437500
5685		13.671875
5686		19.531250
5687		11.718750
5688		15.625000
5689		7.812500
5690		11.718750
5691		3.906250
5692		9.765625
5693		0.000000
5694		5.859375
5695		-3.906250
5696		1.953125
5697		-7.812500
5698		-1.953125
5699		-11.718750
5700		-5.859375
5701		-15.625000
5702		-9.765625
5703		-19.531250
5704		-13.671875
5705		-23.437500
5706		-17.578125
5707		-27.343750
5708		-21.484375
5709		-31.250000
5710		-25.390625
5711		-35.156250
5712		-29.296875
5713		-39.062500
5714		-33.203125
5715		-42.968750
5716		-37.109375
5717		-46.875000
5718		-41.015625
5719		-50.781250
5720		-44.921875
5721		-54.687500
5722		-48.828125
5723		-58.593750
5724		-52.734375
5725		-60.546875
5726		-56.640625
5727		-64.453125
5728		-60.546875
5729		-70.312500
5730		-62.500000
5731		-72.265625
5732		-66.406250
5733		-76.171875
5734		-70.312500
5735		-80.078125
5736		-74.218750
5737		-83.984375
5738		-78.125000
5739		-87.890625
5740		-82.031250
5741		-91.796875
5742		-85.937500
5743		-93.750000
5744		-87.890625
5745		-97.656250
5746		-91.796875
5747		-101.562500
5748		-95.703125
5749		-103.515625
5750		-99.609375
5751		-107.421875
5752		-101.562500
5753		-111.328125
5754		-105.468750
5755		-113.281250
5756		-109.375000
5757		-115.234375
5758		-111.328125
5759		-119.140625
5760		-115.234375
5761		-123.046875
5762		-117.187500
5763		-125.000000
5764		-119.140625
5765		-128.906250
5766		-123.046875
5767		-130.859375
5768		-126.953125
5769		-132.812500
5770		-128.906250
5771		-136.718750
5772		-130.859375
5773		-138.671875
5774		-132.812500
5775		-140.625000
5776		-134.765625
5777		-142.578125
5778		-138.671875
5779		-144.531250
5780		-140.625000
5781		-146.484375
5782		-142.578125
5783		-148.437500
5784		-144.531250
5785		-150.390625
5786		-146.484375
5787		-152.343750
5788		-148.437500
5789		-154.296875
5790		-150.390625
5791		-156.250000
5792		-150.390625
5793		-156.250000
5794		-152.343750
5795		-158.203125
5796		-154.296875
5797		-158.203125
5798		-156.250000
5799		-160.156250
5800		-156.250000
5801		-160.156250
5802		-158.203125
5803		-162.109375
5804		-158.203125
5805		-162.109375
5806		-160.156250
5807		-164.062500
5808		-160.156250
5809		-164.062500
5810		-160.156250
5811		-164.062500
5812		-160.156250
5813		-164.062500
5814		-160.156250
5815		-164.062500
5816		-162.109375
5817		-164.062500
5818		-162.109375
5819		-164.062500
5820		-162.109375
5821		-164.062500
5822		-162.109375
5823		-164.062500
5824		-160.156250
5825		-164.062500
5826		-160.156250
5827		-164.062500
5828		-160.156250
5829		-162.109375
5830		-160.156250
5831		-162.109375
5832		-158.203125
5833		-162.109375
5834		-158.203125
5835		-160.156250
5836		-156.250000
5837		-160.156250
5838		-156.250000
5839		-158.203125
5840		-154.296875
5841		-156.250000
5842		-152.343750
5843		-156.250000
5844		-150.390625
5845		-154.296875
5846		-150.390625
5847		-152.343750
5848		-148.437500
5849		-150.390625
5850		-146.484375
5851		-148.437500
5852		-144.531250
5853		-146.484375
5854		-142.578125
5855		-144.531250
5856		-140.625000
5857		-142.578125
5858		-138.671875
5859		-140.625000
5860		-134.765625
5861		-136.718750
5862		-132.812500
5863		-134.765625
5864		-130.859375
5865		-132.812500
5866		-126.953125
5867		-128.906250
5868		-125.000000
5869		-126.953125
5870		-121.093750
5871		-125.000000
5872		-119.140625
5873		-121.093750
5874		-117.187500
5875		-119.140625
5876		-113.281250
5877		-115.234375
5878		-109.375000
5879		-111.328125
5880		-107.421875
5881		-109.375000
5882		-103.515625
5883		-105.468750
5884		-99.609375
5885		-101.562500
5886		-95.703125
5887		-99.609375
5888		-93.750000
5889		-95.703125
5890		-89.843750
5891		-91.796875
5892		-85.937500
5893		-87.890625
5894		-82.031250
5895		-83.984375
5896		-78.125000
5897		-80.078125
5898		-74.218750
5899		-76.171875
5900		-70.312500
5901		-74.218750
5902		-68.359375
5903		-70.312500
5904		-64.453125
5905		-64.453125
5906		-58.593750
5907		-62.500000
5908		-56.640625
5909		-58.593750
5910		-52.734375
5911		-54.687500
5912		-48.828125
5913		-50.781250
5914		-44.921875
5915		-46.875000
5916		-39.062500
5917		-41.015625
5918		-37.109375
5919		-39.062500
5920		-31.250000
5921		-33.203125
5922		-29.296875
5923		-29.296875
5924		-23.437500
5925		-27.343750
5926		-19.531250
5927		-21.484375
5928		-15.625000
5929		-17.578125
5930		-11.718750
5931		-15.625000
5932		-7.812500
5933		-9.765625
5934		-3.906250
5935		-5.859375
5936		0.000000
5937		-1.953125
5938		1.953125
5939		0.000000
5940		5.859375
5941		3.906250
5942		11.718750
5943		7.812500
5944		13.671875
5945		11.718750
5946		17.578125
5947		15.625000
5948		21.484375
5949		19.531250
5950		25.390625
5951		23.437500
5952		27.343750
5953		25.390625
5954		31.250000
5955		29.296875
5956		35.156250
5957		33.203125
5958		39.062500
5959		37.109375
5960		41.015625
5961		41.015625
5962		44.921875
5963		42.968750
5964		48.828125
5965		46.875000
5966		52.734375
5967		48.828125
5968		54.687500
5969		52.734375
5970		58.593750
5971		56.640625
5972		60.546875
5973		58.593750
5974		64.453125
5975		62.500000
5976		66.406250
5977		64.453125
5978		70.312500
5979		68.359375
5980		72.265625
5981		70.312500
5982		74.218750
5983		72.265625
5984		78.125000
5985		76.171875
5986		80.078125
5987		78.125000
5988		82.031250
5989		80.078125
5990		85.937500
5991		82.031250
5992		87.890625
5993		85.937500
5994		89.843750
5995		87.890625
5996		91.796875
5997		89.843750
5998		93.750000
5999		91.796875
6000		95.703125
6001		93.750000
6002		97.656250
6003		95.703125
6004		99.609375
6005		97.656250
6006		101.562500
6007		99.609375
6008		103.515625
6009		101.562500
6010		105.468750
6011		103.515625
6012		105.468750
6013		103.515625
6014		107.421875
6015		105.468750
6016		109.375000
6017		107.421875
6018		111.328125
6019		109.375000
6020		111.328125
6021		109.375000
6022		113.281250
6023		111.328125
6024		113.281250
6025		111.328125
6026		115.234375
6027		113.281250
6028		117.187500
6029		113.281250
6030		117.187500
6031		115.234375
6032		117.187500
6033		115.234375
6034		119.140625
6035		117.187500
6036		119.140625
6037		117.187500
6038		121.093750
6039		117.187500
6040		121.093750
6041		117.187500
6042		121.093750
6043		119.140625
6044		121.093750
6045		119.140625
6046		121.093750
6047		119.140625
6048		121.093750
6049		119.140625
6050		123.046875
6051		119.140625
6052		121.093750
6053		119.140625
6054		123.046875
6055		119.140625
6056		121.093750
6057		119.140625
6058		123.046875
6059		119.140625
6060		121.093750
6061		119.140625
6062		121.093750
6063		117.187500
6064		121.093750
6065		117.187500
6066		121.093750
6067		117.187500
6068		119.140625
6069		115.234375
6070		119.140625
6071		115.234375
6072		119.140625
6073		113.281250
6074		117.187500
6075		113.281250
6076		117.187500
6077		111.328125
6078		115.234375
6079		111.328125
6080		115.234375
6081		111.328125
6082		113.281250
6083		109.375000
6084		113.281250
6085		107.421875
6086		111.328125
6087		107.421875
6088		111.328125
6089		105.468750
6090		109.375000
6091		103.515625
6092		107.421875
6093		101.562500
6094		105.468750
6095		99.609375
6096		103.515625
6097		97.656250
6098		103.515625
6099		95.703125
6100		101.562500
6101		93.750000
6102		99.609375
6103		91.796875
6104		97.656250
6105		91.796875
6106		95.703125
6107		87.890625
6108		93.750000
6109		85.937500
6110		91.796875
6111		83.984375
6112		87.890625
6113		82.031250
6114		85.937500
6115		78.125000
6116		83.984375
6117		76.171875
6118		82.031250
6119		74.218750
6120		78.125000
6121		70.312500
6122		76.171875
6123		68.359375
6124		74.218750
6125		66.406250
6126		70.312500
6127		62.500000
6128		68.359375
6129		60.546875
6130		64.453125
6131		56.640625
6132		62.500000
6133		52.734375
6134		58.593750
6135		50.781250
6136		54.687500
6137		46.875000
6138		52.734375
6139		42.968750
6140		48.828125
6141		41.015625
6142		46.875000
6143		37.109375
6144		42.968750
6145		33.203125
6146		39.062500
6147		29.296875
6148		35.156250
6149		27.343750
6150		33.203125
6151		23.437500
6152		29.296875
6153		19.531250
6154		25.390625
6155		15.625000
6156		21.484375
6157		11.718750
6158		17.578125
6159		7.812500
6160		13.671875
6161		5.859375
6162		9.765625
6163		1.953125
6164		7.812500
6165		-1.953125
6166		1.953125
6167		-5.859375
6168		0.000000
6169		-9.765625
6170		-3.906250
6171		-13.671875
6172		-7.812500
6173		-17.578125
6174		-11.718750
6175		-21.484375
6176		-15.625000
6177		-25.390625
6178		-19.531250
6179		-29.296875
6180		-23.437500
6181		-33.203125
6182		-27.343750
6183		-37.109375
6184		-31.250000
6185		-41.015625
6186		-35.156250
6187		-44.921875
6188		-39.062500
6189		-48.828125
6190		-42.968750
6191		-52.734375
6192		-46.875000
6193		-56.640625
6194		-50.781250
6195		-60.546875
6196		-54.687500
6197		-64.453125
6198		-58.593750
6199		-68.359375
6200		-62.500000
6201		-70.312500
6202		-66.406250
6203		-74.218750
6204		-70.312500
6205		-78.125000
6206		-72.265625
6207		-82.031250
6208		-76.171875
6209		-85.937500
6210		-80.078125
6211		-89.843750
6212		-83.984375
6213		-93.750000
6214		-87.890625
6215		-97.656250
6216		-91.796875
6217		-99.609375
6218		-93.750000
6219		-103.515625
6220		-97.656250
6221		-105.468750
6222		-101.562500
6223		-109.375000
6224		-103.515625
6225		-113.281250
6226		-107.421875
6227		-117.187500
6228		-109.375000
6229		-119.140625
6230		-113.281250
6231		-123.046875
6232		-117.187500
6233		-125.000000
6234		-119.140625
6235		-126.953125
6236		-123.046875
6237		-128.906250
6238		-125.000000
6239		-132.812500
6240		-126.953125
6241		-134.765625
6242		-130.859375
6243		-138.671875
6244		-132.812500
6245		-138.671875
6246		-134.765625
6247		-142.578125
6248		-136.718750
6249		-144.531250
6250		-138.671875
6251		-148.437500
6252		-140.625000
6253		-148.437500
6254		-144.531250
6255		-150.390625
6256		-146.484375
6257		-152.343750
6258		-148.437500
6259		-154.296875
6260		-150.390625
6261		-156.250000
6262		-150.390625
6263		-156.250000
6264		-152.343750
6265		-160.156250
6266		-154.296875
6267		-158.203125
6268		-156.250000
6269		-162.109375
6270		-154.296875
6271		-160.156250
6272		-158.203125
6273		-164.062500
6274		-158.203125
6275		-164.062500
6276		-158.203125
6277		-166.015625
6278		-160.156250
6279		-164.062500
6280		-160.156250
6281		-166.015625
6282		-160.156250
6283		-164.062500
6284		-162.109375
6285		-166.015625
6286		-160.156250
6287		-166.015625
6288		-162.109375
6289		-166.015625
6290		-162.109375
6291		-166.015625
6292		-160.156250
6293		-167.968750
6294		-158.203125
6295		-166.015625
6296		-160.156250
6297		-164.062500
6298		-160.156250
6299		-164.062500
6300		-160.156250
6301		-164.062500
6302		-160.156250
6303		-164.062500
6304		-156.250000
6305		-162.109375
6306		-158.203125
6307		-162.109375
6308		-154.296875
6309		-162.109375
6310		-152.343750
6311		-158.203125
6312		-154.296875
6313		-156.250000
6314		-152.343750
6315		-156.250000
6316		-148.437500
6317		-156.250000
6318		-146.484375
6319		-154.296875
6320		-146.484375
6321		-150.390625
6322		-146.484375
6323		-148.437500
6324		-144.531250
6325		-146.484375
6326		-140.625000
6327		-146.484375
6328		-138.671875
6329		-142.578125
6330		-136.718750
6331		-138.671875
6332		-134.765625
6333		-138.671875
6334		-130.859375
6335		-134.765625
6336		-126.953125
6337		-130.859375
6338		-126.953125
6339		-128.906250
6340		-125.000000
6341		-126.953125
6342		-119.140625
6343		-125.000000
6344		-115.234375
6345		-121.093750
6346		-115.234375
6347		-117.187500
6348		-113.281250
6349		-115.234375
6350		-105.468750
6351		-113.281250
6352		-105.468750
6353		-109.375000
6354		-101.562500
6355		-103.515625
6356		-99.609375
6357		-101.562500
6358		-93.750000
6359		-97.656250
6360		-89.843750
6361		-97.656250
6362		-87.890625
6363		-91.796875
6364		-83.984375
6365		-85.937500
6366		-82.031250
6367		-83.984375
6368		-76.171875
6369		-80.078125
6370		-72.265625
6371		-76.171875
6372		-70.312500
6373		-72.265625
6374		-66.406250
6375		-68.359375
6376		-60.546875
6377		-66.406250
6378		-56.640625
6379		-60.546875
6380		-54.687500
6381		-56.640625
6382		-50.781250
6383		-52.734375
6384		-42.968750
6385		-50.781250
6386		-42.968750
6387		-46.875000
6388		-37.109375
6389		-41.015625
6390		-35.156250
6391		-37.109375
6392		-29.296875
6393		-33.203125
6394		-23.437500
6395		-29.296875
6396		-23.437500
6397		-25.390625
6398		-19.531250
6399		-21.484375
6400		-11.718750
6401		-21.484375
6402		-9.765625
6403		-15.625000
6404		-5.859375
6405		-9.765625
6406		-3.906250
6407		-5.859375
6408		0.000000
6409		-1.953125
6410		3.906250
6411		0.000000
6412		9.765625
6413		5.859375
6414		11.718750
6415		9.765625
6416		15.625000
6417		11.718750
6418		21.484375
6419		17.578125
6420		25.390625
6421		21.484375
6422		25.390625
6423		23.437500
6424		29.296875
6425		27.343750
6426		33.203125
6427		29.296875
6428		37.109375
6429		33.203125
6430		41.015625
6431		37.109375
6432		42.968750
6433		41.015625
6434		48.828125
6435		41.015625
6436		50.781250
6437		46.875000
6438		52.734375
6439		50.781250
6440		56.640625
6441		54.687500
6442		60.546875
6443		56.640625
6444		64.453125
6445		56.640625
6446		64.453125
6447		62.500000
6448		68.359375
6449		66.406250
6450		70.312500
6451		66.406250
6452		74.218750
6453		72.265625
6454		76.171875
6455		74.218750
6456		78.125000
6457		76.171875
6458		82.031250
6459		78.125000
6460		83.984375
6461		78.125000
6462		87.890625
6463		82.031250
6464		87.890625
6465		85.937500
6466		89.843750
6467		85.937500
6468		95.703125
6469		87.890625
6470		95.703125
6471		89.843750
6472		95.703125
6473		95.703125
6474		97.656250
6475		95.703125
6476		101.562500
6477		97.656250
6478		105.468750
6479		99.609375
6480		105.468750
6481		101.562500
6482		105.468750
6483		101.562500
6484		109.375000
6485		101.562500
6486		111.328125
6487		103.515625
6488		111.328125
6489		107.421875
6490		111.328125
6491		109.375000
6492		113.281250
6493		109.375000
6494		115.234375
6495		109.375000
6496		117.187500
6497		111.328125
6498		115.234375
6499		113.281250
6500		117.187500
6501		113.281250
6502		119.140625
6503		113.281250
6504		121.093750
6505		115.234375
6506		119.140625
6507		117.187500
6508		119.140625
6509		117.187500
6510		121.093750
6511		117.187500
6512		123.046875
6513		115.234375
6514		123.046875
6515		119.140625
6516		121.093750
6517		117.187500
6518		123.046875
6519		119.140625
6520		121.093750
6521		119.140625
6522		123.046875
6523		119.140625
6524		123.046875
6525		119.140625
6526		123.046875
6527		119.140625
6528		123.046875
6529		117.187500
6530		123.046875
6531		117.187500
6532		123.046875
6533		117.187500
6534		121.093750
6535		115.234375
6536		123.046875
6537		117.187500
6538		121.093750
6539		117.187500
6540		119.140625
6541		115.234375
6542		119.140625
6543		113.281250
6544		119.140625
6545		113.281250
6546		117.187500
6547		113.281250
6548		117.187500
6549		113.281250
6550		117.187500
6551		111.328125
6552		115.234375
6553		109.375000
6554		113.281250
6555		109.375000
6556		113.281250
6557		107.421875
6558		111.328125
6559		105.468750
6560		109.375000
6561		105.468750
6562		107.421875
6563		103.515625
6564		107.421875
6565		101.562500
6566		105.468750
6567		99.609375
6568		103.515625
6569		97.656250
6570		101.562500
6571		95.703125
6572		99.609375
6573		93.750000
6574		97.656250
6575		91.796875
6576		95.703125
6577		89.843750
6578		93.750000
6579		87.890625
6580		93.750000
6581		83.984375
6582		89.843750
6583		82.031250
6584		89.843750
6585		80.078125
6586		85.937500
6587		78.125000
6588		83.984375
6589		76.171875
6590		80.078125
6591		72.265625
6592		78.125000
6593		68.359375
6594		74.218750
6595		66.406250
6596		72.265625
6597		62.500000
6598		70.312500
6599		60.546875
6600		68.359375
6601		56.640625
6602		64.453125
6603		54.687500
6604		60.546875
6605		52.734375
6606		58.593750
6607		48.828125
6608		54.687500
6609		44.921875
6610		50.781250
6611		41.015625
6612		48.828125
6613		37.109375
6614		44.921875
6615		35.156250
6616		42.968750
6617		31.250000
6618		39.062500
6619		27.343750
6620		35.156250
6621		25.390625
6622		33.203125
6623		21.484375
6624		27.343750
6625		17.578125
6626		23.437500
6627		13.671875
6628		19.531250
6629		9.765625
6630		17.578125
6631		5.859375
6632		13.671875
6633		1.953125
6634		9.765625
6635		-1.953125
6636		5.859375
6637		-5.859375
6638		1.953125
6639		-7.812500
6640		-1.953125
6641		-11.718750
6642		-5.859375
6643		-15.625000
6644		-9.765625
6645		-19.531250
6646		-13.671875
6647		-25.390625
6648		-17.578125
6649		-29.296875
6650		-21.484375
6651		-31.250000
6652		-23.437500
6653		-35.156250
6654		-29.296875
6655		-39.062500
6656		-33.203125
6657		-42.968750
6658		-37.109375
6659		-46.875000
6660		-41.015625
6661		-50.781250
6662		-44.921875
6663		-54.687500
6664		-48.828125
6665		-58.593750
6666		-52.734375
6667		-62.500000
6668		-54.687500
6669		-66.406250
6670		-60.546875
6671		-70.312500
6672		-62.500000
6673		-72.265625
6674		-66.406250
6675		-76.171875
6676		-72.265625
6677		-80.078125
6678		-74.218750
6679		-85.937500
6680		-78.125000
6681		-87.890625
6682		-82.031250
6683		-91.796875
6684		-85.937500
6685		-95.703125
6686		-89.843750
6687		-97.656250
6688		-91.796875
6689		-101.562500
6690		-95.703125
6691		-103.515625
6692		-99.609375
6693		-107.421875
6694		-101.562500
6695		-111.328125
6696		-105.468750
6697		-113.281250
6698		-107.421875
6699		-119.140625
6700		-111.328125
6701		-119.140625
6702		-113.281250
6703		-123.046875
6704		-117.187500
6705		-126.953125
6706		-121.093750
6707		-128.906250
6708		-123.046875
6709		-130.859375
6710		-125.000000
6711		-134.765625
6712		-128.906250
6713		-136.718750
6714		-130.859375
6715		-138.671875
6716		-132.812500
6717		-142.578125
6718		-134.765625
6719		-142.578125
6720		-138.671875
6721		-144.531250
6722		-140.625000
6723		-146.484375
6724		-142.578125
6725		-148.437500
6726		-144.531250
6727		-152.343750
6728		-146.484375
6729		-152.343750
6730		-148.437500
6731		-154.296875
6732		-150.390625
6733		-156.250000
6734		-152.343750
6735		-158.203125
6736		-152.343750
6737		-158.203125
6738		-154.296875
6739		-160.156250
6740		-154.296875
6741		-160.156250
6742		-156.250000
6743		-162.109375
6744		-158.203125
6745		-162.109375
6746		-158.203125
6747		-164.062500
6748		-160.156250
6749		-164.062500
6750		-160.156250
6751		-166.015625
6752		-158.203125
6753		-164.062500
6754		-162.109375
6755		-166.015625
6756		-162.109375
6757		-166.015625
6758		-162.109375
6759		-166.015625
6760		-162.109375
6761		-166.015625
6762		-162.109375
6763		-166.015625
6764		-162.109375
6765		-166.015625
6766		-162.109375
6767		-164.062500
6768		-160.156250
6769		-164.062500
6770		-160.156250
6771		-164.062500
6772		-160.156250
6773		-164.062500
6774		-158.203125
6775		-162.109375
6776		-158.203125
6777		-160.156250
6778		-156.250000
6779		-160.156250
6780		-156.250000
6781		-160.156250
6782		-154.296875
6783		-156.250000
6784		-152.343750
6785		-156.250000
6786		-152.343750
6787		-154.296875
6788		-150.390625
6789		-152.343750
6790		-148.437500
6791		-150.390625
6792		-146.484375
6793		-148.437500
6794		-144.531250
6795		-146.484375
6796		-142.578125
6797		-144.531250
6798		-140.625000
6799		-142.578125
6800		-138.671875
6801		-140.625000
6802		-136.718750
6803		-138.671875
6804		-132.812500
6805		-136.718750
6806		-130.859375
6807		-132.812500
6808		-128.906250
6809		-130.859375
6810		-125.000000
6811		-126.953125
6812		-121.093750
6813		-125.000000
6814		-119.140625
6815		-123.046875
6816		-117.187500
6817		-119.140625
6818		-113.281250
6819		-115.234375
6820		-109.375000
6821		-113.281250
6822		-107.421875
6823		-109.375000
6824		-103.515625
6825		-105.468750
6826		-101.562500
6827		-103.515625
6828		-97.656250
6829		-99.609375
6830		-93.750000
6831		-95.703125
6832		-89.843750
6833		-93.750000
6834		-85.937500
6835		-87.890625
6836		-82.031250
6837		-85.937500
6838		-80.078125
6839		-82.031250
6840		-74.218750
6841		-78.125000
6842		-72.265625
6843		-74.218750
6844		-68.359375
6845		-70.312500
6846		-64.453125
6847		-66.406250
6848		-60.546875
6849		-62.500000
6850		-56.640625
6851		-58.593750
6852		-50.781250
6853		-54.687500
6854		-48.828125
6855		-50.781250
6856		-44.921875
6857		-46.875000
6858		-41.015625
6859		-42.968750
6860		-37.109375
6861		-39.062500
6862		-33.203125
6863		-35.156250
6864		-29.296875
6865		-31.250000
6866		-25.390625
6867		-27.343750
6868		-21.484375
6869		-23.437500
6870		-17.578125
6871		-19.531250
6872		-13.671875
6873		-15.625000
6874		-7.812500
6875		-11.718750
6876		-5.859375
6877		-7.812500
6878		-1.953125
6879		-3.906250
6880		1.953125
6881		0.000000
6882		5.859375
6883		3.906250
6884		9.765625
6885		7.812500
6886		13.671875
6887		11.718750
6888		17.578125
6889		15.625000
6890		19.531250
6891		17.578125
6892		23.437500
6893		21.484375
6894		27.343750
6895		25.390625
6896		31.250000
6897		29.296875
6898		35.156250
6899		33.203125
6900		39.062500
6901		35.156250
6902		41.015625
6903		39.062500
6904		44.921875
6905		42.968750
6906		48.828125
6907		46.875000
6908		50.781250
6909		48.828125
6910		54.687500
6911		52.734375
6912		56.640625
6913		54.687500
6914		60.546875
6915		58.593750
6916		64.453125
6917		60.546875
6918		66.406250
6919		64.453125
6920		68.359375
6921		66.406250
6922		72.265625
6923		70.312500
6924		74.218750
6925		72.265625
6926		78.125000
6927		74.218750
6928		80.078125
6929		78.125000
6930		82.031250
6931		80.078125
6932		83.984375
6933		82.031250
6934		87.890625
6935		83.984375
6936		89.843750
6937		85.937500
6938		91.796875
6939		89.843750
6940		93.750000
6941		91.796875
6942		95.703125
6943		93.750000
6944		97.656250
6945		95.703125
6946		99.609375
6947		95.703125
6948		101.562500
6949		97.656250
6950		103.515625
6951		99.609375
6952		105.468750
6953		101.562500
6954		105.468750
6955		103.515625
6956		107.421875
6957		105.468750
6958		109.375000
6959		105.468750
6960		111.328125
6961		107.421875
6962		111.328125
6963		109.375000
6964		113.281250
6965		111.328125
6966		113.281250
6967		111.328125
6968		115.234375
6969		111.328125
6970		117.187500
6971		113.281250
6972		117.187500
6973		113.281250
6974		117.187500
6975		115.234375
6976		119.140625
6977		115.234375
6978		119.140625
6979		117.187500
6980		121.093750
6981		117.187500
6982		121.093750
6983		117.187500
6984		121.093750
6985		117.187500
6986		121.093750
6987		117.187500
6988		121.093750
6989		119.140625
6990		123.046875
6991		119.140625
6992		123.046875
6993		119.140625
6994		121.093750
6995		119.140625
6996		121.093750
6997		119.140625
6998		123.046875
6999		117.187500
7000		121.093750
7001		119.140625
7002		121.093750
7003		117.187500
7004		121.093750
7005		117.187500
7006		121.093750
7007		117.187500
7008		121.093750
7009		117.187500
7010		121.093750
7011		115.234375
7012		119.140625
7013		115.234375
7014		119.140625
7015		113.281250
7016		117.187500
7017		113.281250
7018		117.187500
7019		111.328125
7020		115.234375
7021		111.328125
7022		115.234375
7023		109.375000
7024		113.281250
7025		109.375000
7026		113.281250
7027		107.421875
7028		111.328125
7029		107.421875
7030		111.328125
7031		105.468750
7032		109.375000
7033		103.515625
7034		107.421875
7035		101.562500
7036		105.468750
7037		99.609375
7038		103.515625
7039		97.656250
7040		103.515625
7041		95.703125
7042		101.562500
7043		93.750000
7044		99.609375
7045		91.796875
7046		97.656250
7047		89.843750
7048		95.703125
7049		87.890625
7050		93.750000
7051		85.937500
7052		91.796875
7053		83.984375
7054		87.890625
7055		82.031250
7056		85.937500
7057		80.078125
7058		83.984375
7059		76.171875
7060		82.031250
7061		74.218750
7062		78.125000
7063		70.312500
7064		76.171875
7065		68.359375
7066		74.218750
7067		66.406250
7068		70.312500
7069		62.500000
7070		68.359375
7071		60.546875
7072		64.453125
7073		56.640625
7074		62.500000
7075		52.734375
7076		58.593750
7077		50.781250
7078		56.640625
7079		46.875000
7080		52.734375
7081		42.968750
7082		48.828125
7083		41.015625
7084		46.875000
7085		37.109375
7086		42.968750
7087		33.203125
7088		39.062500
7089		29.296875
7090		37.109375
7091		27.343750
7092		31.250000
7093		23.437500
7094		29.296875
7095		19.531250
7096		25.390625
7097		15.625000
7098		21.484375
7099		11.718750
7100		17.578125
7101		7.812500
7102		13.671875
7103		3.906250
7104		9.765625
7105		1.953125
7106		5.859375
7107		-1.953125
7108		1.953125
7109		-5.859375
7110		0.000000
7111		-9.765625
7112		-3.906250
7113		-13.671875
7114		-7.812500
7115		-17.578125
7116		-11.718750
7117		-21.484375
7118		-15.625000
7119		-27.343750
7120		-19.531250
7121		-29.296875
7122		-23.437500
7123		-33.203125
7124		-27.343750
7125		-37.109375
7126		-31.250000
7127		-41.015625
7128		-35.156250
7129		-44.921875
7130		-39.062500
7131		-48.828125
7132		-42.968750
7133		-52.734375
7134		-46.875000
7135		-56.640625
7136		-50.781250
7137		-60.546875
7138		-54.687500
7139		-64.453125
7140		-58.593750
7141		-68.359375
7142		-60.546875
7143		-72.265625
7144		-66.406250
7145		-76.171875
7146		-70.312500
7147		-80.078125
7148		-72.265625
7149		-82.031250
7150		-76.171875
7151		-85.937500
7152		-80.078125
7153		-89.843750
7154		-82.031250
7155		-93.750000
7156		-87.890625
7157		-95.703125
7158		-89.843750
7159		-99.609375
7160		-93.750000
7161		-103.515625
7162		-97.656250
7163		-105.468750
7164		-101.562500
7165		-109.375000
7166		-103.515625
7167		-113.281250
7168		-107.421875
7169		-115.234375
7170		-111.328125
7171		-119.140625
7172		-113.281250
7173		-121.093750
7174		-115.234375
7175		-125.000000
7176		-119.140625
7177		-126.953125
7178		-121.093750
7179		-128.906250
7180		-125.000000
7181		-132.812500
7182		-126.953125
7183		-134.765625
7184		-130.859375
7185		-138.671875
7186		-132.812500
7187		-138.671875
7188		-134.765625
7189		-142.578125
7190		-136.718750
7191		-144.531250
7192		-138.671875
7193		-146.484375
7194		-140.625000
7195		-148.437500
7196		-142.578125
7197		-150.390625
7198		-146.484375
7199		-152.343750
7200		-146.484375
7201		-154.296875
7202		-148.437500
7203		-154.296875
7204		-150.390625
7205		-156.250000
7206		-152.343750
7207		-158.203125
7208		-154.296875
7209		-158.203125
7210		-154.296875
7211		-160.156250
7212		-156.250000
7213		-160.156250
7214		-156.250000
7215		-162.109375
7216		-158.203125
7217		-162.109375
7218		-158.203125
7219		-164.062500
7220		-160.156250
7221		-164.062500
7222		-160.156250
7223		-164.062500
7224		-160.156250
7225		-164.062500
7226		-160.156250
7227		-166.015625
7228		-160.156250
7229		-164.062500
7230		-162.109375
7231		-166.015625
7232		-160.156250
7233		-164.062500
7234		-160.156250
7235		-166.015625
7236		-160.156250
7237		-164.062500
7238		-160.156250
7239		-164.062500
7240		-160.156250
7241		-162.109375
7242		-160.156250
7243		-162.109375
7244		-158.203125
7245		-162.109375
7246		-158.203125
7247		-160.156250
7248		-156.250000
7249		-160.156250
7250		-154.296875
7251		-158.203125
7252		-154.296875
7253		-156.250000
7254		-152.343750
7255		-156.250000
7256		-152.343750
7257		-154.296875
7258		-150.390625
7259		-152.343750
7260		-148.437500
7261		-152.343750
7262		-146.484375
7263		-148.437500
7264		-144.531250
7265		-146.484375
7266		-142.578125
7267		-144.531250
7268		-140.625000
7269		-142.578125
7270		-138.671875
7271		-140.625000
7272		-136.718750
7273		-138.671875
7274		-132.812500
7275		-136.718750
7276		-130.859375
7277		-132.812500
7278		-128.906250
7279		-130.859375
7280		-125.000000
7281		-128.906250
7282		-123.046875
7283		-125.000000
7284		-121.093750
7285		-123.046875
7286		-117.187500
7287		-119.140625
7288		-115.234375
7289		-117.187500
7290		-111.328125
7291		-113.281250
7292		-107.421875
7293		-109.375000
7294		-105.468750
7295		-107.421875
7296		-101.562500
7297		-103.515625
7298		-97.656250
7299		-99.609375
7300		-93.750000
7301		-95.703125
7302		-89.843750
7303		-93.750000
7304		-87.890625
7305		-89.843750
7306		-83.984375
7307		-85.937500
7308		-80.078125
7309		-82.031250
7310		-76.171875
7311		-78.125000
7312		-72.265625
7313		-74.218750
7314		-68.359375
7315		-70.312500
7316		-64.453125
7317		-66.406250
7318		-60.546875
7319		-64.453125
7320		-56.640625
7321		-58.593750
7322		-52.734375
7323		-54.687500
7324		-48.828125
7325		-50.781250
7326		-44.921875
7327		-48.828125
7328		-41.015625
7329		-42.968750
7330		-37.109375
7331		-39.062500
7332		-33.203125
7333		-37.109375
7334		-29.296875
7335		-33.203125
7336		-25.390625
7337		-27.343750
7338		-21.484375
7339		-23.437500
7340		-17.578125
7341		-19.531250
7342		-13.671875
7343		-15.625000
7344		-9.765625
7345		-11.718750
7346		-5.859375
7347		-9.765625
7348		-1.953125
7349		-3.906250
7350		1.953125
7351		-1.953125
7352		5.859375
7353		1.953125
7354		9.765625
7355		5.859375
7356		11.718750
7357		9.765625
7358		15.625000
7359		13.671875
7360		19.531250
7361		17.578125
7362		23.437500
7363		21.484375
7364		27.343750
7365		25.390625
7366		29.296875
7367		27.343750
7368		35.156250
7369		31.250000
7370		37.109375
7371		35.156250
7372		41.015625
7373		37.109375
7374		44.921875
7375		42.968750
7376		46.875000
7377		44.921875
7378		50.781250
7379		48.828125
7380		54.687500
7381		52.734375
7382		56.640625
7383		54.687500
7384		60.546875
7385		58.593750
7386		62.500000
7387		60.546875
7388		66.406250
7389		64.453125
7390		68.359375
7391		66.406250
7392		70.312500
7393		68.359375
7394		74.218750
7395		72.265625
7396		76.171875
7397		74.218750
7398		80.078125
7399		78.125000
7400		82.031250
7401		78.125000
7402		83.984375
7403		82.031250
7404		85.937500
7405		83.984375
7406		89.843750
7407		85.937500
7408		91.796875
7409		87.890625
7410		93.750000
7411		91.796875
7412		95.703125
7413		93.750000
7414		97.656250
7415		93.750000
7416		99.609375
7417		97.656250
7418		101.562500
7419		99.609375
7420		103.515625
7421		101.562500
7422		105.468750
7423		101.562500
7424		105.468750
7425		103.515625
7426		107.421875
7427		105.468750
7428		109.375000
7429		107.421875
7430		111.328125
7431		107.421875
7432		111.328125
7433		109.375000
7434		113.281250
7435		109.375000
7436		115.234375
7437		111.328125
7438		115.234375
7439		113.281250
7440		117.187500
7441		113.281250
7442		117.187500
7443		115.234375
7444		119.140625
7445		115.234375
7446		119.140625
7447		117.187500
7448		119.140625
7449		117.187500
7450		121.093750
7451		117.187500
7452		121.093750
7453		117.187500
7454		121.093750
7455		119.140625
7456		123.046875
7457		119.140625
7458		121.093750
7459		119.140625
7460		123.046875
7461		119.140625
7462		123.046875
7463		119.140625
7464		123.046875
7465		119.140625
7466		123.046875
7467		119.140625
7468		123.046875
7469		119.140625
7470		123.046875
7471		119.140625
7472		123.046875
7473		119.140625
7474		123.046875
7475		119.140625
7476		123.046875
7477		117.187500
7478		121.093750
7479		117.187500
7480		121.093750
7481		117.187500
7482		121.093750
7483		117.187500
7484		119.140625
7485		115.234375
7486		119.140625
7487		115.234375
7488		119.140625
7489		113.281250
7490		117.187500
7491		113.281250
7492		117.187500
7493		111.328125
7494		115.234375
7495		111.328125
7496		115.234375
7497		109.375000
7498		113.281250
7499		107.421875
7500		111.328125
7501		107.421875
7502		111.328125
7503		105.468750
7504		109.375000
7505		103.515625
7506		107.421875
7507		101.562500
7508		107.421875
7509		99.609375
7510		105.468750
7511		99.609375
7512		101.562500
7513		95.703125
7514		101.562500
7515		95.703125
7516		99.609375
7517		91.796875
7518		97.656250
7519		89.843750
7520		95.703125
7521		87.890625
7522		93.750000
7523		85.937500
7524		89.843750
7525		82.031250
7526		87.890625
7527		82.031250
7528		85.937500
7529		78.125000
7530		83.984375
7531		76.171875
7532		82.031250
7533		74.218750
7534		78.125000
7535		68.359375
7536		76.171875
7537		68.359375
7538		72.265625
7539		64.453125
7540		70.312500
7541		62.500000
7542		66.406250
7543		58.593750
7544		64.453125
7545		56.640625
7546		60.546875
7547		52.734375
7548		58.593750
7549		50.781250
7550		54.687500
7551		46.875000
7552		52.734375
7553		42.968750
7554		48.828125
7555		39.062500
7556		44.921875
7557		37.109375
7558		41.015625
7559		33.203125
7560		39.062500
7561		29.296875
7562		35.156250
7563		25.390625
7564		31.250000
7565		21.484375
7566		27.343750
7567		19.531250
7568		25.390625
7569		15.625000
7570		21.484375
7571		11.718750
7572		17.578125
7573		7.812500
7574		13.671875
7575		3.906250
7576		9.765625
7577		0.000000
7578		5.859375
7579		-3.906250
7580		1.953125
7581		-7.812500
7582		0.000000
7583		-11.718750
7584		-5.859375
7585		-13.671875
7586		-7.812500
7587		-19.531250
7588		-11.718750
7589		-23.437500
7590		-17.578125
7591		-27.343750
7592		-19.531250
7593		-29.296875
7594		-23.437500
7595		-33.203125
7596		-27.343750
7597		-37.109375
7598		-31.250000
7599		-41.015625
7600		-35.156250
7601		-44.921875
7602		-39.062500
7603		-48.828125
7604		-42.968750
7605		-52.734375
7606		-46.875000
7607		-56.640625
7608		-50.781250
7609		-60.546875
7610		-54.687500
7611		-64.453125
7612		-58.593750
7613		-68.359375
7614		-62.500000
7615		-72.265625
7616		-66.406250
7617		-76.171875
7618		-70.312500
7619		-80.078125
7620		-74.218750
7621		-82.031250
7622		-76.171875
7623		-85.937500
7624		-80.078125
7625		-89.843750
7626		-83.984375
7627		-93.750000
7628		-87.890625
7629		-97.656250
7630		-91.796875
7631		-99.609375
7632		-93.750000
7633		-103.515625
7634		-97.656250
7635		-107.421875
7636		-101.562500
7637		-109.375000
7638		-103.515625
7639		-113.281250
7640		-107.421875
7641		-115.234375
7642		-109.375000
7643		-119.140625
7644		-113.281250
7645		-121.093750
7646		-117.187500
7647		-125.000000
7648		-119.140625
7649		-126.953125
7650		-121.093750
7651		-128.906250
7652		-125.000000
7653		-132.812500
7654		-126.953125
7655		-134.765625
7656		-130.859375
7657		-136.718750
7658		-132.812500
7659		-138.671875
7660		-134.765625
7661		-142.578125
7662		-136.718750
7663		-144.531250
7664		-138.671875
7665		-146.484375
7666		-140.625000
7667		-148.437500
7668		-142.578125
7669		-148.437500
7670		-144.531250
7671		-152.343750
7672		-146.484375
7673		-152.343750
7674		-148.437500
7675		-154.296875
7676		-150.390625
7677		-156.250000
7678		-152.343750
7679		-158.203125
7680		-154.296875
7681		-158.203125
7682		-154.296875
7683		-160.156250
7684		-156.250000
7685		-160.156250
7686		-156.250000
7687		-162.109375
7688		-158.203125
7689		-162.109375
7690		-158.203125
7691		-162.109375
7692		-158.203125
7693		-164.062500
7694		-160.156250
7695		-164.062500
7696		-160.156250
7697		-164.062500
7698		-160.156250
7699		-164.062500
7700		-160.156250
7701		-164.062500
7702		-160.156250
7703		-164.062500
7704		-160.156250
7705		-164.062500
7706		-160.156250
7707		-164.062500
7708		-160.156250
7709		-162.109375
7710		-160.156250
7711		-164.062500
7712		-160.156250
7713		-162.109375
7714		-158.203125
7715		-162.109375
7716		-158.203125
7717		-160.156250
7718		-156.250000
7719		-160.156250
7720		-154.296875
7721		-158.203125
7722		-154.296875
7723		-158.203125
7724		-152.343750
7725		-156.250000
7726		-152.343750
7727		-154.296875
7728		-150.390625
7729		-152.343750
7730		-148.437500
7731		-152.343750
7732		-146.484375
7733		-150.390625
7734		-144.531250
7735		-148.437500
7736		-144.531250
7737		-146.484375
7738		-140.625000
7739		-144.531250
7740		-138.671875
7741		-142.578125
7742		-136.718750
7743		-140.625000
7744		-134.765625
7745		-136.718750
7746		-132.812500
7747		-134.765625
7748		-128.906250
7749		-132.812500
7750		-126.953125
7751		-128.906250
7752		-125.000000
7753		-126.953125
7754		-121.093750
7755		-123.046875
7756		-117.187500
7757		-121.093750
7758		-115.234375
7759		-119.140625
7760		-111.328125
7761		-115.234375
7762		-109.375000
7763		-111.328125
7764		-105.468750
7765		-107.421875
7766		-103.515625
7767		-105.468750
7768		-99.609375
7769		-101.562500
7770		-95.703125
7771		-97.656250
7772		-91.796875
7773		-95.703125
7774		-89.843750
7775		-91.796875
7776		-85.937500
7777		-87.890625
7778		-82.031250
7779		-83.984375
7780		-78.125000
7781		-80.078125
7782		-74.218750
7783		-76.171875
7784		-70.312500
7785		-72.265625
7786		-66.406250
7787		-70.312500
7788		-62.500000
7789		-64.453125
7790		-58.593750
7791		-60.546875
7792		-54.687500
7793		-56.640625
7794		-52.734375
7795		-54.687500
7796		-46.875000
7797		-50.781250
7798		-42.968750
7799		-46.875000
7800		-39.062500
7801		-41.015625
7802		-37.109375
7803		-37.109375
7804		-31.250000
7805		-35.156250
7806		-27.343750
7807		-31.250000
7808		-23.437500
7809		-25.390625
7810		-17.578125
7811		-21.484375
7812		-15.625000
7813		-17.578125
7814		-11.718750
7815		-13.671875
7816		-7.812500
7817		-9.765625
7818		-3.906250
7819		-5.859375
7820		0.000000
7821		-5.859375
7822		3.906250
7823		0.000000
7824		7.812500
7825		1.953125
7826		11.718750
7827		7.812500
7828		15.625000
7829		11.718750
7830		17.578125
7831		15.625000
7832		21.484375
7833		19.531250
7834		25.390625
7835		23.437500
7836		29.296875
7837		27.343750
7838		33.203125
7839		29.296875
7840		37.109375
7841		31.250000
7842		41.015625
7843		35.156250
7844		44.921875
7845		41.015625
7846		46.875000
7847		42.968750
7848		50.781250
7849		46.875000
7850		52.734375
7851		50.781250
7852		54.687500
7853		52.734375
7854		58.593750
7855		54.687500
7856		62.500000
7857		56.640625
7858		66.406250
7859		60.546875
7860		68.359375
7861		62.500000
7862		72.265625
7863		66.406250
7864		74.218750
7865		68.359375
7866		76.171875
7867		74.218750
7868		78.125000
7869		76.171875
7870		80.078125
7871		78.125000
7872		83.984375
7873		80.078125
7874		87.890625
7875		82.031250
7876		89.843750
7877		83.984375
7878		91.796875
7879		85.937500
7880		93.750000
7881		89.843750
7882		97.656250
7883		91.796875
7884		95.703125
7885		93.750000
7886		97.656250
7887		95.703125
7888		101.562500
7889		95.703125
7890		103.515625
7891		99.609375
7892		105.468750
7893		99.609375
7894		107.421875
7895		101.562500
7896		109.375000
7897		103.515625
7898		111.328125
7899		103.515625
7900		111.328125
7901		107.421875
7902		111.328125
7903		109.375000
7904		113.281250
7905		107.421875
7906		115.234375
7907		109.375000
7908		117.187500
7909		109.375000
7910		117.187500
7911		113.281250
7912		119.140625
7913		113.281250
7914		119.140625
7915		113.281250
7916		121.093750
7917		115.234375
7918		119.140625
7919		117.187500
7920		121.093750
7921		117.187500
7922		123.046875
7923		115.234375
7924		125.000000
7925		117.187500
7926		123.046875
7927		117.187500
7928		125.000000
7929		117.187500
7930		123.046875
7931		119.140625
7932		125.000000
7933		117.187500
7934		125.000000
7935		121.093750
7936		123.046875
7937		119.140625
7938		123.046875
7939		117.187500
7940		125.000000
7941		117.187500
7942		125.000000
7943		119.140625
7944		125.000000
7945		117.187500
7946		125.000000
7947		117.187500
7948		125.000000
7949		117.187500
7950		123.046875
7951		117.187500
7952		121.093750
7953		117.187500
7954		121.093750
7955		115.234375
7956		121.093750
7957		115.234375
7958		121.093750
7959		113.281250
7960		121.093750
7961		111.328125
7962		119.140625
7963		111.328125
7964		119.140625
7965		111.328125
7966		117.187500
7967		109.375000
7968		117.187500
7969		109.375000
7970		113.281250
7971		105.468750
7972		111.328125
7973		105.468750
7974		113.281250
7975		103.515625
7976		111.328125
7977		101.562500
7978		109.375000
7979		99.609375
7980		107.421875
7981		97.656250
7982		105.468750
7983		97.656250
7984		103.515625
7985		95.703125
7986		99.609375
7987		93.750000
7988		97.656250
7989		89.843750
7990		99.609375
7991		87.890625
7992		95.703125
7993		85.937500
7994		93.750000
7995		83.984375
7996		91.796875
7997		82.031250
7998		89.843750
7999		80.078125
8000		87.890625
8001		78.125000
8002		83.984375
8003		76.171875
8004		80.078125
8005		70.312500
8006		78.125000
8007		68.359375
8008		76.171875
8009		66.406250
8010		74.218750
8011		62.500000
8012		70.312500
8013		58.593750
8014		68.359375
8015		56.640625
8016		64.453125
8017		54.687500
8018		62.500000
8019		52.734375
8020		56.640625
8021		48.828125
8022		54.687500
8023		42.968750
8024		52.734375
8025		41.015625
8026		48.828125
8027		37.109375
8028		44.921875
8029		33.203125
8030		42.968750
8031		31.250000
8032		39.062500
8033		27.343750
8034		35.156250
8035		25.390625
8036		31.250000
8037		21.484375
8038		27.343750
8039		15.625000
8040		23.437500
8041		11.718750
8042		21.484375
8043		9.765625
8044		17.578125
8045		5.859375
8046		13.671875
8047		1.953125
8048		9.765625
8049		-1.953125
8050		5.859375
8051		-3.906250
8052		3.906250
8053		-7.812500
8054		-1.953125
8055		-13.671875
8056		-5.859375
8057		-17.578125
8058		-9.765625
8059		-21.484375
8060		-11.718750
8061		-25.390625
8062		-15.625000
8063		-29.296875
8064		-21.484375
8065		-33.203125
8066		-23.437500
8067		-35.156250
8068		-27.343750
8069		-39.062500
8070		-33.203125
8071		-42.968750
8072		-37.109375
8073		-46.875000
8074		-41.015625
8075		-52.734375
8076		-42.968750
8077		-56.640625
8078		-46.875000
8079		-58.593750
8080		-52.734375
8081		-64.453125
8082		-54.687500
8083		-68.359375
8084		-58.593750
8085		-70.312500
8086		-64.453125
8087		-72.265625
8088		-66.406250
8089		-78.125000
8090		-70.312500
8091		-82.031250
8092		-74.218750
8093		-85.937500
8094		-78.125000
8095		-87.890625
8096		-80.078125
8097		-93.750000
8098		-83.984375
8099		-95.703125
8100		-87.890625
8101		-97.656250
8102		-91.796875
8103		-101.562500
8104		-95.703125
8105		-103.515625
8106		-99.609375
8107		-109.375000
8108		-99.609375
8109		-113.281250
8110		-103.515625
8111		-115.234375
8112		-107.421875
8113		-119.140625
8114		-109.375000
8115		-123.046875
8116		-113.281250
8117		-125.000000
8118		-117.187500
8119		-125.000000
8120		-121.093750
8121		-128.906250
8122		-123.046875
8123		-132.812500
8124		-125.000000
8125		-134.765625
8126		-126.953125
8127		-138.671875
8128		-128.906250
8129		-140.625000
8130		-132.812500
8131		-142.578125
8132		-134.765625
8133		-144.531250
8134		-136.718750
8135		-144.531250
8136		-138.671875
8137		-146.484375
8138		-142.578125
8139		-150.390625
8140		-144.531250
8141		-152.343750
8142		-144.531250
8143		-154.296875
8144		-146.484375
8145		-156.250000
8146		-148.437500
8147		-156.250000
8148		-150.390625
8149		-158.203125
8150		-150.390625
8151		-158.203125
8152		-152.343750
8153		-160.156250
8154		-156.250000
8155		-160.156250
8156		-156.250000
8157		-164.062500
8158		-156.250000
8159		-164.062500
8160		-156.250000
8161		-164.062500
8162		-158.203125
8163		-166.015625
8164		-158.203125
8165		-166.015625
8166		-158.203125
8167		-166.015625
8168		-160.156250
8169		-164.062500
8170		-160.156250
8171		-164.062500
8172		-160.156250
8173		-166.015625
8174		-160.156250
8175		-166.015625
8176		-160.156250
8177		-166.015625
8178		-160.156250
8179		-166.015625
8180		-158.203125
8181		-166.015625
8182		-158.203125
8183		-164.062500
8184		-158.203125
8185		-164.062500
8186		-158.203125
8187		-162.109375
8188		-158.203125
8189		-160.156250
8190		-156.250000
8191		-162.109375
8192		-154.296875
8193		-160.156250
8194		-152.343750
8195		-160.156250
8196		-152.343750
8197		-158.203125
8198		-150.390625
8199		-156.250000
8200		-148.437500
8201		-154.296875
8202		-146.484375
8203		-152.343750
8204		-146.484375
8205		-150.390625
8206		-144.531250
8207		-148.437500
8208		-140.625000
8209		-146.484375
8210		-138.671875
8211		-146.484375
8212		-136.718750
8213		-142.578125
8214		-134.765625
8215		-140.625000
8216		-132.812500
8217		-138.671875
8218		-130.859375
8219		-136.718750
8220		-128.906250
8221		-130.859375
8222		-126.953125
8223		-128.906250
8224		-123.046875
8225		-128.906250
8226		-121.093750
8227		-125.000000
8228		-117.187500
8229		-121.093750
8230		-113.281250
8231		-119.140625
8232		-111.328125
8233		-117.187500
8234		-107.421875
8235		-113.281250
8236		-105.468750
8237		-107.421875
8238		-103.515625
8239		-105.468750
8240		-99.609375
8241		-101.562500
8242		-95.703125
8243		-99.609375
8244		-89.843750
8245		-95.703125
8246		-87.890625
8247		-91.796875
8248		-83.984375
8249		-89.843750
8250		-80.078125
8251		-85.937500
8252		-76.171875
8253		-80.078125
8254		-74.218750
8255		-76.171875
8256		-70.312500
8257		-72.265625
8258		-66.406250
8259		-68.359375
8260		-62.500000
8261		-64.453125
8262		-58.593750
8263		-62.500000
8264		-54.687500
8265		-56.640625
8266		-50.781250
8267		-54.687500
8268		-44.921875
8269		-48.828125
8270		-42.968750
8271		-44.921875
8272		-39.062500
8273		-41.015625
8274		-35.156250
8275		-39.062500
8276		-29.296875
8277		-33.203125
8278		-27.343750
8279		-31.250000
8280		-23.437500
8281		-25.390625
8282		-17.578125
8283		-21.484375
8284		-15.625000
8285		-19.531250
8286		-9.765625
8287		-15.625000
8288		-7.812500
8289		-9.765625
8290		-3.906250
8291		-5.859375
8292		1.953125
8293		-3.906250
8294		5.859375
8295		0.000000
8296		7.812500
8297		3.906250
8298		11.718750
8299		7.812500
8300		17.578125
8301		9.765625
8302		19.531250
8303		15.625000
8304		21.484375
8305		19.531250
8306		25.390625
8307		23.437500
8308		31.250000
8309		25.390625
8310		33.203125
8311		29.296875
8312		37.109375
8313		33.203125
8314		41.015625
8315		35.156250
8316		42.968750
8317		39.062500
8318		48.828125
8319		42.968750
8320		50.781250
8321		46.875000
8322		52.734375
8323		50.781250
8324		54.687500
8325		52.734375
8326		60.546875
8327		54.687500
8328		62.500000
8329		58.593750
8330		66.406250
8331		60.546875
8332		68.359375
8333		62.500000
8334		70.312500
8335		66.406250
8336		74.218750
8337		70.312500
8338		76.171875
8339		72.265625
8340		78.125000
8341		76.171875
8342		82.031250
8343		78.125000
8344		83.984375
8345		80.078125
8346		87.890625
8347		82.031250
8348		89.843750
8349		83.984375
8350		91.796875
8351		85.937500
8352		93.750000
8353		87.890625
8354		95.703125
8355		91.796875
8356		95.703125
8357		93.750000
8358		97.656250
8359		93.750000
8360		101.562500
8361		95.703125
8362		103.515625
8363		97.656250
8364		105.468750
8365		99.609375
8366		107.421875
8367		101.562500
8368		109.375000
8369		103.515625
8370		109.375000
8371		105.468750
8372		109.375000
8373		107.421875
8374		111.328125
8375		109.375000
8376		113.281250
8377		107.421875
8378		117.187500
8379		109.375000
8380		117.187500
8381		109.375000
8382		117.187500
8383		111.328125
8384		119.140625
8385		111.328125
8386		119.140625
8387		113.281250
8388		119.140625
8389		115.234375
8390		119.140625
8391		117.187500
8392		121.093750
8393		115.234375
8394		123.046875
8395		115.234375
8396		123.046875
8397		115.234375
8398		123.046875
8399		117.187500
8400		123.046875
8401		117.187500
8402		123.046875
8403		117.187500
8404		123.046875
8405		119.140625
8406		123.046875
8407		119.140625
8408		123.046875
8409		117.187500
8410		125.000000
8411		117.187500
8412		125.000000
8413		117.187500
8414		125.000000
8415		117.187500
8416		125.000000
8417		117.187500
8418		123.046875
8419		115.234375
8420		123.046875
8421		117.187500
8422		123.046875
8423		117.187500
8424		119.140625
8425		113.281250
8426		121.093750
8427		113.281250
8428		121.093750
8429		111.328125
8430		119.140625
8431		111.328125
8432		119.140625
8433		111.328125
8434		117.187500
8435		109.375000
8436		117.187500
8437		109.375000
8438		115.234375
8439		109.375000
8440		113.281250
8441		107.421875
8442		111.328125
8443		105.468750
8444		111.328125
8445		103.515625
8446		109.375000
8447		101.562500
8448		109.375000
8449		99.609375
8450		107.421875
8451		97.656250
8452		105.468750
8453		97.656250
8454		103.515625
8455		95.703125
8456		101.562500
8457		95.703125
8458		99.609375
8459		89.843750
8460		97.656250
8461		87.890625
8462		97.656250
8463		85.937500
8464		93.750000
8465		83.984375
8466		91.796875
8467		82.031250
8468		89.843750
8469		80.078125
8470		87.890625
8471		78.125000
8472		85.937500
8473		76.171875
8474		80.078125
8475		72.265625
8476		78.125000
8477		70.312500
8478		76.171875
8479		66.406250
8480		74.218750
8481		62.500000
8482		72.265625
8483		60.546875
8484		68.359375
8485		58.593750
8486		66.406250
8487		54.687500
8488		62.500000
8489		52.734375
8490		58.593750
8491		50.781250
8492		54.687500
8493		44.921875
8494		52.734375
8495		42.968750
8496		48.828125
8497		41.015625
8498		46.875000
8499		35.156250
8500		42.968750
8501		31.250000
8502		41.015625
8503		29.296875
8504		35.156250
8505		25.390625
8506		33.203125
8507		23.437500
8508		29.296875
8509		17.578125
8510		25.390625
8511		13.671875
8512		23.437500
8513		9.765625
8514		19.531250
8515		5.859375
8516		15.625000
8517		1.953125
8518		11.718750
8519		-1.953125
8520		7.812500
8521		-3.906250
8522		3.906250
8523		-7.812500
8524		-1.953125
8525		-11.718750
8526		-3.906250
8527		-17.578125
8528		-7.812500
8529		-19.531250
8530		-11.718750
8531		-23.437500
8532		-15.625000
8533		-27.343750
8534		-19.531250
8535		-31.250000
8536		-23.437500
8537		-37.109375
8538		-25.390625
8539		-37.109375
8540		-31.250000
8541		-41.015625
8542		-35.156250
8543		-46.875000
8544		-39.062500
8545		-50.781250
8546		-41.015625
8547		-54.687500
8548		-46.875000
8549		-58.593750
8550		-50.781250
8551		-62.500000
8552		-52.734375
8553		-66.406250
8554		-56.640625
8555		-68.359375
8556		-60.546875
8557		-72.265625
8558		-66.406250
8559		-78.125000
8560		-70.312500
8561		-82.031250
8562		-72.265625
8563		-85.937500
8564		-76.171875
8565		-87.890625
8566		-80.078125
8567		-91.796875
8568		-83.984375
8569		-95.703125
8570		-85.937500
8571		-97.656250
8572		-89.843750
8573		-99.609375
8574		-95.703125
8575		-103.515625
8576		-97.656250
8577		-109.375000
8578		-101.562500
8579		-111.328125
8580		-103.515625
8581		-115.234375
8582		-105.468750
8583		-117.187500
8584		-109.375000
8585		-121.093750
8586		-113.281250
8587		-123.046875
8588		-117.187500
8589		-125.000000
8590		-119.140625
8591		-126.953125
8592		-123.046875
8593		-130.859375
8594		-125.000000
8595		-134.765625
8596		-126.953125
8597		-136.718750
8598		-128.906250
8599		-140.625000
8600		-132.812500
8601		-142.578125
8602		-134.765625
8603		-144.531250
8604		-136.718750
8605		-146.484375
8606		-138.671875
8607		-146.484375
8608		-142.578125
8609		-148.437500
8610		-144.531250
8611		-152.343750
8612		-144.531250
8613		-154.296875
8614		-146.484375
8615		-156.250000
8616		-148.437500
8617		-156.250000
8618		-150.390625
8619		-158.203125
8620		-152.343750
8621		-160.156250
8622		-152.343750
8623		-160.156250
8624		-156.250000
8625		-160.156250
8626		-156.250000
8627		-164.062500
8628		-156.250000
8629		-164.062500
8630		-158.203125
8631		-164.062500
8632		-158.203125
8633		-166.015625
8634		-158.203125
8635		-166.015625
8636		-158.203125
8637		-167.968750
8638		-160.156250
8639		-166.015625
8640		-160.156250
8641		-166.015625
8642		-162.109375
8643		-166.015625
8644		-162.109375
8645		-167.968750
8646		-160.156250
8647		-167.968750
8648		-160.156250
8649		-167.968750
8650		-160.156250
8651		-166.015625
8652		-160.156250
8653		-166.015625
8654		-160.156250
8655		-166.015625
8656		-158.203125
8657		-162.109375
8658		-160.156250
8659		-162.109375
8660		-158.203125
8661		-164.062500
8662		-156.250000
8663		-162.109375
8664		-154.296875
8665		-160.156250
8666		-154.296875
8667		-160.156250
8668		-152.343750
8669		-158.203125
8670		-150.390625
8671		-156.250000
8672		-148.437500
8673		-156.250000
8674		-148.437500
8675		-152.343750
8676		-148.437500
8677		-150.390625
8678		-142.578125
8679		-148.437500
8680		-142.578125
8681		-148.437500
8682		-140.625000
8683		-146.484375
8684		-136.718750
8685		-142.578125
8686		-134.765625
8687		-140.625000
8688		-132.812500
8689		-138.671875
8690		-130.859375
8691		-132.812500
8692		-128.906250
8693		-130.859375
8694		-126.953125
8695		-128.906250
8696		-123.046875
8697		-128.906250
8698		-119.140625
8699		-125.000000
8700		-115.234375
8701		-121.093750
8702		-113.281250
8703		-117.187500
8704		-109.375000
8705		-115.234375
8706		-107.421875
8707		-111.328125
8708		-105.468750
8709		-107.421875
8710		-101.562500
8711		-103.515625
8712		-97.656250
8713		-101.562500
8714		-93.750000
8715		-97.656250
8716		-89.843750
8717		-95.703125
8718		-85.937500
8719		-91.796875
8720		-82.031250
8721		-87.890625
8722		-78.125000
8723		-83.984375
8724		-76.171875
8725		-78.125000
8726		-72.265625
8727		-74.218750
8728		-70.312500
8729		-72.265625
8730		-64.453125
8731		-68.359375
8732		-60.546875
8733		-64.453125
8734		-56.640625
8735		-62.500000
8736		-52.734375
8737		-58.593750
8738		-48.828125
8739		-52.734375
8740		-44.921875
8741		-48.828125
8742		-42.968750
8743		-44.921875
8744		-39.062500
8745		-41.015625
8746		-31.250000
8747		-37.109375
8748		-27.343750
8749		-33.203125
8750		-25.390625
8751		-29.296875
8752		-19.531250
8753		-25.390625
8754		-17.578125
8755		-23.437500
8756		-13.671875
8757		-19.531250
8758		-9.765625
8759		-11.718750
8760		-7.812500
8761		-7.812500
8762		-1.953125
8763		-7.812500
8764		1.953125
8765		-3.906250
8766		5.859375
8767		0.000000
8768		9.765625
8769		5.859375
8770		13.671875
8771		7.812500
8772		17.578125
8773		11.718750
8774		19.531250
8775		17.578125
8776		23.437500
8777		21.484375
8778		27.343750
8779		21.484375
8780		31.250000
8781		25.390625
8782		37.109375
8783		29.296875
8784		39.062500
8785		33.203125
8786		41.015625
8787		37.109375
8788		44.921875
8789		41.015625
8790		48.828125
8791		42.968750
8792		50.781250
8793		48.828125
8794		52.734375
8795		50.781250
8796		56.640625
8797		52.734375
8798		60.546875
8799		54.687500
8800		64.453125
8801		58.593750
8802		66.406250
8803		60.546875
8804		68.359375
8805		64.453125
8806		72.265625
8807		68.359375
8808		74.218750
8809		72.265625
8810		76.171875
8811		74.218750
8812		78.125000
8813		74.218750
8814		83.984375
8815		76.171875
8816		85.937500
8817		78.125000
8818		87.890625
8819		82.031250
8820		89.843750
8821		85.937500
8822		91.796875
8823		87.890625
8824		93.750000
8825		89.843750
8826		95.703125
8827		93.750000
8828		97.656250
8829		93.750000
8830		99.609375
8831		93.750000
8832		101.562500
8833		95.703125
8834		103.515625
8835		97.656250
8836		105.468750
8837		99.609375
8838		107.421875
8839		101.562500
8840		109.375000
8841		103.515625
8842		109.375000
8843		107.421875
8844		109.375000
8845		107.421875
8846		113.281250
8847		107.421875
8848		115.234375
8849		107.421875
8850		115.234375
8851		109.375000
8852		117.187500
8853		111.328125
8854		117.187500
8855		111.328125
8856		119.140625
8857		111.328125
8858		119.140625
8859		115.234375
8860		119.140625
8861		115.234375
8862		119.140625
8863		115.234375
8864		123.046875
8865		115.234375
8866		121.093750
8867		115.234375
8868		123.046875
8869		115.234375
8870		123.046875
8871		117.187500
8872		123.046875
8873		117.187500
8874		123.046875
8875		117.187500
8876		123.046875
8877		119.140625
8878		121.093750
8879		117.187500
8880		123.046875
8881		117.187500
8882		125.000000
8883		117.187500
8884		123.046875
8885		117.187500
8886		125.000000
8887		117.187500
8888		123.046875
8889		115.234375
8890		123.046875
8891		115.234375
8892		123.046875
8893		117.187500
8894		119.140625
8895		117.187500
8896		119.140625
8897		113.281250
8898		121.093750
8899		113.281250
8900		119.140625
8901		111.328125
8902		119.140625
8903		111.328125
8904		119.140625
8905		109.375000
8906		117.187500
8907		109.375000
8908		117.187500
8909		109.375000
8910		113.281250
8911		109.375000
8912		111.328125
8913		105.468750
8914		111.328125
8915		103.515625
8916		111.328125
8917		101.562500
8918		109.375000
8919		101.562500
8920		107.421875
8921		99.609375
8922		105.468750
8923		97.656250
8924		103.515625
8925		95.703125
8926		103.515625
8927		95.703125
8928		99.609375
8929		91.796875
8930		97.656250
8931		87.890625
8932		97.656250
8933		85.937500
8934		95.703125
8935		85.937500
8936		91.796875
8937		82.031250
8938		89.843750
8939		80.078125
8940		89.843750
8941		78.125000
8942		85.937500
8943		76.171875
8944		82.031250
8945		74.218750
8946		80.078125
8947		70.312500
8948		78.125000
8949		68.359375
8950		76.171875
8951		64.453125
8952		72.265625
8953		62.500000
8954		70.312500
8955		58.593750
8956		66.406250
8957		56.640625
8958		64.453125
8959		54.687500
8960		60.546875
8961		50.781250
8962		56.640625
8963		46.875000
8964		52.734375
8965		42.968750
8966		50.781250
8967		39.062500
8968		48.828125
8969		37.109375
8970		44.921875
8971		33.203125
8972		42.968750
8973		29.296875
8974		37.109375
8975		27.343750
8976		35.156250
8977		23.437500
8978		29.296875
8979		21.484375
8980		25.390625
8981		15.625000
8982		23.437500
8983		11.718750
8984		21.484375
8985		9.765625
8986		17.578125
8987		1.953125
8988		13.671875
8989		1.953125
8990		9.765625
8991		-3.906250
8992		5.859375
8993		-5.859375
8994		1.953125
8995		-9.765625
8996		-3.906250
8997		-15.625000
8998		-7.812500
8999		-17.578125
9000		-9.765625
9001		-23.437500
9002		-13.671875
9003		-25.390625
9004		-17.578125
9005		-31.250000
9006		-21.484375
9007		-33.203125
9008		-23.437500
9009		-37.109375
9010		-29.296875
9011		-41.015625
9012		-35.156250
9013		-44.921875
9014		-39.062500
9015		-48.828125
9016		-41.015625
9017		-54.687500
9018		-44.921875
9019		-56.640625
9020		-48.828125
9021		-60.546875
9022		-52.734375
9023		-64.453125
9024		-56.640625
9025		-68.359375
9026		-60.546875
9027		-70.312500
9028		-64.453125
9029		-74.218750
9030		-68.359375
9031		-78.125000
9032		-72.265625
9033		-83.984375
9034		-74.218750
9035		-85.937500
9036		-78.125000
9037		-89.843750
9038		-82.031250
9039		-95.703125
9040		-85.937500
9041		-97.656250
9042		-87.890625
9043		-99.609375
9044		-91.796875
9045		-101.562500
9046		-97.656250
9047		-107.421875
9048		-99.609375
9049		-111.328125
9050		-103.515625
9051		-113.281250
9052		-105.468750
9053		-117.187500
9054		-109.375000
9055		-121.093750
9056		-111.328125
9057		-123.046875
9058		-115.234375
9059		-125.000000
9060		-117.187500
9061		-126.953125
9062		-121.093750
9063		-128.906250
9064		-125.000000
9065		-132.812500
9066		-125.000000
9067		-134.765625
9068		-128.906250
9069		-138.671875
9070		-130.859375
9071		-140.625000
9072		-132.812500
9073		-142.578125
9074		-134.765625
9075		-146.484375
9076		-136.718750
9077		-146.484375
9078		-140.625000
9079		-148.437500
9080		-142.578125
9081		-152.343750
9082		-144.531250
9083		-154.296875
9084		-144.531250
9085		-154.296875
9086		-148.437500
9087		-156.250000
9088		-148.437500
9089		-158.203125
9090		-150.390625
9091		-160.156250
9092		-152.343750
9093		-162.109375
9094		-154.296875
9095		-160.156250
9096		-156.250000
9097		-162.109375
9098		-158.203125
9099		-164.062500
9100		-158.203125
9101		-164.062500
9102		-158.203125
9103		-166.015625
9104		-160.156250
9105		-166.015625
9106		-160.156250
9107		-166.015625
9108		-160.156250
9109		-166.015625
9110		-160.156250
9111		-166.015625
9112		-162.109375
9113		-166.015625
9114		-162.109375
9115		-167.968750
9116		-160.156250
9117		-167.968750
9118		-162.109375
9119		-167.968750
9120		-160.156250
9121		-167.968750
9122		-160.156250
9123		-167.968750
9124		-160.156250
9125		-166.015625
9126		-160.156250
9127		-166.015625
9128		-158.203125
9129		-162.109375
9130		-160.156250
9131		-164.062500
9132		-158.203125
9133		-164.062500
9134		-156.250000
9135		-162.109375
9136		-154.296875
9137		-160.156250
9138		-154.296875
9139		-160.156250
9140		-152.343750
9141		-158.203125
9142		-150.390625
9143		-156.250000
9144		-150.390625
9145		-152.343750
9146		-148.437500
9147		-150.390625
9148		-146.484375
9149		-150.390625
9150		-142.578125
9151		-148.437500
9152		-140.625000
9153		-148.437500
9154		-140.625000
9155		-144.531250
9156		-136.718750
9157		-142.578125
9158		-134.765625
9159		-140.625000
9160		-132.812500
9161		-138.671875
9162		-130.859375
9163		-132.812500
9164		-128.906250
9165		-130.859375
9166		-125.000000
9167		-128.906250
9168		-121.093750
9169		-126.953125
9170		-119.140625
9171		-123.046875
9172		-115.234375
9173		-121.093750
9174		-113.281250
9175		-117.187500
9176		-109.375000
9177		-115.234375
9178		-107.421875
9179		-109.375000
9180		-103.515625
9181		-105.468750
9182		-99.609375
9183		-105.468750
9184		-95.703125
9185		-101.562500
9186		-93.750000
9187		-97.656250
9188		-87.890625
9189		-93.750000
9190		-85.937500
9191		-91.796875
9192		-82.031250
9193		-85.937500
9194		-78.125000
9195		-82.031250
9196		-74.218750
9197		-78.125000
9198		-72.265625
9199		-74.218750
9200		-66.406250
9201		-72.265625
9202		-62.500000
9203		-68.359375
9204		-60.546875
9205		-64.453125
9206		-54.687500
9207		-60.546875
9208		-50.781250
9209		-56.640625
9210		-46.875000
9211		-52.734375
9212		-44.921875
9213		-46.875000
9214		-41.015625
9215		-42.968750
9216		-35.156250
9217		-39.062500
9218		-31.250000
9219		-37.109375
9220		-27.343750
9221		-31.250000
9222		-23.437500
9223		-29.296875
9224		-19.531250
9225		-23.437500
9226		-17.578125
9227		-21.484375
9228		-11.718750
9229		-15.625000
9230		-9.765625
9231		-11.718750
9232		-5.859375
9233		-7.812500
9234		0.000000
9235		-5.859375
9236		3.906250
9237		-1.953125
9238		7.812500
9239		1.953125
9240		11.718750
9241		5.859375
9242		13.671875
9243		9.765625
9244		19.531250
9245		13.671875
9246		21.484375
9247		17.578125
9248		23.437500
9249		23.437500
9250		29.296875
9251		23.437500
9252		33.203125
9253		27.343750
9254		37.109375
9255		29.296875
9256		41.015625
9257		35.156250
9258		42.968750
9259		37.109375
9260		46.875000
9261		41.015625
9262		48.828125
9263		44.921875
9264		50.781250
9265		48.828125
9266		54.687500
9267		50.781250
9268		58.593750
9269		54.687500
9270		62.500000
9271		56.640625
9272		64.453125
9273		58.593750
9274		68.359375
9275		62.500000
9276		72.265625
9277		64.453125
9278		74.218750
9279		70.312500
9280		74.218750
9281		72.265625
9282		78.125000
9283		74.218750
9284		82.031250
9285		76.171875
9286		83.984375
9287		78.125000
9288		85.937500
9289		80.078125
9290		87.890625
9291		82.031250
9292		91.796875
9293		85.937500
9294		93.750000
9295		87.890625
9296		93.750000
9297		91.796875
9298		95.703125
9299		93.750000
9300		99.609375
9301		93.750000
9302		101.562500
9303		95.703125
9304		103.515625
9305		97.656250
9306		105.468750
9307		97.656250
9308		107.421875
9309		101.562500
9310		107.421875
9311		103.515625
9312		109.375000
9313		105.468750
9314		109.375000
9315		107.421875
9316		111.328125
9317		107.421875
9318		113.281250
9319		107.421875
9320		115.234375
9321		109.375000
9322		115.234375
9323		109.375000
9324		117.187500
9325		111.328125
9326		117.187500
9327		111.328125
9328		119.140625
9329		115.234375
9330		119.140625
9331		115.234375
9332		119.140625
9333		115.234375
9334		121.093750
9335		115.234375
9336		123.046875
9337		115.234375
9338		123.046875
9339		117.187500
9340		123.046875
9341		115.234375
9342		123.046875
9343		117.187500
9344		123.046875
9345		117.187500
9346		123.046875
9347		119.140625
9348		123.046875
9349		119.140625
9350		123.046875
9351		117.187500
9352		125.000000
9353		117.187500
9354		125.000000
9355		117.187500
9356		125.000000
9357		117.187500
9358		125.000000
9359		115.234375
9360		123.046875
9361		115.234375
9362		123.046875
9363		117.187500
9364		121.093750
9365		117.187500
9366		121.093750
9367		115.234375
9368		121.093750
9369		113.281250
9370		121.093750
9371		113.281250
9372		119.140625
9373		111.328125
9374		119.140625
9375		111.328125
9376		117.187500
9377		109.375000
9378		117.187500
9379		109.375000
9380		115.234375
9381		109.375000
9382		113.281250
9383		107.421875
9384		111.328125
9385		105.468750
9386		113.281250
9387		103.515625
9388		111.328125
9389		101.562500
9390		109.375000
9391		99.609375
9392		107.421875
9393		97.656250
9394		105.468750
9395		95.703125
9396		105.468750
9397		97.656250
9398		101.562500
9399		95.703125
9400		99.609375
9401		91.796875
9402		97.656250
9403		89.843750
9404		95.703125
9405		85.937500
9406		93.750000
9407		83.984375
9408		91.796875
9409		82.031250
9410		89.843750
9411		80.078125
9412		87.890625
9413		80.078125
9414		83.984375
9415		76.171875
9416		82.031250
9417		72.265625
9418		78.125000
9419		70.312500
9420		78.125000
9421		68.359375
9422		74.218750
9423		64.453125
9424		72.265625
9425		60.546875
9426		70.312500
9427		58.593750
9428		66.406250
9429		54.687500
9430		64.453125
9431		52.734375
9432		58.593750
9433		50.781250
9434		56.640625
9435		42.968750
9436		52.734375
9437		42.968750
9438		50.781250
9439		39.062500
9440		46.875000
9441		35.156250
9442		44.921875
9443		33.203125
9444		39.062500
9445		29.296875
9446		37.109375
9447		27.343750
9448		33.203125
9449		23.437500
9450		29.296875
9451		17.578125
9452		25.390625
9453		13.671875
9454		23.437500
9455		9.765625
9456		19.531250
9457		5.859375
9458		15.625000
9459		3.906250
9460		11.718750
9461		-1.953125
9462		7.812500
9463		-3.906250
9464		3.906250
9465		-5.859375
9466		0.000000
9467		-11.718750
9468		-3.906250
9469		-15.625000
9470		-5.859375
9471		-17.578125
9472		-9.765625
9473		-23.437500
9474		-15.625000
9475		-27.343750
9476		-17.578125
9477		-31.250000
9478		-23.437500
9479		-35.156250
9480		-27.343750
9481		-37.109375
9482		-31.250000
9483		-41.015625
9484		-35.156250
9485		-46.875000
9486		-37.109375
9487		-50.781250
9488		-42.968750
9489		-54.687500
9490		-44.921875
9491		-58.593750
9492		-48.828125
9493		-62.500000
9494		-52.734375
9495		-66.406250
9496		-58.593750
9497		-68.359375
9498		-60.546875
9499		-72.265625
9500		-66.406250
9501		-78.125000
9502		-70.312500
9503		-80.078125
9504		-70.312500
9505		-83.984375
9506		-76.171875
9507		-85.937500
9508		-78.125000
9509		-91.796875
9510		-82.031250
9511		-93.750000
9512		-85.937500
9513		-97.656250
9514		-89.843750
9515		-99.609375
9516		-93.750000
9517		-103.515625
9518		-97.656250
9519		-107.421875
9520		-99.609375
9521		-111.328125
9522		-101.562500
9523		-115.234375
9524		-105.468750
9525		-117.187500
9526		-109.375000
9527		-121.093750
9528		-111.328125
9529		-123.046875
9530		-115.234375
9531		-125.000000
9532		-117.187500
9533		-126.953125
9534		-123.046875
9535		-130.859375
9536		-125.000000
9537		-132.812500
9538		-126.953125
9539		-136.718750
9540		-128.906250
9541		-138.671875
9542		-130.859375
9543		-140.625000
9544		-134.765625
9545		-142.578125
9546		-136.718750
9547		-144.531250
9548		-138.671875
9549		-146.484375
9550		-140.625000
9551		-150.390625
9552		-144.531250
9553		-150.390625
9554		-144.531250
9555		-154.296875
9556		-146.484375
9557		-156.250000
9558		-146.484375
9559		-158.203125
9560		-148.437500
9561		-158.203125
9562		-150.390625
9563		-160.156250
9564		-152.343750
9565		-158.203125
9566		-154.296875
9567		-160.156250
9568		-156.250000
9569		-162.109375
9570		-156.250000
9571		-164.062500
9572		-156.250000
9573		-164.062500
9574		-156.250000
9575		-164.062500
9576		-158.203125
9577		-166.015625
9578		-158.203125
9579		-166.015625
9580		-158.203125
9581		-166.015625
9582		-160.156250
9583		-164.062500
9584		-162.109375
9585		-166.015625
9586		-160.156250
9587		-166.015625
9588		-160.156250
9589		-166.015625
9590		-160.156250
9591		-166.015625
9592		-160.156250
9593		-166.015625
9594		-158.203125
9595		-166.015625
9596		-158.203125
9597		-164.062500
9598		-158.203125
9599		-162.109375
9600		-158.203125
9601		-162.109375
9602		-158.203125
9603		-162.109375
9604		-154.296875
9605		-160.156250
9606		-154.296875
9607		-160.156250
9608		-152.343750
9609		-158.203125
9610		-152.343750
9611		-158.203125
9612		-150.390625
9613		-156.250000
9614		-148.437500
9615		-152.343750
9616		-148.437500
9617		-150.390625
9618		-146.484375
9619		-150.390625
9620		-142.578125
9621		-150.390625
9622		-140.625000
9623		-146.484375
9624		-138.671875
9625		-144.531250
9626		-136.718750
9627		-142.578125
9628		-132.812500
9629		-140.625000
9630		-130.859375
9631		-138.671875
9632		-130.859375
9633		-132.812500
9634		-128.906250
9635		-130.859375
9636		-123.046875
9637		-128.906250
9638		-121.093750
9639		-126.953125
9640		-119.140625
9641		-123.046875
9642		-115.234375
9643		-119.140625
9644		-113.281250
9645		-117.187500
9646		-109.375000
9647		-115.234375
9648		-105.468750
9649		-109.375000
9650		-103.515625
9651		-107.421875
9652		-101.562500
9653		-103.515625
9654		-95.703125
9655		-101.562500
9656		-91.796875
9657		-97.656250
9658		-89.843750
9659		-93.750000
9660		-85.937500
9661		-89.843750
9662		-80.078125
9663		-87.890625
9664		-78.125000
9665		-82.031250
9666		-76.171875
9667		-78.125000
9668		-72.265625
9669		-74.218750
9670		-66.406250
9671		-72.265625
9672		-64.453125
9673		-68.359375
9674		-58.593750
9675		-64.453125
9676		-56.640625
9677		-60.546875
9678		-50.781250
9679		-56.640625
9680		-46.875000
9681		-52.734375
9682		-44.921875
9683		-46.875000
9684		-41.015625
9685		-42.968750
9686		-37.109375
9687		-41.015625
9688		-31.250000
9689		-37.109375
9690		-29.296875
9691		-33.203125
9692		-25.390625
9693		-29.296875
9694		-19.531250
9695		-27.343750
9696		-15.625000
9697		-21.484375
9698		-11.718750
9699		-17.578125
9700		-9.765625
9701		-11.718750
9702		-5.859375
9703		-7.812500
9704		0.000000
9705		-5.859375
9706		1.953125
9707		-1.953125
9708		5.859375
9709		1.953125
9710		9.765625
9711		5.859375
9712		13.671875
9713		7.812500
9714		17.578125
9715		13.671875
9716		19.531250
9717		17.578125
9718		23.437500
9719		21.484375
9720		27.343750
9721		23.437500
9722		33.203125
9723		27.343750
9724		35.156250
9725		31.250000
9726		39.062500
9727		35.156250
9728		42.968750
9729		37.109375
9730		46.875000
9731		41.015625
9732		48.828125
9733		44.921875
9734		50.781250
9735		48.828125
9736		54.687500
9737		50.781250
9738		58.593750
9739		52.734375
9740		60.546875
9741		54.687500
9742		64.453125
9743		58.593750
9744		68.359375
9745		62.500000
9746		70.312500
9747		64.453125
9748		72.265625
9749		68.359375
9750		74.218750
9751		72.265625
9752		78.125000
9753		74.218750
9754		80.078125
9755		76.171875
9756		83.984375
9757		78.125000
9758		85.937500
9759		80.078125
9760		87.890625
9761		83.984375
9762		89.843750
9763		83.984375
9764		93.750000
9765		87.890625
9766		93.750000
9767		91.796875
9768		95.703125
9769		93.750000
9770		97.656250
9771		93.750000
9772		101.562500
9773		95.703125
9774		101.562500
9775		95.703125
9776		105.468750
9777		99.609375
9778		105.468750
9779		99.609375
9780		107.421875
9781		101.562500
9782		109.375000
9783		103.515625
9784		109.375000
9785		107.421875
9786		111.328125
9787		107.421875
9788		113.281250
9789		107.421875
9790		115.234375
9791		109.375000
9792		115.234375
9793		109.375000
9794		117.187500
9795		111.328125
9796		117.187500
9797		111.328125
9798		119.140625
9799		113.281250
9800		119.140625
9801		115.234375
9802		119.140625
9803		117.187500
9804		121.093750
9805		115.234375
9806		121.093750
9807		115.234375
9808		123.046875
9809		115.234375
9810		123.046875
9811		115.234375
9812		123.046875
9813		117.187500
9814		123.046875
9815		117.187500
9816		125.000000
9817		119.140625
9818		123.046875
9819		119.140625
9820		123.046875
9821		117.187500
9822		123.046875
9823		117.187500
9824		125.000000
9825		117.187500
9826		123.046875
9827		117.187500
9828		123.046875
9829		117.187500
9830		123.046875
9831		115.234375
9832		123.046875
9833		117.187500
9834		123.046875
9835		117.187500
9836		121.093750
9837		115.234375
9838		121.093750
9839		113.281250
9840		121.093750
9841		113.281250
9842		121.093750
9843		113.281250
9844		119.140625
9845		111.328125
9846		119.140625
9847		109.375000
9848		117.187500
9849		109.375000
9850		117.187500
9851		109.375000
9852		113.281250
9853		109.375000
9854		113.281250
9855		105.468750
9856		113.281250
9857		105.468750
9858		111.328125
9859		101.562500
9860		109.375000
9861		101.562500
9862		109.375000
9863		99.609375
9864		107.421875
9865		97.656250
9866		105.468750
9867		97.656250
9868		103.515625
9869		95.703125
9870		99.609375
9871		93.750000
9872		99.609375
9873		89.843750
9874		97.656250
9875		87.890625
9876		95.703125
9877		85.937500
9878		93.750000
9879		83.984375
9880		91.796875
9881		82.031250
9882		87.890625
9883		80.078125
9884		85.937500
9885		78.125000
9886		82.031250
9887		76.171875
9888		80.078125
9889		70.312500
9890		80.078125
9891		68.359375
9892		76.171875
9893		64.453125
9894		72.265625
9895		62.500000
9896		70.312500
9897		58.593750
9898		68.359375
9899		56.640625
9900		64.453125
9901		54.687500
9902		60.546875
9903		50.781250
9904		58.593750
9905		46.875000
9906		54.687500
9907		42.968750
9908		52.734375
9909		41.015625
9910		48.828125
9911		37.109375
9912		46.875000
9913		33.203125
9914		42.968750
9915		29.296875
9916		39.062500
9917		29.296875
9918		35.156250
9919		25.390625
9920		31.250000
9921		19.531250
9922		27.343750
9923		15.625000
9924		25.390625
9925		13.671875
9926		21.484375
9927		9.765625
9928		17.578125
9929		5.859375
9930		13.671875
9931		1.953125
9932		9.765625
9933		-1.953125
9934		7.812500
9935		-3.906250
9936		1.953125
9937		-7.812500
9938		-1.953125
9939		-13.671875
9940		-5.859375
9941		-17.578125
9942		-7.812500
9943		-21.484375
9944		-11.718750
9945		-25.390625
9946		-15.625000
9947		-27.343750
9948		-21.484375
9949		-33.203125
9950		-23.437500
9951		-35.156250
9952		-29.296875
9953		-39.062500
9954		-33.203125
9955		-44.921875
9956		-37.109375
9957		-48.828125
9958		-39.062500
9959		-52.734375
9960		-42.968750
9961		-56.640625
9962		-46.875000
9963		-60.546875
9964		-50.781250
9965		-64.453125
9966		-54.687500
9967		-66.406250
9968		-58.593750
9969		-68.359375
9970		-62.500000
9971		-72.265625
9972		-68.359375
9973		-78.125000
9974		-70.312500
9975		-82.031250
9976		-74.218750
9977		-85.937500
9978		-76.171875
9979		-89.843750
9980		-80.078125
9981		-91.796875
9982		-83.984375
9983		-97.656250
9984		-87.890625
9985		-97.656250
9986		-91.796875
9987		-101.562500
9988		-95.703125
9989		-105.468750
9990		-99.609375
9991		-109.375000
9992		-101.562500
9993		-113.281250
9994		-103.515625
9995		-115.234375
9996		-105.468750
9997		-119.140625
9998		-111.328125
9999		-121.093750
10000		-111.328125
